#   1 NUMBER                 Running object number                                     
#   2 MAG_AUTO               Kron-like elliptical aperture magnitude                    [mag]
#   3 X_IMAGE                Object position along x                                    [pixel]
#   4 Y_IMAGE                Object position along y                                    [pixel]
#   5 X_WORLD                Barycenter position along world x axis                     [deg]
#   6 Y_WORLD                Barycenter position along world y axis                     [deg]
#   7 A_WORLD                Profile RMS along major axis (world units)                 [deg]
#   8 B_WORLD                Profile RMS along minor axis (world units)                 [deg]
#   9 THETA_WORLD            Position angle (CCW/world-x)                               [deg]
#  10 FWHM_WORLD             FWHM assuming a gaussian core                              [deg]
#  11 ELONGATION             A_IMAGE/B_IMAGE                                           
#  12 ELLIPTICITY            1 - B_IMAGE/A_IMAGE                                       
         1 -11.2812      1.9795     21.7162   9.4821545976e+01   7.0998391581e+01    0.4044565    0.1816504 -51.14  0.002247569    2.006    0.502
         2 -10.5375    229.5091     21.4971   3.4673655236e+01   2.6110062196e+01    0.2970277    0.1333911 -64.17  0.001140858    2.418    0.586
         3 -11.1684     74.1391     18.8299   6.0755519981e+01   6.1814558438e+01    0.4464182    0.3626101  15.54  0.002826379    1.093    0.085
         4 -11.9963     30.3946      7.4570   7.3063592569e+01   7.0280640171e+01    0.4251561    0.3731131 -22.18  0.003122425    1.472    0.321
         5 -10.9965     38.2694      7.0565   6.9154475591e+01   6.9229417033e+01    0.4169806      0.28384  22.83   0.00165183    1.245    0.197
         6 -11.4905     36.8185     18.6922   7.5437714746e+01   6.7972414437e+01     0.456903    0.2837249  45.77  0.001030139    2.198    0.545
         7 -11.4504     34.4136     12.6116   7.3686275970e+01   6.9100829693e+01    0.3864271     0.268225  -2.78   0.00241667    1.257    0.205
         8 -10.8804     20.7967      2.1915   7.5229602433e+01   7.2128124705e+01    0.3185406    0.1720093  16.32  0.001605995    1.775    0.437
         9 -10.9874     13.5684     15.6473   8.5826484710e+01   7.1060244462e+01     0.363566    0.2573504 -31.13  0.001963424    1.242    0.195
        10 -11.0582     14.6095      7.6130   8.1417465160e+01   7.2117336313e+01    0.3397278    0.2605808  11.33  0.001794533    1.249    0.199
        11 -11.6664    234.8366     15.0554   3.2895964578e+01   2.5729210327e+01    0.2263936    0.1756357 -68.20 0.0002910462    1.042    0.040
        12  -9.9455     89.5671     13.5543   5.3946147479e+01   5.9259299369e+01     0.247076    0.1695288  39.64  0.001042421    1.257    0.205
        13 -10.0722     85.4953     13.0133   5.4854573073e+01   6.0161930589e+01    0.3001406    0.1803181   9.05  0.001524938    2.025    0.506
        14 -11.4947     66.1357     13.6746   6.1218066822e+01   6.3883430958e+01    0.2635171     0.241942 -52.22 0.0006031566    1.552    0.356
        15  -9.6060     99.3485     13.7931   5.1511501926e+01   5.7133040705e+01    0.2777372      0.14364  12.33  0.001152164    3.049    0.672
        16 -11.3979    135.3051     10.6053   4.3083588231e+01   4.9143151493e+01    0.3170302    0.2027408  36.14  0.001682394    1.702    0.412
        17  -9.7528      3.9783     10.7472   8.9033939593e+01   7.2623250173e+01    0.1434142    0.1074013  -3.39  0.000402189    1.162    0.140
        18  -9.9989     45.8479     10.1315   6.7357064552e+01   6.7731840647e+01    0.1660247    0.1440077   7.62 0.0003601392    1.193    0.162
        19 -10.4924     22.6249      9.5244   7.8038188876e+01   7.0984004385e+01    0.3318789    0.1654034  15.54  0.001773535    2.162    0.538
        20 -11.6573    187.5442      7.2597   3.5324169519e+01   3.7019317550e+01    0.4806091    0.2395172  53.77  0.002402002    2.058    0.514
        21 -10.7185     56.6187      8.3515   6.2213603003e+01   6.6144732798e+01    0.2928642    0.2549968 -56.61  0.001686418    1.825    0.452
        22 -11.1055     57.6786      2.6878   5.9133788769e+01   6.6509825424e+01    0.3761166    0.2417813  18.66 0.0002019426    1.444    0.307
        23  -9.9609    204.4594      6.9736   3.3654313001e+01   3.3176620186e+01     0.166554     0.114542 -37.02 0.0003058202    1.523    0.343
        24  -9.2931    123.5069      7.4902   4.4115973420e+01   5.2203958610e+01    0.1293983    0.1120662  59.51 0.0008104877    1.021    0.020
        25 -10.9782    151.1002      5.0716   3.9016128221e+01   4.5858647884e+01    0.3550631    0.1441741 -30.87  0.001410295    2.606    0.616
        26 -10.4409     65.7551      6.5859   5.8152017484e+01   6.4670168659e+01    0.2414133   0.09639562  46.69  0.001137801    2.101    0.524
        27 -10.0301      2.6100      6.4988   8.7850544458e+01   7.3365118217e+01    0.1956793   0.09409038  19.26  0.000650066    2.024    0.506
        28 -10.4367    119.9888      3.6774   4.3458633523e+01   5.3339730238e+01    0.2620777    0.2066176  87.06  0.001591348    1.371    0.271
        29  -9.2543    104.4637      4.4675   4.6805885148e+01   5.6822633159e+01    0.1749252    0.1129511 -35.00 0.0001816743    1.801    0.445
        30 -10.2112    102.3945      1.5365   4.6150770605e+01   5.7515843115e+01    0.3387768    0.1549366  58.01  0.001263592    1.786    0.440
        31 -10.1210     83.7062      4.2977   5.1740184238e+01   6.1325144942e+01    0.2610396    0.1705725  66.01  0.001448193    1.696    0.410
        32 -11.4682     80.4449      1.4338   5.1416582580e+01   6.2232456731e+01    0.3023903    0.1495414  53.99 0.0005778408    1.717    0.418
        33 -10.0460     72.0043      2.2468   5.4199728172e+01   6.3860141799e+01    0.2295772     0.180917 -55.72 0.0007182716    1.910    0.476
        34  -8.9697     49.6582      3.2500   6.2427491457e+01   6.7843863636e+01    0.1004793   0.09253944  55.09 0.0002334959    1.573    0.364
        35 -10.6746    126.0147     11.0267   4.4845349899e+01   5.1304283640e+01    0.1962242    0.1645163  51.36            0    1.062    0.059
        36  -9.9742    176.3555      2.3448   3.5246153090e+01   4.0096157754e+01    0.1901831    0.1302753  44.43   0.00109221    1.683    0.406
        37 -10.6953     11.6576      1.7754   8.0088703931e+01   7.3195819939e+01    0.1776425    0.1347479  20.63 0.0007642705    1.422    0.297
        38 -10.4050      1.4281    191.4565   1.2268272602e+02   3.3152508013e+01    0.2562566    0.1083643 -89.77  0.000687767    2.142    0.533
        39 -10.4988     30.8040    250.6754   1.2058123101e+02   1.8012147824e+01    0.2205984   0.08973303  38.03 0.0005792346    2.105    0.525
        40 -11.9551     18.0000    249.0384   1.2278458637e+02   1.9691010967e+01    0.2870174    0.2499446   8.36  0.002174445    1.831    0.454
        41 -10.1540      1.5352    249.4916   1.2566242352e+02   2.1235875130e+01    0.1963841    0.1267475  83.81  0.001171555    1.262    0.208
        42 -10.5541      1.6892    246.3080   1.2549981569e+02   2.1817256673e+01    0.2062865    0.1098414  66.05 0.0007840566    1.451    0.311
        43 -10.1685      5.8966    192.0453   1.2177002797e+02   3.2650815478e+01     0.191525    0.1296013  72.44  0.001220946    1.248    0.199
        44  -9.4063     22.0403    180.0033   1.1721590428e+02   3.3968115591e+01    0.1499661    0.1270645  80.16  0.000514438    1.052    0.049
        45  -9.1072     13.3308    180.6725   1.1929093510e+02   3.4602744726e+01    0.1327148   0.07461253  66.45 0.0004742926    1.711    0.415
        46 -10.3483      4.2552    167.5701   1.2036008607e+02   3.8396069073e+01    0.1430412    0.1203929  -3.53  0.000955932    1.650    0.394
        47  -9.6270    226.4508    163.9868   6.6578664568e+01   4.1892345438e+00    0.2075738    0.1211388 -35.85 0.0006529854    1.544    0.352
        48  -9.3516    247.3165    155.3102   6.1268140976e+01   2.1937061150e+00    0.1328307   0.09305104  -6.45 0.0007032366    1.637    0.389
        49 -10.8917      4.4672    153.6456   1.1913672274e+02   4.1674053012e+01     0.442439    0.1605872  21.94  0.001989664    3.309    0.698
        50 -10.8841     22.3244    146.7822   1.1372253461e+02   4.1938584579e+01    0.2531877    0.2085194 -18.45 0.0008570594    1.549    0.355
        51  -9.3404    236.3488    139.3076   5.9690011297e+01   6.7423731475e+00    0.1379763    0.1005736  -1.73 0.0005052961    1.706    0.414
        52  -9.3089     24.6683    138.6805   1.1206068303e+02   4.3728577460e+01    0.1363667   0.08632906 -42.94 0.0007048584    1.693    0.409
        53 -10.1880    212.4958    133.9277   6.2586317959e+01   1.2151947527e+01    0.2430946    0.2052648  75.60 0.0006621597    1.505    0.335
        54  -9.2746     95.9997    133.9870   9.0242735379e+01   3.5646338876e+01    0.1848995    0.1741412 -55.20  0.000581453    1.026    0.025
        55 -10.1092      3.2265    133.3501   1.1749624676e+02   4.6626607007e+01      0.28226    0.1437217  66.81  0.001366543    2.342    0.573
        56 -10.5788     12.0057    129.9893   1.1461096994e+02   4.6856002495e+01    0.2061712    0.1341103  73.49  0.001130844    1.680    0.405
        57  -9.5683     28.5840    128.2558   1.0945249485e+02   4.5957702955e+01    0.1802745    0.1056773 -58.68 0.0002640243    1.442    0.307
        58 -10.8790     24.1673    121.9342   1.0985420692e+02   4.7894238179e+01    0.2458895     0.195953  28.63  0.000442897    1.458    0.314
        59 -10.9167     18.3025    121.2528   1.1156830182e+02   4.8526059686e+01    0.3448983    0.1418254 -47.51 0.0005157107    2.275    0.561
        60 -11.0354     10.2146    120.2186   1.1390713407e+02   4.9350463156e+01    0.3010897    0.1800776 -66.66  0.001102133    1.343    0.256
        61  -9.8484     69.1685    116.8308   9.4569040363e+01   4.4088414177e+01    0.2002268    0.1606839 -32.23 0.0002984838    1.295    0.228
        62 -10.2322      1.8879    114.1398   1.1568393801e+02   5.1316375259e+01    0.1802114    0.1449865 -86.36 0.0003145587    1.174    0.148
        63  -9.2085    127.5633    112.5247   7.6125084452e+01   3.4577643180e+01    0.1542337    0.1511465 -47.26  8.86294e-05    1.030    0.029
        64 -10.5446     65.0664    110.0549   9.4354875363e+01   4.6305479052e+01    0.2424485    0.2048838 -68.75 0.0003943812    1.221    0.181
        65 -10.6134     13.2729    109.0048   1.1135490236e+02   5.1851674040e+01    0.1848474    0.1440617 -65.30 0.0005715825    1.059    0.056
        66  -9.3004    139.4353    112.4198   7.3000195355e+01   3.2060316774e+01     0.152675    0.1513906 -46.82 1.998107e-05    1.023    0.022
        67 -10.7326     57.5422    107.8146   9.6335433941e+01   4.7849450730e+01    0.2407348    0.1980756  23.67 0.0005357516    1.331    0.249
        68 -10.1682     26.6736    107.3306   1.0663613468e+02   5.1241282104e+01    0.1322176   0.09576388  72.16 0.0004940578    1.708    0.414
        69  -9.0076    133.2938    104.2634   7.2392192908e+01   3.5133673138e+01    0.1507305    0.1220979   5.44            0    1.504    0.335
        70  -9.9933     17.2401    104.6443   1.0934399456e+02   5.2621660946e+01     0.157218    0.1177816 -10.08 0.0002806225    1.583    0.368
        71  -9.9983      1.3834    103.8706   1.1449565321e+02   5.3781728562e+01    0.1942227   0.08171225 -59.86 0.0009499553    1.768    0.434
        72  -9.4755    186.7083    102.9980   6.0023520095e+01   2.3366631584e+01    0.2106647    0.1846944 -42.76 0.0005610338    1.090    0.083
        73 -12.1983     20.6361     93.0358   1.0606319474e+02   5.5120380656e+01    0.4026242    0.2477451 -29.27 0.0005841922    1.736    0.424
        74 -10.6465     24.2108     88.0806   1.0374366477e+02   5.5992763079e+01    0.3386449    0.1799093 -59.00 0.0008670671    1.573    0.364
        75  -9.6133      3.4684     95.4854   1.1256555136e+02   5.5641428203e+01     0.125526   0.09988447 -60.34 7.408124e-05    1.002    0.002
        76 -11.9168    125.2274     93.3113   7.1461931354e+01   3.9165595926e+01    0.2689794    0.2643923  21.00 0.0002185168    1.020    0.020
        77  -9.6300     78.9496     93.9785   8.5658648126e+01   4.7947937579e+01    0.2208599    0.1668702 -11.98 0.0003844802    1.556    0.358
        78 -11.7066     58.0369     91.6208   9.2226947114e+01   5.1580638181e+01    0.3129891    0.2352329 -34.12 0.0003652632    1.271    0.213
        79 -10.3020     11.4731     92.6395   1.0927865899e+02   5.5844406228e+01     0.304214    0.1572396  78.80  0.001234367    3.511    0.715
        80  -9.8434     67.0083     92.1274   8.9212224378e+01   5.0214799049e+01    0.2600366    0.1916086  52.23   0.00130457    1.667    0.400
        81 -10.0215     50.9989     91.9938   9.4835742877e+01   5.2388811624e+01     0.207839    0.1685588  75.96 0.0006670284    1.646    0.393
        82  -9.9576     28.5394     92.1944   1.0302784609e+02   5.4676640307e+01     0.236635    0.1786898  14.33  0.001359915    1.510    0.338
        83 -10.4148      6.9667     91.2168   1.1064086004e+02   5.6443745148e+01     0.219379    0.1393726 -57.01            0    1.239    0.193
        84 -10.2623     44.1926     89.5939   9.6707456430e+01   5.3731229025e+01    0.3121527    0.1833847  48.73  0.001455505    2.266    0.559
        85 -10.3276     64.5804     87.7915   8.8877033882e+01   5.1538176464e+01    0.2907328    0.1230063 -47.93  0.001154047    2.139    0.533
        86 -11.5839     10.4874     85.7883   1.0838325373e+02   5.7489286284e+01    0.4417185    0.2813587  59.92  0.002375201    2.215    0.549
        87  -9.5837     19.3448     87.0565   1.0533885694e+02   5.6603453786e+01    0.1842706    0.1088488 -74.72 0.0009316813    1.816    0.449
        88  -9.3412    124.4806     86.4781   6.9671405114e+01   4.0700876414e+01    0.1518344     0.146709   5.42 0.0002415925    1.023    0.023
        89 -11.9229     55.4118     85.7791   9.1618127548e+01   5.3242153071e+01    0.2455727    0.2332846  20.58 0.0002464593    1.166    0.142
        90  -9.8795    146.0299     83.3101   6.3334183414e+01   3.6426272954e+01    0.2062787    0.1890891  56.04  0.000316187    1.092    0.084
        91 -10.1135    139.0786     82.7406   6.4828327390e+01   3.8138526416e+01    0.2106708    0.1886775  42.15            0    1.110    0.099
        92  -9.6499     42.8427     82.3485   9.5374166605e+01   5.5519927776e+01    0.2830669   0.09165877 -57.71  0.001014333    2.962    0.662
        93  -9.3495    250.3455     80.7290   4.5157512380e+01   1.3783575743e+01    0.1299453    0.0870929 -66.83 0.0006179147    1.618    0.382
        94  -9.6765     88.6488     79.7871   7.8288691796e+01   4.9305765372e+01    0.3603255     0.236362  76.61  0.001307154    3.503    0.715
        95  -9.3566    124.4638     79.4640   6.7574771075e+01   4.2058689471e+01    0.1483262    0.1462623  20.23 0.0001384792    1.026    0.025
        96  -9.4528     47.8884     79.1545   9.2601696516e+01   5.5644307942e+01    0.1843051    0.1391319 -27.45  0.000351581    1.267    0.210
        97 -11.1009      7.3565     76.6484   1.0778892737e+02   5.9741395568e+01    0.2772945    0.1883307  67.24 0.0008270405    2.123    0.529
        98 -10.0424    176.9291     76.9637   5.5108987711e+01   3.0274893280e+01    0.2298298      0.21806 -79.68 0.0009572002    1.028    0.028
        99  -9.8952    159.6129     77.0595   5.8546439463e+01   3.4358279462e+01    0.2281228    0.1939865  54.39 0.0004945204    1.166    0.142
       100 -11.1484     54.7770     75.5785   8.8967349035e+01   5.5546582517e+01    0.3818292    0.2579846 -10.66 0.0003676055    1.763    0.433
       101  -9.9573     28.1470     77.1066   9.9712741817e+01   5.8144786092e+01     0.189121    0.1444265 -34.51  0.000314794    1.160    0.138
       102  -9.8255     20.5739     71.7368   1.0141326228e+02   5.9949664523e+01    0.2925899    0.1044571 -59.29  0.001242404    2.384    0.581
       103 -11.0101     15.8420     75.3832   1.0417351420e+02   5.9492024249e+01    0.3187868    0.2265174  17.43  0.001943416    1.612    0.380
       104 -11.3354     35.4511     73.7959   9.5964321961e+01   5.8181609089e+01    0.4582604    0.3462003  30.97  0.002305152    1.507    0.337
       105 -12.4236    106.0310     70.9856   7.0085727823e+01   4.7611760587e+01    0.3224764    0.2987751  84.32 0.0004601755    1.289    0.224
       106 -10.9602     10.3799     69.3125   1.0500065827e+02   6.1182116945e+01    0.3514175    0.1591357 -53.29  0.001473879    1.679    0.404
       107  -9.5009    100.0425     70.4937   7.1726136884e+01   4.8928774906e+01    0.1971795    0.1414391  43.11 -0.000154762    1.389    0.280
       108 -10.5370     45.7378     69.5563   9.0670361830e+01   5.7951917976e+01    0.2487096    0.1971566   7.35  0.000810397    1.298    0.230
       109 -10.0789     77.5507     67.7106   7.8172877907e+01   5.3668108502e+01    0.3626843    0.1848589 -33.55  0.001527393    2.074    0.518
       110 -10.3746     80.6139     67.1732   7.6935584157e+01   5.3236255312e+01    0.3133441    0.2100481  -9.75   0.00141328    1.918    0.479
       111 -11.4004      5.1733     68.5072   1.0695757285e+02   6.1656378788e+01    0.2379569    0.1504873 -82.86  0.001214269    1.966    0.491
       112 -10.3497     51.7537     66.1205   8.7238053425e+01   5.7903606089e+01    0.2557279    0.1858394 -14.23 0.0003728085    1.424    0.298
       113 -11.0034     14.9461     63.6728   1.0172771677e+02   6.2095862971e+01     0.337124    0.2336409 -36.19  0.001036555    1.212    0.175
       114  -8.9875    120.2796     68.7243   6.5357417372e+01   4.4949194498e+01    0.1392071    0.1175951 -82.24            0    1.500    0.333
       115 -10.4563     96.8012     64.0482   7.0596688680e+01   5.0754921948e+01    0.2571571    0.1964211  31.46            0    1.292    0.226
       116 -10.4633     62.6290     62.4249   8.1829975790e+01   5.7096430204e+01    0.2701012    0.1509317 -41.96  0.001195981    1.684    0.406
       117  -9.6153     38.7255     61.4348   9.1028941637e+01   6.0424177188e+01    0.1727167    0.1172672   3.94 0.0009408233    1.597    0.374
       118  -9.5801     41.4950     58.5017   8.8938692663e+01   6.0693118996e+01    0.1980506    0.1039257 -38.53 -9.057347e-05    1.706    0.414
       119 -13.1625     20.5431     57.8694   9.7732222651e+01   6.2885787704e+01    0.3920966    0.2525013 -57.40  0.001005457    1.493    0.330
       120 -11.0188     83.5213     56.5223   7.2294013632e+01   5.4641605297e+01    0.3408498    0.2744048 -59.83  0.001712422    1.638    0.390
       121 -11.7916     86.7150     54.2031   7.0410269065e+01   5.4433215388e+01     0.448743    0.3001423  21.42  0.001165193    1.668    0.400
       122 -10.6757      9.9982     58.5988   1.0255804750e+02   6.3488987330e+01    0.2752833    0.2202136 -19.37  0.001862388    1.198    0.166
       123  -9.4071    109.2754     58.3403   6.4982301885e+01   4.9134851187e+01    0.1957007    0.1317596  54.61 0.0009051947    1.551    0.355
       124 -10.1339     49.5080     58.3462   8.5593708398e+01   5.9730799090e+01    0.3228754    0.1234329  27.20  0.001274782    2.964    0.663
       125 -11.1067      4.7851     57.5274   1.0457707863e+02   6.4017586160e+01    0.1979696    0.1451456 -31.15 0.0008679167    1.182    0.154
       126 -10.2426     71.5802     56.6406   7.6508853677e+01   5.6738178704e+01    0.2493713    0.1277004 -41.28   0.00109915    1.917    0.478
       127 -10.2785     32.5536     56.2279   9.2000471022e+01   6.2120342984e+01    0.2888595    0.1502825 -28.00  0.001082512    2.025    0.506
       128 -10.3243    104.6815     55.9591   6.5484143580e+01   5.0509066721e+01    0.1949337    0.1789604 -13.52 0.0003919405    1.089    0.082
       129 -10.5244     96.3397     55.9009   6.7951500425e+01   5.2251200136e+01     0.260466    0.1963136  33.79 0.0005868549    1.280    0.218
       130 -10.5982    114.5574     53.9123   6.2044994933e+01   4.8687845192e+01    0.2849862    0.2614793  11.54  0.001014303    1.081    0.075
       131 -11.6747     66.0913     52.7232   7.7130516121e+01   5.8337324302e+01    0.4183401    0.2096231  37.04  0.001459121    1.997    0.499
       132  -9.7597    149.4087     52.2255   5.3407143483e+01   4.0800513411e+01    0.1886516    0.1324477 -45.56 0.0004488447    1.496    0.332
       133 -10.8925    106.0331     50.5528   6.3231901808e+01   5.1076413127e+01    0.3266403    0.1992223 -24.18  0.000913891    1.835    0.455
       134  -9.8590    108.3013     47.7196   6.1615672183e+01   5.1012688137e+01    0.1987862     0.157918  19.12 0.0001992341    1.323    0.244
       135  -9.2222    121.6747     51.2883   5.9332040770e+01   4.7484554453e+01      0.13993    0.1131737 -82.10  0.000392046    1.609    0.379
       136  -9.8345      4.0470     50.9260   1.0321155693e+02   6.5414787433e+01    0.2030867    0.1010199 -36.31 0.0007314102    1.671    0.402
       137  -9.8521     76.2083     49.7541   7.2365390809e+01   5.7119600136e+01    0.1888986    0.1801633   9.87  0.000517302    1.161    0.139
       138 -10.0999     37.5772     48.9277   8.7368306797e+01   6.2975796167e+01    0.2499223    0.1573905   4.72  0.001340371    1.752    0.429
       139 -10.1350    101.9976     48.2659   6.3580164344e+01   5.2289144052e+01    0.1971492    0.1678841  38.15  0.000406578    1.103    0.094
       140  -9.0068    168.4928     52.5073   4.9924088632e+01   3.6146362098e+01    0.1402284    0.1332035  62.97 -0.0001164661    1.069    0.064
       141 -11.0229     10.2719     47.2420   9.9274054603e+01   6.5772392035e+01    0.3791006    0.3042938   9.77   0.00261868    1.371    0.271
       142 -10.9618     17.4426     44.3553   9.4982652823e+01   6.5802751729e+01      0.39361    0.2327536  31.74  0.002250515    2.004    0.501
       143  -9.3546    154.5235     47.4915   5.1001595740e+01   4.0242353428e+01     0.222608    0.1394906 -34.15 0.0005673182    1.672    0.402
       144 -10.1428    152.1181     44.5659   5.0583911727e+01   4.1228868631e+01    0.2036294    0.1795055 -78.28 0.0002497215    1.188    0.158
       145  -9.1837     47.6348     47.2409   8.2451079701e+01   6.2032364372e+01    0.1153762    0.1007156  51.66 0.0003359411    1.604    0.377
       146  -9.8512    135.9823     46.5019   5.4442388552e+01   4.4838808543e+01    0.2175678    0.1339624  58.59  0.001016256    1.548    0.354
       147 -10.7599     78.9457     45.7329   6.9918833010e+01   5.7270701425e+01     0.220358     0.186234 -30.34 0.0002672894    1.225    0.184
       148  -9.4474     31.0306     46.0063   8.9250457185e+01   6.4234750498e+01    0.1521824    0.1239361 -20.34 0.0004346849    1.010    0.010
       149 -10.5972     25.4205     43.7793   9.1042244114e+01   6.5208001176e+01    0.2365738    0.1979881 -72.28  0.001215004    1.771    0.436
       150  -9.7755     69.1161     42.0914   7.2016600230e+01   5.9596891582e+01    0.2042177    0.1599774   4.45 0.0004958948    1.225    0.184
       151 -10.5638     59.1713     41.5544   7.5589156275e+01   6.1318758120e+01    0.2756453     0.187552  44.84  0.001362819    1.707    0.414
       152 -10.5154     36.0781     41.6497   8.5387868823e+01   6.4463485690e+01    0.3600348    0.1519765 -43.39  0.001292484    2.125    0.529
       153 -10.8720     44.9589     26.6172   7.5324953790e+01   6.5729592477e+01    0.3499492     0.208114  23.05  0.001163709    1.628    0.386
       154 -10.9001     47.3694     32.9363   7.6964674203e+01   6.4441694785e+01     0.452269    0.3325897  45.66  0.002666502    1.767    0.434
       155 -12.9640     39.9764     32.4169   7.9991964274e+01   6.5528026286e+01    0.3538056    0.2652806 -21.48 0.0005247563    1.156    0.135
       156  -9.9079     35.1492     28.8849   8.0725190459e+01   6.6693592699e+01    0.1837386    0.1330243  -5.73            0    1.222    0.182
       157  -9.8340    201.1810     41.1669   4.2114975659e+01   2.9956155176e+01    0.1923147    0.1397461 -66.43 0.0004790687    1.344    0.256
       158  -9.9143    139.8597     40.6587   5.1780814606e+01   4.4709241321e+01    0.3169006     0.162207  66.53   0.00133196    2.083    0.520
       159 -10.7521    128.0752     38.6754   5.3642962279e+01   4.7769365529e+01    0.2504321    0.1988733 -39.43 0.0004599288    1.361    0.265
       160  -9.6323     43.0347     40.5399   8.1885233407e+01   6.3799616031e+01     0.182267    0.1163848  26.74  0.001018847    1.558    0.358
       161  -9.5546    168.4756     39.0102   4.6151727030e+01   3.7998071762e+01    0.1935493    0.1348666 -34.50 0.0004550651    1.512    0.339
       162  -9.9995    152.2005     39.1590   4.8952688159e+01   4.1926759993e+01    0.2116305    0.1804963  39.59 0.0006410358    1.228    0.186
       163 -11.9402    121.2068     37.3152   5.4751161627e+01   4.9548034442e+01    0.4095007    0.3627578  32.43  0.001225816    1.091    0.083
       164 -10.4486     22.0839     38.2346   9.0641224310e+01   6.6532164605e+01      0.20228    0.1471016 -35.03 0.0005817739    1.158    0.137
       165 -10.7537     96.9846     37.7136   6.1205098942e+01   5.4868482493e+01    0.2379936    0.1967678 -19.74  0.001372773    1.248    0.199
       166  -9.1800    223.7241     36.3439   3.8443956707e+01   2.5536992026e+01    0.1350788   0.08043322 -62.14 0.0003447699    1.624    0.384
       167 -10.8985     27.1810     34.8189   8.6905332528e+01   6.6629233305e+01    0.2986665    0.1705607 -20.80  0.001095392    1.746    0.427
       168 -10.7240     91.1108     33.8360   6.1474985841e+01   5.6610271781e+01     0.411862    0.2699411   8.62  0.002032262    1.887    0.470
       169 -10.4388      2.4477     35.1354   9.9338311679e+01   6.8578017728e+01    0.2141442    0.1389364  32.85  0.001347383    2.014    0.504
       170  -9.4907    241.8289     33.1583   3.6051414683e+01   2.2136173028e+01    0.1425159    0.1359521 -69.80 0.0002993412    1.271    0.213
       171  -9.4775     55.3919     33.2295   7.3751344489e+01   6.3201465375e+01    0.1531514    0.1145839 -34.74 0.0001988088    1.394    0.283
       172 -10.3652     17.6686     32.5329   9.0689355307e+01   6.7938336234e+01    0.3147283    0.1623856  -1.73  0.001329658    2.337    0.572
       173 -10.4474      7.4137     34.2978   9.6524079816e+01   6.8420348447e+01    0.1981388     0.182561 -24.31  0.001049984    1.301    0.231
       174  -9.0507    162.4872     31.5645   4.4994980534e+01   4.0375775964e+01    0.1363997    0.1213599  57.96  8.73118e-05    1.107    0.097
       175 -10.0462    127.8521     30.5799   5.1008796615e+01   4.8829453586e+01    0.3227188    0.1950924  69.29  0.001010642    1.760    0.432
       176 -11.8947     10.0481     29.5338   9.3456067571e+01   6.9084195772e+01    0.5049683    0.2464075  39.65  0.002538766    3.183    0.686
       177 -11.9783      4.8213    240.5129   1.2469299775e+02   2.2625168858e+01    0.4907487    0.1427363  45.33  0.002536728    2.463    0.594
       178  -9.7893      6.0562     20.7521   9.2174416077e+01   7.0876520800e+01    0.3571062    0.2000065 -21.71  0.002181989    1.563    0.360
       179 -10.9268     69.5174     27.4774   6.5985061279e+01   6.1624010002e+01    0.3568581    0.2978355 -80.42   0.00203845    2.080    0.519
       180 -10.6346    113.7895     25.9496   5.2535680387e+01   5.2630473859e+01    0.2768841    0.1969096 -41.39  0.001500985    1.603    0.376
       181  -9.7221    102.0088     25.5017   5.5269631024e+01   5.5317743785e+01    0.2148915    0.1217137  55.42 0.0003422444    1.640    0.390
       182  -9.5124     59.2110     24.8040   6.8670462750e+01   6.3769288639e+01     0.269737   0.08715301 -39.76  0.001040544    3.497    0.714
       183 -11.0077     14.9642     22.3056   8.7989588327e+01   6.9892581639e+01    0.4344685    0.2886841  24.08  0.002842661    1.608    0.378
       184  -9.8722     20.0578     17.5038   8.3189665064e+01   7.0142566220e+01    0.2572891    0.1264934 -28.17  0.001407485    1.850    0.459
       185 -10.1615     35.6513     23.1280   7.7993942286e+01   6.7498966114e+01    0.2643607    0.1723242  11.91  0.001579981    1.454    0.312
       186 -12.3596      9.4031    245.2208   1.2410957067e+02   2.1280921160e+01    0.3942539    0.2610919  48.07  0.002831681    1.319    0.242
       187 -10.0011    229.7905    247.8930   8.1438066439e+01  -9.1826719008e+00    0.1723595    0.1254109   0.99 0.0004615904    1.113    0.102
       188  -9.9857     70.6774     17.3258   6.1264347818e+01   6.2639813060e+01    0.2107921    0.1532334 -35.21  0.001248639    1.601    0.375
       189  -9.4456     54.5018     22.0145   6.9302069690e+01   6.4908581593e+01    0.1660455   0.09533454  -3.80 0.0003745382    2.192    0.544
       190  -9.7852    189.9713     20.7389   3.8404816378e+01   3.5048496605e+01    0.1837484    0.1455345  81.11 0.0004129507    1.128    0.113
       191 -10.2462    181.5066     20.9903   3.9469291112e+01   3.7016617226e+01    0.1799003    0.1289278 -30.48 0.0005330945    1.549    0.354
       192  -9.4254    100.9887     21.2061   5.3919117926e+01   5.6018450190e+01    0.1941549    0.1355265  11.38 0.0007028059    1.633    0.388
       193  -9.3625     84.0296     21.2064   5.8628228882e+01   5.9598542167e+01    0.1758084   0.09317043  49.50 0.0008589238    1.704    0.413
       194 -10.4181    225.0429    247.5724   8.2241913370e+01  -8.5280283889e+00     0.225841    0.1571541 -23.23  0.001487183    1.387    0.279
       195  -9.3618    170.6058    247.1768   9.2572136436e+01  -7.8982488888e-01    0.1600049    0.1108395 -25.25 0.0006778763    1.655    0.396
       196  -9.6649    116.1440    246.7703   1.0356686456e+02   7.4956001343e+00    0.1592595    0.1395649  13.68  0.000751907    1.295    0.228
       197 -10.6828      5.7951    250.3867   1.2497535561e+02   2.0661488255e+01     0.242637    0.1485665  42.25  0.001272064    1.500    0.333
       198  -9.9469     58.9952     19.4159   6.6386716406e+01   6.4489880394e+01    0.2215053    0.1728145  35.59 0.0008460724    1.248    0.199
       199 -10.6872    140.8289     18.1868   4.4542979271e+01   4.7094098933e+01    0.2598259    0.1903981  74.05 0.0006928887    1.295    0.228
       200 -10.3384    208.9774     18.4682   3.5867808856e+01   3.0939240419e+01    0.1818588   0.08942969 -78.20 0.0006923758    2.442    0.591
       201 -11.0649    201.2937     16.8198   3.6240217959e+01   3.2860730539e+01    0.3399135    0.1003872  60.43  0.001357988    2.976    0.664
       202 -10.2070    125.1806     17.1873   4.7069261635e+01   5.0916108239e+01    0.1957528      0.15894  42.19 0.0003625118    1.160    0.138
       203  -9.5458    202.4596    240.4694   8.5311463846e+01  -4.4595075418e+00    0.1254636   0.09980395  10.03 0.0001109695    1.030    0.030
       204 -10.0668    117.4195    239.7122   1.0245243047e+02   8.5778700995e+00    0.1527587    0.1212812 -42.97 0.0004083774    1.511    0.338
       205  -9.8199     35.9768    240.4775   1.1897143349e+02   1.9390003656e+01    0.1669842   0.09764915  40.34 0.0005119265    1.545    0.353
       206 -11.4615     14.5315    239.3427   1.2289324185e+02   2.1903260250e+01     0.210049    0.1194685  71.27   0.00104149    1.452    0.311
       207  -9.4981    148.7738    237.9727   9.5684371993e+01   4.0521256171e+00    0.1557775    0.1078203 -47.30 0.0008802323    1.671    0.402
       208 -10.0453     82.6286     15.7632   5.6816669951e+01   6.0471456258e+01     0.224387    0.1630649  14.42  0.000701294    1.378    0.274
       209 -10.0621     91.0868    237.2846   1.0766373469e+02   1.2921732348e+01    0.1835835    0.1664349 -57.27 0.0004246573    1.313    0.238
       210 -10.5827     30.4976     21.0835   7.9536521506e+01   6.8440382785e+01      0.24706    0.1475324  22.24  0.001008721    1.586    0.370
       211 -10.4434    156.3398     15.1422   4.1205136455e+01   4.3663886876e+01    0.3308135    0.1340563  59.02  0.001447537    2.077    0.519
       212 -11.5142     25.4395    236.2048   1.2069059057e+02   2.1391513202e+01    0.2265275    0.1599586  53.97 0.0006480019    1.186    0.157
       213  -9.7494     97.2363     22.0126   5.5203421439e+01   5.6746439577e+01     0.174523    0.1532333  23.39            0    1.064    0.061
       214  -9.7347    249.3307    233.9033   7.5699165457e+01  -9.8351431842e+00    0.1611527    0.1183785  -7.80 0.0004828957    1.074    0.069
       215  -9.0648      7.4114     14.2306   8.8627473730e+01   7.1814916142e+01    0.1170888   0.06606082 -11.27 0.0006889762    1.682    0.406
       216 -10.8776    208.0874     13.0326   3.4709276003e+01   3.1732842814e+01     0.189781    0.1570515 -75.30 0.0004547863    1.028    0.027
       217 -12.0400      3.9756    232.5826   1.2446492100e+02   2.4254538171e+01    0.2731189    0.1863621  68.64  0.001954481    1.109    0.098
       218 -11.4547      9.5174    231.5355   1.2339678965e+02   2.3937965408e+01    0.1891089    0.1624995  20.83  0.001244096    1.659    0.397
       219 -12.6028      9.6659    227.4512   1.2314978912e+02   2.4745424279e+01    0.3958421    0.3120457  77.11  0.002944153    1.074    0.069
       220  -8.9353    243.4802    230.4658   7.6123718859e+01  -8.6478012843e+00    0.1206345   0.09191644  -1.26 0.0004062684    1.011    0.011
       221  -9.7528    209.4955    229.5143   8.2165735296e+01  -3.8615303655e+00    0.1275484    0.1031631   6.46 -7.36876e-05    1.016    0.016
       222 -10.9985    140.5134    228.3062   9.6032253604e+01   7.0741017341e+00    0.2826571    0.2243321 -79.60  0.001620539    1.684    0.406
       223 -11.1593      1.6936    225.0479   1.2451208598e+02   2.5973545267e+01    0.2569414    0.1490255 -86.15  0.001121716    1.453    0.312
       224 -11.0391      2.4586    220.5517   1.2414041307e+02   2.6822789821e+01    0.2881977    0.1324442  81.26  0.001591045    1.945    0.486
       225  -9.0997    167.4775    221.5256   8.9261130050e+01   3.9378014406e+00    0.1341322    0.1172182  19.86 0.0008097035    1.001    0.001
       226 -10.2229      8.4955    218.0247   1.2284658763e+02   2.6794831878e+01    0.2570269    0.1856254  27.85  0.001624006    1.713    0.416
       227  -9.1759     37.3319    216.7375   1.1695237285e+02   2.4104894148e+01    0.1274952    0.0732747  61.47  0.000341283    1.574    0.365
       228 -10.0619    223.1309    226.8690   7.9155522704e+01  -5.4193923703e+00    0.1751126    0.1507863   2.52  0.000335814    1.157    0.135
       229  -9.9997    205.6646    212.7446   7.9988995399e+01  -6.7584911556e-01    0.1995489    0.1460053 -14.91 0.0008060539    1.330    0.248
       230  -9.9222     15.6938    213.5219   1.2115076616e+02   2.7060804974e+01    0.1610278    0.0879887  49.22 0.0009429086    1.594    0.373
       231  -9.1307    249.3438    211.3316   7.1745787666e+01  -6.7732474529e+00    0.1304403   0.07891562  -3.21 0.0007050641    1.755    0.430
       232  -9.6444    209.4924    211.4845   7.9019439333e+01  -1.0646578467e+00    0.1316618    0.1113378   2.37 -2.243589e-05    1.008    0.008
       233  -9.8177     20.2090    209.8608   1.1998488007e+02   2.7403764919e+01    0.1890832    0.1257629  65.86 0.0006181426    1.276    0.216
       234 -10.3586      3.5086    205.9909   1.2313506813e+02   2.9794770518e+01    0.1588841   0.07076614 -57.37 0.0005614269    2.503    0.601
       235  -9.2614    193.5146    202.4306   8.0529948443e+01   3.0117005177e+00    0.1348063    0.1208362   8.98 0.0001768153    1.054    0.051
       236 -10.1986     23.9124    196.5249   1.1819429420e+02   2.9983953615e+01    0.2448249    0.1631336 -53.93  0.001382969    1.715    0.417
       237 -10.1715     13.9409    192.5478   1.2006849831e+02   3.1831967015e+01    0.2118601    0.1322608  77.59 0.0005266269    1.408    0.290
