#   1 NUMBER                 Running object number                                     
#   2 MAG_AUTO               Kron-like elliptical aperture magnitude                    [mag]
#   3 X_IMAGE                Object position along x                                    [pixel]
#   4 Y_IMAGE                Object position along y                                    [pixel]
#   5 X_WORLD                Barycenter position along world x axis                     [deg]
#   6 Y_WORLD                Barycenter position along world y axis                     [deg]
#   7 A_WORLD                Profile RMS along major axis (world units)                 [deg]
#   8 B_WORLD                Profile RMS along minor axis (world units)                 [deg]
#   9 THETA_WORLD            Position angle (CCW/world-x)                               [deg]
#  10 FWHM_WORLD             FWHM assuming a gaussian core                              [deg]
#  11 ELONGATION             A_IMAGE/B_IMAGE                                           
#  12 ELLIPTICITY            1 - B_IMAGE/A_IMAGE                                       
         1 -11.3721      4.8904     89.9104   7.7871642687e+01   5.9368991428e+01    0.6506909     0.297492 -86.49  0.002759565    2.103    0.524
         2 -11.2847     22.2507     53.8928   6.1396010488e+01   6.7343966763e+01    0.4943787    0.2747498 -89.39  0.002008575    2.757    0.637
         3  -9.7312     88.7638     32.9407   2.1317184756e+01   5.9032285193e+01    0.1912709    0.1241488 -33.15 0.0008879857    1.653    0.395
         4  -9.2652     35.2970     11.7266   3.2125926196e+01   7.3962155449e+01    0.1176489    0.1028775  87.64 0.0002681576    1.526    0.345
         5  -9.5982    184.4956    227.4832   4.6456781957e+01   3.3315852706e+00    0.1141389   0.09139936   9.47 8.670737e-05    1.018    0.017
         6  -9.5017    240.4952    225.5036   3.7001787052e+01  -2.7080292446e+00    0.1031518   0.07538475  -4.42 -0.0001945129    1.015    0.015
         7 -10.4837    249.7763    215.0381   3.4107633688e+01  -2.4680683114e+00    0.2961517    0.1197145 -44.60    0.0014515    3.943    0.746
         8  -9.9080     76.6707    213.3434   6.7654797254e+01   2.0261794239e+01    0.1424248   0.08177916  56.71 5.936387e-05    1.748    0.428
         9 -10.0763    236.7495    208.1368   3.4935293673e+01  -2.8685014651e-01    0.1452442    0.1231678 -74.67 0.0009569076    2.896    0.655
        10 -10.5345     98.9903    205.2884   6.1409397661e+01   1.8818237453e+01    0.2613997    0.1566805  77.06  0.001171309    2.641    0.621
        11  -9.8852    124.0000    198.5211   5.4641142203e+01   1.6456209814e+01    0.2666978   0.07697412 -54.39 0.0009331336    3.922    0.745
        12  -9.7930    197.2385    203.9917   4.0663940778e+01   5.0122440610e+00    0.1487165   0.08998328 -35.71 0.0008837917    1.622    0.383
        13 -10.1896     79.0000    198.9906   6.5592149733e+01   2.2956040958e+01    0.2015233   0.07763641 -65.77 0.0007605748    2.933    0.659
        14 -11.6649     88.5211    196.8205   6.2947219064e+01   2.2076764637e+01    0.4505816    0.1826401 -67.66  0.001789556    3.063    0.674
        15 -10.5873    111.8008    196.8007   5.7250871724e+01   1.8639095014e+01    0.2236695    0.1390812  62.13 0.0005864467    2.090    0.522
        16 -10.4183     12.8063    195.5868   8.2421439521e+01   3.1491181110e+01    0.2343337   0.08765891 -78.64  0.001025799    2.634    0.620
        17  -9.4403    215.7065    195.3320   3.6148892789e+01   3.8517185265e+00   0.09802442   0.09115521 -53.84 0.0004348021    1.635    0.388
        18 -11.5533    245.6862    192.4860   3.1147694375e+01   6.3324837168e-01    0.2969139    0.1543966 -41.61  0.001797532    2.073    0.518
        19 -10.0903    224.4924    192.9995   3.4370458948e+01   3.0694508267e+00     0.249632   0.09593026 -42.20  0.001213764    2.712    0.631
        20 -10.5601     76.5987    193.1800   6.5555174384e+01   2.4560581171e+01    0.1824436    0.1248164 -54.53 0.0009525139    1.676    0.403
        21 -10.7991     93.4037    184.2007   6.0083029206e+01   2.4097322123e+01     0.250219    0.1398602 -79.41  0.001054161    2.511    0.602
        22 -10.2958    128.5395    187.5107   5.1947364086e+01   1.7897527993e+01    0.1353476    0.1230078  28.89 0.0001291639    1.008    0.008
        23 -10.4047    249.5101    182.9873   2.9050844030e+01   1.3778470890e+00    0.1600698   0.07483847 -17.56 0.0008105224    2.572    0.611
        24  -9.8781    147.3150    179.6749   4.6426255282e+01   1.6391806566e+01    0.1317185    0.1057842  70.89 0.0004722839    1.667    0.400
        25  -9.9761    249.4908    177.0060   2.8046822233e+01   2.1340249347e+00    0.1450881   0.08192603 -48.93 0.0008102126    2.545    0.607
        26 -10.7625     59.1584    175.1643   6.8241101689e+01   3.1140272692e+01    0.3557697    0.1877573 -67.74   0.00161106    1.963    0.491
        27 -10.3423      2.4738    172.4936   8.4248703396e+01   3.7850125225e+01    0.2438711    0.0963349  77.82  0.001031801    2.371    0.578
        28 -10.4189     76.2428    171.9973   6.3039145689e+01   2.9494657734e+01    0.1855954    0.1211506 -68.23 0.0008905997    1.626    0.385
        29  -9.8239    121.0000    170.0157   5.0891341250e+01   2.2734097904e+01    0.2244739   0.08189357 -53.69 0.0007177619    2.932    0.659
        30 -10.5686     55.0022    168.3087   6.8664918192e+01   3.3375204151e+01    0.3230326    0.1920918 -87.90   0.00148224    1.838    0.456
        31 -10.5655    212.5663    162.8022   3.0960402403e+01   8.9931331000e+00    0.2432469     0.104722 -34.18  0.001147103    2.138    0.532
        32 -10.3693      2.4922    161.9877   8.3814276152e+01   4.0451763847e+01    0.2091357   0.07441413  66.86 0.0008106267    2.628    0.619
        33  -9.8801     91.5066    159.0148   5.6813967253e+01   3.0212700891e+01     0.223051    0.1466834 -63.40   0.00103704    1.605    0.377
        34 -10.0064    218.0000    156.9493   2.9010370457e+01   9.0765079075e+00    0.2036134   0.06055714 -38.26 0.0008037728    2.952    0.661
        35  -9.7728     80.6977    154.3393   5.9164607634e+01   3.3112623724e+01    0.1591062    0.1066885  67.32  0.000502144    1.671    0.401
        36  -9.6422    227.0000    158.0428   2.7858792244e+01   7.6161102774e+00    0.1969832   0.05789228 -37.49 0.0006965653    2.920    0.658
        37 -10.8739    249.1831    149.8340   2.3299338379e+01   5.7323562645e+00     0.259524   0.06298184 -40.09  0.001023621    3.488    0.713
        38  -9.6952    198.4966    148.5142   3.0530886314e+01   1.3450348457e+01    0.1282195    0.1148203 -24.30 1.566576e-05    1.027    0.026
        39 -11.3706      2.4895    140.9876   8.2806822934e+01   4.5846383848e+01    0.5308112    0.1466576  79.24  0.001614093    4.267    0.766
        40 -10.4308     38.2304    146.2243   7.1355124519e+01   4.1147856155e+01    0.2350091    0.1095922 -89.80 0.0008871274    2.474    0.596
        41 -10.0712    148.0297    144.5507   3.9607182470e+01   2.3205678326e+01    0.2892223    0.1828575 -83.45  0.001033344    3.495    0.714
        42 -10.6701     54.5097    144.5156   6.5799466209e+01   3.9539627424e+01    0.3549181    0.2428825  84.02  0.001677411    1.533    0.348
        43  -9.5997    218.6695    144.3136   2.6480093618e+01   1.0890360810e+01    0.1174071   0.09347682 -62.87 0.0007044523    1.676    0.403
        44 -10.3999    105.1895    143.3739   5.0144288848e+01   3.1562617633e+01    0.4101922    0.2027954  67.85  0.001019169    5.888    0.830
        45 -10.0308    197.0000    137.0048   2.8440364776e+01   1.5620889381e+01    0.2204837   0.06822176 -39.71  0.000799739    2.924    0.658
        46 -11.8789     22.3491    133.1736   7.5384262121e+01   4.6314344113e+01    0.8027999    0.3081768 -60.35  0.003126775    2.470    0.595
        47 -11.1162     38.5484    135.2837   6.9928329092e+01   4.4031727386e+01    0.2841716     0.138812 -80.24  0.001139462    2.103    0.525
        48 -10.0273    179.5752    133.8224   3.0840539397e+01   1.9313211104e+01    0.1991214    0.1215195 -51.34 0.0009421423    1.727    0.421
        49 -10.0401    143.4069    131.7151   3.7879110321e+01   2.6760874098e+01    0.3192555    0.2108146 -82.92   0.00125971    2.618    0.618
        50 -10.0243     82.4839    130.9817   5.4434317470e+01   3.8702075082e+01    0.2378619    0.1510883 -62.91 0.0007561263    1.599    0.375
        51  -9.4662    204.4753    130.5148   2.5866055466e+01   1.5400347515e+01    0.1301472    0.1145084 -35.01 0.0001985081    1.035    0.034
        52 -10.9832     53.8920    130.1411   6.3826681726e+01   4.3440552092e+01    0.2718631    0.2120113  27.38   0.00122543    1.376    0.273
        53 -10.0479    168.6672    129.3401   3.1943304847e+01   2.2222421113e+01    0.1446578    0.1112329 -79.50 0.0007051508    1.749    0.428
        54 -10.5292    152.8020    129.0298   3.5164481986e+01   2.5426873448e+01    0.2442213    0.1686702 -72.70  0.001078286    2.021    0.505
        55 -10.1492     98.2403    127.4814   4.8849095894e+01   3.6698379797e+01    0.3770321    0.2257585  85.74   0.00128876    3.053    0.672
        56 -10.6271     38.7823    128.5762   6.8953042556e+01   4.5815179584e+01    0.2139006    0.1234912  41.51 0.0007924009    1.632    0.387
        57 -11.0939     11.4901    127.5540   7.8772203164e+01   4.8760375461e+01    0.4374982    0.1294435 -84.49  0.001430998    3.407    0.706
        58 -10.7246     58.5881    123.5378   6.1037170302e+01   4.4528129473e+01    0.6202011    0.2853837  88.63  0.001687988    4.769    0.790
        59 -10.9984     42.2056    120.3728   6.6478130209e+01   4.7624889423e+01    0.7492836    0.2451809 -81.31  0.001853255    5.598    0.821
        60  -9.2464     75.0090    122.0216   5.5054077885e+01   4.2297588242e+01     0.185009    0.1722239  80.76 0.0003441418    1.012    0.011
        61  -9.8872    172.2986    121.6341   2.9494021294e+01   2.2955014867e+01     0.146105    0.1083279 -71.64 0.0007032705    1.727    0.421
        62 -10.5697     82.7058    120.2371   5.2115552522e+01   4.1400630630e+01    0.2838527    0.2541725 -29.50  0.001444011    1.319    0.242
        63  -9.4921    140.8105    118.3947   3.5376894592e+01   3.0095612962e+01    0.3268709    0.1765245 -71.46 0.0009598648    4.311    0.768
        64 -10.0970     69.0580    135.9113   5.9684249068e+01   3.9657491082e+01    0.2207624    0.2077405  81.10  0.000344553    1.046    0.044
        65 -11.0631      1.8222    115.3911   8.1466897548e+01   5.2695296501e+01    0.4660681    0.1566097 -89.40  0.001413243    2.891    0.654
        66 -10.1960    185.6592    115.3469   2.5634693990e+01   2.1452455726e+01     0.144239    0.1041474 -70.55 0.0007046306    1.789    0.441
        67 -10.4270    108.9879    113.6569   4.2466437243e+01   3.7876501695e+01    0.3316159    0.1662392 -61.75  0.001176433    2.438    0.590
        68 -10.1709     92.4862    113.4954   4.7407676960e+01   4.1250318414e+01    0.3630178    0.2309574  79.43  0.001313875    2.380    0.580
        69 -10.5302     78.5370    112.1125   5.1676359216e+01   4.4229151262e+01    0.4684893    0.2823408  86.92  0.001692316    2.640    0.621
        70 -10.4959     13.5340    109.0360   7.6220322451e+01   5.3620781939e+01    0.5104087    0.2162647 -80.11  0.002049328    2.196    0.545
        71  -9.4839    118.3214    105.3253   3.7723479420e+01   3.7796903106e+01    0.1551085     0.127857  -2.28 0.0007047169    1.682    0.406
        72 -11.3510    128.4106    101.2739   3.4010163590e+01   3.6446839835e+01     0.527236    0.2541226 -55.33  0.001910891    2.344    0.573
        73  -9.6358    246.5265    101.5151   1.4294328563e+01   1.2779619653e+01    0.1206208   0.09420614 -38.16 5.041269e-05    1.006    0.006
        74 -11.3173     43.3364    100.2555   6.2405034409e+01   5.2924096423e+01    0.4088973    0.2160272  70.50  0.001473068    2.771    0.639
        75 -10.8370     19.9277     98.5870   7.2176419392e+01   5.5939116130e+01      0.41384    0.1820402  83.83   0.00147299    2.932    0.659
        76 -10.1340    107.4376     98.3339   3.8893420135e+01   4.1762070702e+01    0.2703484    0.1891115  69.50 0.0008154691    1.683    0.406
        77 -10.6750     94.7716     97.1840   4.2454247664e+01   4.4744065051e+01    0.3994568    0.2728816  87.27   0.00154525    2.060    0.515
        78 -10.8611     94.6510     92.5263   4.1176514570e+01   4.5866682044e+01    0.4878564    0.3797893 -14.25  0.002164336    1.871    0.466
        79 -11.1140     63.0615     96.1928   5.3479544280e+01   5.1034184547e+01    0.4266351    0.2392547  84.74  0.001384206    3.392    0.705
        80 -11.5031     35.0962     86.9520   6.3194907896e+01   5.7507041173e+01    0.9575725    0.3971511 -64.21  0.003623072    2.221    0.550
        81  -9.7813    169.3232    242.6761   5.1273232121e+01   3.1059141957e+00    0.1038364   0.08085068  46.79            0    1.683    0.406
        82 -11.3717     86.2562     86.6090   4.2233697015e+01   4.9020533994e+01    0.4194888    0.2788292 -84.52  0.001609537    2.182    0.542
        83 -11.2923     48.1228     84.0281   5.6573220727e+01   5.6532371257e+01    0.6429223    0.3552238  73.97   0.00222185    3.195    0.687
        84 -11.2553    104.6831     83.2223   3.5282971181e+01   4.5757055263e+01    0.5796514    0.3575292 -80.73   0.00205433    2.784    0.641
        85 -10.3323     74.6317     79.7726   4.4344315098e+01   5.2989980209e+01    0.5702445    0.2268394 -61.69  0.001701779    3.589    0.721
        86 -10.5699     58.0438     90.6836   5.4076837049e+01   5.3281705719e+01    0.2163077     0.201168  48.00 0.0006074524    1.091    0.084
        87 -11.5782     24.2962     76.9038   6.6224711765e+01   6.1331334684e+01    0.8185024    0.2151891 -60.47  0.002758094    3.019    0.669
        88 -11.1377     62.5568     75.1519   4.7716464167e+01   5.6374382454e+01    0.4733252    0.3800699  39.20  0.002380511    1.264    0.209
        89 -11.4881     82.4864     73.2750   3.9323402340e+01   5.2870261149e+01     0.570887    0.3465914 -83.51  0.001932617    3.222    0.690
        90 -10.1793     12.0633     74.4297   7.2095758914e+01   6.3019410922e+01    0.1971971    0.1363605  14.22 0.0008970103    1.595    0.373
        91 -10.7884     42.6393     71.4940   5.5636046347e+01   6.0501592238e+01    0.4735256    0.1897073 -65.14  0.001660581    2.775    0.640
        92 -10.6241    105.8197     71.5133   3.1188193006e+01   4.7963924975e+01    0.3233866    0.1958529 -60.39 0.0009977126    1.919    0.479
        93 -10.8118     51.0652     68.9324   5.0813212413e+01   5.9842149336e+01    0.6343052    0.2633646 -70.33  0.001711911    5.036    0.801
        94  -9.6915    166.4527     70.4420   1.7522263126e+01   3.3445040086e+01    0.1451379    0.1318114 -64.88 0.0001728928    1.025    0.024
        95 -10.7481    118.8651     69.8576   2.7103390531e+01   4.5145104401e+01    0.2515503    0.2157237  77.44 0.0002698382    1.145    0.127
        96 -10.6199     95.0841     71.3529   3.4399383838e+01   5.0500378154e+01    0.5008643    0.2418226 -58.25  0.001736766    2.651    0.623
        97  -9.3902    158.2872     69.6609   1.8687673717e+01   3.5521088384e+01    0.2299046    0.1500415  68.52 0.0008752045    1.599    0.375
        98  -9.7652    154.6675     67.9572   1.8837058269e+01   3.6686046844e+01    0.2048501    0.1803109 -61.96  0.001106979    1.042    0.041
        99 -11.2755    128.1327     75.4011   2.6589575044e+01   4.1812873970e+01    0.4518865    0.2430032 -59.53   0.00169287    2.294    0.564
       100 -10.2446    121.7148     66.4487   2.5276284697e+01   4.5091672763e+01    0.3429666    0.1696694 -52.96  0.001279692    2.219    0.549
       101 -11.6001    236.1595     63.3369   7.2847443399e+00   1.9791354471e+01    0.2128513    0.1002211  56.68   0.00108732    2.596    0.615
       102  -9.8953     18.3053     62.3401   6.6088122182e+01   6.5634918882e+01    0.1481793   0.09259188 -38.08 0.0006287183    1.679    0.405
       103 -10.6426     72.6624     58.1092   3.7552867839e+01   5.8228341630e+01     0.481007    0.1730019 -47.66  0.001623551    2.840    0.648
       104 -10.2603    131.4636     57.8937   2.0232679057e+01   4.4178413766e+01    0.2286712    0.1450061 -40.55 0.0009503945    1.563    0.360
       105 -10.9196     36.4773     62.5380   5.6022696809e+01   6.3556389077e+01    0.3134557    0.1358549 -59.96  0.001229203    2.233    0.552
       106 -10.6476    159.1426     55.2811   1.4343417752e+01   3.7660037036e+01    0.2947571    0.1986576 -46.03  0.001289809    1.369    0.270
       107 -11.7228    124.1828     89.8275   3.1886565741e+01   3.9840978539e+01    0.5246187    0.2600118 -53.64  0.001725558    2.176    0.541
       108 -10.0029    185.6764    241.3218   4.8134752614e+01   1.3584094921e+00   0.09829095   0.08093924  43.26 0.0007046573    1.679    0.405
       109 -10.9088     62.6202     53.3677   3.9848058532e+01   6.1268419054e+01    0.4602444    0.1709989 -45.55  0.001617129    2.733    0.634
       110  -9.8449     92.0000     50.9656   2.7902127951e+01   5.5245082118e+01    0.2435922   0.08618702 -39.58 0.0007986123    2.916    0.657
       111 -11.0862    250.0021     50.2968   3.4020333028e+00   1.8993247965e+01    0.1650225    0.1284867 -52.79 0.0009514882    1.069    0.065
       112  -9.8629     81.6879     46.6868   2.9570767951e+01   5.8455934585e+01    0.1479803    0.1180044  16.85 0.0002814541    1.634    0.388
       113 -11.2301     28.3484     43.7289   5.4014766735e+01   6.9010764718e+01    0.4826677    0.2246761 -51.46  0.001539768    2.010    0.502
       114 -11.2394    238.4080     42.5319   2.5692257112e+00   2.2053228035e+01    0.2092649    0.1757665 -45.27 0.0005809716    1.163    0.140
       115 -10.7585     53.7794     52.9095   4.3717175774e+01   6.3039882379e+01    0.4280162    0.1994215 -63.91  0.001422127    3.491    0.714
       116 -10.7406    184.3889     41.3102   7.0252930247e+00   3.3601912054e+01    0.2283141    0.1559574  61.14 0.0005980176    1.604    0.377
       117 -10.4032     69.0757     41.0749   3.1832373230e+01   6.2315039206e+01    0.2343844     0.178818 -87.87  0.001018996    1.723    0.419
       118 -10.8013     36.5310     40.0118   4.7411553075e+01   6.8666294208e+01      0.37814    0.2523624 -56.40  0.001913707    1.570    0.363
       119 -10.0417     38.2377     35.5377   4.4295508289e+01   6.9310483402e+01    0.2913867    0.1965401  18.95  0.001097373    1.756    0.430
       120 -10.9999    122.1297     36.7860   1.4783724504e+01   4.9910804898e+01    0.3331783    0.2441274  55.20 0.0009979688    1.378    0.274
       121  -9.8998     80.6049     35.8250   2.5190099667e+01   6.0568823437e+01    0.2104625    0.1317281 -48.18 0.0009556536    1.708    0.415
       122 -10.6791    176.5929     33.2438   5.6341040575e+00   3.6515302973e+01    0.2395513     0.202608  73.02 0.0005206303    1.260    0.207
       123  -9.8130    248.2289    238.8180   3.7781228519e+01  -4.8919866307e+00    0.1563125   0.05864324 -24.95 0.0008873444    2.554    0.608
       124 -10.5329     27.4028     29.7737   4.8321219780e+01   7.2099649394e+01     0.193848    0.1147317 -40.25 0.0009546964    1.692    0.409
       125 -10.2371     86.3282     54.2242   3.1033313068e+01   5.5974795489e+01    0.3324555    0.1884837 -31.47  0.001329797    2.183    0.542
       126  -9.9236     81.4136     27.1961   2.0897417075e+01   6.1678459013e+01    0.2081943    0.1259518 -46.95  0.000948388    1.783    0.439
       127 -11.8393    249.5020     27.8062   3.5874344955e+02   2.1763532989e+01    0.4228455    0.1130542 -27.55  0.001547611    4.297    0.767
