#   1 NUMBER                 Running object number                                     
#   2 MAG_AUTO               Kron-like elliptical aperture magnitude                    [mag]
#   3 X_IMAGE                Object position along x                                    [pixel]
#   4 Y_IMAGE                Object position along y                                    [pixel]
#   5 X_WORLD                Barycenter position along world x axis                     [deg]
#   6 Y_WORLD                Barycenter position along world y axis                     [deg]
#   7 A_WORLD                Profile RMS along major axis (world units)                 [deg]
#   8 B_WORLD                Profile RMS along minor axis (world units)                 [deg]
#   9 THETA_WORLD            Position angle (CCW/world-x)                               [deg]
#  10 FWHM_WORLD             FWHM assuming a gaussian core                              [deg]
#  11 ELONGATION             A_IMAGE/B_IMAGE                                           
#  12 ELLIPTICITY            1 - B_IMAGE/A_IMAGE                                       
         1  -8.4984    250.4933     10.4924   3.8629866194e+01   2.1533252134e+01    0.1277583    0.1047795 -64.83 3.921346e-05    1.007    0.007
         2 -10.3009    244.2663    220.1084   8.5774352804e+01  -7.3676419752e+00     1.011776    0.3760901  27.28  0.004164685    3.241    0.691
         3 -10.3900    241.6220    210.8110   8.4588067372e+01  -5.8198649406e+00    0.7352061     0.430281 -24.35  0.004203887    1.699    0.411
         4  -8.9023    212.7751    240.8121   9.4628688481e+01  -5.0934379060e+00    0.6964966    0.3370817  13.71  0.002760916    4.101    0.756
         5  -8.9350    221.2740    238.0145   9.2707836218e+01  -6.0507429705e+00    0.3914049    0.1602531  26.71  0.001746665    2.755    0.637
         6  -9.0454    249.2464    215.5012   8.4122841682e+01  -7.5546020427e+00    0.3484937    0.2196659  21.76  0.001473084    1.379    0.275
         7  -9.3061    249.9247    199.4065   8.1076129055e+01  -5.6466857788e+00    0.3996607    0.1929903 -34.45  0.001892939    2.081    0.519
         8 -10.4659    217.5832    247.7709   9.4837636979e+01  -6.6391090048e+00     1.465924    0.7241461  11.96  0.006427564    3.558    0.719
         9 -10.0391    204.8753    248.1345   9.7101501520e+01  -4.7715574366e+00    0.8867434    0.3585261  30.97  0.004260511    2.337    0.572
        10 -10.2559    226.7142    244.8176   9.2821239943e+01  -7.6487183523e+00     1.328794    0.6209229   9.15  0.004738417    5.478    0.817
        11 -10.0113    248.1702    230.9725   8.6962843444e+01  -9.1958573506e+00    0.4730769    0.3296188 -15.84  0.003214219    1.379    0.275
        12  -9.6678    248.6473    224.0637   8.5714784266e+01  -8.4779608203e+00    0.3998399    0.2127274  -8.16  0.001844885    2.267    0.559
        13 -10.4634    230.8956    246.8388   9.2418109126e+01  -8.4797272480e+00     1.198099    0.5351242  14.84  0.004756421    4.275    0.766
        14  -9.1739    247.8408    210.9172   8.3543099371e+01  -6.7842569284e+00    0.5283763    0.2742135   7.90  0.002430911    2.736    0.635
        15  -9.0409    248.0063    205.6449   8.2557858658e+01  -6.1492132474e+00    0.3387894    0.2143432   9.01  0.001691233    1.580    0.367
        16  -9.6433    248.8517    248.3974   8.9660647163e+01  -1.1151533356e+01    0.5265498    0.2697632 -13.85  0.003069221    2.215    0.549
        17 -10.8940    244.4470    244.3304   8.9751210772e+01  -1.0125720093e+01       1.1728    0.5459005  11.43  0.005292441    3.372    0.703
        18  -9.6706    243.5444    237.4908   8.8809657146e+01  -9.2611863363e+00    0.5512546    0.3110666  -1.41  0.003144836    2.039    0.510
        19 -10.6938    240.9965    230.8980   8.8160304259e+01  -8.1527062505e+00    0.7872696    0.5878511  13.81  0.005458231    1.046    0.044
        20  -8.7750    193.0105    248.5704   9.9253439019e+01  -3.0032176865e+00    0.2475446     0.170274  11.90  0.001386675    1.597    0.374
        21  -7.8743    180.5201    249.5100   1.0160180899e+02  -1.1783491210e+00     0.179149    0.1217529  19.30 0.0008571667    1.555    0.357
        22  -9.3642    196.2886    243.3834   9.7932868925e+01  -2.8589279761e+00    0.4004171    0.1916674  32.21  0.002108057    1.821    0.451
        23  -8.6431    202.0369    240.0754   9.6420650345e+01  -3.3389057222e+00    0.2738652    0.1480813  24.04  0.001186384    1.905    0.475
        24  -8.2964    184.4957    249.4791   1.0088972692e+02  -1.7952722080e+00    0.2266471    0.1220144  36.31 0.0007601063    1.470    0.320
        25  -8.2246    186.8342    245.9495   9.9987251612e+01  -1.7055615153e+00    0.2179565    0.1542711 -13.70  0.001077916    1.794    0.443
        26  -8.6746    170.2261    250.5964   1.0358240725e+02   2.9117435514e-01    0.2875545   0.09128474  39.91   0.00126576    2.484    0.597
        27  -9.8088    164.5363    246.6977   1.0410321779e+02   1.7224966261e+00    0.6255817    0.3403287  16.27  0.002652683    3.792    0.736
        28  -8.8272    168.7496    241.9311   1.0270990836e+02   1.7177611131e+00    0.2871307    0.1606906  30.05  0.001024673    1.735    0.424
        29  -8.5641    153.4388    250.5307   1.0658156411e+02   2.9357353551e+00    0.3481386   0.09446289  38.64  0.001370656    3.156    0.683
        30  -9.2199    144.5611    248.7446   1.0796568768e+02   4.5850059799e+00    0.2640733    0.2099978   6.39  0.001491055    1.721    0.419
        31  -9.8052    150.1377    246.1826   1.0664952553e+02   4.0813202987e+00    0.5342084    0.3142903 -24.71   0.00264487    3.358    0.702
        32  -9.0499    154.0250    240.5123   1.0522857828e+02   4.2964611004e+00     0.224833    0.1511698  30.36   0.00101011    1.436    0.303
        33  -9.3798    140.7672    246.6154   1.0840228779e+02   5.4955095922e+00    0.2407669    0.1628895 -39.65   0.00150361    2.017    0.504
        34 -10.0532    136.4574    246.7076   1.0919416254e+02   6.1566985530e+00    0.2789741    0.1847614  25.87  0.001227416    1.785    0.440
        35 -10.1525    119.5371    244.9365   1.1206370875e+02   9.0481278765e+00    0.3244177    0.2463346 -79.28  0.002101216    1.558    0.358
        36 -10.1046    126.6783    249.3421   1.1124828103e+02   7.2687550191e+00    0.4259096    0.1770416  37.77   0.00211639    2.129    0.530
        37  -9.7571    128.3205    244.7109   1.1044565090e+02   7.7310091571e+00    0.3074255    0.1490278  31.29  0.001310433    2.431    0.589
        38  -8.5497     89.7420    250.2008   1.1785460534e+02   1.2570930651e+01    0.1710225   0.07804978  34.70 0.0008695095    2.411    0.585
        39  -8.2913     76.8245    250.3774   1.2009045425e+02   1.4316519544e+01    0.1523849   0.09077761  36.82 0.0009486885    1.752    0.429
        40  -9.4751     23.0479    248.2043   1.2876064129e+02   2.1191003146e+01    0.2510871   0.08895468  54.42  0.001313197    2.006    0.501
        41  -8.6221    108.9368    248.3721   1.1431551546e+02   1.0095974588e+01    0.2006121    0.1513964 -39.00  0.001324541    2.037    0.509
        42  -9.9307      4.0596    248.5405   1.3167499664e+02   2.3070904068e+01    0.2213877     0.153752  48.38  0.001835182    1.466    0.318
        43  -8.5113    171.4568    246.0408   1.0276608249e+02   7.1400311089e-01    0.2304837    0.1577547  22.36 0.0009502163    1.526    0.345
        44  -9.4026    177.1756    243.6271   1.0140613872e+02   1.3278072211e-01    0.3831906    0.2599539   4.64  0.002099415    2.035    0.509
        45  -9.2600    156.5511    245.6995   1.0542423446e+02   3.1332160303e+00    0.3386372    0.2060262  22.93  0.001635609    2.037    0.509
        46  -8.1013     63.5088    247.5385   1.2213842228e+02   1.6542271426e+01    0.1122493   0.08009131  63.60 0.0008092161    1.026    0.026
        47  -8.1676     35.9700    247.4676   1.2667544838e+02   1.9890153021e+01    0.1603209   0.04817507  55.50 0.0007833892    2.538    0.606
        48  -8.8815    114.2360    248.5624   1.1339109704e+02   9.2759817357e+00    0.2232167    0.1237246  33.24  0.001245501    1.924    0.480
        49  -9.1059    104.8508    245.8290   1.1479583246e+02   1.1109817806e+01    0.2785409    0.1423792  28.24   0.00132509    2.956    0.662
        50  -9.5838     87.7202    246.5008   1.1788910267e+02   1.3464048876e+01    0.3053111   0.09676518  38.64   0.00136527    2.872    0.652
        51  -9.4189     97.7677    245.0090   1.1598081353e+02   1.2279585916e+01    0.1589951    0.1157019  31.61 0.0006565148    1.628    0.386
        52  -8.5568     44.0304    244.7525   1.2520562387e+02   1.9421762159e+01    0.1391644   0.07164284  45.58 0.0008893271    1.602    0.376
        53  -8.7905    146.0672    242.5044   1.0694299821e+02   5.2742730200e+00    0.2448243    0.1425412  36.72  0.001315676    1.484    0.326
        54  -9.6772    142.0183    242.2426   1.0765484558e+02   5.9587834613e+00    0.2675972    0.1446837  42.13   0.00148146    1.475    0.322
        55  -9.1739    113.8012    243.0782   1.1290791670e+02   1.0219126314e+01    0.2039464    0.1448124  21.17  0.001180986    2.018    0.504
        56  -7.5133     79.3532    243.3087   1.1908537744e+02   1.5161097818e+01   0.09753828    0.0882963  16.07 0.0007043341    1.720    0.419
        57  -8.4627     13.1776    243.3569   1.3007580973e+02   2.3050448619e+01    0.1431417   0.06336786  50.96 0.0005070381    1.665    0.399
        58  -8.7479    101.7987    242.3883   1.1500942158e+02   1.2125633996e+01     0.160412   0.09534546  37.57 0.0007896778    1.612    0.380
        59  -7.5893     72.2862    242.6642   1.2026779243e+02   1.6226487619e+01    0.1179284   0.06555808  66.95 0.0002843467    1.628    0.386
        60  -7.6458     29.2985    242.6650   1.2748977502e+02   2.1466156768e+01    0.1131369   0.05413024  66.27 0.0007032295    1.652    0.395
        61  -8.7946    122.5107    241.4801   1.1114847471e+02   9.1432572875e+00    0.2078413   0.09543021  42.83  0.001049086    1.740    0.425
        62  -9.7734    131.8639    241.0132   1.0937743492e+02   7.7568656480e+00    0.3395226    0.1332285  42.44  0.001633856    2.027    0.507
        63  -9.2525    126.9626    241.1806   1.1029813040e+02   8.4989542022e+00    0.2595869    0.1527394  24.16  0.001316935    2.487    0.598
        64  -7.4980    206.5202    240.4435   9.5677870305e+01  -4.0840764756e+00    0.1220277   0.09169922  22.47 0.0001387742    1.097    0.089
        65  -8.5117    187.6064    239.5746   9.8944976335e+01  -9.8749821766e-01    0.2873037    0.1818037   9.98  0.001572108    2.108    0.526
        66  -8.2857    190.4679    235.4695   9.7823900653e+01  -8.9470236602e-01    0.2221304    0.1263925  31.46 0.0006185515    1.530    0.347
        67  -7.9809     84.4733    240.5504   1.1794529500e+02   1.4924997156e+01    0.1159751   0.08857898  60.66 0.0001984146    1.010    0.010
        68 -10.1754      3.5760    237.7906   1.3133206162e+02   2.4964517172e+01    0.2372227     0.112522  71.87   0.00147295    1.573    0.364
        69  -8.3927    194.8895    237.1782   9.7273978538e+01  -1.8333772293e+00    0.2085633    0.1589494   5.28  0.001216893    1.393    0.282
        70  -9.0388    183.5437    236.7312   9.9275168543e+01   5.3024961648e-02    0.2908416    0.1846185 -13.43  0.001575233    2.339    0.572
        71  -8.4498    172.6989    238.4412   1.0150928963e+02   1.5732184800e+00      0.29627   0.09839097  38.98  0.001263294    2.495    0.599
        72  -8.1102     38.0091    239.0000   1.2585638788e+02   2.1129909454e+01    0.1678594   0.05017415  38.53 0.0008091097    2.989    0.665
        73  -8.7539    210.3548    235.9681   9.4313398371e+01  -4.1215408119e+00    0.2934126    0.1598571  25.83  0.001604572    1.732    0.423
        74  -8.7598    166.9161    237.1765   1.0240264271e+02   2.6958866657e+00    0.1869231    0.1410563  47.15  0.001136796    1.186    0.157
        75  -9.7337    159.5664    236.4258   1.0366600975e+02   4.0066112346e+00     0.330279    0.2021562  25.71  0.001809299    1.825    0.452
        76  -8.6702    147.0916    236.8036   1.0604153728e+02   5.9801296882e+00    0.2809384    0.1428623  35.83  0.001252647    1.778    0.438
        77  -8.6728    135.3526    236.9807   1.0825419057e+02   7.8426341578e+00    0.2101311    0.1571099  23.77  0.001304346    1.579    0.367
        78  -7.8149    123.9604    237.7520   1.1046431479e+02   9.5211274721e+00     0.161681   0.08499055  42.17 0.0008736663    1.556    0.358
        79  -8.4270    178.4455    235.5387   1.0004094991e+02   1.0485268668e+00    0.2606236    0.1736838   9.92  0.001452392    1.980    0.495
        80  -7.1533    176.3303    233.3023   1.0011109835e+02   1.7138069764e+00    0.1235039   0.08578566  16.12  0.000349324    1.650    0.394
        81  -8.4646    204.5346    234.8922   9.5188159299e+01  -3.0694269238e+00    0.2430384     0.136996  25.84    0.0013352    1.682    0.406
        82  -7.9223    199.7453    235.4110   9.6130355557e+01  -2.3758384629e+00    0.1724199   0.09377812  31.11 0.0008306944    1.595    0.373
        83  -8.9000    140.0214    234.4830   1.0707307614e+02   7.4900359256e+00    0.2057947    0.1738603 -24.37  0.001303183    1.594    0.373
        84  -8.6389    229.7304    232.6404   9.0379958320e+01  -6.6867509531e+00    0.3926857    0.2053597   2.83  0.001804504    3.057    0.673
        85  -8.7011    170.9075    233.4223   1.0113783587e+02   2.5892762324e+00    0.2104838    0.1826776 -13.85  0.001220516    1.358    0.264
        86  -8.2133    153.6506    232.6792   1.0427289504e+02   5.5473454120e+00    0.2283839    0.1301239  33.30  0.001222761    1.657    0.396
        87  -8.2234    213.6875    231.7482   9.3057715492e+01  -4.1107987150e+00    0.1816117    0.1303543   3.73 0.0009214458    1.418    0.295
        88  -7.9385     90.9878    234.5022   1.1621514892e+02   1.5049583212e+01    0.1509476    0.1006589  20.24 0.0008104313    2.552    0.608
        89  -8.6565    124.6745    231.5502   1.0961162052e+02   1.0434873567e+01    0.3796022    0.1908769  29.62  0.001761606    2.573    0.611
        90  -8.9200    115.1780    231.9113   1.1144659871e+02   1.1867757591e+01     0.334379    0.1654755  34.19  0.001662618    2.135    0.532
        91  -8.1875     68.0111    239.4917   1.2076503441e+02   1.7343796751e+01    0.1355187   0.09778949  18.04 0.0008100307    2.497    0.600
        92  -8.7387    220.2632    230.8360   9.1744510253e+01  -5.0220638265e+00    0.3615147     0.155487  33.23   0.00161871    2.022    0.505
        93  -8.1936    225.9802    229.7014   9.0554500096e+01  -5.7632521124e+00    0.2304957    0.1318085  24.61  0.001271203    1.575    0.365
        94  -8.3910    230.8402    226.4543   8.9168890466e+01  -6.1095930936e+00    0.3375932    0.1521249  24.42  0.001567345    2.488    0.598
        95  -8.5578    188.9267    230.1946   9.7315573884e+01   8.2419421204e-02    0.2580824    0.1658358  25.30    0.0010629    1.490    0.329
        96  -8.3657    208.4859    229.9649   9.3707085171e+01  -3.0582984599e+00    0.2289122    0.1411123  24.54 0.0009230402    1.487    0.327
        97  -8.3756    203.7729    228.9094   9.4393256315e+01  -2.1625118013e+00    0.4421426    0.2335124   8.76  0.001754572    3.886    0.743
        98  -8.7500    195.8754    229.0922   9.5865599962e+01  -9.0389807409e-01    0.3102155    0.1683944  28.91  0.001629027    1.740    0.425
        99  -8.3447    133.6796    229.9593   1.0770787328e+02   9.2535794721e+00    0.1687896    0.1489663  56.81  0.001154086    1.090    0.083
       100  -8.0886    158.9247    229.4921   1.0284075720e+02   5.1680300847e+00    0.1975929    0.1036361  41.22  0.001025951    1.569    0.363
       101  -9.4980      4.1210    228.7000   1.3087041142e+02   2.6531523289e+01    0.2820514   0.07068705  52.84  0.001401731    2.712    0.631
       102  -8.5043    152.4554    227.9382   1.0385827872e+02   6.4903290564e+00    0.2504048    0.1538358  30.93  0.001363389    1.629    0.386
       103  -8.5954    218.6663    224.4832   9.0990010194e+01  -3.9669755918e+00    0.4351969    0.2298283  -5.53  0.001870138    3.383    0.704
       104  -8.0780    178.4096    228.0000   9.8944985431e+01   2.1395689517e+00    0.2849531   0.06008906  41.48  0.000934371    3.932    0.746
       105  -8.3831    130.9015    234.8225   1.0882757743e+02   8.9014672670e+00    0.1852109    0.1527198  33.83  0.001237407    1.252    0.201
       106  -8.9352    109.7762    227.3326   1.1195645620e+02   1.3500967882e+01    0.3046236    0.1067202  33.16  0.001097889    3.982    0.749
       107  -7.9711     93.1736    227.6076   1.1513237478e+02   1.5957754328e+01    0.1659646    0.1029791  35.03 0.0004917636    1.719    0.418
       108  -8.2208    176.5289    250.5144   1.0244674924e+02  -6.8534819344e-01    0.2889939   0.08891046  44.54  0.001237714    2.701    0.630
       109  -7.9598    224.1830    225.5319   9.0183491395e+01  -4.9682096025e+00    0.3266272    0.1264824  31.44  0.001451851    2.508    0.601
       110  -8.6344    212.1097    225.3469   9.2310018659e+01  -3.0330232821e+00     0.251051    0.1625794   2.43  0.001405022    1.826    0.452
       111  -8.0228    184.8230    226.1934   9.7468902899e+01   1.3319349352e+00    0.1718394    0.1307003  16.18 0.0009874193    1.336    0.251
       112  -8.0494    190.7944    224.7690   9.6131980658e+01   5.4019614617e-01    0.2032958    0.1346336  21.20  0.001148138    1.540    0.351
       113  -8.2965    168.3167    224.9732   1.0040695097e+02   4.2903728484e+00    0.2326114    0.1588833  21.59  0.001307314    1.623    0.384
       114  -8.2584    200.9048    223.2184   9.4009588131e+01  -9.1966993964e-01    0.2348151    0.1489763  -4.04  0.001228041    2.139    0.532
       115  -8.6101    128.0829    224.7159   1.0812597823e+02   1.1048730070e+01    0.2954687   0.09806626  38.99  0.001191976    2.709    0.631
       116  -8.4293    174.2834    222.5957   9.8912938797e+01   3.6438271645e+00    0.2058704     0.151718  -9.08  0.001184447    1.771    0.435
       117  -8.7188    144.3893    227.7921   1.0538211651e+02   7.8541085891e+00     0.157441    0.1177127 -36.76 0.0009530745    1.723    0.419
       118  -7.8358    104.5020    223.5272   1.1254163798e+02   1.4993823940e+01    0.1238297    0.1009984  58.77 0.0001762766    1.011    0.011
       119  -7.5585     99.6359    223.7173   1.1349770009e+02   1.5700343962e+01    0.1107464   0.09459988  14.66  0.000701713    1.684    0.406
       120  -9.3609    232.0886    220.8259   8.8000010297e+01  -5.6057786060e+00    0.4062841     0.275628  27.28  0.002540939    1.230    0.187
       121  -8.2226    207.0249    222.2029   9.2719788721e+01  -1.7867693453e+00    0.2092388    0.1185168  19.99  0.001049668    2.006    0.501
       122  -8.0290     20.4088    222.2572   1.2786214196e+02   2.6108502612e+01    0.1977965    0.0876588  57.55  0.001194025    1.760    0.432
       123  -9.0731    226.1246    218.4875   8.8650160023e+01  -4.3747426602e+00    0.5068842    0.2558893  -1.36  0.001893093    4.342    0.770
       124  -8.2681    216.5014    219.4878   9.0544157044e+01  -2.9644220079e+00    0.1983143    0.1100644 -20.91  0.001015464    2.167    0.538
       125  -8.5063    194.4169    219.5386   9.4620584268e+01   6.8456171172e-01     0.276507    0.1681533  10.20  0.001344357    2.317    0.568
       126  -8.6590    149.2365    219.5627   1.0331369960e+02   8.4000243824e+00     0.296494    0.1919782 -16.76  0.001392136    2.916    0.657
       127  -8.5128    237.8023    220.6952   8.6984485717e+01  -6.4657248424e+00    0.2018629    0.1589273  -3.32  0.001145614    1.151    0.131
       128  -8.2808    211.2664    216.6108   9.1009896134e+01  -1.7177638124e+00     0.208409    0.1385856  -7.16 0.0008878907    1.759    0.432
       129  -8.4439    204.4419    216.4208   9.2235945065e+01  -5.5521831181e-01    0.2732604    0.1748597   4.78  0.001373801    1.993    0.498
       130  -7.5285    191.2677    216.3304   9.4691358100e+01   1.6896453723e+00    0.1255895   0.09064011   7.48 0.0003216208    1.581    0.367
       131  -7.5610    161.6809    216.3360   1.0040220297e+02   6.7980446831e+00    0.1283747   0.09550854  68.70 0.0003665549    1.703    0.413
       132  -7.9997    219.8192    214.7719   8.9138824015e+01  -2.8708406341e+00    0.2127099    0.1164041   9.56 0.0009401835    2.746    0.636
       133  -7.7053    137.1926    215.5981   1.0513494916e+02   1.1124522491e+01    0.1831332    0.1098703  33.94 0.0009418952    1.659    0.397
       134  -7.5507    120.3420    215.3172   1.0845336272e+02   1.3978169538e+01    0.1200865   0.09946591   7.60 0.0007048831    1.713    0.416
       135  -8.0867    185.4218    219.6947   9.6342227951e+01   2.1863243332e+00    0.2327034    0.1397012  24.40   0.00119985    1.783    0.439
       136  -8.3303    186.6049    211.2747   9.4748136203e+01   3.2615623043e+00    0.2931218    0.1704475  15.43  0.001306675    2.555    0.609
       137  -7.6210    225.3621    211.2913   8.7532899617e+01  -3.3041401623e+00    0.1327168   0.08340173  12.83 0.0005641364    1.699    0.411
       138  -7.8633    218.3146    209.3336   8.8460486092e+01  -1.8784745881e+00    0.1805171    0.1202799 -11.00 0.0006696985    1.661    0.398
       139  -8.2368    219.3230    206.3114   8.7738245498e+01  -1.6243673722e+00     0.278726    0.1754279  14.05  0.001470146    1.749    0.428
       140  -8.0410    147.4673    209.4780   1.0219541085e+02   1.0436379204e+01     0.131745    0.1143126  44.54 0.0008093223    1.014    0.014
       141  -7.8306     10.3711    209.7272   1.2891939339e+02   2.9495519546e+01    0.1162149   0.05527902  63.52 0.0006689212    1.678    0.404
       142  -7.6574    229.8498    208.2187   8.6184277789e+01  -3.6194602821e+00    0.1762904    0.1248914   7.89 0.0005679243    1.349    0.259
       143  -8.1228      4.1549    211.6710   1.3009258839e+02   2.9700498094e+01     0.175779    0.0928949  60.86  0.001183538    1.458    0.314
       144  -8.3607    179.5367    207.4717   9.5488324495e+01   5.1062625692e+00    0.3022462    0.1672301  18.64  0.001249109    2.856    0.650
       145  -9.4272    234.6637    214.1348   8.6387832925e+01  -5.1601240144e+00    0.3551634    0.1944693  10.15  0.001713498    2.385    0.581
       146  -7.8826    225.3819    205.8148   8.6550437784e+01  -2.5628901439e+00    0.1742275    0.1089425 -18.01 0.0008433209    1.717    0.417
       147  -9.5081    124.0190    206.0155   1.0646956236e+02   1.5096452302e+01    0.1853765    0.1599439  54.98            0    1.011    0.011
       148  -8.7589    239.6174    204.3261   8.3758669988e+01  -4.6688900366e+00    0.3239945    0.1901557  30.01   0.00180226    1.534    0.348
       149  -9.5930    243.8904    198.7843   8.1990181726e+01  -4.6163697157e+00    0.5042656     0.212094 -27.75   0.00230801    2.468    0.595
       150  -8.4769    206.9821    205.0305   8.9793921589e+01   6.6122552868e-01    0.2306214     0.132678 -11.36  0.001032292    2.606    0.616
       151  -8.5817    230.2965    203.4068   8.5231524604e+01  -3.0413187041e+00     0.352928    0.1069105  38.43  0.001368867    3.042    0.671
       152  -8.8864    237.5921    199.7007   8.3256208239e+01  -3.7273950657e+00    0.5259576     0.259766  13.51  0.002049251    3.513    0.715
       153  -7.6217    223.4535    201.4527   8.6104037559e+01  -1.6330186498e+00    0.1311776    0.1063967  12.20 0.0002338786    1.060    0.056
       154  -8.9623    230.6210    198.0669   8.4184621651e+01  -2.3572529082e+00    0.3606252    0.1718235  27.18  0.001621773    2.309    0.567
       155  -7.9805    210.9351    199.2017   8.8000275142e+01   8.4119725828e-01    0.2289976    0.1342319  18.09  0.001079397    2.064    0.516
       156  -8.9037    237.2563    193.4981   8.2144382596e+01  -2.8223429803e+00    0.3563507    0.2209756 -15.23   0.00153208    1.685    0.406
       157  -9.1936    237.8644    185.8928   8.0565383195e+01  -1.8523706737e+00    0.4314042    0.2336552 -14.57   0.00186089    2.292    0.564
       158  -7.8636    203.1572    194.6406   8.8633713888e+01   2.9183501312e+00    0.2018935    0.1092809  31.64 0.0009416377    1.811    0.448
       159  -7.2997    179.9937    195.0000   9.3247156124e+01   7.0875032007e+00    0.2301306   0.07045642  42.46 0.0008019675    2.939    0.660
       160  -8.5601    231.4390    192.0699   8.2902683512e+01  -1.6476637327e+00    0.3347991    0.1826882 -11.14  0.001491493    2.524    0.604
       161  -7.6580    219.4975    192.9936   8.5248940180e+01   2.7150213343e-01    0.1837645    0.1057775  -9.45 0.0008094506    2.452    0.592
       162  -7.7676    209.5375    193.4838   8.7202807132e+01   1.9552506840e+00     0.136335    0.1138208  13.35 0.0001793874    1.080    0.074
       163  -9.6587    243.9135    188.8296   8.0085666585e+01  -3.2722826011e+00    0.4473138     0.301749  -8.82  0.001918639    1.463    0.317
       164  -9.4030    249.6763    183.6499   7.8086667280e+01  -3.4996659172e+00    0.4251174    0.2449585 -16.01  0.001976914    1.817    0.450
       165  -8.5827    224.5731    190.5466   8.3850347580e+01  -2.4978529785e-01    0.2929569    0.1846734   1.90  0.001445889    1.965    0.491
       166  -7.5087    205.6993    189.6663   8.7212384401e+01   3.2426752207e+00    0.1392877   0.09748536   6.19 0.0006197431    1.654    0.395
       167  -8.8944    231.0449    185.0290   8.1606473280e+01  -5.6009632041e-01    0.3780382    0.2113257  15.40  0.001684515    2.393    0.582
       168  -7.7625    220.4207    185.7712   8.3687605640e+01   1.1960214910e+00    0.1860956    0.1190567 -20.23 0.0009477244    1.666    0.400
       169  -8.5127    226.1569    178.5022   8.1191754645e+01   1.2813655260e+00    0.3239383     0.174572 -13.92 0.0009704594    2.647    0.622
       170 -10.2432    243.3903    176.9130   7.7814736766e+01  -1.4991224815e+00    0.6331989    0.3723423 -13.40   0.00312551    1.909    0.476
       171  -7.5189    229.3260    181.3063   8.1178703368e+01   2.9286770322e-01     0.138997   0.09344158   7.88 0.0007035806    1.649    0.394
       172  -7.5703    218.6618    181.7087   8.3214037084e+01   2.1379299617e+00    0.1406307   0.09596873  10.32 0.0007024637    1.644    0.392
       173  -8.4026     72.0433    180.6028   1.1422464061e+02   2.8432675862e+01    0.1736344    0.1459245  58.04 0.0005763299    1.149    0.130
       174  -8.5153    235.5194    179.4320   7.9696924511e+01  -5.1222546955e-01    0.2922731    0.1876543  -7.33    0.0014859    1.751    0.429
       175 -10.6620    100.9946    175.9991   1.0709859964e+02   2.5060341385e+01    0.1942228    0.1724484  74.01            0    1.008    0.008
       176  -8.9732    231.4366    172.9713   7.9112662559e+01   1.1805520750e+00    0.3547279    0.2184246  -2.86  0.001650207    2.108    0.526
       177  -7.7392    223.6563    172.7675   8.0482947552e+01   2.6269383189e+00    0.1878022    0.1203678 -40.73  0.000721261    1.662    0.398
       178  -9.6410    245.2583    166.0142   7.5256084977e+01  -2.2184886321e-01    0.4282688    0.2848299 -22.41  0.001998465    1.401    0.286
       179  -8.6142    237.9124    167.5030   7.6833951784e+01   8.5410084593e-01    0.2624579     0.173968 -14.10 0.0007724984    1.559    0.359
       180  -7.7937    229.5768    164.1796   7.7614053239e+01   2.8893237436e+00    0.1915062    0.1211149 -19.62  0.000919358    1.659    0.397
       181  -8.1393    234.4331    162.2520   7.6339877578e+01   2.2951118025e+00    0.2609721    0.1243516 -28.79 0.0009968058    2.120    0.528
       182  -9.6306    244.1965    153.4262   7.2760575679e+01   1.8775665294e+00    0.5467188    0.2712881  -8.35  0.001696616    4.799    0.792
       183 -10.2329    244.2047    147.5036   7.1468134978e+01   2.7965091251e+00     0.301084    0.2033087 -14.12  0.001506386    1.533    0.348
       184  -9.4124    249.9340    160.1853   7.3245379221e+01  -1.7260877806e-01    0.3757477    0.2138685 -10.76  0.001707207    2.205    0.546
       185  -9.2822    246.6084    156.2211   7.2956831596e+01   1.0129152907e+00    0.4451242    0.2318617 -11.77  0.001482177    2.920    0.658
       186 -10.1721    249.3229    148.7401   7.0890897093e+01   1.6656552728e+00    0.5688489    0.2030433 -37.10  0.002235373    2.552    0.608
       187  -9.2545    237.9741    156.7137   7.4534836312e+01   2.5090888113e+00    0.1936484    0.1698228  15.02  0.001154406    1.098    0.089
       188  -9.9434    234.2313    145.6610   7.2761050330e+01   4.9808565538e+00    0.2942799    0.2111707  -3.74  0.001222715    1.554    0.356
       189  -9.8311    243.1748    138.5641   6.9653337096e+01   4.4022205944e+00    0.3205425    0.1542681 -28.00   0.00135617    2.060    0.515
       190  -9.6419    240.6901    144.3391   7.1359581786e+01   3.9557399036e+00    0.2130108    0.1717324 -23.00  0.001101197    1.120    0.107
       191  -7.6947    231.3059    158.3678   7.6063515615e+01   3.4904676300e+00    0.1473463    0.1000485   2.24 0.0007035552    1.751    0.429
       192  -9.3845    249.7196    139.6480   6.8826976355e+01   2.9973317441e+00    0.2233068    0.1769425  -9.98 0.0007188959    1.199    0.166
       193  -8.8978    230.7516    140.8434   7.2284793807e+01   6.4528204473e+00    0.2451748    0.1463071   7.01 0.0009497033    2.806    0.644
       194  -8.0226    239.2988    139.3719   7.0482470192e+01   5.0183958049e+00     0.147676    0.1020853   0.77 0.0007029411    1.743    0.426
       195  -7.7940    235.2941    137.3478   7.0703726960e+01   6.1301280660e+00    0.1466133    0.1041003   1.34 0.0003309472    1.672    0.402
       196  -9.4469    248.8803    134.2470   6.7754694631e+01   3.9996661520e+00    0.3543184    0.1698536 -20.54     0.001377    2.655    0.623
       197  -9.4693    242.0206    132.6183   6.8497832171e+01   5.5781026856e+00    0.3381118    0.1921266 -32.74  0.001433304    1.601    0.375
       198  -9.2598    231.3731    130.1206   6.9711146867e+01   8.1140624572e+00    0.3373854    0.2342931  -5.40  0.001563606    1.747    0.428
       199  -9.0933    247.8361    128.2761   6.6569245390e+01   5.1428286927e+00    0.3255086    0.2298766  -6.60  0.001657779    1.602    0.376
       200  -9.0888    249.2682    123.3853   6.5226731922e+01   5.6410725163e+00    0.3428674    0.1866684 -27.56  0.001565258    1.751    0.429
       201  -9.7990    239.4973    124.3676   6.7009791640e+01   7.4182909753e+00    0.4225713    0.2477273 -14.82  0.001802743    2.186    0.542
       202  -7.6197    212.3307    121.3369   7.1005152035e+01   1.3673979926e+01    0.1568143    0.1150106   7.61 0.0007052067    1.734    0.423
       203  -8.0904    224.3367    120.3272   6.8607827443e+01   1.1245436779e+01    0.1528716    0.1114401   8.09 0.0007051757    1.725    0.420
       204 -10.0243    247.6856    115.5773   6.3666874171e+01   7.1959899121e+00    0.5657268    0.2498921 -29.78  0.002292498    2.185    0.542
       205  -8.5552    219.8585    113.4739   6.7719866511e+01   1.3401756786e+01    0.3567968    0.1975317  17.11  0.001096232    4.265    0.766
       206  -9.5913    240.8542    108.3672   6.3019033398e+01   9.7530714076e+00    0.4426032    0.1918961 -27.19  0.001661191    2.518    0.603
       207  -9.8815    231.0547    113.9303   6.5924431632e+01   1.0898625811e+01    0.7014223     0.185571 -36.66  0.002183988    3.370    0.703
       208  -7.5096     97.7157     92.7052   9.0661028636e+01   4.4769926170e+01    0.1458401    0.1140869 -16.23 0.0002942188    1.541    0.351
       209  -9.0918    113.0884     71.8823   7.9834333377e+01   4.6135970774e+01    0.2331718    0.2223727 -21.86 0.0002690093    1.012    0.012
       210  -8.5623    247.4752     13.9850   3.9648822489e+01   2.1808088060e+01    0.2021403   0.06796955 -49.46 0.0008100466    2.651    0.623
       211  -7.8419    237.6675     12.6630   4.0146427189e+01   2.4184948399e+01    0.1253924   0.09678543  37.25 0.0007052051    1.739    0.425
