#   1 NUMBER                 Running object number                                     
#   2 MAG_AUTO               Kron-like elliptical aperture magnitude                    [mag]
#   3 X_IMAGE                Object position along x                                    [pixel]
#   4 Y_IMAGE                Object position along y                                    [pixel]
#   5 X_WORLD                Barycenter position along world x axis                     [deg]
#   6 Y_WORLD                Barycenter position along world y axis                     [deg]
#   7 A_WORLD                Profile RMS along major axis (world units)                 [deg]
#   8 B_WORLD                Profile RMS along minor axis (world units)                 [deg]
#   9 THETA_WORLD            Position angle (CCW/world-x)                               [deg]
#  10 FWHM_WORLD             FWHM assuming a gaussian core                              [deg]
#  11 ELONGATION             A_IMAGE/B_IMAGE                                           
#  12 ELLIPTICITY            1 - B_IMAGE/A_IMAGE                                       
         1 -11.7680     80.3438     23.3553   6.9681200937e+01   6.0838581436e+01    0.5653368    0.2629083  36.39  0.002523806    2.151    0.535
         2  -9.3021     26.2146     24.1546   9.2569126604e+01   6.8532340171e+01    0.7104132    0.1122686 -39.96  0.002126814    5.691    0.824
         3  -9.1176     46.4377     20.1044   8.1350032302e+01   6.6829063619e+01    0.4683144    0.2356543 -26.73  0.002385495    1.902    0.474
         4  -9.2184      8.7056     19.9416   9.9749832322e+01   7.0685810424e+01    0.4543902     0.298797  -2.36  0.003076874    1.533    0.348
         5  -8.5812    127.7399     16.6184   5.4173802810e+01   5.1258010181e+01    0.3055743    0.2114027   7.51 0.0009852847    1.708    0.415
         6  -9.7127    133.8286     13.5841   5.1845111242e+01   5.0084405464e+01    0.3287427    0.2164876  54.40 0.0003144376    1.344    0.256
         7  -8.9086     71.4743      8.9704   6.6171247932e+01   6.4227682247e+01    0.2718185     0.208038 -49.80 0.0009739598    1.912    0.477
         8  -9.6791     79.4196     12.9515   6.5357707059e+01   6.2286938877e+01    0.3796943    0.2458366  51.49  0.001330652    1.606    0.377
         9  -9.1852     74.4804     13.5261   6.7271133863e+01   6.3157436794e+01    0.3837722    0.2303638   5.12  0.001545165    1.943    0.485
        10  -9.4767     64.1090     13.9848   7.1221519903e+01   6.4949868319e+01    0.3705563    0.2136339  20.94   0.00137624    1.857    0.461
        11  -8.8190     87.6763     13.3529   6.2951204236e+01   6.0603542669e+01      0.32912    0.2052911  26.34  0.001430969    1.596    0.373
        12  -8.4998     97.0495     12.2051   5.9767853810e+01   5.8761226931e+01     0.333827    0.1575564  35.28  0.001412701    2.168    0.539
        13  -9.6421     31.2785     11.0767   8.4110291113e+01   7.0056555149e+01    0.3509194    0.2035076  13.51  0.002044351    1.794    0.443
        14  -9.0440     32.1071      6.1114   8.1182308071e+01   7.0648778399e+01      0.24314    0.1575378 -29.66 0.0002859425    1.377    0.274
        15  -8.5407    156.0025      8.7645   4.6415730351e+01   4.5001729073e+01    0.5141582    0.1496114 -22.71  0.001765184    3.832    0.739
        16  -8.7214    125.1577     10.2750   5.2354159856e+01   5.2516109640e+01    0.2135374    0.1745697  15.14 0.0003792751    1.279    0.218
        17  -8.3512     15.0356     11.1360   9.2587753491e+01   7.1679961201e+01     0.392635      0.17504  39.59  0.001930087    3.627    0.724
        18  -9.6620     20.6025      8.5815   8.8364323088e+01   7.1563657002e+01    0.2591771    0.2032356  15.73  0.000263351    1.379    0.275
        19  -8.6693      2.7541      8.0238   9.8062827208e+01   7.3095475546e+01    0.4348638    0.1560048 -27.94  0.002061471    2.909    0.656
        20 -10.1655    119.1603      6.8306   5.2287542658e+01   5.4265965900e+01    0.2507529    0.2146646  40.25 0.0002571113    1.042    0.040
        21  -9.5428     46.6308      6.2014   7.4466978701e+01   6.8679100362e+01       0.2783    0.1872182  18.74 0.0003613769    1.341    0.254
        22  -8.5181     40.9639      6.0634   7.6932009898e+01   6.9504653574e+01     0.312451    0.1631824 -17.56  0.001454883    1.925    0.480
        23  -9.6968     76.7254      6.0238   6.3024285427e+01   6.3545544803e+01    0.3547467     0.275705   5.43  0.001264148    1.170    0.146
        24  -8.1701    100.0711      5.8780   5.6291757525e+01   5.8720181905e+01    0.1886852    0.1827745 -58.95  0.001229731    1.279    0.218
        25  -8.7963     92.0460      5.5953   5.8277162525e+01   6.0480629942e+01    0.3442939    0.1595888  48.16  0.001092968    1.842    0.457
        26  -9.7773     84.8851      5.4526   6.0245880179e+01   6.1982242832e+01    0.2555395    0.2156941   6.23  0.001629796    1.110    0.099
        27 -10.1886     13.4881      4.4896   9.0225230867e+01   7.2833467818e+01    0.2798786     0.197172   6.83  0.002000818    1.341    0.254
        28  -8.5705    125.5474      3.0540   4.9586181512e+01   5.3068424831e+01    0.2938467    0.1794106 -26.07  0.001211283    1.785    0.440
        29  -8.5222     57.6459      3.1725   6.8369889443e+01   6.7286752060e+01    0.2444384    0.1940852 -15.49 0.0008443881    1.240    0.194
        30  -7.4518    134.4491      3.4210   4.8101715535e+01   5.0870442175e+01     0.133523    0.1188527  60.62  5.84832e-05    1.037    0.036
        31  -8.8569    110.8207      2.2814   5.2284424511e+01   5.6608561144e+01    0.2397401    0.2297434  -6.08  0.001192397    1.172    0.147
        32  -7.5846    143.1487      2.1560   4.6217080406e+01   4.8823491346e+01    0.1990321    0.1562024  45.88  0.000320965    1.198    0.165
        33  -8.3606    104.7116      1.9723   5.3533932657e+01   5.8027512400e+01    0.2639738    0.1453808  38.67  0.001163726    1.658    0.397
        34  -8.0655      2.9886      1.4275   9.4826255952e+01   7.4124960241e+01    0.1451843   0.09164663   7.21 0.0004350876    1.559    0.359
        35  -7.1258    142.5139    111.5013   8.1283585726e+01   3.1583205915e+01    0.1577169    0.1526753  -9.26  0.000809815    1.060    0.056
        36  -9.3347    207.4378    250.2784   9.4755954968e+01  -5.8596313098e+00    0.3158846   0.08193542  42.99  0.001213953    3.586    0.721
        37  -9.7104    198.0742    249.6181   9.6341624074e+01  -4.3740756700e+00    0.2183246    0.1845314  58.63  0.001507588    1.644    0.392
        38  -9.4672    193.2031    249.0989   9.7149975867e+01  -3.5667594314e+00    0.2170802    0.1715129 -34.87  0.001501456    1.558    0.358
        39  -8.8768      1.6074    110.1868   1.2207254259e+02   5.1815593203e+01    0.2462933   0.09885883 -61.17  0.001179113    1.863    0.463
        40  -7.2259     38.9974    110.2300   1.1101773582e+02   4.8977615350e+01    0.1482112      0.11166  27.48  0.000624349    1.578    0.366
        41  -7.9763    124.2542    106.9950   8.4865053743e+01   3.6511430837e+01    0.2516945    0.1784368 -16.32 0.0008126809    1.957    0.489
        42  -7.7524     76.5296    107.1940   9.8830987108e+01   4.5087025735e+01    0.2129674    0.1207686 -44.94 0.0005807081    1.705    0.414
        43  -7.9353    109.2580    106.4570   8.8904644327e+01   3.9646069568e+01    0.2767991    0.1519714  35.22 0.0008617197    2.021    0.505
        44  -9.2935     14.9371    104.9256   1.1749838819e+02   5.2223783174e+01      0.51308    0.2185598 -29.64  0.002066462    4.018    0.751
        45  -7.8286     94.0355    103.4651   9.2591146031e+01   4.3130683597e+01    0.2057348    0.1339035   8.14 0.0008094959    2.552    0.608
        46  -8.8871    246.8008    101.8167   5.8269541277e+01   9.8542261085e+00    0.2316736     0.150367 -64.25  0.001069356    2.083    0.520
        47  -7.4996     64.4435    101.4584   1.0128515693e+02   4.8153773151e+01    0.1407753    0.1241156 -52.42 0.0002912593    1.024    0.023
        48  -8.4378    242.8325     96.7729   5.7660919745e+01   1.1486691521e+01    0.2757344     0.139384  73.81 0.0009809552    3.715    0.731
        49 -10.3487     13.5538     93.9037   1.1628268481e+02   5.4886403098e+01    0.6199331    0.3296553  -0.99  0.003166343    2.792    0.642
        50  -7.9048     82.7790     94.2380   9.3652315609e+01   4.7145825368e+01    0.4086024    0.2363417   2.06  0.001310577    4.330    0.769
        51  -8.8576     43.5057     92.4783   1.0612612403e+02   5.2740403352e+01    0.3412416    0.2224777  -6.70  0.001368184    2.159    0.537
        52  -8.6098     96.3327     90.6842   8.8434530981e+01   4.5623559041e+01    0.4707904    0.2995279  -8.13  0.001773023    2.870    0.652
        53  -8.2061    110.0061     90.9418   8.4405787945e+01   4.2959125228e+01    0.2446492    0.1877208  -1.88 0.0007266113    1.690    0.408
        54 -10.4755     37.2891     81.1982   1.0574780647e+02   5.5959724086e+01    0.6618122    0.3422291 -22.78  0.002848313    2.939    0.660
        55  -8.3127     66.0633     84.0443   9.6409159143e+01   5.1966922280e+01    0.2121013    0.1834193 -36.52 0.0003573743    1.072    0.067
        56  -8.3431     20.5127     84.4947   1.1233212773e+02   5.6590279670e+01    0.1258045    0.1017011 -61.56 -6.267466e-05    1.030    0.029
        57  -7.8993    127.3018     82.9055   7.7127512855e+01   4.0989807570e+01    0.2661529    0.2164684  59.44   0.00129114    1.344    0.256
        58  -9.9985      8.7803     76.7024   1.1499597605e+02   5.9099047169e+01    0.5570355    0.1993239 -40.87  0.002466701    2.715    0.632
        59  -8.6262     88.4170     78.8065   8.7437742978e+01   4.9617667242e+01    0.4760592    0.2736201  20.36  0.001904553    2.527    0.604
        60  -7.9360    184.3126     77.8898   6.2526380222e+01   2.8230076755e+01    0.2460365    0.1796939 -53.06 0.0004997027    1.433    0.302
        61  -9.3066     48.9905     77.0293   1.0051894507e+02   5.5686823384e+01    0.4107919    0.2455177   0.54  0.001905242    2.482    0.597
        62  -8.3817    109.9449     74.9809   7.9557325722e+01   4.6303880839e+01    0.2479192    0.2168045  16.62 0.0003052477    1.196    0.164
        63  -8.1130     23.2146     69.3974   1.0817439622e+02   5.9796493300e+01    0.2421989    0.1955237  53.93 0.0005455753    1.605    0.377
        64  -8.4926     75.1120     74.1682   9.0460095625e+01   5.2803629210e+01    0.2452723    0.2076827 -12.18 0.0003465382    1.221    0.181
        65  -8.9401     49.0665     71.4817   9.8985738207e+01   5.6902359570e+01    0.3105356    0.1863555  38.73  0.001593693    1.953    0.488
        66  -8.2218    205.8638     70.3192   5.6657272928e+01   2.4200950660e+01    0.3182847    0.2102509 -20.50  0.001423868    1.787    0.440
        67  -7.5841    129.3458     69.3456   7.2310353736e+01   4.3153311563e+01    0.1634963    0.1192442  10.79 0.0007044154    1.800    0.445
        68  -9.9180     23.8112     74.0780   1.0901520442e+02   5.8711529943e+01     1.031325    0.2970838 -37.49   0.00328214    5.097    0.804
        69  -8.0607    105.8494     67.7833   7.8432388893e+01   4.8555575048e+01    0.2665402    0.1654145   2.50 0.0009632785    2.990    0.666
        70  -8.8946     83.4396     64.6866   8.4571308011e+01   5.3387101676e+01    0.5301821    0.3202865  -6.83  0.002050946    2.914    0.657
        71  -8.4583     16.4813     64.0013   1.0951191929e+02   6.1449004629e+01    0.2714608    0.1300119 -41.47  0.001129588    1.807    0.447
        72  -8.4237     19.5055     60.9983   1.0759623172e+02   6.1893510821e+01    0.2021426    0.1471203 -24.38 0.0005841771    1.391    0.281
        73  -7.2024    148.3212     63.3092   6.5689273258e+01   3.9705631529e+01    0.1582196    0.1184557  19.49 0.0002332348    1.645    0.392
        74 -10.0112     62.6008     61.0081   9.0754977592e+01   5.7387860283e+01    0.5803334    0.3217345  17.23 0.0004282579    2.434    0.589
        75  -8.2897     11.3700     61.0141   1.1083752355e+02   6.2410515498e+01    0.1769309    0.1217505 -57.56 0.0004507073    1.146    0.128
        76  -9.3318     37.6196     58.8110   9.9737456840e+01   6.0830132808e+01     0.343295    0.1913342 -21.92 0.0008015165    2.213    0.548
        77  -9.0760     26.6951     59.9738   1.0445117414e+02   6.1569376848e+01    0.2586387     0.162077  27.34   0.00116577    1.877    0.467
        78  -8.0937    111.2956     58.3560   7.3605689829e+01   4.9158537477e+01    0.2945236    0.2094264   9.92 0.0008036498    1.795    0.443
        79 -10.0050     74.9399     50.4377   8.2524256863e+01   5.7531732380e+01    0.4305933    0.2846795 -16.15 0.0003632911    1.722    0.419
        80  -8.5208    118.2302     50.8947   6.9029501285e+01   4.8900400359e+01    0.2973799    0.2091263  51.46 0.0007824466    1.429    0.300
        81  -8.9486     45.1999     48.9737   9.3494933225e+01   6.2002481648e+01    0.3404137    0.1995247 -25.52  0.001490492    1.796    0.443
        82  -8.2973    106.6068     48.7990   7.1560884484e+01   5.1790211609e+01    0.3166629    0.1526036  24.89 0.0009674028    4.128    0.758
        83  -9.5302     56.4617     43.2952   8.6854463623e+01   6.1636614492e+01    0.7931347    0.3529251 -21.10  0.002398991    5.342    0.813
        84  -8.7797      2.4651     45.0039   1.1071679823e+02   6.6238920849e+01    0.2065123    0.1686437 -12.52  0.001522357    1.346    0.257
        85  -8.9909     10.5004     47.4804   1.0784999198e+02   6.5308831411e+01    0.2582477    0.1852111 -48.85 0.0007993096    1.071    0.066
        86  -9.1656     13.5379     45.5439   1.0598290229e+02   6.5517599073e+01    0.2205855    0.1991081 -45.13 0.0008706236    1.203    0.169
        87 -11.1209     83.4308     39.9905   7.5540502646e+01   5.7830348193e+01    0.5012099    0.3161326  15.51  0.002353786    1.972    0.493
        88  -8.6672      4.0000     40.0162   1.0870908963e+02   6.7172402182e+01    0.2830794   0.07588077 -58.04  0.001157255    2.604    0.616
        89  -9.3059      5.6586     34.2612   1.0625601530e+02   6.8218273469e+01     0.333551    0.2259056 -39.73  0.002273052    1.117    0.104
        90  -8.4478      2.8098     31.6171   1.0681418192e+02   6.8878350796e+01    0.2062941    0.1666217  67.07 0.0008457092    1.960    0.490
        91  -8.7123      1.3418     28.6992   1.0662294882e+02   6.9508841453e+01      0.49423    0.1145731 -43.03  0.002184711    2.840    0.648
        92  -7.0012    124.3355     39.3476   6.3291622977e+01   4.9257840496e+01    0.1571943    0.1061495  21.56 0.0003889198    1.777    0.437
        93  -8.3209     92.1993     37.4914   7.1660684427e+01   5.6538737281e+01    0.3093989    0.1761809 -49.89 0.0009298715    2.371    0.578
        94  -9.2037     67.4890     37.9594   8.0460083730e+01   6.0912799163e+01    0.2614984    0.2066872 -11.15 0.0007919588    1.161    0.139
        95  -9.1685     70.6698     35.6565   7.8331384667e+01   6.0766923512e+01    0.2442216    0.1738226  15.57 0.0008632331    1.448    0.309
        96  -9.5584     37.7419     35.8476   9.1893642032e+01   6.5300853905e+01     0.503166    0.2762652  -4.78  0.002386075    2.577    0.612
        97  -9.3799     20.2594     36.1258   9.9969697835e+01   6.6891302103e+01    0.3948332    0.2420672  25.11  0.002412384    1.883    0.469
        98  -9.0064     22.0161     32.0578   9.7694556742e+01   6.7509186681e+01    0.2823789    0.2146459  -8.52  0.001179396    1.264    0.209
        99  -7.9596    106.2791     36.4358   6.7008845491e+01   5.3763640643e+01    0.2721323    0.1246493  46.23 0.0009120614    2.061    0.515
       100  -8.3069     55.8058     34.6845   8.3719441452e+01   6.3226047863e+01    0.3453538    0.1384499 -41.97  0.001105148    2.329    0.571
       101  -7.7411     46.2512     35.5298   8.8056767873e+01   6.4359162706e+01     0.164958    0.1116053   9.52 0.0004317489    1.572    0.364
       102  -7.1938    133.6970     31.6653   5.8335365228e+01   4.8053278520e+01    0.1513674    0.1041055  25.76 0.0006866836    1.662    0.398
       103  -9.0423     61.7605     27.0400   7.8088477241e+01   6.3546015014e+01    0.2759178    0.1874365   4.53 0.0007184832    1.558    0.358
       104  -8.7587     42.5842     27.7397   8.6447717262e+01   6.6134691833e+01     0.319517    0.1887092   3.60 0.0007855592    2.070    0.517
       105  -8.1001    109.0625     25.5745   6.2011083613e+01   5.4601368147e+01    0.2682079    0.1863845 -44.54   0.00136447    1.694    0.410
       106  -7.6418    226.3296    249.6715   9.1334200587e+01  -8.5302505507e+00    0.1014855   0.08637887  48.24 0.0007051316    1.710    0.415
       107  -9.4144     70.0101     25.8654   7.4426805369e+01   6.2359101621e+01    0.3026134    0.2401156  28.97  0.001087448    1.218    0.179
       108  -9.3204    172.0084    248.8076   1.0099745224e+02  -2.4445261306e-01    0.1904876    0.1781575  -1.02  0.001008906    1.252    0.201
       109  -8.4754     28.8560     20.6552   8.9778637396e+01   6.8851060253e+01    0.2897897    0.1737856  20.52  0.001744233    1.734    0.423
       110  -8.7706    157.1812    249.1856   1.0379552297e+02   2.0271894231e+00    0.2927899    0.1149408  54.76  0.001067665    4.226    0.763
       111  -7.7173    129.2013     22.5286   5.6030066010e+01   5.0255526691e+01    0.2024589    0.1150503  46.77 0.0005650396    1.616    0.381
       112  -8.9314     92.3651     20.7548   6.4739801298e+01   5.8788593454e+01    0.2826641    0.2216697   9.40 0.0009435881    1.230    0.187
       113 -10.1590    113.4956    248.0215   1.1178059687e+02   8.9592537303e+00    0.2109881    0.1827778  53.03  0.000392059    1.125    0.111
       114  -8.7223     13.0395     18.0000   9.6680998385e+01   7.0712576560e+01    0.3958983    0.1499947  13.89  0.001867399    3.338    0.700
       115  -8.3640    140.4477     20.0307   5.2846714484e+01   4.7770610639e+01    0.2534638    0.1671634  46.23 0.0003350106    1.421    0.296
       116  -8.4760    144.5033     23.4088   5.3236218184e+01   4.6378184075e+01    0.2299011    0.2166354  45.19 0.0001821038    1.035    0.034
       117  -7.6122    165.6822     18.3368   4.7975898917e+01   4.1564304630e+01    0.1477184    0.1001106 -65.64 0.0007048782    1.701    0.412
       118  -8.9258    246.9852    247.4979   8.7460814847e+01  -1.1132793097e+01    0.1748699   0.08822486  31.80  0.001040468    1.620    0.383
       119  -9.7126    163.9816    245.5199   1.0205274393e+02   1.4870354115e+00    0.2380914    0.1499426 -21.33  0.001286323    2.469    0.595
       120  -8.7919    145.8439    249.8651   1.0598559815e+02   3.7016875443e+00    0.1798323    0.1405428  31.00 0.0004742353    1.209    0.173
       121  -8.7573    160.4953    243.4843   1.0243798738e+02   2.3398743464e+00    0.1234018   0.09886452  38.38 1.956512e-05    1.010    0.010
       122  -7.8647    230.0795    241.4229   8.9396970488e+01  -8.1072676251e+00    0.1768531   0.07856127  21.53 0.0008054353    2.661    0.624
       123  -8.0843    238.6055    236.7888   8.7167946883e+01  -8.7784722020e+00     0.139197    0.1039901 -31.35 0.0004851345    1.602    0.376
       124  -9.4672    188.2206    234.1319   9.5874682195e+01  -7.5590496478e-01    0.2382187    0.2012006 -74.19  0.001234843    1.844    0.458
       125  -8.4779    225.9086    224.5987   8.7378438409e+01  -5.4015318337e+00    0.1909941    0.1577343 -11.76  0.001292727    1.218    0.179
       126  -8.7342    225.0804    207.2447   8.4486265636e+01  -2.9091032809e+00     0.236542     0.204581  19.76 0.0009232826    1.146    0.127
       127  -8.3712     12.0050    206.9998   1.2735065843e+02   2.9561437857e+01    0.1464222    0.1133678 -57.98 0.0008846618    1.726    0.421
       128  -8.4761    243.6499    199.8999   7.9808452497e+01  -4.8342045890e+00    0.2163778    0.1623393  31.56 0.0004734015    1.313    0.239
       129  -8.8435    213.4591    197.0413   8.4770838870e+01   5.4403636699e-01    0.2306428    0.1723892  29.57 0.0001007157    1.208    0.172
       130  -7.8245    214.2527    192.0344   8.3671878457e+01   1.1857626511e+00     0.179894    0.1574373   0.49            0    1.052    0.049
       131  -9.4492    181.7424    187.6957   8.9305204992e+01   7.8259356767e+00    0.2447129    0.2251613  19.85 0.0003172265    1.021    0.021
       132  -8.7091    202.7205    172.0303   8.1940464762e+01   6.6202656989e+00    0.2212577      0.18773  30.56 0.0003570693    1.126    0.112
       133  -7.4475    188.4915    169.5807   8.4326897485e+01   9.8254194799e+00    0.1449624    0.1322159  16.00  5.86036e-05    1.029    0.028
       134  -8.5331     67.5041    167.8564   1.1206569791e+02   3.1813720852e+01    0.2035456    0.1723888  52.80  0.001235376    1.193    0.162
       135  -7.7221    152.6463    156.7357   8.9523021690e+01   1.9599148139e+01    0.1508508    0.1177468   9.42 0.0003711196    1.622    0.384
       136  -9.1927     66.8513    144.6995   1.0886345313e+02   3.7387984475e+01    0.4621106    0.2902318  75.36  0.002074347    1.933    0.483
       137  -7.7482    139.4934    139.0140   8.8803437760e+01   2.6151445605e+01    0.2115038    0.1334843 -24.16 0.0006484943    2.350    0.575
       138  -7.5060    108.5471    137.4368   9.6399939988e+01   3.2540353463e+01    0.1468695    0.1424735 -70.06 0.0002075514    1.041    0.040
       139  -7.6696     41.0099    129.3297   1.1349252731e+02   4.4173584227e+01    0.1912938    0.1049554  -9.51 0.0007051731    4.399    0.773
       140  -7.1672    193.3437    127.3168   7.3772168641e+01   1.6861016519e+01    0.1596461    0.1192378   8.04 0.0007048626    1.716    0.417
       141  -8.0013    133.6205    124.1977   8.6792161316e+01   3.0693515522e+01    0.3412412    0.1873033  22.32  0.001087053    3.422    0.708
       142  -8.0533     12.3185    121.3459   1.2036112103e+02   4.8545473096e+01    0.1277739   0.07345884 -49.52 0.0007048952    1.726    0.421
       143  -7.6414     99.9595    118.8796   9.4638400670e+01   3.8473871816e+01    0.2449757    0.1772976  -1.10  0.001064678    2.116    0.527
       144  -9.1937    204.9778    117.9771   6.9179052593e+01   1.6035054516e+01     0.259405    0.2291067  32.59 0.0003460854    1.179    0.152
       145  -8.0199     15.9352    118.0000   1.1895302028e+02   4.9076132793e+01    0.1676115   0.07199909  22.11 0.0008000027    2.926    0.658
       146  -8.6844    133.9561    107.4884   8.2410656972e+01   3.4335125621e+01    0.6173697    0.2102394 -43.99  0.001933514    2.894    0.654
