#   1 NUMBER                 Running object number                                     
#   2 MAG_AUTO               Kron-like elliptical aperture magnitude                    [mag]
#   3 X_IMAGE                Object position along x                                    [pixel]
#   4 Y_IMAGE                Object position along y                                    [pixel]
#   5 X_WORLD                Barycenter position along world x axis                     [deg]
#   6 Y_WORLD                Barycenter position along world y axis                     [deg]
#   7 A_WORLD                Profile RMS along major axis (world units)                 [deg]
#   8 B_WORLD                Profile RMS along minor axis (world units)                 [deg]
#   9 THETA_WORLD            Position angle (CCW/world-x)                               [deg]
#  10 FWHM_WORLD             FWHM assuming a gaussian core                              [deg]
#  11 ELONGATION             A_IMAGE/B_IMAGE                                           
#  12 ELLIPTICITY            1 - B_IMAGE/A_IMAGE                                       
         1 -14.4474      3.0909    100.6977   1.3640881148e+02   5.5847752100e+01     3.438964    0.6317373 -80.47  0.009538294    5.094    0.804
         2 -13.3164    206.8192     33.5807   5.7744978635e+01   2.9315980165e+01      1.15251     1.042733 -84.79  0.006309139    1.155    0.134
         3 -13.6822    223.4904     16.1817   5.2381339753e+01   2.7726736605e+01    0.8522586    0.8061316  46.87  0.002238479    1.442    0.307
         4 -12.7425      3.0181     16.5969   1.2002072233e+02   7.6363229995e+01    0.7888572    0.3722021 -57.44  0.004040726    1.888    0.470
         5 -12.4046      4.6051      3.7732   1.1172845429e+02   7.8781246774e+01    0.6897804    0.5340117 -30.21  0.004587627    1.127    0.112
         6 -11.3269    143.0291    248.9921   1.1316719263e+02   5.5385759980e+00    0.3953117    0.2141079  44.81  0.002202782    1.972    0.493
         7 -11.1607    184.9178    249.0184   1.0501676943e+02   3.9126658836e-01    0.3558072    0.1863026  -0.70  0.001868992    2.507    0.601
         8 -12.2731    175.5621    249.4076   1.0681859049e+02   1.4535863751e+00    0.6723918    0.2577661  19.66  0.002930643    3.091    0.677
         9 -12.1509    151.1619    247.0749   1.1129463258e+02   4.7845911238e+00    0.4923412    0.3290184   7.67  0.003109735    1.465    0.317
        10  -9.4362    123.3982    229.7176   1.1506153065e+02   1.1146984706e+01    0.1747674    0.1521295  54.68 0.0006471181    1.336    0.251
        11 -11.6493    132.1075    248.9414   1.1540500008e+02   6.9342920627e+00    0.6559194    0.2242482  31.21  0.003018495    2.233    0.552
        12 -12.0512    119.5887    237.2411   1.1676434472e+02   1.0404311828e+01    0.6491235     0.403607   1.26  0.001718426    2.219    0.549
        13 -12.4009    123.3912    248.0015   1.1712365155e+02   8.1910551156e+00    0.7818252    0.4296713  37.64  0.004534741    1.456    0.313
        14 -10.7427    116.7864    249.9349   1.1871726783e+02   8.7327326308e+00    0.4695373     0.224782  30.55  0.001829851    1.589    0.370
        15 -11.1455    110.1116    247.7386   1.1991541011e+02   9.9286063827e+00    0.5007681    0.2862463  22.05   0.00283374    1.580    0.367
        16 -11.1132     99.6967    248.0086   1.2217897046e+02   1.1202640956e+01    0.4031238     0.278478  54.35  0.002260677    1.520    0.342
        17 -10.4835     81.5097    247.5583   1.2608477971e+02   1.3530337849e+01    0.3590848    0.2119522 -87.14  0.001774631    2.437    0.590
        18 -11.6236     87.9047    248.3857   1.2476302759e+02   1.2607409000e+01    0.5754753    0.3375367  31.41  0.001928987    1.310    0.236
        19 -11.5401     84.2051    230.0955   1.2397895558e+02   1.6305556374e+01    0.5501205    0.4125791 -68.54  0.003473471    1.642    0.391
        20 -11.6075     82.7999    240.0979   1.2518408059e+02   1.4670289339e+01    0.6063185    0.2146895  44.90  0.001019188    2.354    0.575
        21 -10.8001     90.9786    241.6906   1.2350680505e+02   1.3366577002e+01    0.3378693    0.2256027  37.06  0.001267078    1.149    0.129
        22 -11.4966     88.8676    238.1331   1.2365496980e+02   1.4255575049e+01    0.4394825    0.2568834  38.64  0.001616664    1.320    0.243
        23 -11.2790     90.6989    224.1373   1.2189459682e+02   1.6572055668e+01    0.4766952    0.3253389  44.53  0.001802004    1.251    0.201
        24  -9.7797     91.2835    220.3059   1.2136340394e+02   1.7221292061e+01    0.1901904    0.1566542  31.70 0.0002468996    1.066    0.062
        25 -11.6682     59.7185    246.8910   1.3078688625e+02   1.6220821701e+01     0.595719    0.3969146  37.93  0.003864541    1.123    0.109
        26 -11.2542     68.3971    245.6616   1.2880694049e+02   1.5431228988e+01    0.3332125    0.2328248  58.82 0.0009140772    1.384    0.278
        27 -14.9707     24.3433    220.1984   1.3728301638e+02   2.5129218552e+01     1.860605     1.552802  15.93   0.01268622    1.423    0.297
        28 -11.4109    135.5166    241.3156   1.1382409828e+02   7.6532077291e+00    0.2684527    0.1805307  23.86  0.001221437    1.195    0.163
        29 -12.2993    135.0943    234.6832   1.1312012304e+02   8.7482179534e+00    0.4732878     0.332619 -45.12  0.002968238    1.735    0.424
        30 -10.6479     97.1450    239.3071   1.2191904202e+02   1.2993103972e+01    0.2690926    0.2178117  49.32 0.0009505143    1.210    0.173
        31 -12.8111    102.9587    238.0468   1.2050582934e+02   1.2457666403e+01    0.9582083    0.6885015 -30.83   0.00151146    1.838    0.456
        32 -10.0913     53.5350    241.1279   1.3177975881e+02   1.7962632398e+01    0.1806598    0.1497977  19.84  0.001000343    1.334    0.250
        33  -9.6342     55.0335    235.6949   1.3109672174e+02   1.8802255187e+01    0.2981918    0.1049183  51.85  0.001314524    2.596    0.615
        34 -11.0441    113.5195    230.6169   1.1736181063e+02   1.2335765957e+01    0.2772833    0.2016328 -47.01  0.001656667    1.685    0.407
        35 -10.4947    250.1426    230.5647   9.1404460148e+01  -4.5915088276e+00    0.1722553   0.09778835 -20.75  0.001215343    1.447    0.309
        36  -9.6837     56.5573    228.2256   1.3023756803e+02   2.0055224313e+01    0.2298764    0.1764446  70.04  0.000925292    1.316    0.240
        37 -11.0842     78.9236    225.7466   1.2480853637e+02   1.7799769292e+01    0.3292415    0.3028232 -84.57  0.002265967    1.298    0.229
        38 -11.4460     74.0806    236.7494   1.2686490164e+02   1.6349045978e+01     0.514727    0.1960275 -54.25 0.0007327669    3.276    0.695
        39  -9.5074     64.9883    224.0294   1.2794397228e+02   1.9871550443e+01    0.2430609    0.1826789 -46.07  0.001481568    1.736    0.424
        40  -8.7029     45.5771    225.4832   1.3261266413e+02   2.1843246689e+01    0.1243505   0.09812333  47.08 0.0001620731    1.017    0.016
        41 -10.4139     99.1069    223.7760   1.1989544339e+02   1.5512746022e+01    0.2398486    0.1605248  16.15 0.0009414028    1.575    0.365
        42 -10.4295     71.1689    219.2729   1.2606890798e+02   2.0046883668e+01    0.4477207    0.2587755  57.55  0.002354916    1.743    0.426
        43  -9.9073     60.2509    220.2932   1.2877518678e+02   2.1186601654e+01    0.1877388    0.1646228  30.10 0.0003352785    1.183    0.155
        44 -10.2264    153.8108    229.8811   1.0856643896e+02   6.9799669843e+00    0.1969628    0.1598107  13.87 0.0003298449    1.056    0.053
        45 -11.8986    102.1711    231.1344   1.1997328672e+02   1.3767257147e+01    0.5106609    0.3537092  -0.09  0.002857334    1.882    0.469
        46 -10.7074    107.7972    217.0986   1.1710956973e+02   1.5556678369e+01    0.4377363    0.1901284  46.25   0.00133629    2.255    0.556
        47  -9.8582    116.2936    216.2376   1.1502306915e+02   1.4513067198e+01    0.2543243    0.1807383   9.03   0.00102594    1.566    0.362
        48 -10.1935     87.4456    211.8932   1.2139590752e+02   1.9387708165e+01    0.3700195    0.3010069  66.07  0.002256661    1.309    0.236
        49 -10.7291     63.1436    208.7037   1.2710333582e+02   2.3218190830e+01    0.3457282    0.2691367  27.82  0.001397658    1.228    0.186
        50  -9.7206     58.5440    212.5072   1.2856860187e+02   2.2984696326e+01    0.2730257    0.1901435  28.80 0.0009878485    1.311    0.237
        51 -10.2876     55.8177    209.0704   1.2896637321e+02   2.4033857182e+01    0.4204958    0.2153745 -73.45  0.002094033    2.202    0.546
        52  -9.3721    110.9646    211.4686   1.1567456036e+02   1.6167223767e+01    0.1831907    0.1633608  35.71 0.0003417153    1.080    0.074
        53  -9.7871     99.2817    209.6921   1.1826193109e+02   1.8180869902e+01    0.2786211    0.1663194  54.96 0.0009659366    1.838    0.456
        54  -8.4185     74.2786    208.6526   1.2431478112e+02   2.1808150604e+01     0.138307   0.08551441  58.05 0.0007008863    1.637    0.389
        55  -9.7715     65.2074    205.2516   1.2627156532e+02   2.3691214899e+01    0.4031241    0.1390143  34.27  0.001224728    2.248    0.555
        56  -8.7872    113.7440    204.3639   1.1409005770e+02   1.7126569415e+01    0.1312462   0.09714767  62.67 0.0003024673    1.628    0.386
        57  -9.5557    106.7557    203.5430   1.1567747435e+02   1.8319885703e+01     0.215727    0.1828144 -62.95 0.0005121413    1.397    0.284
        58  -8.7509     72.5125    203.4258   1.2423878299e+02   2.3138775222e+01    0.1380711    0.1102847  46.29 5.921566e-05    1.062    0.058
        59 -13.8277      6.1425    245.2330   1.4212773212e+02   2.1977928548e+01     1.240181    0.7716758  47.09  0.008579969    1.132    0.116
        60  -8.7552     96.8079    199.2054   1.1759287140e+02   2.0655771597e+01    0.1744443    0.1506543   6.53 0.0002603719    1.277    0.217
        61  -9.1127    100.2998    198.2930   1.1659797639e+02   2.0332979922e+01     0.131149    0.1030895  -4.81 0.0002945674    1.567    0.362
        62  -9.7723     52.5028    198.2749   1.2891902612e+02   2.6770177884e+01    0.2692579    0.1613737  13.02  0.001291801    2.080    0.519
        63 -12.3890     38.4885    206.3355   1.3310264493e+02   2.6591486551e+01    0.8557038    0.4981815  41.51  0.004716684    1.371    0.271
        64  -9.9054    249.5706    194.1195   8.5761760214e+01  -3.2767610722e-01    0.2194401    0.1221629  13.42  0.001335118    1.905    0.475
        65 -11.8970     51.6390    192.2653   1.2862881302e+02   2.8221888571e+01    0.4681242    0.3799902  57.05  0.001486901    1.081    0.075
        66  -9.5656     30.8804    193.3185   1.3421158301e+02   3.0276342890e+01    0.1818471    0.1393322  40.60  0.000318238    1.143    0.125
        67  -9.1979     25.8706    192.6521   1.3548342500e+02   3.0927222737e+01    0.2378773    0.1414954  39.19  0.001295223    1.397    0.284
        68  -8.7707     21.9664    193.0643   1.3652438371e+02   3.1208057005e+01    0.1712675    0.1469951 -39.59 0.0004689765    1.526    0.345
        69  -9.9387     19.1098    188.7044   1.3703995651e+02   3.2468347670e+01    0.3748515    0.1711627  83.85 0.0009597811    2.243    0.554
        70  -9.1603    191.5829    191.6744   9.5101004783e+01   7.5780048150e+00    0.1501135    0.1159791 -38.45 0.0005517068    1.433    0.302
        71  -8.4942     38.6209    192.2918   1.3209823670e+02   2.9696740189e+01    0.1492068   0.07550716  52.89   0.00070197    1.743    0.426
        72  -9.7893    250.0000    188.9639   8.4836316014e+01   2.5834051275e-01    0.1758834   0.05185037 -34.91 0.0004772996    2.906    0.656
        73 -14.1231      8.0238    211.4230   1.4075702644e+02   2.8450855198e+01     2.656725     1.091805 -86.09   0.01325282    2.451    0.592
        74 -10.3326     70.6769    187.0685   1.2297758581e+02   2.6984492746e+01    0.3311869    0.1837537  26.17  0.001529086    1.755    0.430
        75 -11.7603     58.4522    184.9706   1.2609309374e+02   2.9062578893e+01    0.2585973    0.2521574  41.67 0.0004784809    1.164    0.141
        76  -8.6746    107.4796    185.5306   1.1300762380e+02   2.1913781152e+01    0.1427184    0.1256025  36.30 6.422369e-05    1.005    0.005
        77 -13.9116     26.3519    247.3941   1.3798209530e+02   1.9692821407e+01     2.349502    0.9505179  20.49   0.01119816    2.781    0.640
        78  -9.7933     36.8854    180.3502   1.3166288987e+02   3.2665159873e+01    0.2776393    0.1839517 -66.75 0.0005992636    1.604    0.376
        79  -8.4056     65.6712    181.7463   1.2375310386e+02   2.8879471801e+01    0.1302397    0.1069806  -8.42 0.0002282363    1.553    0.356
        80  -8.9915     27.1145    179.5150   1.3432461896e+02   3.3862416500e+01    0.1981126    0.1680573 -62.83 0.0007227261    1.349    0.259
        81  -9.4018     80.9499    178.6664   1.1913725724e+02   2.7467973922e+01    0.2273487    0.1895491 -28.82 0.0003338504    1.470    0.320
        82  -8.8037    111.2135    177.8489   1.1086799934e+02   2.2961128814e+01     0.200513    0.1620673  10.19  0.001058196    1.357    0.263
        83 -11.6696    248.4905    172.7346   8.2255532106e+01   2.5046404422e+00    0.4608986    0.2746908 -28.18  0.002936911    1.376    0.274
        84 -11.6665    245.4207    162.2417   8.0813349961e+01   4.2883004668e+00    0.3719985    0.1870331 -35.57  0.002108942    1.700    0.412
        85 -10.5501    249.5092    161.4982   8.0100983543e+01   3.8504269121e+00    0.2378522    0.1760286 -41.69  0.001612288    1.515    0.340
        86 -11.1851    246.5101    156.9401   7.9687615256e+01   4.8575654731e+00    0.5192444    0.3125614  62.13    0.0025506    3.837    0.739
        87 -10.8284     70.2176    172.9938   1.2142931794e+02   3.0325361873e+01    0.2735942    0.2516041  46.26 0.0004130352    1.052    0.050
        88 -10.8686     54.2549    171.9158   1.2591727705e+02   3.2688429738e+01    0.4668314    0.2248615  40.94  0.001476092    1.787    0.440
        89 -11.3589     11.6286    171.1431   1.3816822219e+02   3.7252858722e+01     1.179555    0.1091222  46.91  0.003415552    5.125    0.805
        90 -11.3253     12.3977    167.2330   1.3774266588e+02   3.8138870485e+01    0.4110624    0.2413334  16.15  0.002110922    1.902    0.474
        91 -11.5598      9.5120    164.9444   1.3845587582e+02   3.8925583506e+01    0.5891103    0.2285883 -50.68  0.002341738    3.312    0.698
        92 -10.4861      2.1973    172.2210   1.4084791377e+02   3.7715572226e+01    0.3433943    0.1460348  67.50  0.001120403    2.134    0.531
        93 -11.3085     39.1224    167.9586   1.2996703191e+02   3.5426068494e+01    0.3416147    0.2979819 -30.52 0.0003882422    1.422    0.297
        94  -9.8478     27.1429    171.6132   1.3376678091e+02   3.5761638789e+01    0.3135213    0.2128729 -48.70 0.0004532316    1.780    0.438
        95  -9.3888     17.9406    172.1973   1.3643885982e+02   3.6467016110e+01     0.218817    0.1471249  55.50  0.001219788    1.278    0.218
        96  -9.5968     91.6322    168.4256   1.1469776899e+02   2.8222261326e+01    0.2558698    0.1967662  40.54 0.0001804641    1.173    0.148
        97 -11.9375     78.3424    164.9417   1.1799056558e+02   3.1086752265e+01    0.6977162    0.5228326  29.49  0.002219868    1.292    0.226
        98 -11.0684     82.3603    157.5403   1.1568839391e+02   3.2268055831e+01    0.5879201    0.2899387  39.63  0.002421774    1.823    0.451
        99  -9.8254     68.1733    166.2038   1.2115207203e+02   3.2245634457e+01     0.196508    0.1924226  37.04 0.0004115824    1.124    0.110
       100  -9.9091     23.9801    161.9858   1.3399366818e+02   3.8434552426e+01     0.199876    0.1774234  60.20 0.0004409042    1.043    0.041
       101  -9.1197     66.7943    161.3792   1.2092239794e+02   3.3621047368e+01    0.1912381    0.1353884  20.63 0.0002462746    1.524    0.344
       102  -8.8668     43.1055    161.1803   1.2811037274e+02   3.6670398911e+01    0.2036918    0.1392998  54.90 0.0003903308    1.351    0.260
       103 -10.3854     25.7854    154.9918   1.3289328188e+02   4.0028283620e+01    0.2642309    0.1423911  41.84 0.0007146965    1.653    0.395
       104  -8.4659    228.4600    155.4666   8.2068488022e+01   7.6047216629e+00    0.1217127    0.1017944 -18.05 9.174461e-05    1.038    0.037
       105 -10.2233     32.2873    153.6800   1.3073496898e+02   3.9732118531e+01     0.234037    0.2224262 -81.65 0.0003070695    1.136    0.120
       106 -10.8448     12.1487    153.3785   1.3701567086e+02   4.1595019169e+01    0.2682668    0.1761628  81.66  0.001108887    1.396    0.284
       107 -11.0236    249.7024    150.8990   7.8128940883e+01   5.2419308254e+00    0.3897334    0.1990631 -31.57  0.002137032    1.605    0.377
       108 -11.9816    248.0077    142.5402   7.6787822936e+01   6.6121498828e+00    0.5509138    0.4423417   8.24  0.003870864    1.299    0.230
       109 -12.6289    248.4044    134.1783   7.5135159286e+01   7.7045672464e+00     1.050505    0.3786476 -29.51  0.004618185    2.669    0.625
       110 -10.8576     92.8355    149.8674   1.1127510046e+02   3.2433928286e+01    0.3262185    0.3057532  -0.43  0.000892954    1.179    0.152
       111 -10.1716     98.5534    231.2268   1.2080362923e+02   1.4230211182e+01    0.2318638    0.2072456 -80.36 0.0006824841    1.396    0.284
       112 -10.4279     23.1669    149.7732   1.3329093593e+02   4.1598553397e+01    0.3543862    0.1420095  34.40  0.001495076    2.175    0.540
       113 -10.3352     80.8808    148.4255   1.1465063629e+02   3.4742140349e+01    0.2661896     0.249319  61.35 0.0006322245    1.025    0.024
       114 -11.7461     68.2570    143.8816   1.1789506043e+02   3.7812471107e+01    0.7197944    0.4372007  65.13  0.002115387    1.977    0.494
       115  -8.7487     40.6460    147.3140   1.2738663276e+02   4.0485031568e+01    0.1591869   0.09217069  57.48 0.0007045406    1.735    0.424
       116 -12.1437      2.9671    143.4967   1.3933718072e+02   4.4738051386e+01    0.6224881    0.3491976  85.87  0.003153759    1.622    0.383
       117 -12.5056      9.0941    143.2931   1.3735336214e+02   4.4382061499e+01    0.5348632    0.3114621 -65.26  0.002718108    1.677    0.404
       118  -9.1122    235.9637    146.0167   7.9131625507e+01   7.8618119990e+00    0.1851549     0.128136  -3.89 0.0005366345    1.581    0.367
       119  -9.0691     96.4956    145.9683   1.0947149096e+02   3.2749044271e+01    0.2136905    0.1521259 -58.85 0.0003659884    1.486    0.327
       120  -9.9476    133.1559    141.1700   9.8298432591e+01   2.7029134258e+01    0.3590901    0.2209394 -57.24  0.001083494    1.870    0.465
       121  -9.3614     44.7407    139.9455   1.2512717120e+02   4.1937335494e+01    0.2049341    0.1800134  87.66 0.0004094237    1.093    0.085
       122  -9.8253    106.6119    135.6883   1.0442624856e+02   3.3378611836e+01    0.4302898    0.2908631   0.67  0.001513455    2.444    0.591
       123 -11.8353      8.3175    132.4871   1.3689878630e+02   4.7222495307e+01    0.2544046    0.2261273 -65.62 0.0008712691    1.174    0.148
       124 -12.0658      2.9194    132.6104   1.3875197246e+02   4.7526758615e+01    0.5425778    0.2547266  73.75  0.001964238    2.076    0.518
       125  -9.5431     44.2777    129.9763   1.2393088699e+02   4.4617229800e+01    0.2013983    0.1808132  89.36 0.0004509357    1.067    0.063
       126  -9.3430     58.8338    127.8284   1.1841914947e+02   4.3319064878e+01    0.2140342    0.1995541 -44.48 0.0004951517    1.161    0.139
       127  -9.3540     66.6482    126.6936   1.1547348499e+02   4.2483802822e+01    0.1556451    0.1176037 -22.18 0.0007042281    1.710    0.415
       128 -12.9553     17.5887    121.4770   1.3265449109e+02   4.9459280835e+01    0.9384933    0.3288602  48.66  0.003461464    2.918    0.657
       129  -8.4694     41.3254    123.2777   1.2402969480e+02   4.6736026675e+01    0.1448344    0.1086539 -31.54 0.0005930299    1.589    0.371
       130 -10.9420    249.8673    117.8563   7.1761632407e+01   9.7375012064e+00    0.5026969    0.2601067 -14.14  0.002244188    3.110    0.678
       131 -12.1558    247.6880    112.7733   7.1012343676e+01   1.0775496001e+01    0.4723374     0.397227  25.92  0.003308411    1.413    0.292
       132 -13.0570    248.2782    101.7784   6.8724551842e+01   1.2199269862e+01     1.130575    0.5266287 -30.00  0.005759055    1.916    0.478
       133  -8.7987    167.7877    113.1630   8.3742674610e+01   2.5600867608e+01    0.2485433    0.1624307 -80.33 0.0009498044    2.885    0.653
       134 -11.2627    239.1708    120.8161   7.3701426300e+01   1.0983984721e+01    0.4264146    0.1643831 -26.62  0.001714597    3.074    0.675
       135 -10.5957    231.9062    116.3775   7.3756920480e+01   1.2809696305e+01    0.2197265     0.148504 -41.89 0.0007768667    1.322    0.244
       136 -10.2439    238.0118    249.0000   9.5923422479e+01  -5.3498216201e+00    0.1579979   0.04628561  29.94 0.0008033834    2.949    0.661
       137 -12.7088     13.2201    101.5872   1.3225495434e+02   5.5045155340e+01    0.5898987    0.4520287  -9.70  0.002565947    1.508    0.337
       138  -9.7348    161.5589     79.7844   7.6298978937e+01   3.3087102812e+01    0.2154237    0.1313664 -49.59 0.0009450421    1.656    0.396
       139  -9.7319     29.6269    108.2064   1.2633354810e+02   5.1976204734e+01    0.2067003    0.1167398 -59.41 0.0004454871    1.655    0.396
       140 -11.2005     74.0062    244.3395   1.2747648523e+02   1.4996630063e+01    0.3374217    0.2726953 -68.62  0.002343641    1.565    0.361
       141 -11.1336    197.7753    245.7064   1.0223290057e+02  -6.9327509107e-01    0.2556863    0.1386858  12.80  0.001165724    1.684    0.406
       142 -11.9866    124.6788    240.4984   1.1602943702e+02   9.2034659852e+00    0.5238888    0.2381983  32.48  0.002688176    1.693    0.409
