#   1 NUMBER                 Running object number                                     
#   2 MAG_AUTO               Kron-like elliptical aperture magnitude                    [mag]
#   3 X_IMAGE                Object position along x                                    [pixel]
#   4 Y_IMAGE                Object position along y                                    [pixel]
#   5 X_WORLD                Barycenter position along world x axis                     [deg]
#   6 Y_WORLD                Barycenter position along world y axis                     [deg]
#   7 A_WORLD                Profile RMS along major axis (world units)                 [deg]
#   8 B_WORLD                Profile RMS along minor axis (world units)                 [deg]
#   9 THETA_WORLD            Position angle (CCW/world-x)                               [deg]
#  10 FWHM_WORLD             FWHM assuming a gaussian core                              [deg]
#  11 ELONGATION             A_IMAGE/B_IMAGE                                           
#  12 ELLIPTICITY            1 - B_IMAGE/A_IMAGE                                       
         1 -12.2609     17.6072     24.0428   1.0427001069e+02   6.7968545592e+01    0.4034651    0.3006819 -46.89  0.002809557    1.866    0.464
         2 -11.7744      7.2451     18.0778   1.0673285534e+02   6.9719584613e+01     0.215915     0.162619  -5.42 0.0003741006    1.102    0.093
         3 -11.7675    190.4812     20.1880   5.9106553906e+01   3.5428196387e+01    0.2955683    0.2366555  32.79 0.0004461297    1.780    0.438
         4 -11.2042     33.9482     18.4734   9.4942471339e+01   6.6851227637e+01    0.4153919    0.2385763 -41.13  0.001223668    2.197    0.545
         5 -10.9611    182.2756     18.9206   5.9787760003e+01   3.7412040980e+01    0.2230834    0.2115659  29.41 0.0009266385    1.400    0.286
         6 -10.8548    115.4780     16.0405   6.9565318192e+01   5.2679492061e+01     0.445409    0.1773992  41.65  0.001963773    2.530    0.605
         7 -11.8710     80.2604     15.2534   7.7731711161e+01   5.9850793833e+01    0.2777149    0.2565675 -26.09 0.0008831291    1.341    0.255
         8 -10.5839     43.2990     16.1956   9.0283083476e+01   6.5859240328e+01    0.2770795    0.2121586  63.83  0.001679384    2.656    0.623
         9 -11.9994     25.8300     13.2303   9.6190017323e+01   6.8451552761e+01    0.3563401    0.2238191  24.32  0.001671397    1.398    0.285
        10 -10.8852     74.5057      8.6135   7.6895345485e+01   6.1507158226e+01    0.2071328    0.1858202  14.67 0.0008691727    1.178    0.151
        11  -9.9432     66.5685     11.9290   8.0509670179e+01   6.2621179858e+01    0.1616457     0.106457 -15.76  0.001022275    1.596    0.374
        12 -12.0290     45.5546      8.1301   8.6086765003e+01   6.6359115232e+01     0.426295    0.2986079  61.21  0.002564609    2.585    0.613
        13 -10.1304      7.8159     10.8018   1.0345512988e+02   7.0612350823e+01     0.158979    0.1178941  33.61 0.0005773249    1.927    0.481
        14 -12.3126    209.5477      5.5409   5.4092138467e+01   3.2830755857e+01    0.4355172    0.2207506 -68.88 0.0006046619    1.964    0.491
        15 -10.5191    105.5209      9.0072   6.9410361523e+01   5.5398590916e+01    0.1636931    0.1187817 -18.88  0.001040025    1.614    0.380
        16 -10.4893    186.0202      8.4947   5.7006552720e+01   3.7658262067e+01    0.1796718   0.07134418  52.36 0.0008102829    2.692    0.629
        17 -10.0291    128.1385      8.1959   6.4832983935e+01   5.0625952990e+01    0.1847438    0.1363984  48.55  0.000461097    1.212    0.175
        18 -10.3249     87.4282      7.2288   7.2964413353e+01   5.9187524196e+01    0.1928773    0.1128857 -11.98  0.001115878    2.013    0.503
        19 -11.6222     24.8010      7.0239   9.3952135821e+01   6.9260712496e+01    0.1948046    0.1431626 -17.52 0.0004526372    1.305    0.234
        20 -10.7969     13.7638      9.9913   1.0026140106e+02   7.0143460207e+01    0.2167211    0.1040709 -32.07  0.001348446    1.878    0.467
        21  -9.8910     19.1415      7.1175   9.6514402983e+01   6.9903600995e+01    0.2032578    0.1165013  14.95  0.001347968    1.516    0.341
        22 -11.5132     38.2452      4.0384   8.7100838171e+01   6.7803005488e+01    0.3047364    0.2803068  37.44  0.001798347    1.631    0.387
        23 -11.4323    194.3479      3.8352   5.5148704657e+01   3.6284529232e+01    0.2505443    0.1535307  63.68 0.0006390614    1.488    0.328
        24 -10.4281    111.8829      5.0812   6.6869772811e+01   5.4382277276e+01    0.1637857    0.1176806  38.65 0.0004236074    1.299    0.230
        25 -10.4239     14.1185      4.8728   9.7838245506e+01   7.0693007165e+01    0.1444911    0.1156504   0.70 0.0004408771    1.256    0.204
        26 -11.5965    161.4293      2.9986   5.8571185560e+01   4.3662159585e+01    0.3514065    0.2198453  84.61  0.001630108    1.471    0.320
        27  -9.8611     30.8122      3.8116   8.9976892358e+01   6.8834400721e+01    0.1323887     0.112866   3.24 0.0004100172    1.327    0.246
        28 -10.7553    217.8209      2.4768   5.2795546881e+01   3.1401450826e+01    0.2028065    0.1479686 -52.87  0.001410966    1.362    0.266
        29 -11.5819    180.6663      2.1764   5.6174440984e+01   3.9451205766e+01    0.3455595     0.168858  64.95  0.001895307    1.685    0.407
        30 -10.5161    135.2002      1.8132   6.1881195057e+01   4.9595069367e+01    0.2080696    0.1409516  57.17 0.0004399159    1.219    0.180
        31  -9.3310    115.6623      2.2423   6.5280927156e+01   5.3799438974e+01    0.1120968   0.08344894  88.54 0.0003029191    1.553    0.356
        32 -10.9060     50.3528      2.0445   8.1824271384e+01   6.6170386876e+01    0.2004481    0.1292914  35.13 0.0003128594    1.248    0.199
        33  -9.3223     90.6389      1.2610   7.0109003084e+01   5.9019774247e+01    0.1071464   0.08563596  85.26 0.0006978515    1.632    0.387
        34  -9.9412      9.4605      1.2932   9.8441432286e+01   7.1561290571e+01    0.1714283   0.07362472  39.99 0.0008406368    3.312    0.698
        35  -9.3360      2.4635      1.4369   1.0199071780e+02   7.2205212686e+01    0.1037982   0.07195044  -4.92  7.30598e-05    1.007    0.007
        36 -11.0034     73.7947      2.3154   7.4725377278e+01   6.2147945522e+01      0.21008    0.1638981  20.33 0.0008323397    1.162    0.139
        37 -10.2883    173.1019    233.1757   1.0953328267e+02  -8.0623624762e-01    0.2059549    0.1722885   5.15 0.0004576098    1.227    0.185
        38 -12.3750    209.5341    247.1145   1.0449514555e+02  -8.9164630427e+00    0.3771234    0.2935836  23.76 0.0004347815    1.168    0.144
        39  -9.5476    187.2512    250.3631   1.0944580429e+02  -6.1035663485e+00    0.1283573   0.09113548  -7.93 0.0006955275    1.618    0.382
        40 -11.3566    128.4815    249.8152   1.2150958604e+02   3.4259688952e+00    0.3511117    0.2280779 -26.57  0.001685571    2.428    0.588
        41 -11.5990    119.9799    240.8893   1.2208513934e+02   6.5744123864e+00    0.5270256    0.2540093  29.78  0.001802467    2.405    0.584
        42 -11.5521    111.6592    244.6226   1.2435318635e+02   7.1680182577e+00    0.5715303      0.20032 -56.27  0.002179955    3.064    0.674
        43 -11.2602    114.8714    249.8690   1.2435781513e+02   5.6078280890e+00     0.381742    0.3383931  -1.22   0.00235723    1.443    0.307
        44 -11.2910    121.3188    247.9132   1.2275385625e+02   4.9554060042e+00    0.2733489    0.1983744  48.14 0.0003298123    1.226    0.184
        45 -10.6242    117.6531    246.2283   1.2330042805e+02   5.8807284414e+00    0.2234122    0.1856406 -64.70 0.0002776069    1.320    0.243
        46  -9.6873     50.4633    250.3731   1.3737574980e+02   1.4981515319e+01    0.1206884   0.09822011  68.39  0.000193472    1.060    0.057
        47 -11.5531     45.8947    247.2594   1.3798288197e+02   1.6220265893e+01    0.4372998    0.2665917 -86.39  0.001838279    1.534    0.348
        48 -11.9549     38.9345    211.8900   1.3612094638e+02   2.4931134602e+01    0.2719627    0.2242436  68.68 0.0003598536    1.110    0.099
        49 -12.2474     30.7077    231.6882   1.3961647430e+02   2.1422419636e+01     1.050643    0.3964788  51.65  0.003532774    2.386    0.581
        50 -11.6847     46.1113    230.0765   1.3639670113e+02   1.9897981077e+01    0.4937611    0.2592615  86.07 0.0008415577    2.064    0.516
        51 -11.4677     38.7090    223.7944   1.3732007908e+02   2.2225858043e+01    0.5311471    0.3009022  27.92  0.002739722    2.256    0.557
        52 -12.1719     38.8677    218.0392   1.3674160177e+02   2.3516465021e+01     0.307504    0.2768542  57.96 0.0008629528    1.248    0.198
        53 -12.7913     27.8950    219.2663   1.3912231397e+02   2.4516937418e+01     0.543192    0.3269841  27.04  0.002512387    2.158    0.537
        54 -12.3419     20.0716    216.8347   1.4050044861e+02   2.5925086998e+01    0.3091319    0.1942621 -74.87 0.0004577041    1.366    0.268
        55 -12.2352     31.3261    212.5560   1.3780344115e+02   2.5665962605e+01    0.5523795    0.3484081 -61.05  0.002472494    1.580    0.367
        56 -11.8545     44.8044    236.8017   1.3728033467e+02   1.8587533188e+01    0.3679606    0.2111767  69.04   0.00026308    1.655    0.396
        57 -12.5026     39.5784    230.9736   1.3779869362e+02   2.0516604137e+01    0.7172345    0.2262319 -72.13  0.002901375    3.024    0.669
        58 -13.8685     14.1200    247.3748   1.4385772681e+02   1.9954551629e+01    0.7080547    0.5457166 -87.29  0.005098516    1.198    0.165
        59 -13.1677      4.1255    245.8523   1.4551726672e+02   2.1319129148e+01    0.7871416    0.4338566 -72.75   0.00395201    1.643    0.391
        60 -13.1763      2.6933    230.7861   1.4485072720e+02   2.4620104637e+01     1.206734    0.3097007 -72.78  0.003402846    3.087    0.676
        61 -14.1251     35.0763    244.2349   1.3979264230e+02   1.8203930172e+01    0.8317789    0.6125084  80.87  0.001877161    1.100    0.091
        62 -13.5840     10.9221    231.7309   1.4339747966e+02   2.3590219060e+01    0.6383126    0.4721856  61.11  0.001605226    1.210    0.173
        63 -12.8730     23.7919    246.7649   1.4207732993e+02   1.9003310999e+01    0.6181654    0.3061868 -76.85  0.001610057    1.800    0.445
        64 -12.8825     21.4735    237.9486   1.4187077102e+02   2.1121930363e+01    0.5075038    0.3300645  54.19  0.002093065    1.354    0.261
        65 -13.0575     13.5907    223.5893   1.4230927130e+02   2.5092000682e+01    0.5350325    0.2995557  67.33  0.001392366    1.587    0.370
        66 -13.3925      9.5608    214.6839   1.4242786867e+02   2.7485008350e+01    0.8688275    0.3594126  60.16  0.003175572    2.406    0.584
        67 -11.5246    143.9414    232.3018   1.1564071153e+02   4.2962930711e+00     0.377385    0.2192443  38.20  0.000926015    1.588    0.370
        68 -11.2678     58.5224    230.4621   1.3387862100e+02   1.8178778529e+01    0.3780122    0.2132433  83.49  0.001695376    1.969    0.492
        69 -10.5800     55.7048    228.6645   1.3428006804e+02   1.8959594709e+01    0.1904151    0.1665023  89.50 0.0005339846    1.126    0.112
        70  -9.7623    156.4536    232.5511   1.1297447982e+02   2.1165241437e+00    0.1983334    0.1239036  27.60 4.763959e-05    1.662    0.398
        71 -10.5229    152.6612    231.3589   1.1359925902e+02   2.9964747888e+00    0.3235067    0.1994292 -65.65  0.001072473    2.197    0.545
        72 -10.7704     81.0396    231.7026   1.2925718607e+02   1.4682503790e+01    0.2334961    0.1751337  87.84  0.000449123    1.314    0.239
        73 -10.7583     74.4895    231.8884   1.3067566029e+02   1.5610913900e+01    0.2299771    0.1903349 -74.19 0.0005318851    1.215    0.177
        74 -11.4261     73.5843    226.9324   1.3029574612e+02   1.6845792152e+01    0.4207392    0.2099219  63.42  0.001557519    2.376    0.579
        75 -11.8365    242.8560    229.2094   9.5103585467e+01  -1.0767635241e+01    0.2937482    0.2438151 -59.07  0.001048462    1.843    0.457
        76 -10.0248     87.0404    231.0564   1.2788793576e+02   1.3914458657e+01    0.2077955    0.1387213  67.37  0.001072643    1.535    0.349
        77  -9.7485    248.4916    230.5060   9.4327924359e+01  -1.1713820695e+01    0.1245669   0.09855441 -10.73 -2.416128e-05    1.031    0.030
        78 -11.8303    107.2077    228.2204   1.2310455103e+02   1.1333715021e+01    0.3215239    0.2574575 -84.78 0.0004123612    1.317    0.241
        79 -10.7782    111.4768    227.5288   1.2206255634e+02   1.0781104264e+01    0.2285359    0.2082366  63.30 0.0001173948    1.008    0.008
        80 -10.6494     96.6737    230.1285   1.2567693758e+02   1.2615160750e+01    0.3220848    0.1894367  58.25  0.001084598    1.753    0.430
        81  -9.9791     64.0179    229.2548   1.3259872007e+02   1.7691058053e+01    0.1708923    0.1403696  60.26            0    1.105    0.095
        82 -10.6842    173.7313    227.9711   1.0851594343e+02   6.9395231137e-02    0.2438501    0.1876868  37.18  0.000385369    1.233    0.189
        83  -9.5486    125.8761    228.3599   1.1899615479e+02   8.1869932300e+00    0.1894294    0.1255997  26.89 0.0003696375    1.685    0.406
        84 -10.2065    249.1538    227.1633   9.3613322944e+01  -1.1285078508e+01    0.1504441    0.1400351 -11.56 0.0006240546    1.318    0.241
        85  -9.3250     99.5335    225.4765   1.2442473378e+02   1.3182438485e+01    0.1374333    0.1254905  66.74  3.23893e-05    1.032    0.031
        86 -11.0451     78.9187    223.1540   1.2867904184e+02   1.6910526245e+01    0.3498409    0.1859201 -65.51  0.001652302    1.869    0.465
        87 -11.2053    176.9621    222.7735   1.0692548590e+02   5.1685456474e-01    0.3340842    0.2592643  70.73  0.001718056    1.834    0.455
        88 -10.9270    121.1613    222.1620   1.1910648113e+02   1.0320535276e+01    0.2512355    0.2195101 -46.71 0.0003389753    1.258    0.205
        89 -11.2164     77.4370    247.7867   1.3181503003e+02   1.1780854159e+01    0.3890124    0.2588191  75.39  0.001377438    1.520    0.342
        90 -11.3394    135.2329    220.0683   1.1561179030e+02   8.3414988520e+00    0.4819549    0.3267581 -61.82  0.002372307    1.634    0.388
        91  -9.6591     54.4937    222.0785   1.3384746468e+02   2.0609277467e+01    0.2679888    0.1965409 -26.74  0.001399517    2.323    0.570
        92 -10.3015    187.9942    221.7012   1.0441566834e+02  -1.1445898264e+00    0.2639658    0.1320284 -31.93  0.001094559    2.392    0.582
        93 -10.6145    159.1008    222.1491   1.1066567218e+02   3.7268663157e+00    0.3030108     0.173768  45.82 0.0007817268    1.736    0.424
        94 -10.3839    249.2778    219.9933   9.2295370897e+01  -1.0174277065e+01    0.2919489    0.1982307  58.32 0.0007736792    2.859    0.650
        95  -9.6261     62.9577    219.9656   1.3179206090e+02   1.9943775139e+01    0.2065108    0.1331146  68.95 0.0004643748    1.543    0.352
        96 -11.0223     47.5313    218.8540   1.3499264572e+02   2.2254250315e+01    0.3010106    0.1909019 -59.83     0.001646    1.610    0.379
        97 -10.7488     45.5721    215.4774   1.3506265155e+02   2.3281949646e+01    0.2116998    0.1733296  81.88 3.504653e-05    1.013    0.013
        98 -10.0125    222.1751    217.7837   9.6863075871e+01  -5.9215429100e+00    0.1834594    0.1381807  -9.27 0.0003495407    1.313    0.238
        99 -10.3070    217.5349    217.4015   9.7685314871e+01  -5.1414512477e+00    0.2357739    0.1960614  31.14  0.001419075    1.259    0.205
       100 -11.2678    173.0283    216.2688   1.0660781284e+02   2.4725491735e+00      0.40476    0.2885104 -75.07  0.001641685    2.158    0.537
       101 -10.0284    107.0121    217.1261   1.2155227082e+02   1.3828740428e+01    0.2691784    0.1790932 -33.29  0.001232113    2.125    0.529
       102 -10.5732     88.8184    218.0621   1.2581490819e+02   1.6557626318e+01    0.2716996    0.2018958 -89.89 0.0003286012    1.392    0.282
       103 -11.7139     84.7068    214.0513   1.2620478634e+02   1.8123932406e+01    0.5238119    0.4013607 -26.90  0.002691803    1.910    0.476
       104  -9.8074    228.2173    216.9477   9.5563752723e+01  -6.6879670847e+00    0.1682841   0.09699354 -39.62  0.000391284    1.627    0.385
       105 -10.4039    101.3082    217.1214   1.2285148047e+02   1.4772062130e+01    0.2166721       0.1739 -44.72 0.0006211358    1.436    0.304
       106 -11.8676     72.8687    216.4055   1.2918171123e+02   1.9354908450e+01    0.2928507    0.2495349  45.88 0.0001050148    1.219    0.180
       107 -10.0149     74.4420    212.6718   1.2835543019e+02   1.9995876198e+01    0.2711548    0.1550548  41.30  0.001305305    1.695    0.410
       108  -9.8124    157.4335    216.5604   1.1006499474e+02   5.1636715550e+00     0.140699    0.1333462  19.28 0.0008035948    1.028    0.027
       109 -10.8205    145.6901    214.5479   1.1233618932e+02   7.6776575980e+00    0.5471059    0.3326078  73.68  0.002027062    3.203    0.688
       110 -10.2829    124.8034    216.1400   1.1733936127e+02   1.1016861640e+01    0.2560081    0.1890354  42.59  0.001109735    1.283    0.220
       111 -11.5442    111.9381    213.8181   1.1992294794e+02   1.3750619442e+01    0.3966222    0.2555468 -56.81  0.001133253    1.592    0.372
       112 -10.5574    197.5751    215.1973   1.0125161161e+02  -1.5247113453e+00    0.1904361    0.1223396 -30.31 0.0004442359    1.611    0.379
       113 -11.2034    118.4651    212.8304   1.1826443749e+02   1.2856307368e+01    0.5193413    0.2658759  27.87  0.002041724    2.464    0.594
       114 -10.4416     58.8923    211.2650   1.3168093520e+02   2.2528331185e+01    0.2214565    0.1619362 -84.81 0.0004505409    1.254    0.203
       115  -9.5832    164.0232    213.0284   1.0798542539e+02   4.7217815764e+00    0.1667975     0.161118   5.21 0.0003396301    1.023    0.022
       116 -10.0186    231.1846    212.1544   9.4117315555e+01  -6.3080579525e+00    0.1624022    0.1542364 -37.52 0.0005037257    1.294    0.227
       117  -9.9762    218.5942    212.2159   9.6513531268e+01  -4.3877350708e+00    0.1971258    0.1138968 -30.50  0.000951108    1.722    0.419
       118 -12.0309    129.1409    209.0655   1.1518123829e+02   1.1833349599e+01    0.4697586      0.39219 -61.61  0.002520584    1.239    0.193
       119 -11.6617     95.7777    209.1004   1.2295373345e+02   1.7528293398e+01    0.4221441    0.2640933 -66.09  0.001377961    1.622    0.383
       120 -12.3646     67.1620    207.7038   1.2937803825e+02   2.2224360501e+01    0.3619735    0.2401675  66.84  0.001851103    1.533    0.348
       121 -10.0055     13.8569    211.1087   1.4128795814e+02   2.7869360974e+01    0.1783372    0.1281312  83.34 0.0004464564    1.117    0.104
       122 -10.3028    214.5354    210.2461   9.6931028002e+01  -3.3879650010e+00    0.1857545    0.1185519 -29.32 0.0004317885    1.546    0.353
       123  -9.9853     80.6148    210.2693   1.2662941963e+02   1.9637332963e+01    0.1806341    0.1245212 -58.96 0.0009221499    1.455    0.313
       124 -11.8061     13.7202    197.4922   1.4016217683e+02   3.1034429500e+01    0.3361243    0.2128038  69.11  0.001011019    1.473    0.321
       125 -12.7799     19.3088    201.3129   1.3931110537e+02   2.9585236527e+01      0.36454    0.2441487 -62.42 0.0005080325    1.448    0.309
       126 -10.1249    237.8064    208.1911   9.2158394482e+01  -6.6090042381e+00    0.1825385    0.1359815  -9.91 0.0005076582    1.323    0.244
       127 -10.5314    143.6939    208.2429   1.1169229039e+02   9.4028385993e+00    0.3707193    0.1995944  33.23  0.001160266    1.940    0.485
       128 -11.7299    183.5272    203.8151   1.0204428281e+02   3.1201059854e+00    0.3012975    0.2576775 -28.14 0.0003222664    1.154    0.133
       129 -10.7461    152.3937    206.8772   1.0947065312e+02   8.1200427406e+00    0.2576434     0.192444  49.36 0.0006085614    1.360    0.265
       130 -10.7628     53.1256    200.1970   1.3166844433e+02   2.5937419143e+01    0.3604406    0.2172572  77.83  0.001471106    1.830    0.454
       131 -11.4673     52.8012    206.8462   1.3252948703e+02   2.4385268296e+01    0.2576491    0.2312891  46.58 0.0004417328    1.260    0.206
       132 -10.6050     51.0247    202.9657   1.3247890929e+02   2.5542474109e+01    0.2040638    0.1738656  88.73 0.0004024086    1.018    0.017
       133 -10.6552    100.6208    206.3820   1.2141171176e+02   1.7372544526e+01    0.3352467     0.122038  41.60 0.0004742004    2.580    0.612
       134 -10.9184     38.0305    205.8631   1.3570036271e+02   2.6454294419e+01    0.3539942    0.1876923  40.31 5.818552e-05    1.895    0.472
       135 -11.3549     39.2063    201.9763   1.3502878668e+02   2.7238746761e+01    0.2496137    0.2379445 -39.58 0.0007732463    1.382    0.276
       136 -10.2698      3.2566    205.7050   1.4300523502e+02   3.0113280073e+01    0.3370957    0.1526337  53.88  0.001764746    2.105    0.525
       137  -9.7869    200.4894    205.4926   9.8829544256e+01  -1.7330394254e-01    0.1397689    0.1278687  -9.31 -6.349964e-07    1.001    0.001
       138 -11.0382    108.8208    194.1669   1.1747652211e+02   1.8888725912e+01    0.2905909    0.2135169 -62.62 0.0002692305    1.357    0.263
       139 -11.9541    111.7252    202.7507   1.1821239684e+02   1.6345498526e+01     0.396649    0.2691273 -65.34  0.001045306    1.532    0.347
       140 -10.9463    109.3527    197.7137   1.1794567876e+02   1.7947564499e+01    0.2893134    0.2103434  59.18 0.0005111871    1.432    0.302
       141 -11.2804    195.4992    203.7299   9.9515100590e+01   1.0275873259e+00    0.2495012    0.2402933  -0.94 0.0008613429    1.081    0.075
       142 -12.3371    122.7276    203.3461   1.1571061490e+02   1.4277164368e+01    0.3003642    0.2732746  50.46 0.0002594643    1.064    0.060
       143 -10.9516    121.5072    199.1109   1.1527332115e+02   1.5478913164e+01    0.2548196    0.2377719  37.18  0.000328244    1.108    0.097
       144 -10.7075     73.4934    203.5344   1.2736798943e+02   2.2307149339e+01    0.3967366    0.1728362  52.95 0.0009214579    2.519    0.603
       145 -10.6675     25.0719    211.8214   1.3904505701e+02   2.6532961976e+01    0.2017024    0.1483826 -87.26 0.0003940968    1.113    0.102
       146 -11.2671     29.7451    202.0422   1.3712491248e+02   2.8305882280e+01    0.6315941    0.1581693  47.71  0.002068349    3.907    0.744
       147 -10.9831     24.5249    194.2841   1.3750065423e+02   3.0712207749e+01    0.5297695    0.2490893  83.32  0.002290981    2.529    0.605
       148 -12.3615    240.6592    200.8389   9.0253077260e+01  -5.7613371916e+00    0.4060363    0.3393923  31.36 0.0009302306    1.337    0.252
       149  -9.4886    166.4096    202.2526   1.0547288678e+02   6.5461890148e+00    0.1506593    0.1117517   5.70 0.0001288563    1.723    0.420
       150 -10.0014    159.6516    202.6076   1.0704930221e+02   7.7124517592e+00     0.288985    0.1395992  34.34  0.000622656    2.173    0.540
       151 -10.7527    190.8993    200.9478   9.9935458249e+01   2.3854097970e+00    0.2095815    0.1971878 -15.26 0.0002827551    1.024    0.024
       152 -11.2244     95.9560    200.3328   1.2158370593e+02   1.9579564346e+01    0.2647591    0.2036488 -64.34 0.0004276463    1.275    0.216
       153 -12.0646      4.7976    199.9366   1.4224375945e+02   3.1295856936e+01    0.2639161    0.1872288  38.46 0.0009107297    1.616    0.381
       154 -11.5252    208.6467    198.8647   9.5907373589e+01  -2.8999321034e-01    0.3302422     0.205327 -41.61   0.00130757    1.527    0.345
       155  -9.9542     45.1781    200.0236   1.3346688645e+02   2.6985505113e+01    0.1916613    0.1686776 -58.83 0.0006786892    1.288    0.223
       156 -10.1363    169.5712    198.2012   1.0400021581e+02   6.8246645128e+00    0.3547598    0.1386568 -45.18  0.001277529    2.561    0.610
       157 -10.8582    224.1312    197.8595   9.2712095690e+01  -2.6656143812e+00    0.2844947    0.2006047  34.28 0.0006893655    1.503    0.335
       158 -12.2079    217.7093    194.5349   9.3286502686e+01  -9.9269659719e-01    0.3900844    0.3374854  27.11 0.0008651344    1.210    0.174
       159 -12.8120    229.5751    194.8592   9.1112476136e+01  -2.9883731105e+00    0.3398242    0.2666944  -8.40 0.0007946676    1.304    0.233
       160 -10.9420    227.4742    189.8888   9.0527390685e+01  -1.7344334891e+00    0.3017068    0.1736162 -46.28  0.001079268    1.678    0.404
       161 -11.0501     90.2137    199.9081   1.2289168088e+02   2.0612312606e+01    0.3639634    0.2182101  37.51 0.0008807115    1.696    0.410
       162  -9.7132    161.9992    198.0451   1.0566060380e+02   8.2641038391e+00    0.1744922    0.1677382 -35.01 0.0003839193    1.046    0.044
       163 -11.3072    189.1570    196.2523   9.9386322921e+01   3.6440631504e+00    0.2884676    0.2330624  41.12   0.00046375    1.281    0.219
       164 -11.4585     62.7161    196.2234   1.2892311901e+02   2.5617717127e+01    0.2464063    0.2071252  82.21 0.0002484057    1.077    0.071
       165 -11.3312     57.0809    195.3493   1.3014109364e+02   2.6595100600e+01    0.2848665    0.1949768  82.30 0.0003268575    1.488    0.328
       166 -11.7553     52.5936    192.7687   1.3087167008e+02   2.7813996163e+01     0.384223    0.2364686  47.29 0.0009328478    1.625    0.385
       167  -9.9387    102.6957    196.3684   1.1932919342e+02   1.9409304243e+01    0.1964057    0.1403369  30.48 0.0006271122    1.550    0.355
       168 -10.4632     82.6805    195.7428   1.2407428812e+02   2.2809595093e+01     0.231931    0.1753085 -57.68 0.0005964353    1.314    0.239
       169 -10.3528    139.8811    194.8130   1.1014595056e+02   1.3116759084e+01    0.2166285    0.1999554 -16.58 0.0006205078    1.190    0.160
       170 -10.1955     95.4312    194.9586   1.2086230198e+02   2.0963236484e+01    0.2145193     0.189322  48.10 0.0003645045    1.144    0.126
       171 -10.6253    147.4139    193.1774   1.0807403021e+02   1.2078226155e+01    0.2767135    0.2285309   3.78  0.000967448    1.464    0.317
       172 -10.4672     71.1247    194.3085   1.2665216050e+02   2.4895483711e+01    0.2274658    0.1924294 -88.14 0.0007005191    1.077    0.071
       173 -11.9531     66.6446    191.0670   1.2727659647e+02   2.6335303774e+01    0.2986911    0.2763195  33.46 0.0006278144    1.267    0.211
       174 -10.6297     44.0399    194.3906   1.3307412615e+02   2.8487428436e+01     0.269019    0.1561482  39.23  0.001185364    1.790    0.441
       175 -11.0042    241.6343    193.2307   8.8620929478e+01  -4.5723595908e+00    0.1919185    0.1074974 -33.30 0.0004016732    1.618    0.382
       176 -10.9091    163.2242    192.9160   1.0439522851e+02   9.1523246992e+00    0.2736922    0.2264742   2.53  0.001380945    1.407    0.289
       177  -9.2123    123.2900    193.2847   1.1381948563e+02   1.6528041638e+01    0.1436431    0.1192046 -14.37 0.0002831804    1.533    0.348
       178 -11.0971    120.5276    190.1984   1.1393235083e+02   1.7762136905e+01    0.4409367    0.3460806 -21.85  0.002115932    1.655    0.396
       179 -11.6338     15.0923    205.8509   1.4059858963e+02   2.8953405334e+01    0.5567974    0.2340469  68.84    0.0017678    2.823    0.646
       180 -11.0205     34.7282    191.4700   1.3489105276e+02   3.0285133568e+01    0.2997003    0.1925852  54.65  0.001019077    1.552    0.356
       181 -10.2740     77.3340    190.3504   1.2456574497e+02   2.4951157043e+01    0.2538207    0.1642009 -44.02  0.001185318    1.794    0.443
       182 -10.7718     80.9358    189.4748   1.2354731788e+02   2.4618940639e+01    0.3197105    0.2091178  42.62  0.001000707    1.538    0.350
       183 -11.1405     57.6428    190.3356   1.2935025281e+02   2.7751054867e+01    0.3423223    0.1789583 -57.33   0.00135561    1.793    0.442
       184 -11.2071    189.0394    189.9314   9.8157639153e+01   4.9615527206e+00    0.4354857    0.2554148  35.99  0.001946554    1.775    0.437
       185 -11.0219    248.1590    190.2988   8.6922708832e+01  -5.0374109055e+00    0.2011296    0.1538059   3.03 0.0005874638    1.434    0.303
       186 -12.2096     91.8082    189.0020   1.2078762662e+02   2.3013405722e+01    0.3137877    0.2562869 -80.15 0.0006478709    1.203    0.169
       187 -11.5636    104.4418    184.8853   1.1694777180e+02   2.1903626180e+01    0.6231918    0.3625776 -58.73  0.002708186    1.688    0.408
       188 -10.6493      3.6389    188.0256   1.4150390509e+02   3.4169439183e+01    0.1779827    0.1619132 -83.59 0.0002936701    1.238    0.192
       189  -9.1865    205.3128    187.2792   9.4276980454e+01   2.5517079536e+00    0.1422874    0.1075785  -4.99 0.0001757818    1.566    0.362
       190 -11.2609      9.3291    186.4818   1.4012288171e+02   3.4038813355e+01    0.3554991    0.2337308 -59.80  0.001555903    1.460    0.315
       191 -11.4075     15.5311    183.0936   1.3840543439e+02   3.4282671918e+01     0.380637    0.2195874 -45.46  0.001987122    2.101    0.524
       192  -9.8087    220.9943    186.2958   9.1027301102e+01   1.9235695715e-02    0.1848414    0.1726443   8.56 0.0004306884    1.117    0.105
       193 -11.0159    177.8632    184.1431   9.9389098619e+01   8.2774408372e+00    0.2785187    0.2574641 -51.61 0.0007453643    1.104    0.094
       194 -10.7060    174.0204    183.0000   1.0000070294e+02   9.2606400021e+00    0.4523008    0.2486632  37.20  0.001358933    1.897    0.473
       195 -10.4864    225.8879    183.6145   8.9576052299e+01  -2.9558652986e-01    0.2308137    0.1776311 -26.05 0.0008318968    1.227    0.185
       196 -10.2163     36.0185    173.0078   1.3236766234e+02   3.4677991097e+01    0.2381742     0.168393 -24.46  0.001176574    2.066    0.516
       197 -11.9150     29.3267    180.5030   1.3491077976e+02   3.3546504015e+01    0.4710177    0.2711845 -72.87  0.001677586    1.472    0.321
       198 -11.5344     32.5668    176.6308   1.3367124897e+02   3.4155098098e+01    0.3818485    0.2940475  79.77  0.001303389    1.229    0.186
       199 -12.1096     59.3578    181.4538   1.2770148036e+02   2.9727351414e+01     0.431455    0.4145352  54.05   0.00149572    1.187    0.158
       200 -11.0986     47.7103    181.8199   1.3063025313e+02   3.1130775900e+01    0.3675458    0.2784839  -3.50  0.001410542    2.001    0.500
       201 -12.8899     47.8736    177.0645   1.2995094756e+02   3.2294878886e+01     0.331731    0.2821959  36.24 0.0005969699    1.346    0.257
       202 -10.3934      3.9381    182.2093   1.4092859209e+02   3.5514427176e+01    0.2705022      0.13873 -84.69  0.001059186    1.671    0.401
       203 -11.4629    229.8174    180.6211   8.8257059532e+01  -3.8714603361e-01    0.3037697    0.2460301 -63.83  0.001688518    1.533    0.347
       204  -9.3256    190.6431    182.6806   9.6351444281e+01   6.1697208136e+00    0.1544337    0.1138697  -4.65 0.0007045214    1.757    0.431
       205  -9.7701    143.5058    182.4545   1.0691307419e+02   1.5287077981e+01     0.150298    0.1493833 -17.02 0.0002164665    1.033    0.032
       206 -10.0331    122.7465    182.6353   1.1198921781e+02   1.9170963757e+01    0.2171806    0.1371424  48.95 0.0005241951    1.622    0.383
       207  -9.9081     87.9298    182.3104   1.2065214249e+02   2.5298443815e+01    0.2031143    0.1867658  59.26 0.0004558578    1.099    0.090
       208 -11.9528     80.2299    175.3377   1.2144847529e+02   2.8257171446e+01    0.7114936    0.4053843 -83.73  0.002800417    2.413    0.586
       209 -10.0964    147.1451    179.1123   1.0537755684e+02   1.5359846979e+01    0.4093059    0.1092019 -52.28  0.001112792    4.014    0.751
       210 -11.2224    105.0134    177.0933   1.1539798389e+02   2.3726030926e+01    0.4514397    0.2922912 -28.92  0.001850617    2.246    0.555
       211 -10.0316    109.3414    176.7875   1.1424116733e+02   2.3036231348e+01    0.2194803    0.1968135  50.53 0.0003551399    1.124    0.111
       212 -10.2826     21.9357    176.0441   1.3616581407e+02   3.5381444978e+01    0.2944394     0.165359 -55.57  0.001202767    1.677    0.404
       213 -11.1847    136.2322    175.9364   1.0736534323e+02   1.8225091810e+01    0.2894603    0.2116945 -34.32 0.0007290108    1.544    0.352
       214  -9.6594     39.0276    175.9823   1.3200470945e+02   3.3604728028e+01    0.1589556    0.1381773 -86.15  0.000382869    1.039    0.037
       215 -10.1067    190.3805    174.1631   9.4641461799e+01   8.0095347359e+00    0.3961856    0.1672721  51.25  0.001374208    2.979    0.664
       216 -10.5127    156.2548    173.9248   1.0216436116e+02   1.4766724359e+01    0.2497771    0.2203953 -30.79 0.0001874732    1.179    0.152
       217 -10.4725    159.5468    173.5332   1.0131719553e+02   1.4202960676e+01    0.3175231    0.2565001  41.54 0.0007300017    1.260    0.206
       218 -10.8080     98.7320    171.9705   1.1606218800e+02   2.6089804210e+01    0.4682425    0.2987986 -37.65  0.002015455    1.889    0.470
       219 -11.3626     73.4846    177.4399   1.2352527937e+02   2.8745745669e+01    0.3920792    0.2745895  11.46  0.001196114    2.079    0.519
       220 -10.7850    199.8668    171.5320   9.2135093098e+01   6.7503891204e+00    0.2551889    0.2161201 -34.61 0.0003020701    1.114    0.103
       221 -10.5745    134.9992    171.5394   1.0677341982e+02   1.9513110855e+01    0.2191158    0.2047824  43.14 0.0004170653    1.090    0.082
       222  -9.9874    132.9931    168.4924   1.0664112277e+02   2.0634446378e+01    0.2166256    0.2056299  53.54 0.0003866612    1.065    0.061
       223 -10.0916     66.7547    169.9711   1.2406130333e+02   3.1599588217e+01    0.4411582    0.2442324 -88.82  0.001701703    2.629    0.620
       224 -10.9758     60.7560    170.0923   1.2564471733e+02   3.2394438988e+01    0.6766185    0.1858387  38.98  0.002282929    3.505    0.715
       225 -10.5505     32.1521    169.3022   1.3285756579e+02   3.6011287720e+01    0.3885137    0.1400792 -61.35  0.001607894    2.234    0.552
       226  -9.3496     93.2994    170.7131   1.1724263730e+02   2.7323160610e+01    0.1516085    0.1131315  75.63 0.0001893234    1.555    0.357
       227 -11.2703     48.3917    167.4540   1.2845743847e+02   3.4639759092e+01    0.5087366    0.1742083 -54.83  0.001929542    2.539    0.606
       228  -9.7831     19.2960    170.6840   1.3619713611e+02   3.6939390973e+01    0.1324065    0.0851106  74.55 0.0003572433    1.606    0.377
       229  -9.6175    207.3581    169.7094   9.0261065965e+01   5.7167799008e+00     0.142886    0.1158217 -87.49  0.000384756    1.688    0.408
       230 -10.6729    114.4853    168.7300   1.1136981726e+02   2.4091971949e+01    0.3222522    0.2356397  52.72  0.001189059    1.429    0.300
       231 -11.2152     72.8634    165.9025   1.2177172586e+02   3.1749941140e+01    0.5928927    0.3535328  87.47   0.00237779    2.425    0.588
       232  -9.7501     14.9135    169.5077   1.3712568557e+02   3.7622048478e+01    0.1612406    0.1250859  38.01  0.000459346    1.504    0.335
       233 -10.5104      2.1190    169.0209   1.4011241489e+02   3.8793021129e+01    0.1781298    0.1585096 -84.62            0    1.163    0.140
       234  -9.9552    197.1680    165.6745   9.1442573644e+01   8.4870556442e+00    0.2140615    0.1756547 -49.23 0.0004389479    1.179    0.152
       235  -9.3448    104.9443    165.7607   1.1325585976e+02   2.6556410266e+01    0.1773065    0.1306277  37.25            0    1.423    0.297
       236  -9.5759     59.6496    165.7026   1.2524069775e+02   3.3651008360e+01    0.1431347    0.1054771 -32.85  0.000703507    1.686    0.407
       237 -11.9576     23.7964    164.0699   1.3429855010e+02   3.8138663465e+01    0.3123871    0.2207686  28.15 0.0005629407    1.707    0.414
       238 -10.9754     82.3665    166.0003   1.1926406987e+02   3.0280961682e+01    0.3079527     0.213511  24.74 0.0008772918    1.738    0.425
       239 -12.0789    141.1468    160.9805   1.0303050025e+02   2.0815200316e+01    0.3432643    0.2845555 -51.95 0.0002991682    1.180    0.153
       240 -11.8624     34.9083    158.3978   1.3067632684e+02   3.8432937034e+01    0.4224592    0.3166603  72.95  0.001409913    1.415    0.293
       241 -10.3219     27.5947    157.4244   1.3246269035e+02   3.9413821141e+01    0.2897536    0.1775324 -39.04 0.0007999171    1.934    0.483
       242 -10.0253     18.6827    160.7168   1.3517751271e+02   3.9432378856e+01    0.1668964    0.1286625  76.26 0.0007568508    1.295    0.228
       243 -11.3891     51.7265    157.6728   1.2606925303e+02   3.6694035184e+01    0.3932508    0.2217129 -55.38   0.00143499    1.579    0.367
       244 -10.2441    149.0386    159.1318   1.0070718879e+02   1.9651426229e+01    0.2268908    0.2175253 -80.14 0.0003156153    1.055    0.052
       245 -10.9327    107.8780    158.2269   1.1096315772e+02   2.7903998279e+01    0.4327413    0.2305474  41.90  0.001254774    1.922    0.480
       246 -11.1985     46.2652    158.8624   1.2772601438e+02   3.7052841384e+01    0.2293016    0.2129981  76.78 0.0003475796    1.128    0.114
       247 -10.3225    114.4951    158.3246   1.0923919609e+02   2.6658133375e+01     0.258231    0.2070407  42.33 0.0007521784    1.283    0.221
       248 -11.0423     75.9310    161.9772   1.2026165353e+02   3.2287432864e+01    0.2759683    0.2179282 -53.19 0.0003731436    1.214    0.176
       249  -9.4176     11.3960    158.2528   1.3672159920e+02   4.0652793129e+01    0.1245323   0.08389963 -41.25  0.000695412    1.692    0.409
       250 -10.5018    248.4983    157.4925   8.0421746410e+01   8.2595826437e-01    0.1359117    0.1143641 -36.72 0.0008104928    1.027    0.027
       251 -10.6520    163.1002    156.5295   9.6821131854e+01   1.7358394498e+01    0.3787649    0.2620357  14.57  0.001229752    2.148    0.534
       252 -10.9572     96.5910    153.9184   1.1310686070e+02   3.0980743883e+01    0.3612803    0.2857816  -2.31  0.001347663    1.695    0.410
       253  -9.8639     71.0727    154.6761   1.2026011390e+02   3.4852534909e+01    0.1862408    0.1845082  25.63 0.0002744683    1.135    0.119
       254 -10.2485    113.3036    153.8432   1.0860193251e+02   2.7985885819e+01    0.2514834    0.1915662 -74.96  0.001154134    1.480    0.324
       255  -9.6576     65.5447    152.0346   1.2130842448e+02   3.6304628805e+01     0.210221    0.1315753 -61.53 4.020606e-06    1.449    0.310
       256 -10.7584    249.0799    150.9994   7.9030715788e+01   1.9244184680e+00     0.203952    0.1703316 -44.41  0.000313167    1.038    0.036
       257  -9.3496    137.5417    151.5155   1.0183559573e+02   2.3794363743e+01    0.1571232     0.152372 -57.55 0.0001010824    1.013    0.013
       258 -10.0285     88.2218    150.8400   1.1477473455e+02   3.3162592872e+01    0.2009686    0.1733103 -28.02 0.0002641709    1.304    0.233
       259 -10.8441    225.1181    149.3932   8.2675545017e+01   6.4673679212e+00    0.3319387    0.2160896  21.24 0.0008358272    2.367    0.577
       260 -10.7039     79.2899    149.7345   1.1703716772e+02   3.4865944189e+01    0.3783087    0.2265111  62.35  0.001035885    2.285    0.562
       261 -10.0976     51.9270    149.4710   1.2465260988e+02   3.8731813594e+01    0.2217387    0.1697195 -65.54 0.0005125595    1.154    0.134
       262 -10.5276     36.3241    145.5241   1.2836032198e+02   4.1486210711e+01     0.307573    0.1730957 -68.55  0.000549811    1.571    0.363
       263 -10.0943    164.1899    145.8131   9.4146032754e+01   1.9555491675e+01    0.2193462    0.1887517 -11.22 0.0003636192    1.370    0.270
       264 -10.2021      4.4070    144.0697   1.3683992107e+02   4.4599213624e+01    0.3114155   0.08749727 -60.45  0.001290684    2.474    0.596
       265  -9.6784     84.8047    143.8047   1.1428228812e+02   3.5477735359e+01     0.196075    0.1679371  84.26            0    1.282    0.220
       266  -9.7030    242.4430    142.4993   7.8356286134e+01   4.6456221718e+00    0.1387124    0.1168801 -48.66  2.61685e-05    1.048    0.045
       267 -11.2759    132.2695    140.5464   1.0065437068e+02   2.7471583072e+01    0.2786562    0.2591609 -57.94 0.0003439644    1.047    0.045
       268  -9.6526    109.0300    140.2710   1.0675198386e+02   3.2111341126e+01    0.1916039    0.1381088  38.59 0.0004930508    1.450    0.310
       269  -9.9844     72.6863    140.0325   1.1696790810e+02   3.8290411942e+01    0.2132218    0.1745034 -56.01  0.000388308    1.118    0.105
       270 -10.5514     65.9808    139.0158   1.1870643697e+02   3.9505083611e+01    0.2113297    0.1917621 -59.39  0.001192579    1.004    0.004
       271  -9.9415     50.6994    135.0126   1.2240621984e+02   4.2478706249e+01    0.2036116    0.1657786 -59.79 0.0005170201    1.080    0.074
       272 -10.6813     34.2642    137.6519   1.2766878731e+02   4.3638569744e+01    0.2559108    0.2301082  53.60   0.00159491    1.263    0.208
       273 -10.6169     95.7837    135.5970   1.0937857804e+02   3.5652294920e+01    0.3411946    0.2675737  53.02  0.001253423    1.386    0.278
       274 -10.0517     48.5245    138.4359   1.2367684562e+02   4.1892109942e+01    0.2091268    0.1121522 -52.70 7.867327e-05    1.626    0.385
       275  -9.7178     23.6474    135.3391   1.3034549181e+02   4.5199482025e+01     0.135726   0.09188867  72.66  6.98904e-05    1.801    0.445
       276 -10.2224     40.5464    133.4872   1.2512025934e+02   4.4007599312e+01    0.2704267     0.171375  85.92 0.0008916577    2.127    0.530
       277 -11.1331     28.6780    132.2791   1.2839879367e+02   4.5488561670e+01     0.243531    0.1888283 -63.38 0.0002288757    1.082    0.076
       278 -11.2436     26.0541    129.9807   1.2878793640e+02   4.6283172304e+01    0.1939708    0.1650671 -64.77 0.0003783315    1.033    0.032
       279 -10.2342     61.8572    130.9822   1.1829368738e+02   4.2049555230e+01    0.2146567    0.1709061 -38.45  0.000254557    1.254    0.203
       280 -10.0397      9.8409    131.1701   1.3366153921e+02   4.7297003975e+01    0.1706485    0.1222856 -46.97 0.0003643534    1.309    0.236
       281  -9.6893    121.8976    130.1451   1.0088442229e+02   3.2024407220e+01    0.2066232    0.1811129 -20.11 0.0003721859    1.270    0.213
       282 -10.7194     34.2220    129.7977   1.2633845343e+02   4.5558735103e+01    0.4362887    0.1707356 -38.09   0.00147499    3.430    0.708
       283  -9.6209    126.8105    128.3986   9.9158575639e+01   3.1431286648e+01    0.2068672    0.1509912  30.56 0.0002886347    1.541    0.351
       284 -10.8055     91.4595    127.2818   1.0869994224e+02   3.8409401537e+01    0.3191605    0.2525914   6.75 0.0006119711    1.559    0.359
       285  -9.3826     17.3479    128.2901   1.3107018847e+02   4.7420339169e+01    0.1337603   0.08150177 -39.93 0.0004290371    1.663    0.399
       286  -9.8838     30.1907    125.8238   1.2684474097e+02   4.6905444871e+01    0.1790051    0.1340179 -41.12 0.0003412591    1.290    0.225
       287 -11.3906     57.0361    124.6656   1.1843512689e+02   4.4215498781e+01    0.3377337    0.2363679  13.51 0.0009122234    1.758    0.431
       288 -10.2538      3.7555    124.9164   1.3451596236e+02   4.9183075295e+01    0.1883877    0.1281576 -55.64 0.0002451771    1.199    0.166
       289 -10.6558     69.3495    122.3351   1.1415674763e+02   4.3095778151e+01    0.2395131    0.1621591 -28.46  0.001118487    1.727    0.421
       290 -10.1229     63.6701    122.3263   1.1589486341e+02   4.3897642794e+01    0.1439067    0.1105023  77.95 0.0004102986    1.705    0.414
       291  -9.6399     39.4476    122.4692   1.2340014382e+02   4.6791459781e+01     0.137029    0.1167221 -53.68 0.0008075029    1.011    0.011
       292 -10.8226     20.1989    109.9370   1.2706300014e+02   5.1503916278e+01    0.3869088    0.1714587 -40.03  0.001771681    2.216    0.549
       293 -11.2956     19.5034    118.4675   1.2881240261e+02   4.9576597921e+01    0.3372876    0.1913051  30.00  0.001515825    2.058    0.514
       294 -10.0245     84.0059    121.6949   1.0957494716e+02   4.0987774679e+01    0.2047114    0.1996629  38.45  0.001155094    1.095    0.087
       295  -9.5605    116.4627    120.0190   9.9842343931e+01   3.5450629228e+01    0.2143489     0.148993 -47.69 5.716679e-05    1.401    0.286
       296 -10.6870     92.5327    118.5555   1.0627983001e+02   4.0280145580e+01    0.4537965    0.3432604  82.46  0.002011854    1.856    0.461
       297 -10.8517     55.2824    118.2034   1.1759044606e+02   4.5981298719e+01    0.3530399    0.2450184  83.52 0.0008092084    2.144    0.534
       298  -9.5776    101.1489    119.4508   1.0399396123e+02   3.8525144466e+01    0.1963525    0.1444596  53.49 0.0009135445    1.518    0.341
       299  -9.4301    147.4877    118.4227   9.1465753310e+01   2.9261354238e+01    0.1526109    0.1513686 -65.49 0.0001316214    1.033    0.032
       300 -10.4876     18.9020    114.8262   1.2836205252e+02   5.0475078123e+01    0.2256554    0.1501352 -50.15 0.0004265275    1.249    0.199
       301  -9.7376    138.5529    115.5647   9.2926166171e+01   3.1831033028e+01    0.1526294    0.1503252 -62.46 5.226933e-05    1.011    0.011
       302 -10.1537      1.5173    114.9767   1.3372611733e+02   5.1624911582e+01    0.2607005   0.08130273 -61.51  0.001142638    2.233    0.552
       303 -10.3450      3.9612    111.5583   1.3245174234e+02   5.2262613137e+01    0.2072574    0.1328461 -48.50 0.0005934152    1.301    0.232
       304 -10.0968    105.7212    114.1322   1.0133576484e+02   3.8880518304e+01    0.3329718    0.1692641  40.57  0.001319167    2.028    0.507
       305 -10.8661     29.1647    112.6574   1.2471689336e+02   5.0112341353e+01    0.3316934     0.239111  24.36  0.001925862    1.611    0.379
       306 -11.5417    149.8584    111.2924   8.9093118709e+01   3.0259948624e+01     0.260595    0.2437698 -51.36 0.0002366311    1.054    0.051
       307  -9.7838    120.5330    112.4580   9.6795728307e+01   3.6317806711e+01    0.1515827    0.1488162 -34.59  1.89627e-05    1.011    0.011
       308 -10.4619     74.3748    111.8034   1.1011703481e+02   4.4815209056e+01    0.2799327     0.198553  39.06  0.001198097    1.517    0.341
       309 -11.4939     37.9574    110.5515   1.2146315537e+02   4.9750815050e+01    0.4621159    0.2250474 -62.50 0.0005169668    1.927    0.481
       310 -10.6236     86.1590    109.8719   1.0600118194e+02   4.3360769672e+01    0.3775036     0.263291  59.82  0.001739494    1.879    0.468
       311 -10.4050     63.5236    106.0002   1.1212517810e+02   4.7715446136e+01    0.2876841    0.2016666 -84.08 0.0006830975    2.179    0.541
       312 -10.9042      3.0993    107.6701   1.3209274069e+02   5.3197773936e+01    0.2408777    0.1366839 -57.40 0.0003999523    1.343    0.255
       313  -9.8843    112.8206    105.1469   9.6971273916e+01   3.9466803537e+01    0.2009643    0.1735891  -9.95 0.0002556113    1.292    0.226
       314 -10.2327     18.9184    103.7553   1.2629909432e+02   5.3012324009e+01     0.200286    0.1351898  57.55  0.001092556    2.068    0.516
       315  -9.3751    123.5937    103.5210   9.3610392611e+01   3.7600476838e+01    0.1493384    0.1457175 -40.71 6.591406e-05    1.017    0.017
       316 -10.7374     75.5760    102.9272   1.0748904045e+02   4.6625900341e+01    0.2842721     0.201257  11.00  0.001377624    1.725    0.420
       317 -10.9842     70.9415    101.4705   1.0858756982e+02   4.7654565734e+01     0.373803    0.2501076 -18.93  0.001424375    1.867    0.464
       318 -11.4056     43.4180    102.0127   1.1777521520e+02   5.1114949448e+01    0.3809157    0.2473004 -55.72 0.0008464214    1.387    0.279
       319 -12.4037     53.0189    100.3176   1.1416527268e+02   5.0366044493e+01    0.6256838    0.4230292 -12.70  0.001979981    1.818    0.450
       320  -9.7920     29.2053    103.1998   1.2278166570e+02   5.2275267411e+01    0.1613792    0.1419135 -77.71 0.0003504136    1.275    0.216
       321 -11.0949      9.2654    101.7676   1.2909317714e+02   5.4144566461e+01    0.4014524    0.1688421 -57.53    0.0005833    1.784    0.439
       322 -10.3861    135.1332    101.3131   9.0049941125e+01   3.5582135395e+01    0.2600513    0.2045638 -30.38 0.0005754155    1.377    0.274
       323  -9.5122    177.5532    100.5998   8.0411871956e+01   2.6151960227e+01    0.1483356    0.1384271 -81.67 5.804903e-05    1.024    0.023
       324 -10.9502     86.1638     97.7605   1.0279027946e+02   4.6010887647e+01    0.4541609    0.2293796 -35.12  0.001359071    2.221    0.550
       325 -10.7015     81.1145     95.8303   1.0383727168e+02   4.7268280226e+01    0.4513312    0.2373538  53.54  0.001767017    2.759    0.638
       326 -11.3432     36.7617     98.5225   1.1920817543e+02   5.2596523730e+01      0.37646    0.1623745 -62.71  0.001336411    2.440    0.590
       327 -12.9487    106.4315     97.6158   9.6718232845e+01   4.2316808290e+01    0.3294634    0.2898286  33.15  0.001316958    1.148    0.129
       328  -9.6689     16.4519     99.5114   1.2628272943e+02   5.4149416262e+01    0.1265951    0.1029428 -50.82 0.0008085204    1.020    0.020
       329  -9.2451    161.3003    102.7208   8.4311845989e+01   2.9437302546e+01    0.1509102     0.117393 -83.93 0.0001936037    1.543    0.352
       330 -10.9435     62.7976     96.0764   1.0983290933e+02   5.0004266532e+01    0.2187159    0.1973301  32.06 0.0003348729    1.221    0.181
       331  -9.9294     24.1975     96.4035   1.2301690530e+02   5.4227062283e+01    0.1610054    0.1152175  35.81 0.0007883552    1.684    0.406
       332  -9.9725      1.4867     92.9604   1.3006273801e+02   5.6549858368e+01    0.1835223   0.09761415 -63.56 0.0006429535    1.544    0.352
       333 -10.4521    106.0353     91.5329   9.5127470231e+01   4.3631404431e+01    0.2376309    0.1998858 -53.13 0.0003980251    1.260    0.206
       334  -9.8870    102.2217     92.0667   9.6377306213e+01   4.4265774383e+01     0.194989    0.1803154 -32.93  0.001081623    1.064    0.060
       335 -10.3268     58.5449    100.4956   1.1237732299e+02   4.9617731000e+01    0.2416134     0.201668  26.80 0.0007045835    1.295    0.228
       336 -10.7497    113.4481     90.4471   9.2741704476e+01   4.2360212981e+01    0.3002886    0.2323629  62.93  0.001100839    1.507    0.336
       337 -10.9629      7.2907     90.3991   1.2758620558e+02   5.6764811622e+01    0.2912543    0.2278349  83.28  0.001561085    1.685    0.406
       338  -9.5165      2.6910     87.7170   1.2865162461e+02   5.7610320341e+01    0.1452269    0.1356031  87.88 0.0003068472    1.342    0.255
       339 -11.8025      9.2620     85.9212   1.2597493429e+02   5.7596633123e+01    0.2272202    0.1894911 -50.16 0.0002901783    1.091    0.084
       340 -10.6384     87.9689     89.2641   9.9853806478e+01   4.7454412032e+01     0.288933    0.2029148 -32.76  0.001437802    1.434    0.302
       341 -11.0112     77.9904     88.0160   1.0264471140e+02   4.9394927694e+01    0.2587695    0.1869438 -38.54 0.0004066664    1.315    0.239
       342 -11.1305     63.7736     87.0181   1.0704838338e+02   5.1769090430e+01    0.3239252    0.2308652  41.46  0.001539324    1.581    0.367
       343  -9.6641    154.5477     85.9379   8.1413195838e+01   3.4190576045e+01    0.2060861    0.1344687 -13.10 0.0008085605    2.602    0.616
       344 -11.2347     48.8932     84.8858   1.1158551835e+02   5.4168114649e+01    0.5745612    0.2677602 -26.73  0.001536245    3.195    0.687
       345 -10.0500     53.5038     82.5161   1.0931576743e+02   5.4075368392e+01    0.1868285    0.1126844 -38.93  0.000531828    1.506    0.336
       346 -10.1067    129.0244     85.5552   8.7259902475e+01   4.0001532312e+01    0.2360441    0.1421071  50.55   0.00104043    1.644    0.392
       347 -11.5334     27.9046     85.4554   1.1920274835e+02   5.6260968734e+01    0.4169129    0.3420355 -51.77  0.001856211    1.161    0.138
       348 -10.4126     98.3160     84.0798   9.5221812917e+01   4.6581458165e+01    0.2243994    0.1880634  19.87 0.0005458011    1.225    0.184
       349 -10.5842    132.7623     82.5783   8.5499192193e+01   3.9729827351e+01    0.2683153    0.2231025  70.43 0.0009154879    1.313    0.238
       350 -10.7500     89.4603     81.7852   9.7216018095e+01   4.8656281333e+01    0.2479591    0.2063566  10.62 0.0002955943    1.244    0.196
       351 -10.1240     20.1546     81.9091   1.2114941794e+02   5.7656645972e+01    0.1739074    0.1539993 -50.05 0.0003872364    1.174    0.149
       352  -9.7497     76.9994     80.9701   1.0091782785e+02   5.0949530005e+01    0.2214959    0.1587914  -9.61 0.0009827591    1.639    0.390
       353  -9.7737    101.6444     79.2981   9.2837532755e+01   4.6840887021e+01    0.1407051    0.1150662  84.36 0.0007035424    1.700    0.412
       354 -10.5430     42.2489     80.2823   1.1269558218e+02   5.5879392923e+01    0.2961919    0.2432677 -13.89  0.001845293    1.149    0.130
       355 -10.3148     68.0532     78.9259   1.0327376459e+02   5.2750010565e+01    0.2054269    0.1764551 -13.57 0.0004682335    1.082    0.076
       356  -9.6464    110.6713     77.6842   8.9812378785e+01   4.5332153463e+01    0.1478015    0.1107813   8.56 0.0003721182    1.677    0.404
       357 -11.7982     52.6140     75.0365   1.0748326724e+02   5.5663563825e+01    0.3979436     0.237559 -33.01  0.002050966    1.596    0.373
       358  -9.6870     17.7134     75.6239   1.2052033382e+02   5.9132019172e+01    0.1791801    0.1005984 -68.36 0.0009019537    2.227    0.551
       359 -10.1643      4.0000     76.0584   1.2574388266e+02   5.9965880151e+01    0.1968556    0.0551125 -60.54 0.0008011408    2.933    0.659
       360  -9.7191    131.1998     75.3879   8.3844591957e+01   4.1353813193e+01    0.1917665    0.1344065  61.29 0.0002307019    1.512    0.339
       361  -9.8842    141.7998     73.1935   8.0757256492e+01   3.9349731427e+01     0.345977    0.2132648  -7.50  0.001143789    3.291    0.696
       362  -9.8769     80.8957     74.2957   9.7649460538e+01   5.1554931604e+01    0.1873299    0.1659788  21.53 0.0005794981    1.101    0.092
       363  -9.7310     69.3472     74.0998   1.0138735718e+02   5.3467193548e+01    0.1833421    0.1210368 -52.30 0.0007719987    1.713    0.416
       364 -11.1115     59.1240     73.8251   1.0481987032e+02   5.5020344908e+01    0.2369765    0.2296714  41.15 0.0007444175    1.292    0.226
       365  -9.8734    152.3455     72.9798   7.8414418587e+01   3.6968865272e+01    0.1922605    0.1834895 -67.66   0.00110591    1.064    0.060
       366  -9.9684     36.5080     71.5383   1.1236145671e+02   5.8227988030e+01    0.2475396    0.1198777  25.22  0.001219958    2.209    0.547
       367 -11.4655     52.9736     69.5226   1.0570200029e+02   5.6657204813e+01    0.2303503    0.2236207 -40.34 0.0009174631    1.290    0.225
       368 -11.0199      1.3737     66.3269   1.2449651317e+02   6.2053539155e+01    0.1916775    0.1006885 -69.44 0.0005556552    2.305    0.566
       369 -10.5770     87.7391     69.0832   9.3880991474e+01   5.1281273412e+01    0.2341225    0.1863974  31.18 0.0006276729    1.212    0.175
       370 -10.1678     79.9674     69.3726   9.6422361349e+01   5.2596773962e+01    0.1865181    0.1660283   5.40 0.0004816009    1.037    0.036
       371 -11.1756     45.3399     68.7660   1.0825988676e+02   5.7757529070e+01    0.3190056    0.1866741 -22.01 0.0008784769    1.891    0.471
       372 -10.6726     47.9041     63.0385   1.0554538507e+02   5.8485867084e+01    0.2058987     0.158422 -32.59 0.0003673121    1.171    0.146
       373 -11.8570     22.3425     67.7424   1.1669420895e+02   6.0309130566e+01    0.4039035    0.2825918  39.93 0.0005113476    1.891    0.471
       374 -10.0725     17.6187     67.0087   1.1832958979e+02   6.0836490000e+01    0.1762885    0.1511907  11.20  0.001235028    1.317    0.241
       375  -9.7070     75.4589     66.4935   9.6980738363e+01   5.3856999214e+01    0.1345541    0.1197974  -2.36 4.459597e-05    1.008    0.008
       376  -9.7484    137.0017     63.6661   7.9148631577e+01   4.1989156784e+01    0.1922178    0.1684494  54.54 0.0006325873    1.073    0.068
       377 -10.8740      9.6561     62.7917   1.2034074723e+02   6.2223905211e+01    0.2382153    0.1574453   8.37 0.0009567999    1.614    0.380
       378 -11.6424      5.9531     59.2227   1.2087899594e+02   6.3138581614e+01    0.2856822    0.2071319   1.29  0.001066539    1.421    0.296
       379 -12.2920     23.4027     57.0909   1.1320030254e+02   6.2193571255e+01    0.7687055     0.470183   5.58  0.004549896    1.721    0.419
       380 -10.4681     28.7792     53.6137   1.0995166880e+02   6.2294517254e+01    0.2386227    0.1847164  12.04  0.001598647    1.284    0.221
       381 -10.3690     16.1557     61.4464   1.1738075401e+02   6.2004583299e+01    0.2213669    0.1472256 -65.31  0.001299663    1.921    0.479
       382 -11.1871     68.6030     60.8021   9.7441962244e+01   5.5932800421e+01    0.3819961    0.2005426  38.60  0.001790424    1.898    0.473
       383 -10.3541     39.4149     60.5762   1.0797505016e+02   5.9940691075e+01    0.2238554    0.1867858  -9.02 0.0009628084    1.061    0.058
       384  -9.8093     31.1907     59.1036   1.1071368931e+02   6.1087764378e+01    0.1484467    0.1358607 -39.76  0.000414061    1.317    0.241
       385 -10.4595     47.5311     58.3921   1.0419801713e+02   5.9344786983e+01    0.2332981    0.1490654  30.42 0.0007578686    1.598    0.374
       386 -10.5618    225.9314     55.8703   6.2644344890e+01   2.2973918610e+01    0.1885148    0.1563867 -75.67 0.0003227062    1.015    0.015
       387 -10.8506    132.7844     55.8424   7.7838871263e+01   4.4125093824e+01    0.2166518     0.198132  48.15 0.0003596461    1.032    0.031
       388  -9.9619     78.9969     55.9931   9.2419665041e+01   5.4988800959e+01    0.1645976    0.1405608 -18.23 0.0006301196    1.137    0.120
       389  -9.9949     58.8820     56.5580   9.9434328601e+01   5.8107674009e+01    0.1857745    0.1167633  29.95  0.001011813    1.556    0.357
       390 -10.4604     52.5942     55.7764   1.0145622120e+02   5.9120027076e+01    0.1676672    0.1145059 -47.76 0.0007850006    1.662    0.398
       391 -10.3311    118.5233     54.9601   8.0916589922e+01   4.7391218653e+01    0.1849475    0.1193364  -1.18 0.0008086539    2.440    0.590
       392 -11.9626     40.5958     53.1486   1.0512241065e+02   6.1083661179e+01    0.3316734    0.2206307 -11.08  0.001943982    1.501    0.334
       393 -10.4942     61.0269     51.3984   9.6929250566e+01   5.8617250351e+01    0.2317273    0.1561816 -17.75 0.0006003678    1.501    0.334
       394  -9.7182     53.6296     52.1899   9.9868994954e+01   5.9561973165e+01     0.167049    0.1036357 -27.58 0.0001164548    1.541    0.351
       395 -10.7621     65.6650     50.0279   9.4838247188e+01   5.8114697505e+01     0.245642    0.1935011 -43.52  0.001006773    1.490    0.329
       396 -11.1477     17.1979     46.5552   1.1246990244e+02   6.4563941480e+01    0.2342382     0.157072  -7.93 0.0007450795    1.373    0.272
       397 -11.8962     12.4129     46.4193   1.1446321249e+02   6.4974095299e+01    0.2653974    0.2417742 -73.60 0.0006450572    1.707    0.414
       398  -9.7017    174.2093     50.4208   6.8496180427e+01   3.5352241948e+01    0.1773527    0.1202965  76.63  0.000409216    1.455    0.313
       399  -9.9809    128.8983     49.8592   7.6952664009e+01   4.5845331332e+01    0.2041892    0.1691374  31.33 0.0004277133    1.256    0.204
       400 -11.5922     97.7767     49.3098   8.4575955481e+01   5.2491090753e+01    0.3628934    0.2914457 -81.36  0.001450277    1.890    0.471
       401 -10.0413     86.8295     50.1415   8.8031960186e+01   5.4466297379e+01     0.186573    0.1443319   9.13  0.001070535    1.331    0.249
       402 -10.9877     80.6030     49.5465   8.9750213771e+01   5.5681751932e+01    0.2707349    0.1575553 -41.45  0.001378781    1.891    0.471
       403 -10.7128     74.5894     48.6098   9.1356614674e+01   5.6864233641e+01    0.2521829    0.1098152 -23.41 0.0009563611    3.403    0.706
       404  -9.4095     31.6487     48.2297   1.0702800690e+02   6.2904318600e+01    0.1022689   0.08927821  36.51 0.0006881318    1.561    0.359
       405  -9.5922    205.1539     46.8621   6.3246389066e+01   2.8788662774e+01    0.1585956    0.1475209  67.41 0.0002550214    1.276    0.217
       406 -10.4575    122.8926     46.1394   7.7199924972e+01   4.7676389836e+01    0.2174127    0.1935271 -25.82 0.0007260991    1.230    0.187
       407 -10.0446    114.3429     46.9709   7.9484900114e+01   4.9410877258e+01    0.1762224    0.1634476  -8.95 0.0002810212    1.146    0.128
       408 -11.3296     61.7821     44.9131   9.4408813721e+01   5.9479938735e+01    0.3072984    0.2034718 -16.72  0.000367155    1.543    0.352
       409 -13.2894     56.6359     40.8944   9.4809985002e+01   6.0834318561e+01    0.2972546     0.244369   2.24 0.0007422172    1.019    0.019
       410 -10.3109     21.5168     44.9666   1.1012350474e+02   6.4446276344e+01    0.1689585   0.09930355 -43.59  0.001015089    1.554    0.356
       411  -9.7959     34.1523     44.3957   1.0470277336e+02   6.3246256985e+01    0.1603423    0.1016631  37.13 0.0009432932    1.873    0.466
       412  -9.3853    199.7282     43.6839   6.3231638139e+01   3.0439776591e+01    0.1162973    0.1006767  36.98 0.0002128302    1.559    0.359
       413 -10.7414    141.4787     42.4133   7.2169985988e+01   4.4001416690e+01    0.2237485     0.198262  62.53 0.0001370198    1.014    0.014
       414 -10.3121     80.8586     43.1527   8.7485828337e+01   5.6537959579e+01    0.1747316    0.1618439  19.53 0.0002799018    1.133    0.117
       415 -10.6140     70.0860     41.6370   9.0410275837e+01   5.8611841959e+01    0.2219793    0.1653398 -17.48 0.0003460138    1.318    0.241
       416  -9.6915     39.1162     40.0000   1.0114875157e+02   6.3336210876e+01    0.1709298    0.1314927   5.96   0.00114224    1.125    0.111
       417  -9.8614     41.8325     37.8090   9.9274918648e+01   6.3317064044e+01    0.1789618    0.1411974 -31.22 0.0002602593    1.326    0.246
       418 -10.3268     18.6901     40.9751   1.0998201797e+02   6.5350073680e+01    0.2565751    0.1178706  33.45  0.001379017    2.520    0.603
       419 -11.2457    103.6443     38.9868   7.9633474099e+01   5.2683484787e+01    0.2251993    0.2138058  58.84 0.0003897423    1.173    0.147
       420 -10.5378     13.3256     38.8120   1.1157883953e+02   6.6156466175e+01    0.2926149    0.1661021 -43.33  0.001545749    1.564    0.360
       421 -11.0544     10.0217     38.7758   1.1302414619e+02   6.6424927211e+01    0.2901081    0.1475116 -24.19  0.001320779    1.811    0.448
       422 -10.6497      4.3327     36.9668   1.1496555406e+02   6.7131886748e+01    0.3091081      0.17567 -59.39  0.001792484    2.394    0.582
       423  -9.5010     86.2830     37.3325   8.3844322290e+01   5.6302324182e+01     0.130098   0.08880223  15.08 0.0003983508    1.614    0.380
       424 -10.8148    193.9266     35.3071   6.2085473353e+01   3.2848555928e+01     0.197661    0.1771365 -60.39 0.0003074824    1.198    0.166
       425  -9.6612    131.8092     36.3920   7.2367694678e+01   4.6935666616e+01    0.1822343    0.1069683  49.65 0.0002320458    1.521    0.343
       426 -10.1494     72.3010     35.9954   8.7672472805e+01   5.8984926872e+01    0.1733322    0.1438968   6.83 0.0005421799    1.079    0.074
       427  -9.8740    209.3531     35.2826   6.0237890088e+01   2.9416478567e+01    0.1187133   0.09179538  47.88 0.0007016966    1.658    0.397
       428 -11.5534    118.9668     33.8731   7.4341595233e+01   5.0064821661e+01    0.3211755    0.2563126 -83.18  0.001872115    1.599    0.375
       429 -10.6271     55.9561     34.2806   9.2632318089e+01   6.1838966570e+01    0.2523056    0.1959469  57.26  0.001256516    1.978    0.494
       430 -10.2128     60.6987     34.0172   9.0850355242e+01   6.1144951725e+01    0.2182843    0.1637439 -10.69 0.0009157427    1.256    0.204
       431 -10.6058     29.3798     34.2148   1.0301444291e+02   6.5315865929e+01    0.1858588    0.1557305  10.34 0.0004059203    1.249    0.199
       432 -11.4898    140.1808     33.1155   6.9794831712e+01   4.5435987570e+01    0.4105988    0.2887858  61.41  0.001867619    1.252    0.201
       433 -11.8512    107.1896     30.4060   7.5966809271e+01   5.2966825735e+01    0.4010596    0.2845229  -8.90  0.001809043    1.674    0.403
       434 -10.3387     87.0197     33.7210   8.2382104376e+01   5.6606941930e+01    0.1806364    0.1513051  33.03 0.0007069174    1.050    0.048
       435 -11.4531     77.4706     33.2027   8.5040099827e+01   5.8427786578e+01    0.2948405     0.219626  58.13  0.001097591    1.662    0.398
       436  -9.9530     91.9594     33.5357   8.0929451773e+01   5.5680724501e+01    0.1825492    0.1600723   3.20 0.0006466204    1.141    0.124
       437 -10.7788    206.5500     31.4748   5.9742662297e+01   3.0517450235e+01    0.2193148    0.1720756  83.48 0.0008483542    1.101    0.092
       438 -10.3873    246.8304     30.8822   5.5683159532e+01   2.2159438827e+01    0.1642824    0.1420513 -79.83 0.0005507143    1.240    0.193
       439 -10.9061     34.1316     30.4078   9.9601393526e+01   6.5306402299e+01    0.2662323    0.1789412  14.57  0.001741013    1.326    0.246
       440  -9.9977     23.8393     30.6425   1.0404454721e+02   6.6420841952e+01    0.1457711   0.09392085  29.32  0.000941178    1.653    0.395
       441  -9.8421     51.0160     28.9574   9.2429422751e+01   6.3253901925e+01    0.1488896    0.1402313  44.12  0.000331056    1.553    0.356
       442 -10.2403     38.5230     27.7676   9.6794921700e+01   6.5115313063e+01    0.2453147    0.2128104 -76.16  0.001582147    2.435    0.589
       443 -11.7104    101.8401    245.9746   1.2658621821e+02   8.4523548128e+00    0.4333863    0.2520463  53.52  0.002195272    1.616    0.381
       444 -10.9485     99.4849     26.9956   7.6738371711e+01   5.4925903415e+01    0.3254421    0.1588507  51.47   0.00161899    1.768    0.434
       445 -11.1992    242.9901     25.3912   5.5003805774e+01   2.3621113018e+01    0.2001874    0.1427902 -57.04 0.0003847197    1.230    0.187
       446 -10.8551      9.9887     23.0163   1.0737285049e+02   6.8807079038e+01    0.1925604    0.1280114 -34.23 0.0008382014    1.365    0.267
       447 -11.9654      1.9029     25.4307   1.1209505663e+02   6.9091578326e+01    0.2530116    0.1318791 -45.47   0.00160198    1.789    0.441
       448 -10.2391      5.9469     23.3096   1.0938710472e+02   6.9097756409e+01     0.227585     0.135566 -30.38  0.001114101    1.332    0.249
       449 -10.6116     85.8021    245.3630   1.2984229313e+02   1.1044497114e+01    0.2552155    0.1991491  68.86 0.0007638939    1.161    0.138
       450 -10.8290    131.7435     23.4048   6.8593863387e+01   4.8401337423e+01    0.3431298    0.1940344 -31.04  0.001819309    2.017    0.504
       451  -9.9980     90.0580     24.5149   7.8342591414e+01   5.7061792432e+01    0.1850669    0.1082996  51.22 0.0004909288    1.534    0.348
       452  -9.9868     61.2718     24.0167   8.6888647001e+01   6.2265023934e+01    0.2550179    0.1185702  24.97  0.001175667    2.587    0.613
       453  -9.8213    153.4881     23.4186   6.4868856769e+01   4.3484862423e+01    0.1278537     0.107623  69.51 8.556627e-05    1.018    0.018
       454 -12.0519    117.6731     22.6372   7.1153658622e+01   5.1567952801e+01    0.3452228     0.197085  49.98 0.0005537068    1.483    0.326
       455  -9.6415     26.3866     22.8236   9.9904397828e+01   6.7212664567e+01    0.1535734   0.08560325 -23.37 0.0009319654    1.626    0.385
       456 -10.0422    221.5854     22.4883   5.6351816894e+01   2.8375710628e+01    0.1216137   0.09434775 -78.62 7.788797e-05    1.025    0.024
       457 -11.8484     91.7736    242.6334   1.2828620958e+02   1.0705826508e+01    0.4240232    0.3102686  40.08   0.00120219    1.315    0.240
       458  -9.6538    102.2950     22.3046   7.4491673037e+01   5.4842787767e+01    0.1272384   0.08260271  29.59 0.0002989264    1.580    0.367
       459  -9.8176     78.9344     22.2759   8.0663200788e+01   5.9398989912e+01    0.1691758    0.1304261  34.75  0.001095854    1.092    0.085
       460 -11.1646     38.5886     21.0854   9.4120328807e+01   6.5941845400e+01    0.3113526     0.201101  30.79  0.001626373    1.433    0.302
       461 -10.9755    101.9083    240.6038   1.2590080550e+02   9.5485362830e+00    0.2207231    0.1841318 -45.63  0.001303388    1.443    0.307
       462 -12.3368     94.0413    237.4126   1.2717367795e+02   1.1456776011e+01     1.175944    0.7470185  78.75  0.005829894    1.902    0.474
       463 -10.4600    198.5501     18.7314   5.7891860458e+01   3.3797112422e+01    0.1635711    0.1003964 -53.23 0.0007307386    1.578    0.366
       464 -10.5673     92.7081     18.6596   7.5624539056e+01   5.7134731229e+01    0.2233635    0.1547199 -32.85  0.001189673    1.674    0.403
       465 -11.1309    219.5217     14.9961   5.5069595119e+01   2.9687123040e+01    0.2047864    0.1578414  10.50  0.001216048    2.588    0.614
       466  -9.7839    157.9942     17.6675   6.2697830137e+01   4.3056530865e+01    0.1735833    0.1375413  72.63 0.0004228226    1.063    0.059
       467  -9.8519     61.0452     17.7165   8.4533384388e+01   6.2984523319e+01    0.1721016    0.1237014  31.96     0.001133    1.169    0.145
       468 -12.1884     75.6193    240.5778   1.3141052200e+02   1.3560975171e+01    0.4877143    0.3181237  62.28  0.002153503    1.427    0.299
       469 -10.3419    112.4588     15.5301   7.0029971241e+01   5.3370499527e+01    0.2206013    0.1788108  50.01 0.0005084655    1.032    0.031
       470 -12.1574     83.6374    237.7377   1.2941713773e+02   1.2980722187e+01    0.3853685    0.2479219  55.08  0.000615766    1.414    0.293
       471 -11.1324    141.1754    247.4776   1.1851893827e+02   1.7996888545e+00    0.2496922    0.1954685  68.75  0.001280644    1.499    0.333
       472 -10.5181    132.3495     16.1674   6.6394819370e+01   4.8983034868e+01    0.2246583    0.1394618  52.03  0.001082132    1.382    0.276
       473 -11.6170    142.3129    238.3096   1.1691980478e+02   3.3780155736e+00    0.9055766     0.282497  46.66  0.003064211    3.383    0.704
       474 -10.6378     73.0038     27.7776   8.4466658927e+01   5.9859361657e+01    0.4700897    0.1095434  45.88  0.001712082    3.672    0.728
       475 -11.1243    208.7720     13.9903   5.5864392956e+01   3.2093320207e+01    0.2239541    0.1286202  62.59  0.001298105    1.661    0.398
       476  -9.6278     52.7929     20.6399   8.8542353767e+01   6.3975684479e+01    0.1470591   0.09837969  42.82 0.0001432308    1.554    0.357
       477 -10.5646    179.9844     13.5373   5.8823307997e+01   3.8496491649e+01    0.1869657    0.1020043  70.65 0.0003937257    1.540    0.351
       478 -10.6384    148.4348     12.8761   6.2861967991e+01   4.5689750059e+01    0.2632314    0.1198595  52.41  0.001098074    1.932    0.482
       479 -12.1824    200.3414    244.9537   1.0593973130e+02  -7.2054186852e+00    0.2537006    0.2190791 -17.20 0.0003927147    1.139    0.122
       480 -10.8936    201.8738    240.4820   1.0487983082e+02  -6.6967613252e+00     0.356098    0.2127901  39.02  0.001564917    1.648    0.393
       481 -10.2740    176.3161     11.3226   5.8745372591e+01   3.9544831481e+01    0.1197712   0.08344202  46.18 0.0004359166    1.664    0.399
       482 -10.0897    197.9878    240.7267   1.0569662234e+02  -6.1430777365e+00    0.1877178    0.1643949  28.96 0.0005270182    1.168    0.144
       483 -11.1106    187.5680    245.6064   1.0860947354e+02  -5.3542058891e+00    0.2341264      0.20151  38.56 0.0002542746    1.222    0.182
       484  -9.8719    246.5449     10.5187   5.2068614542e+01   2.4707063727e+01    0.1151461   0.08302135 -75.55 8.243488e-06    1.021    0.021
       485 -10.1994    184.7574    240.9962   1.0842070029e+02  -4.1176223244e+00    0.2423342    0.2226967 -73.62  0.001160239    1.431    0.301
       486 -11.2942    146.7169    245.3309   1.1703756919e+02   1.2938511003e+00    0.2947089     0.212949 -54.96  0.001261936    1.567    0.362
       487 -12.8074     63.0844    244.4486   1.3435994775e+02   1.4520535958e+01    0.3092078    0.2531163  49.21 0.0008160702    1.218    0.179
       488 -10.7832    145.5757    242.4490   1.1684822537e+02   2.0302585393e+00    0.2489143    0.2025033  18.84 4.804706e-05    1.299    0.230
       489 -10.2703    181.4044    242.8010   1.0940565553e+02  -3.8990812953e+00    0.1823727    0.1184676 -30.94 0.0009512968    1.693    0.409
       490 -10.7267    129.7899    241.6328   1.2009220445e+02   4.8092123686e+00    0.1742787    0.1734636 -65.17 0.0009614171    1.126    0.112
       491 -10.3471    191.3770    240.2060   1.0694028009e+02  -5.0267790813e+00    0.2606731    0.1879257   4.75  0.001434947    1.514    0.340
       492 -11.5407    168.0933    238.8900   1.1153025913e+02  -1.0360539277e+00    0.2421111    0.2173527 -53.76 0.0002939969    1.278    0.217
       493 -10.9284    225.7147    238.4863   9.9910837492e+01  -9.8678595966e+00     0.209193    0.1762884 -13.55 0.0005938819    1.085    0.078
       494 -11.1263    110.0247    238.2518   1.2386100422e+02   8.7389930435e+00    0.3407124    0.1902001 -55.63  0.001289012    1.926    0.481
       495 -10.3679     63.0757    238.5413   1.3377059237e+02   1.5783100213e+01    0.1783721    0.1498813  80.40 0.0003684095    1.055    0.053
       496 -10.0732    115.6359    238.7044   1.2271657762e+02   7.7322341659e+00    0.1319363     0.106703  -0.53 0.0007031093    1.714    0.417
       497 -10.9634    221.3488    235.2416   1.0017152341e+02  -8.7270955746e+00    0.2286189    0.1799308 -35.52 0.0004159243    1.310    0.237
       498 -10.5720    219.4691    231.5170   9.9873110289e+01  -7.8433214930e+00    0.2401863    0.2353037  20.64  0.001216025    1.343    0.255
       499  -9.6187    216.9666    236.0216   1.0115000292e+02  -8.2161556746e+00    0.1545388    0.1296345   8.84 0.0003789324    1.061    0.057
       500 -10.4589    187.3936    235.9471   1.0703144655e+02  -3.6498435749e+00    0.2245955    0.1730249  39.76  0.000666302    1.298    0.230
       501 -10.3029    105.9815    235.3087   1.2433931746e+02   1.0010721648e+01    0.1885864    0.1551094  48.95 0.0002099191    1.105    0.095
       502 -10.4691    196.9880    233.5341   1.0466295636e+02  -4.7525283912e+00    0.2648863    0.1859916 -32.47 0.0008976817    1.432    0.302
       503 -10.9368    136.8896    246.7064   1.1931024143e+02   2.6494986462e+00    0.2270289    0.1865799 -20.52  0.001313501    1.512    0.339
       504 -11.1454    231.3486    233.7350   9.8018726982e+01  -9.9053303993e+00    0.2477265    0.1908869  -9.70 0.0004849097    1.148    0.129
       505 -10.5728    234.0688    229.5112   9.6761608633e+01  -9.6118901275e+00    0.3250082     0.273488  14.94   0.00188373    1.169    0.144
       506 -10.2230    102.4983    234.8809   1.2503550777e+02   1.0661217621e+01    0.3444113    0.1957659 -61.04  0.001677977    1.859    0.462
