#   1 NUMBER                 Running object number                                     
#   2 MAG_AUTO               Kron-like elliptical aperture magnitude                    [mag]
#   3 X_IMAGE                Object position along x                                    [pixel]
#   4 Y_IMAGE                Object position along y                                    [pixel]
#   5 X_WORLD                Barycenter position along world x axis                     [deg]
#   6 Y_WORLD                Barycenter position along world y axis                     [deg]
#   7 A_WORLD                Profile RMS along major axis (world units)                 [deg]
#   8 B_WORLD                Profile RMS along minor axis (world units)                 [deg]
#   9 THETA_WORLD            Position angle (CCW/world-x)                               [deg]
#  10 FWHM_WORLD             FWHM assuming a gaussian core                              [deg]
#  11 ELONGATION             A_IMAGE/B_IMAGE                                           
#  12 ELLIPTICITY            1 - B_IMAGE/A_IMAGE                                       
         1 -14.2757      3.3189     86.6866   1.3436679793e+02   5.9711139300e+01      2.74696     0.589597 -76.22  0.008583113    4.039    0.752
         2 -13.4188    206.0817     33.8592   5.7656302356e+01   2.9327060549e+01     1.188602     1.020324 -20.47  0.006981897    1.374    0.272
         3 -13.8403    224.5053     15.6595   5.2036582508e+01   2.7424488705e+01    0.9997625    0.8673689  21.47   0.00132067    1.674    0.403
         4 -13.0647      4.3919      9.9574   1.1343663506e+02   7.7609989076e+01     1.476593    0.4552522 -52.21  0.006373102    2.768    0.639
         5  -9.6042     53.6354    241.0276   1.3176111594e+02   1.8393499790e+01    0.1979766    0.1539394   8.53  0.001291977    1.557    0.358
         6 -10.7118    185.0666    248.6279   1.0489974167e+02   8.4202264032e-01    0.3180455    0.1645668  -1.03  0.001636851    2.581    0.613
         7 -10.8496    176.0765    250.0230   1.0676678757e+02   1.7369593708e+00    0.4582596    0.1119381  27.16  0.001641039    4.282    0.766
         8 -10.5451    162.3978    250.4885   1.0945728120e+02   3.3415507760e+00    0.3668507   0.08378647  33.71  0.001450447    3.318    0.699
         9 -11.5207    142.6210    249.0068   1.1322834607e+02   6.0258068078e+00    0.4681011     0.187049  43.45  0.002169808    2.687    0.628
        10 -11.7716    149.8531    247.0826   1.1152875247e+02   5.3835778995e+00    0.5230361    0.2739874  12.10  0.002672749    2.220    0.550
        11 -12.0593    134.9090    234.5454   1.1309182344e+02   9.2263447995e+00    0.5767272    0.3600265 -61.56  0.003246758    2.371    0.578
        12  -9.4744    123.2105    229.6609   1.1503903173e+02   1.1611951824e+01    0.1763725    0.1534192  59.34 0.0005700382    1.404    0.288
        13 -11.8373    133.0375    248.9201   1.1519035798e+02   7.2589869777e+00    0.6379236    0.2444387  32.00  0.003120062    1.974    0.493
        14 -11.9995    124.6713    240.5466   1.1600296964e+02   9.6337167724e+00    0.4881379    0.2201342  31.22  0.002479893    1.724    0.420
        15 -11.9697    119.2525    237.3787   1.1681499612e+02   1.0861852247e+01    0.6259447    0.3877312   1.18   0.00173433    2.206    0.547
        16 -12.4104    123.7831    247.8155   1.1700375529e+02   8.6107208737e+00    0.8464161    0.4301149  40.23  0.004670993    1.675    0.403
        17 -11.0816    117.1120    249.8222   1.1862703311e+02   9.1517369359e+00    0.5642296    0.2248426  30.37  0.001914041    1.924    0.480
        18 -10.9768    110.3807    247.6120   1.1983416526e+02   1.0356603625e+01    0.5078788      0.24515  24.58  0.002622334    1.818    0.450
        19 -11.2258     99.8971    247.8887   1.2211990149e+02   1.1638818529e+01     0.512179    0.3403906  37.30  0.002653815    1.173    0.147
        20 -11.6287     74.2668    244.1317   1.2740594105e+02   1.5436146292e+01    0.4759808    0.3197125  25.11  0.002959333    1.327    0.246
        21 -10.1605     81.5446    248.1674   1.2613259774e+02   1.3860682372e+01    0.3393464    0.1793338 -71.17  0.001719097    2.542    0.607
        22 -10.4981     84.2126    230.0757   1.2394030161e+02   1.6736122879e+01      0.27174    0.2033493 -58.20  0.001651761    1.645    0.392
        23 -11.7893     90.1909    223.7217   1.2191743378e+02   1.7141743395e+01    0.5331536    0.4281023 -45.10  0.002534055    1.534    0.348
        24 -10.8711     97.2397    239.3726   1.2188262046e+02   1.3406213702e+01    0.3783738    0.2084141  53.54  0.001862658    2.006    0.502
        25 -11.5953     87.4922    248.4465   1.2486123256e+02   1.3088049899e+01    0.5766494    0.3164355  34.27  0.001743376    1.360    0.265
        26 -12.6258    102.9832    238.1717   1.2048531803e+02   1.2869428622e+01    0.6689844     0.539646  36.25  0.002153071    1.070    0.065
        27 -12.5913    100.8356    230.7931   1.2019721388e+02   1.4436546991e+01     1.070337    0.3375492  26.80  0.003992095    3.142    0.682
        28 -12.1180     88.9727    238.9105   1.2368403742e+02   1.4540167742e+01    0.7096916    0.4262162  62.89   0.00389107    2.073    0.518
        29  -9.4684     56.4888    250.4586   1.3173531474e+02   1.6388394830e+01    0.2462541    0.2065121 -89.63  0.001809378    1.429    0.300
        30 -11.5468     68.2335    245.6854   1.2885441936e+02   1.5879296147e+01    0.5645819    0.3239883  22.42  0.002290691    1.659    0.397
        31 -10.4337     60.4915    247.4861   1.3067581560e+02   1.6457866804e+01    0.3473878    0.1893958  43.08  0.002055001    1.388    0.279
        32 -11.2176     58.6800    244.6718   1.3088462577e+02   1.7163777957e+01    0.4404072    0.2363165  19.78  0.002361222    1.958    0.489
        33 -14.0057      8.0888    211.5929   1.4072756905e+02   2.8781999423e+01     2.573222     1.103098  88.78    0.0130104    2.356    0.575
        34  -9.2865     55.3596    235.7163   1.3102168299e+02   1.9182129297e+01    0.2969036    0.1141524  47.09  0.001164801    2.102    0.524
        35 -11.0352    113.6059    230.2879   1.1725413719e+02   1.2812018602e+01    0.2815282    0.2104717 -39.05  0.001713419    1.627    0.385
        36 -14.6349     24.0579    220.0208   1.3732729518e+02   2.5584171994e+01     1.457983     1.048187  22.01   0.00926797    1.449    0.310
        37  -9.9811    250.0000    230.9884   9.1417122163e+01  -4.2545271523e+00    0.1575683   0.04827794 -33.42  0.000804472    2.957    0.662
        38  -9.9994    153.8152    229.9064   1.0850134442e+02   7.3979048097e+00    0.1983173    0.1597683  16.20 0.0003133817    1.031    0.030
        39 -10.3056     56.5705    228.2972   1.3021920804e+02   2.0456255876e+01    0.2228999    0.1866795  55.20 0.0002199727    1.117    0.105
        40 -11.4009     79.1519    225.7007   1.2470854660e+02   1.8202480153e+01    0.3869489    0.3422917   6.35  0.002575358    1.297    0.229
        41  -9.3542     65.2903    223.8080   1.2781735461e+02   2.0295067252e+01    0.3220421    0.1459184 -50.45  0.001504608    2.873    0.652
        42 -10.6459     69.1669    237.7720   1.2804606750e+02   1.7186496517e+01    0.2542711    0.1752677 -39.86 0.0006871519    2.017    0.504
        43 -10.6795     99.2804    223.7760   1.1979580397e+02   1.5914559486e+01    0.2661829     0.192012   6.94   0.00151622    1.600    0.375
        44 -10.6420     71.2802    219.3494   1.2599623764e+02   2.0432775137e+01    0.4438714    0.2432513  50.75  0.002301518    1.680    0.405
        45 -10.3364     60.3098    220.2386   1.2871432196e+02   2.1602174172e+01    0.2180102    0.1760081  38.00 0.0003371099    1.063    0.059
        46 -10.8140    107.4837    216.7403   1.1705932045e+02   1.6086937689e+01    0.4673425    0.2164327  49.00  0.001465228    2.356    0.575
        47 -10.0994     50.7616    218.6080   1.3088795959e+02   2.3048435487e+01     0.330776    0.1738019  60.03 0.0007848092    1.902    0.474
        48 -10.1521     45.9772    214.2370   1.3173490942e+02   2.4487570012e+01    0.4239281    0.1051748  43.18   0.00163596    2.865    0.651
        49  -9.8249    129.6093    236.2146   1.1443338112e+02   9.6706393760e+00    0.1503267    0.1128461 -31.38 0.0005700903    1.581    0.367
        50  -9.5315    116.3354    216.3176   1.1493705686e+02   1.4910963521e+01    0.2658221    0.1757073   9.33  0.001051756    1.756    0.431
        51  -9.7525     88.0245    211.6944   1.2114923104e+02   1.9760577221e+01    0.3673868    0.2338907 -69.56  0.001660763    1.924    0.480
        52  -9.6863    111.0126    211.3951   1.1555730929e+02   1.6587758562e+01     0.204689    0.1904545  72.43 0.0003951744    1.272    0.214
        53 -10.7122     62.6361    208.9850   1.2718148995e+02   2.3623695928e+01    0.5100367    0.3490034  -2.32  0.002636127    2.097    0.523
        54  -9.4708     58.5288    212.5028   1.2851107850e+02   2.3391133998e+01    0.3488741    0.1061478  39.09 0.0009826296    2.400    0.583
        55 -10.2586     55.8256    208.1564   1.2881979753e+02   2.4624952115e+01     0.417659    0.1975303 -69.52  0.002004861    2.358    0.576
        56  -9.4602     99.2688    209.9455   1.1820029331e+02   1.8544283979e+01    0.2906526    0.1275161  50.92  0.000840663    2.662    0.624
        57  -9.2358    113.9051    204.3264   1.1392973016e+02   1.7514875781e+01    0.2041311    0.1816227  87.83 0.0005349165    1.394    0.283
        58  -9.2259     90.7256    204.9628   1.1970892920e+02   2.0743284877e+01    0.3081824    0.1358394  22.42 0.0009662761    2.585    0.613
        59  -9.3330    107.0029    203.4191   1.1548473633e+02   1.8712077748e+01    0.2093285    0.1791475 -34.92 0.0005670648    1.354    0.262
        60  -8.8286     72.5157    203.4420   1.2414330358e+02   2.3533791336e+01    0.1370345    0.1117224  44.88 7.092324e-05    1.046    0.044
        61 -10.9172     44.9456    200.6503   1.3098370716e+02   2.7505626885e+01    0.4337033    0.2321085  11.52  0.001945082    2.526    0.604
        62  -9.3769    250.6049    200.2559   8.6505428231e+01  -8.4482148885e-01     0.150968    0.0805386 -21.47 0.0005705529    1.582    0.368
        63 -11.2593     74.0596    237.0444   1.2688082275e+02   1.6727609237e+01    0.4688533    0.2011499 -55.72 0.0008288822    2.849    0.649
        64  -8.6325     96.8240    199.3672   1.1748624293e+02   2.1018074245e+01    0.1867382    0.1175508  23.56 0.0001302078    1.549    0.354
        65  -8.8006    100.2797    198.3138   1.1647812992e+02   2.0728538101e+01    0.1308786    0.1027422  -9.39 0.0001996612    1.569    0.363
        66 -12.5123     37.4189    206.4712   1.3331968275e+02   2.7064140813e+01    0.9333268     0.529916  32.19  0.005050544    1.501    0.334
        67  -9.7900    249.8697    194.2972   8.5625897954e+01  -4.6651279981e-02    0.1999116    0.1439829  -2.92  0.001458479    1.106    0.096
        68 -11.8998     51.0920    191.9601   1.2863497226e+02   2.8733440686e+01    0.4416049    0.2946481 -71.58  0.001411509    1.617    0.382
        69  -9.2616     57.4012    192.2941   1.2697504499e+02   2.7895836774e+01    0.2923516    0.2022036  68.60  0.001575438    1.490    0.329
        70 -10.1147     30.8969    193.6608   1.3414039019e+02   3.0566880700e+01    0.2330872     0.175103  57.49 0.0007173858    1.138    0.121
        71  -9.1322     25.5121    192.5147   1.3548272156e+02   3.1359108863e+01    0.2178864    0.2103224  27.31  0.001481795    1.237    0.192
        72  -9.0938     21.5805    193.4390   1.3656488919e+02   3.1523975576e+01    0.2047457    0.1710413 -63.20 0.0001009237    1.401    0.286
        73 -10.2020     19.0812    188.4969   1.3694527822e+02   3.2876360425e+01    0.3573982    0.1764688  86.43 -0.0005082741    2.060    0.515
        74  -8.2304     38.6365    192.3270   1.3199631107e+02   3.0059265421e+01    0.1500219   0.07653131  54.58 0.0007039501    1.797    0.444
        75  -8.9628    191.5328    191.5072   9.4934226823e+01   7.9750535406e+00    0.1276147    0.1052021   2.79 9.283928e-05    1.011    0.011
        76  -8.9588     60.7381    238.8007   1.3002251580e+02   1.7991622273e+01    0.1768367    0.1067116  46.85 0.0006803053    1.338    0.252
        77 -10.4633     10.0663    187.3445   1.3926476144e+02   3.3920540228e+01    0.2820306    0.2159418  58.51  0.001785724    1.076    0.070
        78 -10.0376     70.5791    187.0837   1.2286124619e+02   2.7370434334e+01    0.3499746    0.1841872  25.52            0    1.869    0.465
        79 -11.8154     57.8758    184.7573   1.2608807444e+02   2.9554012595e+01    0.3915208    0.2557222  38.82 0.0004925551    1.323    0.244
        80  -9.5329     36.8919    180.1093   1.3150470093e+02   3.3077551983e+01     0.220771    0.1943161 -72.38 0.0008306166    1.241    0.194
        81 -14.7465     14.4691    242.6438   1.4036174513e+02   2.2100502494e+01     3.218392     1.119394  31.13   0.01658886    2.115    0.527
        82  -8.7625    111.1446    177.6796   1.1066603227e+02   2.3370694530e+01     0.214517    0.1236306  25.40 0.0009390524    1.779    0.438
        83  -8.9485     61.5576    177.5804   1.2427192841e+02   3.0758290029e+01    0.1418369    0.1210155  51.17 0.0008018871    1.043    0.041
        84  -8.2674     57.2720    176.2940   1.2534864182e+02   3.1611370678e+01    0.1287486    0.1062475 -27.76 0.0001813852    1.519    0.341
        85 -11.8713    248.5126    171.4338   8.1873148112e+01   2.9785119484e+00    0.5550519    0.2614484 -28.99   0.00311502    1.786    0.440
        86 -10.7420     69.9251    172.8696   1.2130488970e+02   3.0747593739e+01    0.2670521    0.2464992  47.74 0.0004082916    1.037    0.036
        87  -9.7880     17.9132    172.1697   1.3630313382e+02   3.6813943883e+01    0.2617695    0.2077315  44.79  0.001587761    1.134    0.118
        88 -11.9455     11.6120    171.0807   1.3803246017e+02   3.7603136512e+01      1.30527    0.2048965  49.86  0.003878532    4.954    0.798
        89 -11.4414     13.1983    167.2045   1.3735736309e+02   3.8410629354e+01    0.4416346    0.2373298  23.59  0.002216364    1.855    0.461
        90 -10.3937      2.4282    172.3736   1.4066961201e+02   3.7993781121e+01    0.3474904    0.1764496  57.23  0.001543933    1.696    0.410
        91  -9.0480     36.5290    171.5051   1.3087331124e+02   3.5178104087e+01    0.2559755    0.1283465 -84.89  0.001135234    2.148    0.534
        92 -10.4400     39.4866    167.8103   1.2966171573e+02   3.5761186627e+01    0.3077603    0.2220295  12.10 0.0009690144    1.604    0.377
        93  -9.9294     27.2907    171.7928   1.3358216987e+02   3.6044442302e+01    0.2454982    0.2138351 -27.32  0.000505763    1.435    0.303
        94  -9.4578     91.6307    168.5086   1.1449169867e+02   2.8546925144e+01    0.2626426    0.1848286  35.19 0.0005784363    1.291    0.226
        95 -12.0209      8.6793    164.8224   1.3853603243e+02   3.9344435377e+01    0.8470671    0.4259911 -17.69  0.003447887    3.578    0.721
        96 -11.8636     78.1754    165.0190   1.1782394184e+02   3.1429535647e+01    0.5836584    0.4620535  31.54   0.00182824    1.197    0.165
        97 -10.0287     68.1561    166.2402   1.2094590550e+02   3.2578182127e+01    0.1988095    0.1901868  29.82 0.0004076072    1.108    0.098
        98 -11.3330    245.3441    162.4241   8.0696453343e+01   4.5676029855e+00    0.2823052    0.2209591   7.77   0.00168062    1.232    0.188
        99 -11.1041    247.9962    157.4999   7.9418694040e+01   4.8672411626e+00    0.5992519    0.3553959  64.30  0.002652076    4.947    0.798
       100  -9.0466     37.3005    162.0865   1.2976649149e+02   3.7411902484e+01    0.1931897    0.1647825  82.60 0.0006035342    1.121    0.108
       101  -9.8344     23.9604    162.0146   1.3381486554e+02   3.8755096443e+01    0.1977421    0.1777818  62.58  0.000430311    1.037    0.035
       102  -8.9870     66.7812    161.3945   1.2069448471e+02   3.3948061408e+01    0.1903956    0.1357485  19.59 0.0002178164    1.515    0.340
       103  -8.7985     43.1001    161.1497   1.2789504753e+02   3.7006276076e+01    0.2006764    0.1417426  54.70 0.0003868997    1.321    0.243
       104 -10.9067     82.5176    157.3889   1.1535991523e+02   3.2599126796e+01    0.5379256    0.1991683  42.61  0.001907534    2.499    0.600
       105 -11.2198     12.6813    153.8444   1.3667747137e+02   4.1748509727e+01     0.307451    0.2049244 -71.71 0.0009056412    1.459    0.314
       106 -10.9501     54.1395    171.7817   1.2575245198e+02   3.3083160145e+01    0.3959657    0.2558065  42.40  0.001109223    1.371    0.271
       107 -10.2576     25.9649    154.9556   1.3261629473e+02   4.0336133938e+01    0.2374707    0.1329404  56.20 0.0006639662    1.709    0.415
       108 -10.1746     32.2525    153.5654   1.3050285104e+02   4.0078387191e+01    0.2530345    0.2266298  68.04 0.0005288266    1.010    0.010
       109 -10.8472    249.5302    151.0568   7.8013018524e+01   5.5155376552e+00    0.3080108    0.1986057 -30.38  0.001981249    1.265    0.210
       110 -10.9209     92.7955    149.8633   1.1099746831e+02   3.2738900721e+01    0.3278558    0.3071116   4.19 0.0008773192    1.150    0.130
       111 -11.1160     23.4103    149.8519   1.3298351098e+02   4.1863643149e+01    0.4467665    0.1805803  43.43    0.0017555    2.212    0.548
       112 -10.3548     80.7766    148.4561   1.1439463304e+02   3.5047046925e+01    0.2653954    0.2510202  46.15 0.0005769167    1.020    0.020
       113  -8.9210     38.6458    148.7311   1.2793451869e+02   4.0642618736e+01    0.1384692    0.1059684 -27.74 0.0003393461    1.632    0.387
       114 -11.8092     68.3154    143.8951   1.1756914321e+02   3.8087547021e+01    0.7340867     0.436769  64.97  0.002355439    2.118    0.528
       115 -12.8424      5.9576    143.6693   1.3815404882e+02   4.4797822895e+01    0.6510798    0.6141369  24.06  0.004248437    1.196    0.164
       116 -13.0435     12.1745    102.6232   1.3232599272e+02   5.5065897099e+01    0.8598235    0.5799342  -9.48  0.004427684    1.756    0.431
       117 -12.1324    247.6438    112.7490   7.0819212446e+01   1.0969473488e+01    0.4579571    0.3996064  29.29  0.003091699    1.355    0.262
       118  -9.0168    235.9899    145.9966   7.8938807047e+01   8.1249964533e+00    0.1837198    0.1270582  -3.25 0.0004940303    1.565    0.361
       119  -8.9582     96.4662    145.9750   1.0917789833e+02   3.3037739882e+01    0.2140518    0.1518794 -58.53 0.0003841427    1.500    0.333
       120  -8.9697    133.3858    141.1418   9.7934828451e+01   2.7252824804e+01    0.2154772    0.1443371 -59.15 0.0009563855    1.769    0.435
       121  -9.5307     44.8542    139.8620   1.2476691529e+02   4.2230376478e+01    0.2071573    0.1960092 -39.91 0.0003697136    1.173    0.147
       122 -12.2224      8.3418    133.7279   1.3669049321e+02   4.7181864291e+01    0.6375762    0.2569303 -80.77  0.001951431    2.297    0.565
       123  -9.7128    106.8662    135.3717   1.0394507048e+02   3.3654058474e+01    0.3690335    0.2559416  -2.40  0.001503254    2.245    0.555
       124  -8.5673     93.0052    133.2497   1.0768526189e+02   3.6707344713e+01    0.1931626    0.1274238  36.35 0.0003191068    1.453    0.312
       125  -9.6927     44.2664    130.0059   1.2357761901e+02   4.4872062385e+01    0.2016056     0.180577  88.26 0.0004412826    1.082    0.076
       126  -9.0491     58.7836    127.7938   1.1804668184e+02   4.3581673452e+01    0.2061027    0.1648408  66.26 0.0004234318    1.303    0.233
       127  -9.6124     66.7563    127.0007   1.1510201331e+02   4.2626814399e+01    0.2006454    0.1275789 -62.95 0.0007524317    1.600    0.375
       128  -9.2046    234.3008    125.6397   7.5129372254e+01   1.1278623300e+01    0.1223885   0.08702433 -54.95 0.0007036459    1.718    0.418
       129 -11.0156    170.2160    247.7061   1.0758571502e+02   2.7512945011e+00    0.4063262    0.2006991  -5.30  0.001713541    3.908    0.744
       130 -11.5581    239.1220    120.4814   7.3439591889e+01   1.1242289708e+01    0.5376404    0.2031597 -26.21  0.002144727    3.156    0.683
       131 -11.8301    247.8379    142.4612   7.6618404444e+01   6.9014730876e+00    0.4594592    0.3586839 -17.54  0.003054467    1.073    0.068
       132 -13.6328     14.4249    123.7007   1.3368240471e+02   4.9369580367e+01     1.859002    0.1752998 -66.37  0.005134339    4.992    0.800
       133 -13.8544      3.6827    125.6001   1.3773704541e+02   4.9570679896e+01     2.139187    0.4868213 -67.84  0.007385909    3.410    0.707
       134 -10.5959    232.0121    116.3521   7.3526120469e+01   1.2985958592e+01    0.2261032     0.153981 -49.62  0.000750455    1.538    0.350
       135 -12.7658    248.0476    134.5802   7.5076594071e+01   7.9382053651e+00      1.14549     0.411893 -28.18  0.004947446    2.806    0.644
       136  -9.7217     29.5996    108.2101   1.2586673112e+02   5.2197376096e+01    0.2046087    0.1183419 -57.92 0.0003560407    1.623    0.384
       137  -8.2862     71.7328    100.3287   1.0738733182e+02   4.8585839139e+01    0.1537884    0.1191818  76.62   0.00031958    1.576    0.366
       138 -12.9988    248.3212    101.7642   6.8521850645e+01   1.2348312257e+01    0.9203524    0.5154517 -27.66  0.005201995    1.604    0.377
       139 -11.0705    249.7126    117.9161   7.1602777181e+01   9.9502289346e+00    0.4185775    0.2202751 -20.82  0.001783173    2.083    0.520
       140  -9.3755    161.5148     79.5210   7.5872799181e+01   3.3158458464e+01    0.1457011    0.1401947 -71.42 8.980495e-05    1.004    0.004
       141 -10.7172    197.9704    246.2733   1.0222981859e+02  -3.7390934445e-01    0.2252121     0.156342 -31.63  0.001596582    1.635    0.388
       142 -11.1719     82.6976    240.0250   1.2518926863e+02   1.5130221972e+01    0.4557093    0.2274168  48.29 0.0009667358    1.818    0.450
