#   1 NUMBER                 Running object number                                     
#   2 MAG_AUTO               Kron-like elliptical aperture magnitude                    [mag]
#   3 X_IMAGE                Object position along x                                    [pixel]
#   4 Y_IMAGE                Object position along y                                    [pixel]
#   5 X_WORLD                Barycenter position along world x axis                     [deg]
#   6 Y_WORLD                Barycenter position along world y axis                     [deg]
#   7 A_WORLD                Profile RMS along major axis (world units)                 [deg]
#   8 B_WORLD                Profile RMS along minor axis (world units)                 [deg]
#   9 THETA_WORLD            Position angle (CCW/world-x)                               [deg]
#  10 FWHM_WORLD             FWHM assuming a gaussian core                              [deg]
#  11 ELONGATION             A_IMAGE/B_IMAGE                                           
#  12 ELLIPTICITY            1 - B_IMAGE/A_IMAGE                                       
         1 -12.2255     60.5381     45.9716   1.0894297435e+02   6.0902348018e+01     1.139563    0.5151127 -41.72  0.005232191    1.957    0.489
         2 -11.3584    120.3926     57.6503   9.4141536312e+01   4.7684861324e+01     1.978841     1.199397 -76.50  0.006411764    4.153    0.759
         3 -12.3251    104.9815     12.9802   8.0905200586e+01   5.7450492880e+01    0.5137197    0.4033595  -8.25  0.002967307    1.283    0.221
         4 -12.5607    112.8685     24.8893   8.3838775384e+01   5.4308098394e+01    0.8917439    0.4457706  51.28  0.003974699    1.872    0.466
         5 -10.4170     60.6729     24.9975   1.0028836946e+02   6.4402230673e+01     0.566566    0.2296029 -38.19  0.002553786    2.279    0.561
         6 -11.5060     26.1758     27.7482   1.1623376725e+02   6.8268360327e+01    0.4483273    0.4406351 -82.74    0.0027184    1.452    0.311
         7 -11.5298     22.7495     11.1199   1.1055007000e+02   7.1356893274e+01    0.4788556    0.2920735  -3.24    0.0024846    1.804    0.446
         8 -11.5548     19.9490     22.9456   1.1724705940e+02   6.9674336281e+01    0.5126293    0.2437401 -43.04  0.001761935    1.640    0.390
         9 -11.7938     14.9256     22.2518   1.1943224657e+02   7.0209277063e+01    0.7140467    0.5373361 -75.86  0.003724413    2.114    0.527
        10 -11.6233     16.8669     13.5676   1.1472603273e+02   7.1520708814e+01    0.3370793    0.1575547 -40.25 0.0003061501    1.673    0.402
        11 -11.1077     13.6203      9.4724   1.1451844642e+02   7.2457426907e+01    0.3447141    0.2021442  19.18  0.002248974    1.870    0.465
        12 -10.1980    153.0794     26.2082   7.5800811326e+01   4.4348298107e+01    0.6187531    0.3522315  -4.35  0.002414149    2.524    0.604
        13 -12.7280    239.7731     15.5956   6.1953490018e+01   2.3612657062e+01    0.8558968    0.4828844  63.32  0.003046266    1.815    0.449
        14 -12.3387    245.3109      6.6102   5.9394177540e+01   2.3327628874e+01    0.9683002     0.481958 -73.59  0.004568154    2.132    0.531
        15 -12.0607    239.5554      7.3781   6.0005134132e+01   2.4574368792e+01    0.5607108    0.2677168 -70.87  0.002038422    2.296    0.564
        16 -10.3610     87.0441      7.1996   8.3124267870e+01   6.1868617128e+01    0.5773298    0.3625653  54.39  0.002824134    1.597    0.374
        17 -11.6798     90.6556     20.1371   8.7900880041e+01   5.9676382044e+01    0.5792148     0.425842 -15.52  0.002572844    1.329    0.248
        18 -11.5415     85.9993     14.6225   8.6837573986e+01   6.1273191456e+01    0.5258281     0.302751 -12.74  0.001847039    1.885    0.470
        19  -9.5630     32.0274     12.0668   1.0644963568e+02   7.0212301727e+01    0.1713319    0.1517389  33.10 0.0004435408    1.535    0.349
        20 -11.1427     46.4264     18.5425   1.0308859529e+02   6.7440246317e+01    0.3872029    0.3188955  46.57  0.002556582    1.656    0.396
        21 -12.4295     49.2112     13.2336   9.9336556407e+01   6.7805735734e+01    0.6548278     0.348267  39.82  0.003593283    2.002    0.500
        22 -11.2141     38.6931     20.1622   1.0723236082e+02   6.8188079808e+01    0.5122268    0.1614337 -40.59  0.001539267    2.729    0.634
        23 -11.4567     35.5586     18.7809   1.0801669112e+02   6.8778202965e+01    0.4017542    0.1923065 -36.56  0.001500748    1.767    0.434
        24 -10.3773    220.8221     19.0814   6.4555826063e+01   2.7768116865e+01    0.2289573    0.2002691  76.19 0.0004225202    1.150    0.131
        25 -11.1809     77.1440      4.8338   8.4951734921e+01   6.4067313999e+01    0.4983347    0.3009468 -18.87  0.002747811    1.609    0.379
        26 -11.0004     71.7167      3.3599   8.5954607681e+01   6.5241759948e+01    0.5100066    0.3142078 -18.43  0.002893538    1.554    0.357
        27 -11.1199     65.9967     10.8627   9.1640829498e+01   6.5439475132e+01    0.3527133    0.2519758  28.94 0.0007903241    1.316    0.240
        28 -10.7183     63.0415      6.2780   9.0414850091e+01   6.6480819059e+01    0.3564315    0.2105016 -11.60  0.001342084    1.704    0.413
        29  -9.8651    115.8801     17.3357   8.0084353896e+01   5.4504909055e+01    0.3118171    0.2359194 -18.22  0.001708725    1.359    0.264
        30 -10.6324    165.3659     17.2889   7.0805566320e+01   4.2189129842e+01    0.3956666    0.2367775  41.62 0.0009565688    1.814    0.449
        31 -11.9942     68.9173     18.3360   9.4173396690e+01   6.3991951436e+01    0.7504211     0.582374  41.51  0.004627131    1.374    0.272
        32 -11.5073    134.1863     15.2079   7.5384348448e+01   5.0342595381e+01    0.8914009    0.3122874  63.46  0.003275794    2.699    0.630
        33 -11.1541    125.4024     11.2027   7.5595297998e+01   5.2892182932e+01    0.6436396    0.3772446  77.51  0.002446504    2.073    0.518
        34 -11.5918    211.5714      9.8251   6.3026225468e+01   3.1088706632e+01    0.4912962    0.3438265  10.61  0.001764421    2.082    0.520
        35 -10.9879    192.1849      7.8133   6.4458367106e+01   3.6216585926e+01     0.401252     0.295481  -2.89  0.001390201    1.724    0.420
        36  -9.5129    169.0115      9.9095   6.7910351203e+01   4.2003204060e+01    0.3178772     0.143869  51.76  0.001326776    2.101    0.524
        37  -9.2857    150.5041      8.0118   6.9963814475e+01   4.6950975767e+01    0.2382537    0.1647387 -84.55 0.0007567058    1.655    0.396
        38 -10.1879      1.2994      7.2652   1.2031701760e+02   7.3729284619e+01    0.1753479   0.07334952 -48.10 0.0002346742    1.820    0.451
        39 -11.3450     40.8309     14.2470   1.0346234029e+02   6.8812620173e+01    0.5405576    0.1652553  39.06  0.002298471    3.580    0.721
        40  -9.5369    162.8451      5.4339   6.7303593326e+01   4.4022984493e+01    0.2859211    0.1971634   8.80  0.001014428    1.832    0.454
        41  -8.6456    162.6803      1.2773   6.5973765192e+01   4.4435084965e+01    0.1388148   0.09657533 -67.98 0.0002204575    1.577    0.366
        42 -10.6557     42.6421      3.5494   9.7126914810e+01   6.9998539291e+01    0.4215388    0.2380086   1.25  0.002234855    2.160    0.537
        43 -10.6206    218.5651      3.3599   6.0707387170e+01   3.0022142323e+01    0.2818624    0.2436747 -74.81 0.0009065815    1.003    0.003
        44 -11.2817    223.8398      2.0835   5.9949257244e+01   2.8864696217e+01    0.7536188    0.3139483 -85.28  0.002954863    2.920    0.657
        45  -9.8347    174.9472      4.6550   6.5503195753e+01   4.0968365191e+01    0.2807406    0.1621965  75.58  0.001152604    1.624    0.384
        46  -9.7679    141.5448      3.6277   6.9837012886e+01   4.9612862247e+01    0.2596374    0.2339095 -80.40  0.001560153    1.181    0.153
        47 -11.9531    133.8261      2.6365   7.0758056730e+01   5.1619200343e+01    0.3559449    0.2599609  59.48 0.0007228529    1.231    0.187
        48 -10.1524    205.8838      2.2998   6.1550566359e+01   3.3277105079e+01    0.4237727    0.1989238 -89.40  0.001783246    2.342    0.573
        49 -10.7760    113.3043      1.8731   7.4343038093e+01   5.6609350718e+01    0.5929137    0.2445826  72.79  0.002033697    3.176    0.685
        50 -11.0507    105.9738      1.6829   7.5849110955e+01   5.8304868017e+01    0.6387702    0.2442315  66.05  0.002324037    2.847    0.649
        51 -10.3183     23.2380      2.4599   1.0582250808e+02   7.2570549541e+01    0.2449414    0.1535485 -18.68  0.001598633    1.360    0.265
        52 -10.9900      2.8904      1.8040   1.1679498988e+02   7.4497478026e+01     0.336262    0.1676305   6.66  0.002024834    2.369    0.578
        53  -9.1657    157.4875      2.5338   6.7080901582e+01   4.5659366900e+01     0.136657     0.124307  73.79 0.0001152563    1.016    0.016
        54  -9.3636      4.1648     10.4229   1.2011259065e+02   7.3018039119e+01    0.3076389    0.1295643 -25.94  0.001591439    2.594    0.615
        55  -9.5303    122.1495      1.2873   7.2346664352e+01   5.4571708267e+01    0.4180044   0.07231292  60.14  0.001305446    3.892    0.743
        56 -11.1213     62.4920    149.7156   1.3282713152e+02   3.7505572853e+01    0.4904905    0.3785699  68.55  0.002755595    1.225    0.184
        57 -10.6249     47.3756    151.5194   1.3670884334e+02   3.8955463832e+01    0.7416618    0.2674587  57.23  0.002811145    3.624    0.724
        58 -10.7003     48.3472    147.7073   1.3599689539e+02   3.9717095462e+01    0.2562991    0.2057912  58.20 0.0007858549    1.253    0.202
        59 -10.4731     46.3199    145.3008   1.3618251582e+02   4.0504775124e+01    0.3911284    0.2158241 -44.37  0.001421205    2.403    0.584
        60  -9.6962    214.4907    151.5235   9.9119799173e+01   8.5615609525e+00    0.1407753    0.1313784   3.44 6.850585e-05    1.003    0.003
        61 -10.2394     56.3966    149.2173   1.3424071445e+02   3.8399721787e+01    0.2301881     0.145455 -79.12 0.0009139565    1.434    0.303
        62  -9.3685     85.9769    149.7475   1.2709303248e+02   3.4134257733e+01    0.1770279    0.1148745  41.97 0.0008926467    1.591    0.372
        63  -9.2756    239.7612    146.9750   9.3705141044e+01   4.2974239692e+00    0.1813713    0.1070699 -31.73 0.0006537915    1.591    0.372
        64 -10.6833    249.5396    142.5914   9.1160075618e+01   3.1111573499e+00    0.5887285    0.1366667 -36.52  0.001891448    3.808    0.737
        65  -8.6294     69.5007    140.4952   1.2968994087e+02   3.8701451344e+01    0.1346501    0.1180951 -78.39 -0.0001250242    1.061    0.057
        66 -10.6931     81.4468    135.5130   1.2577034785e+02   3.8130124271e+01    0.4685813    0.3344705 -22.02  0.002228989    2.311    0.567
        67 -10.6924     47.6956    134.5996   1.3438382889e+02   4.2833354116e+01    0.3217358    0.1710648 -61.19  0.001138659    1.629    0.386
        68 -10.7198     72.1832    133.6664   1.2785536472e+02   3.9924556149e+01    0.3521563    0.2622145 -25.97  0.001821148    1.989    0.497
        69 -11.1929     92.5685    130.1611   1.2184979952e+02   3.7611471568e+01    0.5832136    0.3512495 -51.79  0.002349873    1.602    0.376
        70  -9.7778     62.5708    132.2048   1.3013218849e+02   4.1577168129e+01    0.3482862    0.1093879 -60.64  0.001315613    2.707    0.631
        71  -8.9155    106.9611    131.0601   1.1830366046e+02   3.4906284421e+01    0.1719569    0.1556048 -73.78 0.0003890412    1.040    0.038
        72 -10.8440     10.6348    127.0852   1.4296773035e+02   4.8037337978e+01    0.4686248    0.1652394 -59.66   0.00161124    2.314    0.568
        73 -10.9565     55.1021    123.2278   1.3063895737e+02   4.4632794708e+01    0.5732973    0.3718573  28.82  0.002325235    1.896    0.472
        74 -10.1487     18.8181    124.2879   1.4055253203e+02   4.8040316029e+01    0.3030578    0.1226735 -65.54  0.001433807    1.901    0.474
        75 -10.8379      2.9369    123.6057   1.4457163538e+02   4.9361380326e+01    0.3940703    0.2691749 -59.38  0.002219671    1.400    0.286
        76  -9.9395     82.5656    124.6603   1.2341183153e+02   4.0500700559e+01    0.3314205    0.2246389  -3.64   0.00138642    2.988    0.665
        77 -10.2136    133.8084    139.9338   1.1357407189e+02   2.7761899556e+01    0.3577258    0.3010963 -27.50   0.00184318    1.415    0.293
        78 -11.7290    105.0902    120.9196   1.1657275986e+02   3.7571460685e+01    0.5408723    0.4968958 -78.80   0.00253123    1.033    0.032
        79 -10.4260     45.7005    120.5654   1.3278690385e+02   4.6347618612e+01    0.2889123     0.216096  88.41  0.001080156    1.286    0.223
        80 -10.3435    221.0249    120.5213   9.0811022891e+01   1.2441029085e+01    0.2403675     0.187957 -33.63 0.0006982974    1.212    0.175
        81 -10.9411     34.3193    119.7616   1.3579937920e+02   4.7712016504e+01    0.2530729     0.212097 -68.61 0.0004794474    1.107    0.097
        82  -9.3393    148.7611    119.4208   1.0524850776e+02   2.9011569610e+01     0.220516    0.1453475  36.40 0.0009466015    1.691    0.409
        83  -8.6912     72.6175    119.7128   1.2515636802e+02   4.3146112243e+01    0.1361644    0.1049869 -26.38 0.0005467065    1.740    0.425
        84 -10.7531     44.6393     85.0664   1.2628821459e+02   5.4705163697e+01     0.331023    0.2805093 -18.45  0.001365887    1.381    0.276
        85 -12.2323     35.8184     89.0503   1.3004691973e+02   5.4690969599e+01     1.774717    0.7633671 -61.35  0.002348913    1.870    0.465
        86 -12.0683     10.0196     97.8320   1.3962833786e+02   5.4733882894e+01    0.6248731    0.4252805  81.54   0.00365966    1.489    0.329
        87 -12.2125      7.3009     88.7744   1.3915690121e+02   5.6947951162e+01    0.5149254    0.3725913 -63.25    0.0010788    1.098    0.089
        88 -12.9586     19.8036     94.0935   1.3607471351e+02   5.4898889870e+01      1.13155    0.5608252 -80.06  0.005680737    2.005    0.501
        89 -11.5507     18.8548    106.0860   1.3818942874e+02   5.2222951276e+01    0.2192911    0.1797303 -83.91 0.0002846889    1.093    0.085
        90 -11.9230     25.7218    113.4995   1.3728465930e+02   4.9953592015e+01     1.060812    0.4962819  11.62  0.004706661    3.856    0.741
        91 -11.7444      3.6456    104.8466   1.4238402928e+02   5.3545745432e+01    0.3411714    0.3087929 -15.85  0.001419459    1.487    0.328
        92 -10.0559    114.0378    115.9839   1.1305507007e+02   3.7013305758e+01     0.219394    0.2101749 -63.47 0.0003382576    1.041    0.040
        93 -11.0127     86.2840    105.4139   1.1816589772e+02   4.4394346305e+01    0.3871942     0.314789  17.29  0.001475646    1.549    0.354
        94  -9.8207     88.0253    114.6315   1.1979740401e+02   4.1976328272e+01    0.3193017    0.2194616  56.76 0.0006274467    1.613    0.380
        95 -10.9123     79.9419    108.8160   1.2078431834e+02   4.4611546191e+01    0.6362782    0.4015633  57.26  0.003023659    1.877    0.467
        96 -12.5841     25.6737    107.3458   1.3639626074e+02   5.1382802177e+01     1.005491     0.546266 -22.14  0.004590696    3.463    0.711
        97  -9.1340    126.8333    114.1751   1.0929745850e+02   3.4851355165e+01    0.2030029    0.1838811  -3.81 0.0006603395    1.307    0.235
        98 -10.5589     67.0875    112.2170   1.2521852384e+02   4.5682477135e+01    0.4904505    0.2822418 -68.81  0.002328891    1.709    0.415
        99 -10.5110    107.7400    112.3144   1.1384288397e+02   3.9044486166e+01    0.7445891    0.4344316 -86.98  0.002347071    4.136    0.758
       100 -10.6825    104.0143    109.2434   1.1410396483e+02   4.0434673956e+01     0.533956    0.3887563  18.47  0.002489794    1.905    0.475
       101 -10.9706    170.7909    110.1087   9.7890856927e+01   2.5878385123e+01    0.4886803    0.4143179  46.60  0.001915981    1.195    0.163
       102 -10.2126    175.2049    106.8027   9.6080639233e+01   2.5482641649e+01    0.2979569    0.2743068   1.49 0.0007323013    1.188    0.159
       103 -10.1312     49.0446    112.2878   1.3043745121e+02   4.7919518392e+01    0.2820021     0.184008 -59.68 0.0009875312    1.311    0.237
       104  -9.9662     14.0716    108.5067   1.3988879150e+02   5.2023409395e+01    0.1495194    0.1175838  35.84 0.0008663696    1.561    0.359
       105  -9.2852    130.4990    107.4875   1.0664729039e+02   3.5539651986e+01    0.1526622    0.1476395 -68.52 0.0008105644    1.001    0.001
       106 -12.1016      3.0690    111.5440   1.4330348619e+02   5.2069596981e+01    0.5246153    0.3375343 -58.91  0.002230475    1.386    0.279
       107 -10.2302    157.9773    105.4991   9.9500051670e+01   2.9796214349e+01    0.2928697    0.2344385 -39.64 0.0006258872    1.245    0.197
       108 -10.1459    143.5558    105.6826   1.0293140198e+02   3.3061898204e+01    0.3120127    0.3073452  15.38  0.001094959    1.070    0.065
       109 -10.6789    146.4662    100.3774   1.0078723154e+02   3.3501440780e+01    0.4733808    0.3801527  18.98  0.002232995    1.541    0.351
       110 -10.2727     48.0823    103.0169   1.2898921688e+02   5.0198373614e+01    0.2236874    0.1919784 -41.12 0.0003471763    1.264    0.209
       111 -10.0511     52.5814     96.9149   1.2636088480e+02   5.1099651533e+01     0.651352    0.1420191 -50.08  0.002077144    3.919    0.745
       112 -11.2260     67.5065     97.3166   1.2183584161e+02   4.9094112844e+01    0.5860751    0.3139114 -52.19   0.00135313    1.641    0.391
       113 -10.3871     57.5933     97.4819   1.2492864503e+02   5.0360826011e+01    0.3905357    0.2154661 -65.92  0.001791782    1.724    0.420
       114 -10.2925    211.4716     97.6722   8.6753827932e+01   1.8523426139e+01     0.301905    0.2619054  12.41 0.0006344076    1.309    0.236
       115 -11.3623     89.6198     89.4983   1.1309438444e+02   4.7432235414e+01     0.631888    0.3589676 -34.16  0.002189834    2.104    0.525
       116  -9.6751     78.0770     97.0569   1.1855590700e+02   4.7609940679e+01    0.2102585    0.1865548 -57.28 0.0003574287    1.017    0.017
       117 -11.1001     81.4443     93.0048   1.1650701843e+02   4.8002458052e+01     0.638326    0.4221582  55.83  0.002558666    1.817    0.450
       118 -11.5311     80.0485     82.5804   1.1410889020e+02   5.0537496140e+01      0.87314    0.5768812 -73.39  0.004011844    2.051    0.513
       119 -11.6777     71.7846     79.5331   1.1589589866e+02   5.2475854077e+01    0.6865066    0.3850952 -34.34  0.003070919    2.056    0.514
       120  -9.1456    140.4789     96.5033   1.0115703706e+02   3.5662730452e+01      0.15364    0.1509119 -44.73 0.0001104716    1.026    0.025
       121 -10.7128    125.0351     93.6548   1.0427380516e+02   3.9664266897e+01    0.6077314     0.291682  41.18  0.002009182    2.266    0.559
       122 -10.7237    118.2318     92.3101   1.0570452464e+02   4.1382293016e+01    0.5936044    0.4005006   6.62   0.00230876    2.689    0.628
       123 -10.9701    119.8275     85.3009   1.0322695021e+02   4.2516098441e+01    0.4913244    0.2317811  48.27  0.001568539    2.209    0.547
       124  -9.1897    160.6692     93.3381   9.5535381533e+01   3.1571556556e+01    0.1648214    0.1229257 -76.21 0.0005506887    1.738    0.425
       125 -10.0318    138.9327     92.9945   1.0054049857e+02   3.6732823460e+01    0.2774733    0.2262546  28.06 0.0007221384    1.398    0.285
       126 -10.1151    100.4372     90.8780   1.1028469548e+02   4.5194578960e+01    0.5952404    0.3228835  54.47  0.002442126    2.249    0.555
       127  -9.8985    104.4797     88.1399   1.0834091328e+02   4.5022799440e+01    0.3071515    0.2351118  41.97  0.001545742    1.385    0.278
       128 -10.1098    153.1966     91.6570   9.6748326209e+01   3.3684580520e+01    0.3510438    0.2456215  24.43  0.001482108    1.912    0.477
       129  -9.8318     50.5196     91.4861   1.2582388290e+02   5.2589470586e+01    0.4898065    0.1421392 -48.41  0.001767732    3.117    0.679
       130  -9.6570     47.7678     89.9985   1.2637687001e+02   5.3241610740e+01    0.2072817    0.1690469 -86.35    0.0012277    1.304    0.233
       131 -10.0696    183.8027     86.8510   8.8886288239e+01   2.7126156430e+01     0.475975    0.1860542 -41.33  0.001630975    2.459    0.593
       132 -10.7279    113.6197     83.1562   1.0428603775e+02   4.4255072817e+01    0.5708363    0.3027381 -40.97  0.002021944    1.839    0.456
       133 -10.4749    108.7108     80.9254   1.0499233561e+02   4.5712703533e+01    0.3485408    0.3074239 -25.26  0.001289728    1.169    0.144
       134  -9.3077     67.5826     88.1721   1.1957280070e+02   5.1166513651e+01    0.2069155    0.1104529 -45.04 0.0009422567    1.755    0.430
       135  -9.7899    212.1918     87.1081   8.3871738603e+01   2.0143577033e+01    0.2193876    0.1988409   4.71 0.0004793879    1.228    0.186
       136 -11.4051    143.4743     83.4700   9.6635164873e+01   3.7583892683e+01    0.4721943    0.3625168 -23.55  0.001830111    1.457    0.314
       137 -10.4190    165.0686     83.1548   9.1640751813e+01   3.2433389495e+01    0.4016325    0.3623023 -72.25  0.001750621    1.167    0.143
       138 -10.1850    127.5091     83.7591   1.0072416711e+02   4.1168446922e+01    0.2882805    0.2172152  49.66   0.00134845    1.365    0.267
       139  -9.5912     51.2922     83.3491   1.2367136421e+02   5.4346623876e+01    0.1633803    0.1323497 -10.98 0.0006736317    1.509    0.337
       140 -11.4465     52.9394     76.6007   1.2139877372e+02   5.5651482198e+01    0.5686675     0.326148 -60.30  0.002770815    1.615    0.381
       141 -10.9324     58.1929     78.2263   1.2004523759e+02   5.4641096931e+01    0.3832291    0.3030803  87.44  0.001196512    1.603    0.376
       142 -10.0309    120.6221     79.7308   1.0132178518e+02   4.3479981212e+01    0.4359963    0.1812634  50.07  0.001560002    2.544    0.607
       143 -11.0833     25.2220     86.5577   1.3301505238e+02   5.6190124980e+01    0.5030811    0.3611374  47.30  0.002776584    1.669    0.401
       144 -11.8395     13.9005     74.6042   1.3455905810e+02   5.9693928535e+01    0.6863606    0.5592653 -15.70  0.004827681    1.489    0.329
       145 -12.0991      2.1437     71.2790   1.3806353826e+02   6.1106997355e+01    0.7737648    0.1423985 -64.80  0.003040708    3.229    0.690
       146 -12.1914      6.4893     62.5065   1.3483442569e+02   6.2773589168e+01    0.9712947     0.104059 -56.19  0.003611907    3.610    0.723
       147 -11.7273     13.2824     65.9931   1.3303558338e+02   6.1616338618e+01    0.2519098    0.2317794 -86.20 0.0004271624    1.250    0.200
       148 -11.8594     12.6997     62.1874   1.3242432766e+02   6.2472716263e+01    0.5670616    0.3015209 -60.93 0.0002821861    1.440    0.306
       149  -9.9515    104.2684     75.9767   1.0474467282e+02   4.7609125991e+01    0.3974757     0.262791 -28.17  0.001351439    1.718    0.418
       150 -12.2991     74.5972     50.4635   1.0553022563e+02   5.7920083872e+01     1.098551     0.722909 -48.96  0.005701866    1.548    0.354
       151 -10.3061     93.5397     76.2713   1.0804261397e+02   4.9578217102e+01     0.576629    0.4151096  19.64  0.002799938    1.765    0.433
       152 -11.8108     85.9011     73.7607   1.0964164188e+02   5.1449010170e+01    0.6535164    0.6348851 -71.60  0.003677412    1.116    0.104
       153 -11.3973     78.7929     67.1154   1.0983939144e+02   5.4005498805e+01    0.6047239    0.4901707 -87.99   0.00273162    1.695    0.410
       154  -9.6862      5.0707     77.8318   1.3816489950e+02   5.9513794221e+01    0.1709601     0.134339 -82.69 0.0006496401    1.202    0.168
       155  -9.3683    192.0497     65.5142   8.1303639380e+01   2.8685094840e+01    0.2442659    0.1906078 -84.78 0.0008407518    1.457    0.314
       156  -9.9093    184.1913     75.3800   8.5550570574e+01   2.9040848089e+01    0.3226836    0.2276382  56.54  0.001293223    1.432    0.302
       157 -11.7217    187.1293     69.9184   8.3435243268e+01   2.9217279126e+01    0.9135355    0.5686782 -47.17  0.003978971    1.618    0.382
       158  -9.2154    231.2407     73.9915   7.7565882670e+01   1.7740861962e+01    0.1941415    0.1139534 -34.07 0.0008735785    1.577    0.366
       159 -11.3838     65.7028     81.9619   1.1855217254e+02   5.2815117492e+01    0.4294091    0.3371261  35.05  0.001506914    1.441    0.306
       160  -9.5738     46.5365     73.0486   1.2268352131e+02   5.7171860202e+01    0.2904818    0.1185933 -62.79 0.0009572672    2.565    0.610
       161 -11.1658     33.1473     71.7127   1.2710405525e+02   5.8823171407e+01    0.5887179    0.2808324  21.66  0.002903393    2.682    0.627
       162 -10.5925     38.7051     73.6820   1.2560873828e+02   5.7859193464e+01    0.2060198    0.1658756 -49.36  0.001198155    1.058    0.054
       163 -11.0505     40.9886     70.9770   1.2410959431e+02   5.8219132835e+01      0.39001    0.2411774 -61.39  0.001557481    1.449    0.310
       164  -9.2897     61.0540     72.5979   1.1750666388e+02   5.5490576487e+01    0.1816073    0.1312906  34.86 0.0005456374    1.569    0.363
       165  -9.9279    162.3550     70.8246   8.8523724955e+01   3.5328414069e+01    0.3713316    0.2208733  75.28  0.001407013    2.354    0.575
       166 -11.5412    122.4327     68.1172   9.7134543945e+01   4.5338259604e+01    0.6204608    0.4244613  42.14  0.002580379    1.514    0.339
       167 -10.1511    207.7800     68.2765   7.9512539712e+01   2.4288935134e+01    0.4395639    0.1986556  47.41  0.001648716    2.451    0.592
       168 -10.1657    172.3544     67.9499   8.5621220506e+01   3.3299676904e+01    0.3718766    0.2705729 -47.42  0.001276397    1.384    0.277
       169 -11.6869     25.7643     56.0784   1.2584322894e+02   6.2811075191e+01    0.8522457    0.6458687   1.56  0.005502439    1.568    0.362
       170 -11.2278     27.5950     47.0805   1.2245722845e+02   6.4490603003e+01    0.4015915    0.2306088 -16.79  0.002128758    2.262    0.558
       171 -10.1622     20.7877     47.5361   1.2543310255e+02   6.4961992349e+01    0.3163977     0.202544 -49.55  0.001942517    1.216    0.177
       172 -11.0361     58.2121     61.6852   1.1521046489e+02   5.8159600102e+01    0.7161781    0.3833695 -54.83  0.003451107    1.797    0.443
       173 -10.5022     51.4814     46.6032   1.1263920121e+02   6.2009911209e+01    0.5284804    0.4079068 -79.50  0.002334058    2.034    0.508
       174 -11.5570     32.6305     42.4337   1.1882026533e+02   6.4933231383e+01    0.6265622    0.4984352  40.39  0.002390585    1.615    0.381
       175 -11.5176     40.5542     55.8715   1.1999330313e+02   6.1456956212e+01    0.5540271    0.4598939 -80.98  0.002449691    1.527    0.345
       176 -10.5406    143.0397    249.0837   1.2886043246e+02   5.9044428901e+00    0.2231388    0.1465353  39.82   0.00144104    1.277    0.217
       177 -10.5775     60.8514     36.5172   1.0514337433e+02   6.2530511136e+01    0.3439409    0.1660596 -40.20  0.001055036    1.864    0.463
       178 -11.4237     51.7258     61.6241   1.1755273098e+02   5.8998555582e+01    0.4950564    0.3283507 -64.37  0.001679382    1.680    0.405
       179 -11.3801     46.2110     58.2434   1.1856306472e+02   6.0347455115e+01    0.5261459     0.295353 -52.46  0.002763225    1.541    0.351
       180 -11.6149     46.0746     48.9774   1.1559217962e+02   6.2216802429e+01    0.4324606     0.311632 -22.24   0.00119996    1.411    0.291
       181 -12.5306     41.7520     45.4756   1.1610506461e+02   6.3390422062e+01    0.2981906    0.2729532 -23.69  0.000270013    1.133    0.118
       182 -10.5948     21.0877     65.1853   1.2995638647e+02   6.1247377415e+01    0.1899943    0.1654311 -54.93 0.0006011673    1.098    0.089
       183  -9.8318    204.7159     63.7965   7.8753809379e+01   2.5755160216e+01    0.2678869    0.2153205  24.04 0.0009614373    1.535    0.348
       184 -11.1244     91.8881     62.1864   1.0397903898e+02   5.2701564217e+01    0.3499787    0.3118825  34.59  0.001222252    1.184    0.156
       185 -11.1751     91.0283     57.9452   1.0277945323e+02   5.3664398634e+01    0.3877852    0.3761247  19.03  0.001368827    1.101    0.092
       186 -10.7618     87.5033     56.9381   1.0354875831e+02   5.4497717212e+01    0.4336538    0.2085964 -40.61  0.001095069    1.945    0.486
       187  -9.5392    198.0947     62.8325   7.9533689076e+01   2.7574980331e+01    0.2441458    0.1931925 -64.06 0.0006629221    1.326    0.246
       188 -11.4316    219.6237     66.3558   7.7220558117e+01   2.1677989200e+01    0.6230162    0.3766795  61.33  0.002377344    1.718    0.418
       189 -10.2934    113.5092     60.9339   9.7146965183e+01   4.8609442303e+01    0.4895987    0.2797096 -41.07  0.001632466    1.703    0.413
       190  -9.3562    174.6857    246.3109   1.2300719978e+02   1.2797198050e+00    0.1120868   0.08066218  61.48 0.0002776127    1.633    0.388
       191 -12.7915    117.4736     43.1774   8.9713713636e+01   5.0716854935e+01     1.035057     0.759418  83.31   0.00490427    1.935    0.483
       192 -12.9855    120.3686     38.9209   8.7385422673e+01   5.0693689327e+01    0.7969453    0.6625008 -76.24  0.001081456    1.520    0.342
       193  -9.9472     98.4355     62.4458   1.0204870605e+02   5.1411405300e+01    0.2521997    0.2411198  18.12  0.001350375    1.078    0.073
       194  -9.6612     84.6017     62.2243   1.0631851700e+02   5.4001633241e+01    0.2605438    0.1674411 -36.83  0.001093192    1.472    0.321
       195 -10.3944    159.5132     61.7168   8.6284538894e+01   3.7595720511e+01    0.4603094    0.2643563  45.38  0.001905797    1.811    0.448
       196  -9.3471    147.1753     60.5849   8.8585426542e+01   4.0862591436e+01     0.291673    0.1509805  60.34  0.001129786    2.070    0.517
       197 -10.7467    136.5575     55.7981   8.9443268693e+01   4.4245629750e+01    0.6695102    0.5470335  20.98  0.002838492    1.377    0.274
       198 -10.0862    145.4953     52.0163   8.6120475142e+01   4.2676848509e+01    0.3776734    0.2870432 -34.75  0.001637173    1.320    0.242
       199 -11.1922    145.7973     46.2238   8.4094040315e+01   4.3493295151e+01     0.523641     0.354205 -25.83  0.001648698    1.556    0.357
       200 -11.0497    156.6193     54.0762   8.4435433177e+01   3.9563844473e+01    0.7416478    0.3850704 -46.29  0.002938633    2.056    0.514
       201  -9.7990      2.1687     56.0967   1.3515190421e+02   6.4361911625e+01    0.1768807    0.1160296 -49.55 0.0005030517    1.213    0.176
       202  -9.9818     67.1756     54.9492   1.0974896704e+02   5.8236838137e+01     0.208161     0.192453   6.89 0.0006508442    1.141    0.124
       203 -12.1339    241.0182     50.5033   7.0401358785e+01   1.8902135696e+01    0.6799073    0.3607194  73.37  0.001584087    2.112    0.527
       204  -8.5726     98.0000     52.9733   9.8838787375e+01   5.3233090413e+01    0.2350814   0.07738566 -38.90 0.0007971037    2.906    0.656
       205 -10.6762    201.7404     46.6814   7.4390429996e+01   2.9049204766e+01    0.5291146    0.3753221 -54.46  0.002588095    1.414    0.293
       206 -10.8180    173.8907     48.2318   7.9283974616e+01   3.6019209590e+01    0.4575542    0.3268599  75.65  0.001387134    1.497    0.332
       207 -10.2471     90.4604     48.0558   9.9359521821e+01   5.5549460151e+01    0.2416142    0.2275528  47.55 0.0006351503    1.197    0.164
       208  -9.7691      3.5103     48.8129   1.3297354489e+02   6.5810980648e+01    0.1771163    0.1294716  30.65  0.001238579    1.768    0.434
       209  -9.6869     13.9131     46.7130   1.2808334115e+02   6.5624274981e+01     0.290801    0.1038841 -48.05  0.001432277    2.059    0.514
       210 -10.1166    106.4478     62.7551   9.9777938048e+01   4.9754766471e+01    0.3254579    0.2129618 -72.28  0.001294697    2.712    0.631
       211  -9.9585      3.9794     44.3260   1.3166447786e+02   6.6702833258e+01    0.3038135    0.1697784 -10.11 0.0006576573    2.257    0.557
       212  -9.7386    139.2802     43.6455   8.4625623585e+01   4.5490609487e+01    0.3092634    0.1628741  50.56  0.001289751    1.827    0.453
       213  -9.1331     94.4731     36.4626   9.3598946333e+01   5.6651201304e+01    0.2314228    0.1660598 -52.06 0.0009672618    1.709    0.415
       214 -10.2232    100.6761     43.6975   9.4575553842e+01   5.4261617645e+01    0.4351567    0.3027332 -71.20  0.001937402    2.448    0.592
       215 -11.2360     93.9402     41.3957   9.5715636556e+01   5.5986875525e+01    0.5068827     0.313415  42.05  0.001606504    1.641    0.391
       216  -9.3207    161.7470     43.4640   7.9974212391e+01   3.9848284246e+01    0.4000784     0.151484  64.36  0.001346442    2.824    0.646
       217 -11.4917    156.2002     41.7551   8.0468393701e+01   4.1514462593e+01    0.3826297     0.342929  45.16 0.0007536768    1.114    0.102
       218 -10.8258    153.5358     36.3377   7.9163816617e+01   4.2942900297e+01    0.3360418    0.2771305 -58.87 0.0007645698    1.311    0.237
       219  -9.8023     18.2374     41.9143   1.2482078428e+02   6.6277892040e+01    0.2466922    0.1396783 -11.73  0.001363676    2.282    0.562
       220 -11.0669    231.4405     39.1369   6.8610465720e+01   2.2698014186e+01    0.4252988    0.2340118 -47.28  0.001798205    1.670    0.401
       221 -11.2513     81.8640     39.5359   9.8853203597e+01   5.8568054609e+01     0.434644    0.3053375  50.15  0.001741083    1.623    0.384
       222 -11.0274     78.1349     34.5057   9.8064482816e+01   6.0039383979e+01    0.3830225    0.2998564  42.65   0.00122125    1.375    0.273
       223 -11.0055     82.4345     31.6949   9.5449550494e+01   5.9689885261e+01    0.3809856    0.3586244 -79.23   0.00214709    1.402    0.287
       224 -10.4503    176.9277     37.2747   7.5363997899e+01   3.6763641825e+01    0.3828108    0.2105332 -31.28  0.001649413    1.831    0.454
       225 -10.7481     22.8628     36.4214   1.2097711294e+02   6.6972880838e+01    0.3851297    0.2843744  51.00  0.002454613    2.024    0.506
       226  -9.0853     17.7037     34.3145   1.2257741733e+02   6.7787978770e+01    0.1022638   0.08751463 -82.37 0.0002482188    1.603    0.376
       227  -9.1439    218.3481     38.7058   7.0007931752e+01   2.5951455997e+01    0.1527914    0.0980171 -65.46 0.0004929365    1.673    0.402
       228  -9.8555    206.9498     37.2352   7.1026876683e+01   2.9009234070e+01     0.247597    0.2017105 -42.21 0.0006584252    1.187    0.157
       229  -9.6142    133.5472     37.3670   8.3676261148e+01   4.7793778426e+01    0.3909493    0.2503931 -70.86  0.001608971    2.467    0.595
       230 -10.5594      5.7477     36.1697   1.2863223648e+02   6.8229664731e+01    0.3108593    0.2939625  62.86  0.002480012    1.444    0.308
       231  -8.9654      5.8075     30.9988   1.2700934958e+02   6.9224078850e+01    0.2833816    0.1492503 -24.67  0.001670517    2.001    0.500
       232  -9.7686    199.2141    244.4187   1.1851752105e+02  -2.3537174358e+00     0.169074   0.09042913  46.99  0.000955915    1.709    0.415
       233 -10.8352    105.9202     21.0888   8.4063880176e+01   5.6327763964e+01    0.4097965    0.2265995 -24.57  0.001575487    1.837    0.455
       234 -11.5199    105.6394     33.0077   8.8981201865e+01   5.4832062566e+01    0.5797763    0.3389989   4.20  0.001277368    2.755    0.637
       235 -11.6043    128.2185    241.7833   1.3065649486e+02   9.3145680258e+00    0.3469067     0.292778 -82.51  0.002523943    1.368    0.269
       236 -10.0160    190.1059     32.7516   7.2008717928e+01   3.3921722929e+01    0.3520231    0.2434389 -62.23  0.001169298    1.543    0.352
       237  -9.9855    189.4570     27.5268   7.0551794143e+01   3.4740796733e+01    0.3482276    0.2652764   1.42  0.001276312    1.674    0.403
       238 -11.6750     70.0549     32.6054   1.0010368940e+02   6.1724504097e+01    0.4686942    0.2798876  34.02 0.0006344102    1.755    0.430
       239 -12.0791    241.3521     30.4001   6.5405601697e+01   2.1474383009e+01    0.5410274    0.3580889 -10.63  0.002679016    2.053    0.513
       240  -9.5186    172.3523     33.5835   7.4945527409e+01   3.8440153022e+01    0.2730329    0.1421515  70.94    0.0010204    2.011    0.503
       241  -9.7431    160.8111     33.1914   7.6773046417e+01   4.1487771283e+01    0.2285658    0.1949189 -76.13 0.0006766935    1.252    0.201
       242 -10.2614    150.7892    237.8743   1.2616073751e+02   6.3089622838e+00    0.2618006    0.1584712 -38.51  0.001483295    2.287    0.563
       243 -10.7901     57.1809     30.7252   1.0415299064e+02   6.4032516764e+01    0.3836172    0.2601715  26.37   0.00146382    1.558    0.358
       244 -11.9107     47.9400     30.5231   1.0779994403e+02   6.5342532896e+01    0.6421493    0.2986276  28.93  0.002761758    2.483    0.597
       245  -9.1045    131.3676     28.2244   8.0809915184e+01   4.9536839891e+01    0.2258975    0.1782562  40.37  0.001193719    1.233    0.189
       246 -11.5364    125.1405     27.0408   8.1750931285e+01   5.1183908989e+01    0.4880104    0.3725369 -54.80  0.001714183    1.550    0.355
       247 -10.2439    122.0065     30.0000   8.3608874955e+01   5.1546541488e+01     0.417295    0.2050561  62.46  0.001415125    2.214    0.548
       248  -9.8785    100.2281     30.0106   8.9289607019e+01   5.6404432113e+01    0.3122742    0.2429624  27.29  0.001723384    1.275    0.215
       249  -9.4726     15.4313    233.3755   1.4935543224e+02   2.5696389808e+01    0.1776549   0.07771451 -76.35  0.001125401    2.071    0.517
       250 -10.0603    242.5084    231.3942   1.0927858284e+02  -7.4513389775e+00    0.1899468    0.1680726 -71.62  0.001308403    2.176    0.540
       251  -9.1080     23.4769    231.5317   1.4796353246e+02   2.5182336244e+01    0.1076289   0.07267362  70.40 0.0003011487    1.020    0.019
       252  -9.3299    190.1423    229.8657   1.1800401223e+02   9.7474226883e-01    0.1645706    0.1241482  21.70 0.0005578458    1.289    0.224
       253  -9.4055    247.4120    227.2606   1.0780765800e+02  -7.7168042411e+00    0.1378089    0.1024428 -30.16  0.000672608    1.575    0.365
       254  -9.5933      9.0267    227.3126   1.5010802286e+02   2.7419768347e+01    0.1422126   0.09663656  65.01 0.0002756199    1.115    0.103
       255  -9.3447    230.9382     30.5445   6.6477072485e+01   2.3923035203e+01    0.1956496    0.1295358  73.77 0.0003296232    1.514    0.340
       256 -10.4873    197.8880     28.8320   6.9819880846e+01   3.2400065173e+01    0.3844739    0.2733564  48.72  0.001358168    1.508    0.337
       257 -10.1105    199.5116     24.9430   6.8505563913e+01   3.2453906322e+01    0.2686751    0.2030068  67.18 0.0006295007    1.276    0.217
       258  -9.9774    175.7713     29.5416   7.3135895751e+01   3.8059323610e+01    0.2838496    0.2216676 -27.11 0.0008604727    1.350    0.259
       259 -11.4821    182.3839     25.3602   7.0876710287e+01   3.6841639725e+01    0.5101954    0.2703359  53.01  0.001217479    1.848    0.459
       260 -11.1333    163.9179     27.7704   7.4457135270e+01   4.1363203773e+01    0.4475735    0.2378186  52.02  0.001909106    1.797    0.444
       261 -10.0347    230.5201     26.9403   6.5605903689e+01   2.4469804046e+01    0.2045296    0.1260578 -33.28 0.0006182821    1.556    0.357
       262  -8.6306    158.3392     20.2836   7.2893873254e+01   4.3680510533e+01    0.3167206     0.122714  59.20 0.0005898029    2.264    0.558
       263  -9.7363    247.4652    231.4908   1.0848910290e+02  -8.1852927932e+00    0.1152139   0.08711248  15.73 3.890822e-05    1.020    0.020
       264  -9.5709    156.8212     25.1465   7.4783712843e+01   4.3513421232e+01    0.2158308    0.1994515  62.05 0.0003834562    1.028    0.027
       265 -11.2997    250.2948     24.6451   6.3214644158e+01   2.0127412280e+01    0.3990885    0.1905505 -34.56  0.001220219    1.857    0.462
       266 -11.8361    246.4825     20.6700   6.2600904146e+01   2.1470372843e+01    0.3786586    0.2743336 -54.96  0.001505882    1.197    0.164
       267  -9.7430    167.5122    221.4936   1.2089516768e+02   5.9943985990e+00    0.1258784    0.1048506  39.73 0.0001116418    1.025    0.025
       268  -9.9063      9.8653    217.8305   1.4953176589e+02   2.9071864078e+01    0.1506388    0.1129657  83.14 0.0006059836    1.184    0.155
       269  -9.1727    165.7105    212.3512   1.1987706847e+02   7.7405888986e+00    0.1247464   0.09523232  73.97 0.0007026231    1.669    0.401
       270  -9.9951    134.0387     24.7310   7.8948287357e+01   4.9312372005e+01    0.3918741    0.2747954 -63.51  0.001883279    1.832    0.454
       271 -10.9308    214.8846     23.6685   6.6381510032e+01   2.8705631066e+01    0.4241888    0.3139916 -23.93  0.001792179    1.477    0.323
       272  -9.3803    142.8384     24.6008   7.7140326614e+01   4.7140056917e+01    0.3959107    0.1431212  67.25  0.001330491    3.111    0.679
       273 -10.5338    140.7775     20.3864   7.6021979623e+01   4.8142745662e+01    0.5442758    0.2429621  49.81  0.002232467    2.072    0.517
       274  -9.0655    152.5037    207.5517   1.2169852027e+02   1.0864152044e+01    0.1305109    0.1115019  48.45 0.0001031729    1.006    0.006
       275 -10.2563    238.9849    204.8005   1.0534862359e+02  -3.7628468462e+00    0.2152868    0.1665671 -19.04  0.001400732    1.282    0.220
       276 -10.3322     81.2984     19.3781   9.0454417945e+01   6.1609529910e+01    0.3510035    0.1983131  38.39 0.0009106451    1.731    0.422
       277  -9.9546      4.4804    204.5383   1.4980567378e+02   3.2097706218e+01    0.2110622   0.08009432 -79.47  0.001197913    2.145    0.534
       278 -11.1744    178.2173     21.1417   7.0167362980e+01   3.8417742374e+01    0.4364979    0.3017612  29.70  0.001506387    1.794    0.443
       279 -10.7815    245.3308    200.8295   1.0357122064e+02  -4.2788236509e+00    0.1748251    0.1475685 -30.54 0.0005298496    1.399    0.285
       280 -10.2031    234.3946    196.9410   1.0470271731e+02  -1.9859113354e+00    0.3323368    0.2024751  20.92  0.001786076    1.710    0.415
       281 -10.4595     17.0830    192.6092   1.4685520244e+02   3.3266306373e+01    0.2081499    0.1526528  67.08 0.0005042208    1.139    0.122
       282 -12.3096      5.2029    185.4190   1.4866047017e+02   3.5824292959e+01    0.7135484    0.3906341  80.34  0.004328494    1.414    0.293
       283  -9.8064    170.2846    191.1846   1.1555044269e+02   1.0447043382e+01    0.4177617    0.1641385  31.92  0.001362198    3.939    0.746
       284  -9.1930    223.2357     22.3980   6.5174685309e+01   2.6787438058e+01    0.2515471    0.1424417 -58.89  0.001100933    1.777    0.437
       285  -9.5376    213.0134    181.9681   1.0566456114e+02   3.9365926226e+00    0.3116073    0.1703545 -20.63  0.001376143    2.418    0.587
       286  -9.1091     57.4363    175.4327   1.3720150565e+02   3.2381926927e+01    0.1248524    0.1016253  82.41 0.0001629566    1.018    0.018
       287  -9.7642     51.9665    174.2638   1.3825983134e+02   3.3319520439e+01    0.2638753    0.1258836  81.23  0.001177437    2.578    0.612
       288  -9.3342    247.6683    173.6671   9.7987715836e+01  -1.0626117048e+00    0.1366739   0.08948127   7.43 0.0007052179    1.727    0.421
       289 -10.0380     39.5864    173.2678   1.4082144123e+02   3.4984579894e+01    0.1658065   0.09464765 -66.80 0.0009484171    1.607    0.378
       290 -10.3127     35.1051    170.5389   1.4152415515e+02   3.6069029792e+01    0.2257462    0.1461028 -80.47  0.001135703    1.285    0.222
       291 -10.0771    123.2102     19.3123   7.9210292734e+01   5.2561618537e+01    0.3199557    0.2585658 -52.92  0.001757673    1.436    0.303
       292  -9.6235    119.7591     17.0084   7.9071586746e+01   5.3634263046e+01    0.2712288     0.186596  16.82  0.001270832    1.649    0.394
       293  -9.3901      1.7428     20.4526   1.2541777996e+02   7.1417996763e+01    0.1426882   0.08789828 -15.07  0.000946168    1.684    0.406
       294  -9.7708      9.0273    155.9554   1.4592301545e+02   4.1724510218e+01    0.1863154     0.152813  64.16 0.0008441858    1.257    0.205
       295 -11.4689      9.0869    166.7639   1.4670675169e+02   3.9384225443e+01    0.4444628    0.3154448 -85.75  0.002433416    1.113    0.101
       296 -11.6180     13.6298    158.7072   1.4513820495e+02   4.0736394765e+01    0.4959781    0.2067446 -74.05  0.002136654    1.892    0.472
       297  -9.6617    198.1499    167.8353   1.0565421036e+02   9.0830670080e+00    0.1974719    0.1928755  65.07 0.0005940997    1.160    0.138
       298  -9.3578    145.6125     16.2193   7.3648096569e+01   4.7377748855e+01    0.2060447    0.1844434 -87.34            0    1.173    0.148
       299  -9.3505    149.4861     15.0068   7.2556621345e+01   4.6520268098e+01    0.2391673    0.1526846  29.96 0.0007596593    1.831    0.454
       300 -10.1611    186.5046     15.1003   6.7247653413e+01   3.6928758585e+01    0.2623143    0.1832133  60.22 0.0005303396    1.366    0.268
       301  -8.5390     27.3229     15.3062   1.1028505715e+02   7.0237210277e+01    0.1203008   0.07347454 -16.17 0.0004513635    1.642    0.391
       302  -9.9780    218.9855     12.7904   6.3099221031e+01   2.8927592033e+01    0.3183829    0.1576939  61.05  0.001037411    1.971    0.493
       303  -9.9763     18.5553    165.1185   1.4459362406e+02   3.8899756488e+01    0.2061146    0.1710637 -78.09  0.001507611    1.255    0.203
       304 -10.2104    206.4182     21.9137   6.6842638671e+01   3.1046674920e+01    0.2819242    0.2313887  26.32 0.0009812956    1.526    0.344
       305 -10.3697    205.4722    163.1229   1.0328331374e+02   8.4258402748e+00    0.3643813    0.2661034   8.49  0.001576218    1.651    0.394
       306  -9.1721    188.6101    164.1974   1.0677795584e+02   1.1630484088e+01    0.1944684    0.1336824 -27.72  0.000580078    1.634    0.388
       307 -10.1942     28.3389    162.8359   1.4228011964e+02   3.8459762463e+01    0.3179192     0.137031 -68.07  0.001649586    1.940    0.485
       308 -10.1739     80.6678    160.0560   1.2997679472e+02   3.2596072654e+01    0.3423625    0.2647549  44.89  0.001983477    1.345    0.257
       309 -10.7406    104.6483    152.3179   1.2301177381e+02   3.0481552254e+01    0.3851817    0.2643048  77.97  0.001863379    1.721    0.419
       310  -8.6205      1.2730    156.6140   1.4764152450e+02   4.2192934605e+01    0.1214894    0.0619228  73.45 0.0006995157    1.714    0.416
       311 -11.2975     30.8716    151.0943   1.4055289359e+02   4.0828390468e+01    0.6695189    0.2648826 -82.01  0.001609517    2.509    0.601
       312 -10.9865     33.1640    144.3402   1.3926968524e+02   4.2134370613e+01    0.4346659    0.2142463 -75.91  0.001928957    1.718    0.418
       313  -9.3995     26.3642    127.2395   1.3893865494e+02   4.6715927787e+01     0.237819    0.1251255 -76.49  0.001270131    1.583    0.368
       314 -12.1501     23.3062    136.3597   1.4078556869e+02   4.4892700977e+01    0.7071021    0.4105279  54.65  0.004123668    1.764    0.433
       315 -11.6152     29.8154    132.9643   1.3875616674e+02   4.5075810858e+01    0.4667526    0.2930585 -80.96 0.0004555251    1.333    0.250
       316  -9.8913     22.9535    155.0976   1.4276326928e+02   4.0694768915e+01    0.2196169    0.1730371  17.68  0.001473322    1.855    0.461
       317 -11.5493     12.4955    138.5857   1.4364575855e+02   4.5296740558e+01    0.6966645     0.307951  75.69  0.003335482    2.542    0.607
       318 -10.5938     14.1664    132.6617   1.4265599291e+02   4.6502302059e+01    0.2728845    0.1600886  85.39 0.0006796959    1.522    0.343
       319 -11.8279     22.2547    149.7579   1.4241834616e+02   4.1952276665e+01    0.5113389    0.3110501 -35.66  0.002753556    2.749    0.636
       320 -10.9208     15.8594    147.6283   1.4369427798e+02   4.2993209768e+01    0.3633233    0.2266082  74.67  0.001434039    1.429    0.300
       321 -10.2162     71.5217    151.4937   1.3089038392e+02   3.5870709110e+01    0.3183055     0.175372  46.29  0.001578206    1.803    0.445
       322 -12.1581      5.5912    147.1488   1.4599440701e+02   4.3927190166e+01    0.6135054    0.3802289 -70.64  0.004018912    1.354    0.261
       323 -11.1134      3.2359    140.9853   1.4603603662e+02   4.5462564111e+01    0.3707504    0.1995638  35.11  0.002291657    2.116    0.527
       324 -11.8678      3.8714    136.4491   1.4550798453e+02   4.6423770396e+01    0.2395902    0.1823472 -73.85 0.0003686151    1.176    0.149
