#   1 NUMBER                 Running object number                                     
#   2 MAG_AUTO               Kron-like elliptical aperture magnitude                    [mag]
#   3 X_IMAGE                Object position along x                                    [pixel]
#   4 Y_IMAGE                Object position along y                                    [pixel]
#   5 X_WORLD                Barycenter position along world x axis                     [deg]
#   6 Y_WORLD                Barycenter position along world y axis                     [deg]
#   7 A_WORLD                Profile RMS along major axis (world units)                 [deg]
#   8 B_WORLD                Profile RMS along minor axis (world units)                 [deg]
#   9 THETA_WORLD            Position angle (CCW/world-x)                               [deg]
#  10 FWHM_WORLD             FWHM assuming a gaussian core                              [deg]
#  11 ELONGATION             A_IMAGE/B_IMAGE                                           
#  12 ELLIPTICITY            1 - B_IMAGE/A_IMAGE                                       
         1 -12.8084     36.9439      4.4052   4.9355672766e+01   6.9582342183e+01    0.6940227    0.3423622  25.73  0.003836232    2.005    0.501
         2 -13.8563      6.1598     10.9279   6.7885467873e+01   7.1750530888e+01     1.768111    0.6037084 -49.65  0.008888019    2.612    0.617
         3 -11.1586    248.2010      2.4028   6.8420682778e+00   2.2792679669e+01     0.261926     0.146948  88.63  0.001441982    1.660    0.398
         4 -14.0264     22.3627      7.3063   5.7799657034e+01   7.0899164067e+01     1.011107    0.9798938  26.69  0.007894886    1.766    0.434
         5 -12.7890    115.2031    216.1935   7.9148441663e+01   1.4252125339e+01    0.9033573    0.5600585 -86.09  0.004490619    2.224    0.550
         6 -13.3548     33.5329    244.1936   9.7027433947e+01   2.0486518767e+01    0.8651003    0.5214968  66.12  0.006086879    1.236    0.191
         7 -14.0773      4.7942    233.9599   1.0119044669e+02   2.5392915135e+01     1.591034    0.5544977 -85.05  0.008773501    2.517    0.603
         8 -13.2847    110.2652    225.1652   8.1260889912e+01   1.3378354534e+01     1.953311     1.123739  88.03   0.00921374    2.665    0.625
         9 -12.3764    100.6374    210.2091   8.1392725941e+01   1.7789156184e+01    0.6698199    0.3791468  55.15  0.003080444    1.625    0.385
        10 -12.9738     94.4521    214.9585   8.3234759929e+01   1.7822119711e+01     1.242397    0.6500344 -57.19  0.006385799    2.112    0.526
        11 -14.3131      5.6822    247.7457   1.0165330500e+02   2.2850695284e+01     1.543115    0.8577601  37.32   0.01089081    2.013    0.503
        12 -12.0658    148.0666    230.1557   7.4416976634e+01   6.2010204907e+00    0.5244035    0.4290262 -13.32  0.002889947    1.642    0.391
        13 -13.2840    135.4554    221.7044   7.5764105504e+01   9.8140734974e+00     1.169427     0.785733  74.99   0.00516702    1.975    0.494
        14 -12.5312     23.9768    229.9451   9.7801164967e+01   2.4165130496e+01    0.4815291    0.1744509  60.10  0.002528076    2.344    0.573
        15 -10.2917     94.2853    231.0394   8.5041326532e+01   1.4790289832e+01    0.2974382    0.1510075  43.12  0.001580112    1.664    0.399
        16 -10.8735    164.2588    228.9994   7.1070490578e+01   3.6118660505e+00    0.3467284    0.2072213 -36.83   0.00183714    2.102    0.524
        17 -11.0946     33.7561    223.7473   9.5700949978e+01   2.4256954130e+01    0.3489834    0.1720329 -73.20  0.002086005    1.892    0.471
        18 -11.4465     26.2533    220.6324   9.6835728570e+01   2.5694910830e+01    0.4199933    0.2133339  68.25  0.002397693    1.658    0.397
        19 -10.2813     73.4560    221.9869   8.8149324029e+01   1.9547076853e+01    0.2203952    0.1661057  30.36  0.001373144    1.681    0.405
        20 -11.0482    151.7415    216.5527   7.1712564858e+01   7.8820823883e+00    0.3321475    0.2562537 -36.46   0.00157992    1.568    0.362
        21 -10.3146     85.0248    214.5055   8.5092885865e+01   1.9343313498e+01     0.237207    0.1937762  28.38 0.0009627237    1.556    0.357
        22 -10.0303     67.4922    213.4919   8.8494279640e+01   2.2053848067e+01    0.2429575    0.1024947  41.70  0.001182643    2.098    0.523
        23  -9.4094     21.3157    213.3137   9.7256428007e+01   2.7655687137e+01   0.09734733   0.07992665 -60.57 0.0004094025    1.643    0.391
        24 -10.6606    170.8581    210.8182   6.6910773318e+01   5.4401002784e+00    0.2834194    0.2126531 -41.24  0.001606361    1.524    0.344
        25 -10.4744     35.8631    210.9956   9.4405546533e+01   2.6531518870e+01    0.2545728    0.1626184 -67.06  0.001394505    1.614    0.380
        26 -12.2509     10.2031    208.3147   9.8956787750e+01   2.9759187037e+01    0.5131853    0.2395446 -83.17  0.002612388    1.774    0.436
        27 -11.4237    116.6958    204.3757   7.7240062264e+01   1.6300275988e+01    0.3846831    0.3300274  66.78  0.002345989    1.071    0.067
        28 -12.6143     86.4643    200.9101   8.3225161191e+01   2.1895579830e+01    0.9040087    0.6324186  51.46  0.004671373    1.264    0.209
        29 -11.6792     29.6067    202.0752   9.4928973993e+01   2.9048458291e+01    0.6728263    0.2736792  75.07  0.003049482    2.887    0.654
        30 -11.8809    132.5341    202.6907   7.3612537463e+01   1.3868166124e+01    0.8052219    0.2969699  54.60  0.002629636    3.798    0.737
        31 -10.0520    132.7923    198.9849   7.2984820473e+01   1.4547129053e+01     0.203649    0.1695257   4.56            0    1.592    0.372
        32 -10.0867    159.2873    203.9821   6.8159821981e+01   8.7560597596e+00    0.1904761    0.1790577  33.76 0.0008286712    1.072    0.067
        33 -10.4192     52.3505    202.0222   9.0429018046e+01   2.6400483916e+01    0.2746099    0.1651039  43.60  0.001605897    1.577    0.366
        34 -10.8076      4.8363    199.9220   9.9446529643e+01   3.1941926752e+01    0.1773586    0.1373783  64.69  0.001087268    1.203    0.169
        35 -12.3622     45.7266    192.8456   9.0924469081e+01   2.9158033326e+01    0.6773899    0.4109726 -75.25  0.002755455    1.483    0.326
        36 -10.7708     52.3822    195.5553   8.9804793712e+01   2.7763115203e+01     0.313068    0.2518349 -86.56  0.001840343    1.129    0.114
        37 -10.6485     38.2482    198.3249   9.2933805167e+01   2.8868554003e+01    0.2853415    0.1634349  58.13  0.001125795    1.522    0.343
        38 -10.6492     72.1505    195.5987   8.5646883692e+01   2.5118247884e+01     0.311377    0.2144149  55.41   0.00148194    1.290    0.225
        39 -11.3038     65.2101    194.7784   8.7032420830e+01   2.6255415304e+01    0.4133272    0.3039116 -73.73  0.002008919    1.303    0.232
        40 -11.1465     93.8096    192.5149   8.0562387604e+01   2.2527959114e+01    0.4009886     0.374827  25.37  0.002460105    1.339    0.253
        41 -10.7494     91.1732    188.4053   8.0589766244e+01   2.3828539726e+01    0.3906121    0.3099146  17.20   0.00216567    1.753    0.430
        42 -10.4343     20.6399    195.3647   9.6172099450e+01   3.1377269278e+01    0.2482321    0.1945522 -49.53  0.001718681    1.792    0.442
        43 -11.2544    112.6814    190.0550   7.6024674973e+01   1.9922949704e+01    0.4390669    0.3440785  52.36  0.002467584    1.154    0.134
        44  -9.2245    222.9782    187.9883   5.2448040392e+01  -3.1384577124e-01    0.1563382    0.1354879   8.74 0.0009380478    1.001    0.001
        45 -11.3860     28.0053    182.4928   9.3679787379e+01   3.3372484068e+01    0.6505203    0.3383609  64.81  0.003583492    1.825    0.452
        46 -10.9776      2.2396    183.1801   9.8932600650e+01   3.5622265636e+01    0.3312127    0.1606855 -89.71  0.001856138    1.673    0.402
        47 -10.9251     68.5408    183.0056   8.4948303530e+01   2.8368314751e+01    0.4055336    0.2473256  66.19  0.002115653    1.660    0.398
        48 -11.1531    135.1722    196.3885   7.2058653998e+01   1.4629242257e+01    0.3422785    0.1736479  48.33  0.001516349    1.820    0.451
        49 -11.2341     59.9204    176.7938   8.6137209805e+01   3.0918173615e+01    0.4027412     0.351525  30.78  0.001869936    1.430    0.301
        50 -11.5679     62.6887    172.4858   8.4973269852e+01   3.1529208094e+01    0.5836318    0.3311687  75.88  0.002734587    2.071    0.517
        51 -10.9691     45.1378    174.6166   8.9218429735e+01   3.3235253354e+01    0.3265505    0.2839708  44.22  0.001721817    1.333    0.250
        52 -11.0093     33.4708    175.3710   9.1870013707e+01   3.4366458426e+01    0.3992571    0.2751587  61.02  0.002044844    1.329    0.247
        53 -13.5171      5.5790    136.2690   9.4534799165e+01   4.5669702035e+01     1.451784    0.7125127  82.48  0.007552973    2.101    0.524
        54 -12.5784     12.1009    168.4186   9.5872361750e+01   3.7961023351e+01    0.7646477    0.4327393  77.81  0.004549358    1.577    0.366
        55 -12.0363     23.4156    141.1932   9.0640056689e+01   4.3134569573e+01    0.6646659    0.4099425 -83.02  0.003853199    1.400    0.286
        56 -12.1549     17.5500    135.7655   9.1498855080e+01   4.4884765452e+01    0.4943818    0.2938254  38.52  0.002730496    1.879    0.468
        57 -12.4759     11.7138    156.8459   9.4989733077e+01   4.0561668120e+01     0.864477    0.3634389  84.54  0.003982477    2.610    0.617
        58 -11.2606      2.9136    153.0906   9.6648674121e+01   4.2084293855e+01    0.4440855    0.2025108  46.96  0.002378841    2.205    0.546
        59 -10.9354     25.3144    170.0649   9.3154574978e+01   3.6380534633e+01    0.3546088     0.301547 -33.71  0.002212981    1.693    0.409
        60 -10.6044     25.8290    163.3086   9.2401798150e+01   3.7846209654e+01    0.5207212    0.1767063 -68.46   0.00236235    2.373    0.579
        61 -10.7839     21.4037    158.1130   9.2904759415e+01   3.9436628127e+01    0.4541878    0.1514562  37.02  0.002119415    2.928    0.658
        62 -10.9721      1.8038    163.2013   9.7667775384e+01   3.9941082584e+01    0.5058235    0.1272424 -75.07  0.002143858    3.024    0.669
        63 -11.2651     39.5038    155.8511   8.8406222258e+01   3.8156895664e+01    0.4760042    0.2864574  38.07  0.002659942    1.787    0.440
        64 -10.9967     55.2649    151.0083   8.3894944457e+01   3.7467571069e+01    0.4439793    0.2236175 -45.85  0.001994284    2.385    0.581
        65 -11.3121     30.6828    119.2803   8.5817212867e+01   4.7606277498e+01    0.3966905    0.2899337 -15.05  0.002323431    1.891    0.471
        66 -13.3467     53.9522    128.5838   8.0771852257e+01   4.2956511958e+01     1.196553    0.9044149  79.04  0.005983895    1.420    0.296
        67 -12.9786     36.7363    128.0983   8.5447306204e+01   4.4955554306e+01    0.8508443    0.6818523  87.48  0.003848549    1.192    0.161
        68 -10.2914     21.4562    130.7736   8.9903627534e+01   4.5720331020e+01    0.1984489    0.1737662  40.46  0.001102926    1.367    0.269
        69 -12.2324     19.0273    122.2852   8.9478954431e+01   4.7887736293e+01    0.5375739    0.4472412 -63.78   0.00240715    1.127    0.113
        70 -10.9030     72.9723    118.6677   7.3475693301e+01   4.2815252657e+01    0.3204784     0.255166  -0.26  0.001693985    1.654    0.395
        71 -10.5914     53.5499    117.3607   7.8893431068e+01   4.5676603960e+01    0.4249514    0.2545017  22.19  0.002098442    2.118    0.528
        72 -10.1624     10.5482    115.4383   9.0934065122e+01   5.0085460378e+01    0.2765805    0.1271276 -43.22   0.00138029    2.408    0.585
        73 -13.1497    243.9142    107.5174   3.1196459888e+01   8.9131279059e+00    0.8522248    0.7427211  26.71  0.004911719    1.285    0.222
        74 -12.2314     70.6971    106.6855   7.1544525771e+01   4.5963872121e+01    0.7482899    0.5777174  36.25  0.004082454    1.419    0.295
        75  -9.9330     34.9002    105.1860   8.2250465272e+01   5.0516406300e+01    0.1938908    0.1652683  87.07  0.001234573    1.234    0.190
        76 -12.4881     24.6321     90.5464   8.2802166477e+01   5.4760095666e+01    0.5336743    0.3959303 -58.43  0.002376763    1.088    0.081
        77 -11.1432     31.1045     85.6925   7.9670535294e+01   5.5318482691e+01    0.3340746    0.2638242 -49.01  0.002128959    1.077    0.072
        78 -12.4721     10.8845     85.7329   8.6451667497e+01   5.6797377439e+01    0.6474743    0.3465986   6.01  0.003562266    2.543    0.607
        79 -12.2089      2.2300     89.2968   8.9818631890e+01   5.6491758667e+01    0.7844998     0.166272 -67.89  0.003020144    3.300    0.697
        80 -11.8429      4.0186     81.6317   8.8031954703e+01   5.8091909162e+01    0.4515352    0.2865278 -42.82  0.002884877    1.442    0.306
        81 -12.4667     13.4647     90.3329   8.6395831166e+01   5.5607143083e+01    0.5232818    0.4276895 -40.73  0.003630287    1.236    0.191
        82 -11.1406    249.9987     84.5155   2.5001789310e+01   1.1342079021e+01    0.3786249    0.1590846 -40.21  0.001576257    2.063    0.515
        83 -10.7383     48.8686     82.2965   7.2801379564e+01   5.4304899389e+01    0.1994198    0.1691577  53.99  0.001208009    1.440    0.305
        84 -11.2894     66.9948     78.9677   6.5696126976e+01   5.2725719032e+01    0.3593206      0.24492 -16.59  0.001654399    1.835    0.455
        85 -12.2242     67.4543     74.3916   6.4217379110e+01   5.3630932631e+01    0.6509296    0.2970392  43.55  0.002735507    2.587    0.614
        86 -11.2206      4.1347     71.4889   8.6201821763e+01   6.0290578170e+01    0.2868102    0.2573582  53.51  0.002156908    1.428    0.300
        87 -10.8498     17.8968     68.4377   8.0569495310e+01   6.0123657683e+01    0.2856004    0.2189684 -39.26   0.00191271    1.153    0.133
        88 -10.8480      1.8577     62.3484   8.5249004253e+01   6.2343264134e+01    0.2421752    0.1256023 -56.64  0.001182132    1.406    0.289
        89 -10.5968     68.0118     60.9908   5.9840857534e+01   5.6258053785e+01    0.2180802    0.1897295 -21.22  0.000923846    1.025    0.025
        90 -12.5124      8.4235     49.1395   7.9603812710e+01   6.4708578657e+01    0.5853488    0.3586913 -22.10  0.003069618    1.661    0.398
        91 -11.3798     16.0498     45.9720   7.5526759206e+01   6.4851075496e+01    0.3693923    0.2645532  -5.22   0.00193786    1.487    0.328
        92 -10.7974    249.6780    248.8722   5.8498768027e+01  -1.2475007870e+01    0.2103156   0.09073681 -23.32  0.001103152    2.590    0.614
        93 -12.2123      3.7954     35.3304   7.7779991965e+01   6.7643865580e+01    0.4052634    0.3288937 -62.18  0.002289174    1.372    0.271
        94 -10.7787    109.7484    246.8006   8.3773592859e+01   9.6610857281e+00    0.3308185     0.217944 -84.62  0.002004592    1.867    0.464
        95 -12.8857    126.2240    240.4164   7.9969192637e+01   8.1243321906e+00     1.069421    0.6490877 -64.11  0.006119722    2.048    0.512
