#   1 NUMBER                 Running object number                                     
#   2 MAG_AUTO               Kron-like elliptical aperture magnitude                    [mag]
#   3 X_IMAGE                Object position along x                                    [pixel]
#   4 Y_IMAGE                Object position along y                                    [pixel]
#   5 X_WORLD                Barycenter position along world x axis                     [deg]
#   6 Y_WORLD                Barycenter position along world y axis                     [deg]
#   7 A_WORLD                Profile RMS along major axis (world units)                 [deg]
#   8 B_WORLD                Profile RMS along minor axis (world units)                 [deg]
#   9 THETA_WORLD            Position angle (CCW/world-x)                               [deg]
#  10 FWHM_WORLD             FWHM assuming a gaussian core                              [deg]
#  11 ELONGATION             A_IMAGE/B_IMAGE                                           
#  12 ELLIPTICITY            1 - B_IMAGE/A_IMAGE                                       
         1 -13.8972    168.9194     36.2413   7.6862548175e+01   3.8787037096e+01      1.29051    0.9897939   9.24  0.004371181    1.623    0.384
         2 -12.5714    187.3170      4.6039   6.4505582864e+01   3.7503123724e+01    0.6783349    0.4942203  31.23  0.003444322    1.670    0.401
         3 -12.5576    181.7126      5.1534   6.5316464264e+01   3.8917586762e+01    0.5824389    0.4877805 -32.84  0.003361058    1.291    0.225
         4 -10.6707     22.0292    241.9389   1.4926148316e+02   2.3797104262e+01     0.193313    0.1010475 -77.32  0.001354695    1.835    0.455
         5 -19.7786     61.5557    166.4627   1.3588229340e+02   3.3942997638e+01     18.67265     4.206436 -67.89   0.06041992    4.547    0.780
         6 -13.1466    193.2173    193.0818   1.1178649629e+02   5.8206434592e+00    0.8821573     0.553719 -59.75  0.003545734    2.507    0.601
         7 -12.8075    137.1605    198.1778   1.2381987675e+02   1.5356737284e+01    0.6518846    0.3289506  51.51  0.002322444    1.826    0.452
         8 -10.7356    169.9555    195.9546   1.1683632685e+02   9.7182900227e+00    0.1998185    0.1589312  79.33 0.0007327742    1.636    0.389
         9 -11.1515    180.0989    192.6992   1.1426972085e+02   8.3518652635e+00    0.3214366     0.205824  63.07  0.001068253    2.070    0.517
        10 -11.0103    157.5197    192.3487   1.1873854676e+02   1.2674496723e+01    0.2205551    0.1857549  85.95 0.0003981476    1.404    0.288
        11 -11.0849    206.6837    181.6828   1.0710151695e+02   5.0610219171e+00    0.3308483    0.2197437  20.35  0.001668534    1.686    0.407
        12 -11.5676    210.8184    179.2473   1.0585303170e+02   4.6522262797e+00    0.6325793    0.3859886  -3.81  0.002721136    2.535    0.605
        13 -11.9846    197.8751    175.4557   1.0757766003e+02   7.7648675125e+00    0.4498077    0.3341511 -45.77  0.001332162    1.530    0.346
        14  -9.7035    185.4822    174.5583   1.0984876434e+02   1.0372130887e+01    0.1405742    0.1270404  34.55  0.000155657    1.008    0.008
        15 -12.5924    137.3612    171.0500   1.1936521129e+02   2.0546732188e+01    0.5833375    0.2729906  45.32  0.002454321    1.959    0.489
        16 -11.7495    126.3333    172.3090   1.2202946465e+02   2.2361267023e+01    0.2792339    0.2317915  72.17  0.001293648    1.184    0.156
        17 -11.4659    203.7564    167.5836   1.0486341017e+02   7.8977554418e+00    0.4975924    0.3572952  42.81  0.001890835    1.312    0.238
        18 -10.0723     25.2309    165.8041   1.4387325954e+02   3.8216455011e+01    0.1775183    0.1525159  26.59 0.0009099698    1.613    0.380
        19  -9.7898    130.2020    161.4033   1.1923205677e+02   2.3899899953e+01    0.2046963    0.1243633  54.55 0.0004218663    1.637    0.389
        20 -12.6993    159.6868    236.9299   1.2485196009e+02   5.1189454511e+00     0.483938    0.2657326  48.60  0.002724398    1.511    0.338
        21 -10.7074    164.8389    157.8687   1.1081103498e+02   1.7652667171e+01    0.2220614    0.1976779  11.59 0.0005176771    1.250    0.200
        22 -12.3616    134.0000    143.9964   1.1492729849e+02   2.6855185070e+01    0.8795489    0.3026101 -58.76  0.002414839    4.784    0.791
        23 -11.7025    168.9420    234.7645   1.2288641494e+02   3.8868297834e+00    0.3197535    0.1841499 -50.04 0.0008872083    2.248    0.555
        24  -7.2121     25.5295    232.8935   1.4825636089e+02   2.4984136190e+01    0.1816785     0.124099 -58.06  0.001059212    2.165    0.538
        25 -10.1544    175.1436    149.1672   1.0675821433e+02   1.7143614247e+01    0.2043994    0.1776928  79.65 0.0004894998    1.332    0.249
        26 -10.6742     20.5201    237.4759   1.4929129532e+02   2.4720961373e+01    0.1433999   0.09286556  77.36 6.793923e-05    1.144    0.126
        27 -10.6292    128.9072    143.2092   1.1598221832e+02   2.8042615231e+01    0.2375567    0.1774481  15.55  0.001044359    1.917    0.478
        28 -12.2142    115.6054    138.9829   1.1837152003e+02   3.1545608071e+01    0.4741904    0.2711498 -47.48  0.002007224    1.815    0.449
        29 -12.2395    105.5687    138.8364   1.2086202866e+02   3.3418481666e+01     0.448684    0.2806794  56.42  0.001180982    1.685    0.407
        30 -10.5879      7.6049    218.9735   1.5053619745e+02   2.9309200634e+01    0.1097697   0.07055628 -62.55  0.000776689    2.014    0.503
        31 -11.6880      4.3887    140.7630   1.4645242144e+02   4.5443291831e+01    0.2499968    0.2154404  28.83  0.001628917    1.557    0.358
        32 -12.1360    106.0049    130.8595   1.1913340632e+02   3.5151251239e+01    0.3999831     0.343313 -89.77  0.001188663    1.176    0.150
        33 -11.7871    119.6501    129.5657   1.1535229768e+02   3.2872848655e+01    0.3052592    0.2844419  85.42 0.0008158325    1.039    0.037
        34 -11.1574    119.1959    215.3095   1.2973674328e+02   1.5346374555e+01    0.2384265    0.1489849  81.75  0.001238957    2.115    0.527
        35 -11.3329    108.8345    125.5898   1.1726621152e+02   3.5829675321e+01    0.3061087    0.2812427   5.71 0.0007176199    1.317    0.241
        36 -11.3883    135.4066    122.3086   1.0971794333e+02   3.1251255717e+01     0.518244    0.1425409 -51.50  0.001393839    4.314    0.768
        37 -10.7262    169.5410    115.2695   9.9952264141e+01   2.5028899088e+01    0.4692665    0.2962443 -75.18  0.001669897    2.898    0.655
        38 -10.7131    113.9761    118.9073   1.1439562254e+02   3.6363483937e+01    0.2251685    0.2138373  88.22 0.0004621155    1.021    0.021
        39 -11.7477    164.5383    205.4621   1.1945062766e+02   9.1341576147e+00    0.3234691    0.2615891 -58.16 0.0008094677    1.494    0.330
        40 -10.1082    170.5717    205.7637   1.1832088721e+02   7.9880734307e+00    0.1574793    0.1273722 -66.14 0.0004711819    1.586    0.369
        41 -10.1202    205.6712    110.0876   9.1306856131e+01   1.7466384078e+01    0.2940304    0.2196293  43.67 0.0007347526    1.366    0.268
        42  -9.5528     34.7776    206.0000   1.4504042417e+02   2.8944753226e+01    0.1554571   0.05550171  37.38 0.0007689968    2.716    0.632
        43 -12.9369    156.9427     51.6525   8.4125693212e+01   3.9707319497e+01    0.5982095    0.4835346  76.68  0.001112719    1.329    0.247
        44 -10.0746    128.2946    201.3389   1.2608643141e+02   1.6337988480e+01    0.1208454    0.1033519   3.65 0.0007029386    1.653    0.395
        45 -12.2459    172.7166     28.8059   7.3865998645e+01   3.8731353322e+01     0.530349    0.3900952  28.64  0.001168871    1.614    0.380
        46 -10.6206    189.4998     15.0033   6.7288002991e+01   3.5879705942e+01    0.2060603    0.1389345 -28.73 0.0006789375    1.573    0.364
        47 -10.1571     13.7767    244.0782   1.5063776436e+02   2.4298211471e+01    0.1955037   0.06573813 -82.08  0.001119013    2.698    0.629
