#   1 NUMBER                 Running object number                                     
#   2 MAG_AUTO               Kron-like elliptical aperture magnitude                    [mag]
#   3 X_IMAGE                Object position along x                                    [pixel]
#   4 Y_IMAGE                Object position along y                                    [pixel]
#   5 X_WORLD                Barycenter position along world x axis                     [deg]
#   6 Y_WORLD                Barycenter position along world y axis                     [deg]
#   7 A_WORLD                Profile RMS along major axis (world units)                 [deg]
#   8 B_WORLD                Profile RMS along minor axis (world units)                 [deg]
#   9 THETA_WORLD            Position angle (CCW/world-x)                               [deg]
#  10 FWHM_WORLD             FWHM assuming a gaussian core                              [deg]
#  11 ELONGATION             A_IMAGE/B_IMAGE                                           
#  12 ELLIPTICITY            1 - B_IMAGE/A_IMAGE                                       
         1  -9.1582     13.0502     30.3521   9.6112037647e+01   6.8716966487e+01    0.3157185    0.1853361 -64.51  0.001397146    2.452    0.592
         2  -8.6927     55.7860     10.3388   6.6710788571e+01   6.6554992195e+01    0.2007863    0.1807096 -25.07 0.0006742617    1.446    0.309
         3  -7.9039     47.5576     10.0866   7.0009994049e+01   6.7897886901e+01    0.1752166    0.1060715 -26.43  0.001014981    1.577    0.366
         4  -8.4314     91.0231      9.0406   5.4405755549e+01   5.9980864658e+01    0.1811589    0.1553984 -61.60 0.0005406492    1.618    0.382
         5  -7.8290    101.4659      7.9651   5.1285123056e+01   5.7819952393e+01     0.165245   0.09999137 -48.10 0.0004658643    2.293    0.564
         6  -7.8379     12.5386      8.5151   8.6968226534e+01   7.2387497493e+01    0.1141193   0.08636329 -15.77 -1.32954e-06    1.076    0.071
         7  -8.5994     33.5625      5.2746   7.3985565293e+01   7.0480595661e+01    0.2460591    0.1738214 -48.15  0.001443551    2.449    0.592
         8  -8.3570     79.0853      3.8788   5.5541774129e+01   6.2899738514e+01    0.2070851    0.1450172 -34.28  0.001212793    1.716    0.417
         9  -7.8084     44.5447      3.4498   6.7908806738e+01   6.9112280972e+01    0.1209428   0.09398796   8.40 0.0003838297    1.024    0.023
        10  -8.2299     62.4366      1.4557   5.9808411471e+01   6.6300213655e+01    0.1818678    0.1140347  58.32 0.0004809676    1.991    0.498
        11  -8.1172     15.6063      2.7847   8.2230843687e+01   7.2910418558e+01    0.1449363   0.09322581 -37.19 0.0005610395    1.617    0.382
        12  -9.0730    210.9383    246.5877   8.8171360513e+01  -5.6012417804e+00    0.1839727    0.1653427 -37.08 0.0007854131    1.589    0.371
        13  -9.8557    248.7445    243.9149   8.0955259965e+01  -1.0245548248e+01    0.5760558      0.17864 -37.58  0.002604698    3.467    0.712
        14  -8.0670    191.5333    249.7717   9.2311493500e+01  -3.2864726459e+00    0.1372975    0.1181115 -48.96 0.0009286751    1.648    0.393
        15  -7.5942    183.6850    250.3045   9.3890031814e+01  -2.2269606748e+00    0.1119697   0.08887022  51.47 0.0007024443    1.621    0.383
        16  -7.5347    125.2729    250.6564   1.0534909314e+02   6.3303667021e+00    0.1183883   0.08367633  63.23 0.0002887894    1.618    0.382
        17  -8.4846     93.9245    249.5370   1.1134317704e+02   1.0960628214e+01    0.2837738    0.1583244  72.68  0.001455232    2.451    0.592
        18  -7.8254     55.4836    249.9862   1.1861892886e+02   1.5811177353e+01    0.1627044   0.07637819  75.82  0.000810463    2.620    0.618
        19  -8.5701     67.6884    245.0667   1.1596765779e+02   1.5214447803e+01    0.2660453    0.1310587 -81.03  0.001330034    2.405    0.584
        20  -8.9791      9.8187    244.3258   1.2632942806e+02   2.1736389713e+01    0.3074329   0.08813709  82.72  0.001155302    5.181    0.807
        21  -8.8620    201.9442    243.4167   8.9364336786e+01  -3.9015525157e+00    0.1858761    0.1687655 -39.51  0.000666903    1.535    0.349
        22  -8.8819    169.0452    243.5169   9.5759577001e+01   9.4080052267e-01     0.190886    0.1771367 -86.05 0.0006465419    1.514    0.339
        23  -8.4713    139.4207    244.2472   1.0176031821e+02   5.2967068371e+00     0.150665    0.1204592 -77.28 0.0008966955    1.676    0.403
        24  -9.3332     77.9464    243.4776   1.1386502168e+02   1.4189983377e+01    0.2875236    0.1567659  74.44  0.001333672    2.297    0.565
        25  -9.2217    120.0628    245.1835   1.0574388858e+02   8.0128102254e+00    0.3628701    0.2313181  77.06   0.00174007    2.398    0.583
        26  -8.6343     34.5259    244.0067   1.2201431913e+02   1.9292173972e+01    0.1570528   0.09417972 -83.58  0.001027132    1.578    0.366
        27  -8.3632    213.6514    241.9894   8.6937856201e+01  -5.3666410284e+00    0.2483465    0.1069374 -36.75  0.001237463    2.486    0.598
        28  -9.3349    160.1518    240.5646   9.7106479669e+01   2.7510848285e+00    0.3243143    0.2315957 -81.52  0.001395695    2.628    0.619
        29  -8.3867    153.1871    242.1560   9.8724135673e+01   3.5567133070e+00    0.1679373    0.1383479  55.96  0.000847037    1.385    0.278
        30  -8.1335     88.1801    242.2343   1.1175109831e+02   1.3052389963e+01    0.1645833    0.1190557  68.84 0.0005696489    1.364    0.267
        31  -8.9469    241.1922    238.8693   8.1432500711e+01  -8.6756502684e+00     0.410409    0.1519457 -20.67  0.001533061    4.437    0.775
        32  -8.7652    194.0290    239.6551   9.0291196658e+01  -2.2174785400e+00    0.1786755     0.165367 -11.83  0.000416114    1.297    0.229
        33  -8.4413    146.1055    239.8717   9.9838110668e+01   5.0094314909e+00    0.1891001    0.1512103  52.81 0.0005327461    1.318    0.241
        34  -9.2444    231.0976    237.3388   8.2976066205e+01  -7.1492549291e+00    0.2697598    0.2191182 -53.73  0.001592345    2.225    0.551
        35  -9.1882    135.8246    239.1260   1.0182324294e+02   6.7005376357e+00    0.2566014    0.1474654  48.07  0.001150011    1.656    0.396
        36  -8.7080    129.0207    238.9693   1.0318616873e+02   7.7562174055e+00    0.1958468    0.1355706  60.53 0.0007297359    1.644    0.392
        37  -8.0239    209.0440    238.3393   8.7213737399e+01  -4.2159712932e+00    0.1699212    0.1359155  17.40 0.0005062892    1.084    0.077
        38  -8.4321     25.4841    236.9722   1.2322092659e+02   2.1569334846e+01    0.1671467   0.06780039  74.91 0.0008101341    2.696    0.629
        39  -9.7255    214.8342    233.2183   8.5283089353e+01  -4.3333333508e+00    0.4666797    0.3681372 -86.62  0.002352307    3.561    0.719
        40  -8.8096    203.3073    234.8960   8.7746245702e+01  -2.8974966965e+00    0.2562004    0.2088951 -66.16  0.001195517    2.208    0.547
        41  -9.7679    175.8330    233.5642   9.2924825461e+01   1.4525035065e+00    0.4284001    0.2380158 -55.31  0.002088401    2.666    0.625
        42  -8.2825    170.4382    235.9406   9.4368213276e+01   1.9087429129e+00    0.1518988    0.1147824 -82.10 0.0005971039    2.449    0.592
        43  -9.2957    247.9989    234.2121   7.9456923307e+01  -8.9680076557e+00    0.3066142    0.1852508  -7.37  0.001475754    1.526    0.345
        44  -9.2648    246.3694    229.3408   7.8903532096e+01  -8.1405073676e+00    0.2800711     0.175339 -28.12 0.0008172353    1.512    0.339
        45  -9.2249    108.8102    234.4949   1.0677198537e+02   1.1563120384e+01    0.3856433    0.2068003  54.82  0.001089828    1.950    0.487
        46  -8.3809     99.5494    234.4774   1.0866482291e+02   1.2904238662e+01    0.2774068    0.1529646  65.60  0.000967384    2.345    0.574
        47  -8.9876     78.5475    234.4865   1.1291087553e+02   1.5796355388e+01    0.2610818    0.1611044  72.68  0.001032474    1.776    0.437
        48  -9.0950      8.4043    234.3361   1.2610921450e+02   2.3736814472e+01    0.1930536   0.08302119 -75.97  0.001130988    2.088    0.521
        49  -8.3419    122.8376    234.0747   1.0383441035e+02   9.5542056919e+00    0.1960101    0.1529009  64.03 0.0006113542    1.387    0.279
        50  -9.8533     68.0688    231.5113   1.1472550018e+02   1.7733637052e+01    0.5457588    0.2879941  86.60  0.002691007    2.387    0.581
        51  -8.2372    194.2184    232.8006   8.9164991122e+01  -1.2379751051e+00    0.1762585    0.1541906  27.34 0.0004858413    1.225    0.184
        52  -8.5384    144.5073    233.0078   9.9220209646e+01   6.4172547050e+00    0.2540892    0.1354773  60.82   0.00102231    3.371    0.703
        53  -8.7360    140.0750    230.2213   9.9748742168e+01   7.5937235231e+00    0.2750781    0.1777988  59.55 0.0008958951    1.943    0.485
        54  -8.5051    132.4900    232.9179   1.0169008839e+02   8.2909587856e+00    0.1699119    0.1286017 -59.29  0.001015668    1.564    0.361
        55  -9.2485    186.2803    230.6067   9.0374912863e+01   3.0431227029e-01     0.287895    0.2230379 -69.49  0.001049856    2.245    0.555
        56  -9.1278    183.2450    240.4439   9.2510662039e+01  -7.2944383914e-01    0.3960157    0.2353158  57.24   0.00183264    3.036    0.671
        57  -8.6563     92.2924    231.7378   1.0984940430e+02   1.4447658091e+01    0.2864913    0.1652818  63.94  0.001196056    1.962    0.490
        58  -8.6799    236.0932    230.8498   8.0980391391e+01  -6.9734393563e+00    0.2037811    0.1672567 -12.94 0.0006275753    1.242    0.195
        59  -8.8962      1.7670    230.9091   1.2710619118e+02   2.4990422180e+01    0.2026125     0.102986  73.77  0.000828945    1.601    0.375
        60  -9.0597    151.3361    229.0077   9.7235504965e+01   6.0380207739e+00    0.2607941    0.1856985  88.15  0.001077076    2.521    0.603
        61  -9.4410    148.7013    224.6997   9.7149114583e+01   7.2095687572e+00    0.4459011    0.3091692  85.78  0.001565981    2.673    0.626
        62  -7.9855    229.7714    229.1954   8.1838312386e+01  -5.8876679238e+00    0.1624149    0.1389728  81.46 0.0009382886    2.706    0.630
        63  -8.8035    162.0830    227.6597   9.4811326527e+01   4.5682136378e+00    0.2459771    0.1987006  73.26  0.001084553    1.790    0.441
        64  -8.7009    127.9897    227.4849   1.0190217168e+02   9.9657721349e+00    0.2840433    0.1878719  60.78  0.001207414    1.788    0.441
        65  -8.1054    120.0453    228.0737   1.0364972674e+02   1.1076165732e+01    0.2062131    0.1405125  64.89 0.0008617539    1.741    0.426
        66  -8.1718     49.6584    227.2297   1.1800665261e+02   2.0825466315e+01    0.3007566    0.1086077  63.74  0.001141926    3.946    0.747
        67  -8.0000    223.4451    227.0453   8.2630559510e+01  -4.7025631320e+00    0.1760215    0.1106447 -30.14 0.0004808662    1.575    0.365
        68  -8.6028    206.1512    226.0686   8.5733055421e+01  -2.0304739319e+00    0.2222197    0.1654162 -52.02 0.0007918879    1.969    0.492
        69  -7.5123    177.6201    227.2900   9.1579280015e+01   2.1752077538e+00    0.1261279    0.0965823  56.81 0.0007017722    1.740    0.425
        70  -8.0078    200.1702    226.2588   8.6925067491e+01  -1.1556504502e+00    0.1588738    0.1424852  33.07 0.0004567139    1.331    0.249
        71  -8.7629    180.5931    224.2310   9.0482761904e+01   2.2018015420e+00    0.2288636    0.2010375 -56.23 0.0005166676    1.518    0.341
        72  -8.9707    104.7307    223.7444   1.0633888191e+02   1.4200249680e+01    0.3334154    0.2159627  83.68  0.001710543    2.103    0.525
        73  -9.0368     93.9361    224.1386   1.0866665372e+02   1.5689993772e+01     0.374231    0.1875866  60.64  0.001620961    2.464    0.594
        74  -7.9463     38.2108    224.9611   1.2006862374e+02   2.2572208589e+01    0.1741057   0.09515876  58.65 0.0005120888    1.588    0.370
        75  -9.0667    216.4362    223.5520   8.3337840160e+01  -3.1900293198e+00    0.2176832    0.2117589 -34.36  0.000830307    1.539    0.350
        76  -8.4993    173.0461    223.2709   9.1865780397e+01   3.5593136258e+00    0.2028625    0.1825783  81.27 0.0005254726    1.567    0.362
        77  -8.3393    113.7077    224.1584   1.0448504983e+02   1.2777635518e+01    0.1937957    0.1541563  77.47 0.0009778152    1.420    0.296
        78  -8.1304     59.5706    223.7953   1.1574232389e+02   2.0328562075e+01    0.1659156    0.1017597  87.66  0.000939601    1.688    0.408
        79  -8.8515    140.0922    222.9610   9.8710741078e+01   8.8944393276e+00    0.2058898    0.1494663  64.51 0.0008378237    1.738    0.425
        80  -8.9622    239.2178    221.6630   7.8819975649e+01  -6.1687260530e+00    0.2309906    0.2105023  53.68   0.00110656    1.889    0.471
        81  -9.1859    225.4332    221.7966   8.1348526741e+01  -4.2480509333e+00     0.200586      0.18936  18.38 0.0007160318    1.466    0.318
        82  -9.2659    192.3467    221.3217   8.7634730018e+01   8.1667928579e-01    0.2674375    0.2440949 -87.86  0.001116624    1.703    0.413
        83  -9.1155    159.9196    221.0039   9.4227928714e+01   6.0579989797e+00    0.4627614    0.2251934  52.86  0.001861516    2.897    0.655
        84  -9.0822      6.9638    221.4795   1.2573550677e+02   2.6370583012e+01    0.3335364    0.0841684  52.25  0.001415198    3.129    0.680
        85  -8.7433    210.2755    219.6661   8.3834934327e+01  -1.6951801877e+00    0.2448647    0.2176572 -65.20 0.0008658126    1.828    0.453
        86  -9.2678    120.4324    219.2473   1.0239579923e+02   1.2691569916e+01    0.4807999    0.2816228  66.93   0.00176201    2.587    0.613
        87  -8.6025     82.8236    220.7414   1.1063082886e+02   1.7922813083e+01    0.2942351    0.1504092  61.28  0.001379316    2.259    0.557
        88  -7.9717     73.1483    220.7648   1.1266379337e+02   1.9217376939e+01    0.2205935    0.1035469  65.31 0.0009419015    2.817    0.645
        89  -7.7677     27.5118    221.5028   1.2189334263e+02   2.4400407286e+01    0.1131367   0.09158253  75.50 0.0008099113    1.057    0.054
        90  -8.2139    202.8055    220.1179   8.5362541336e+01  -6.2199205672e-01    0.1794033    0.1668645   8.01 0.0005149635    1.255    0.203
        91  -8.8158    248.6876    218.0093   7.6501007109e+01  -6.9594081286e+00    0.2520725    0.2123721  89.39  0.001384882    3.271    0.694
        92  -8.7238    142.9145    216.6811   9.7172144836e+01   9.5987613479e+00    0.2709859    0.1872127 -78.24  0.001066456    2.263    0.558
        93  -9.3285    132.9923    216.1488   9.9237361428e+01   1.1301946214e+01    0.5027403    0.3082711  72.44  0.002132434    2.981    0.665
        94  -8.9428     51.5942    217.4707   1.1681280709e+02   2.2581306444e+01    0.2420807    0.1418433  71.13 0.0006764267    1.695    0.410
        95  -8.5932    169.4280    216.4292   9.1497293928e+01   5.3085150974e+00    0.2526213    0.2148138 -85.95 0.0009541415    1.741    0.426
        96  -8.2560    111.7553    217.1805   1.0399623019e+02   1.4433928262e+01     0.221376    0.1251754  68.03  0.000942748    2.732    0.634
        97  -8.4369     61.8820    217.1646   1.1466120441e+02   2.1398793014e+01    0.2009906    0.1368824  67.04 0.0008517302    1.365    0.268
        98 -10.3590    230.6226    213.7947   7.8961774821e+01  -3.8518867408e+00    0.2796727    0.2697889  21.45  0.001923286    1.527    0.345
        99  -8.4115     18.3419    215.8875   1.2329602917e+02   2.6449681907e+01    0.2301433   0.08829983 -87.29  0.001100687    2.588    0.614
       100  -8.5045    185.7527    214.4392   8.7785889138e+01   2.9866071426e+00    0.2294113    0.1761131 -59.43 0.0009193631    1.868    0.465
       101  -8.1656    154.2448    215.1532   9.4501547793e+01   8.0280074189e+00    0.1759331    0.1550956  70.32 0.0006585908    1.400    0.286
       102  -9.0709     93.0527    214.2325   1.0769137923e+02   1.7810845753e+01    0.3211622    0.1825941  64.25  0.001215729    2.129    0.530
       103  -9.4654    213.9619    212.1399   8.1786094923e+01  -1.1130250402e+00    0.3278944    0.2828164  56.41  0.001848039    1.745    0.427
       104  -8.1532     77.0047    214.4961   1.1119205911e+02   1.9994238952e+01    0.1955982    0.1000466  46.69 0.0009758259    1.748    0.428
       105  -9.3952     72.0296    211.2738   1.1191615120e+02   2.1331780016e+01    0.4184352      0.20307  65.01  0.001456032    2.648    0.622
       106  -8.5829    161.6624    212.4458   9.2477179502e+01   7.2937231467e+00    0.2367242    0.1992664  81.42  0.001015009    1.675    0.403
       107  -8.3579    106.6308    213.1455   1.0458210668e+02   1.6023142511e+01     0.200302    0.1558668  81.94 0.0008721566    1.452    0.311
       108  -8.0507    224.7771    212.5585   7.9816959819e+01  -2.8121823722e+00    0.1598628    0.1134249  38.34 0.0004742446    1.556    0.357
       109  -9.1025    204.2376    210.8296   8.3439149201e+01   6.1015875653e-01    0.3052064    0.2083598 -43.83 0.0007430352    1.707    0.414
       110  -9.3068    175.4472    209.9708   8.9142888559e+01   5.4425895776e+00    0.4016052    0.3015987  86.56  0.001482498    2.584    0.613
       111  -9.6050      6.8240    209.8720   1.2514887790e+02   2.8736273414e+01    0.4254723     0.131164  68.71  0.001660536    4.093    0.756
       112  -7.3508    242.6805    211.7495   7.6417841824e+01  -5.2797373534e+00    0.1246974   0.07938424   3.84  0.000280721    1.531    0.347
       113  -8.4744    192.1067    210.5280   8.5807569499e+01   2.6061477386e+00    0.2260697    0.1865045 -53.26  0.000662556    1.603    0.376
       114  -8.8334    147.9999    210.5993   9.5119276883e+01   9.9042452856e+00    0.2834885    0.2091654  67.03  0.001138771    1.832    0.454
       115  -9.1660    116.2623    210.3874   1.0207756787e+02   1.5095235780e+01    0.3363644     0.227657  72.95  0.001099945    1.960    0.490
       116  -8.3496     32.9143    210.7870   1.2007709082e+02   2.6054901827e+01    0.3210507    0.1166951  60.54  0.001366301    3.070    0.674
       117  -9.0948    236.5816    208.6338   7.6932679166e+01  -3.9690197009e+00    0.2569836    0.2401088 -81.35  0.001255981    1.927    0.481
       118  -8.5516     85.6715    209.6659   1.0875898964e+02   1.9813144837e+01    0.2732479    0.1587141  68.43  0.001305479    2.111    0.526
       119  -7.9928     46.7243    210.1146   1.1718312881e+02   2.4688704578e+01    0.2270811   0.09544961  64.65 0.0009616389    2.912    0.657
       120  -8.3125    139.1284    208.2235   9.6685610243e+01   1.1830409884e+01     0.234817    0.1747494  86.01 0.0006550493    1.973    0.493
       121  -9.2871    246.4062    207.2810   7.4938881380e+01  -5.1726257070e+00    0.2539461    0.1817122 -28.46  0.000607963    1.335    0.251
       122  -9.4876    249.8497    201.3923   7.3239194139e+01  -4.8206726953e+00    0.5136634     0.200611 -39.92  0.002305103    2.614    0.618
       123  -9.2015    245.3368    193.4865   7.2511513085e+01  -3.0224426235e+00    0.2337452    0.1954832 -36.20 0.0004507012    1.445    0.308
       124  -8.9933    124.5603    206.5139   9.9662373434e+01   1.4555685061e+01    0.3751178    0.2355572  70.85   0.00166293    2.469    0.595
       125  -9.1123     99.3252    206.1185   1.0527453507e+02   1.8577678203e+01    0.3697527    0.2354208  81.93  0.001249837    2.141    0.533
       126  -8.4490    109.0257    205.3326   1.0298322571e+02   1.7263050914e+01    0.2342959    0.1770672  76.47 0.0005954236    1.534    0.348
       127  -8.4879     56.1890    205.4250   1.1474043233e+02   2.4583280005e+01    0.2695879    0.1504553  69.02  0.001113332    1.928    0.481
       128  -8.0204     11.6697    206.6833   1.2403024864e+02   2.8974019982e+01    0.1048342   0.07954191 -52.95 0.0007046547    1.683    0.406
       129  -8.6267    131.1927    203.9487   9.7779832794e+01   1.3989141114e+01    0.3045968     0.224782  75.24  0.001053375    1.818    0.450
       130  -8.5757     25.0079    205.0035   1.2125787715e+02   2.8082299688e+01    0.1995869    0.1081523  68.07 0.0008255391    1.710    0.415
       131  -9.4298    194.8482    203.2888   8.3940184463e+01   3.3701540347e+00    0.3740951    0.2465074 -31.89  0.001083044    1.529    0.346
       132  -9.3250    192.4065    197.2774   8.3317406406e+01   4.8121535292e+00    0.3128788    0.2374269 -49.42  0.000924071    1.594    0.373
       133  -8.9348    183.6256    203.8960   8.6357878363e+01   5.1389161207e+00    0.2773888    0.2061767  53.74  0.001019453    1.708    0.415
       134  -9.6236    163.9015    203.0326   9.0393455485e+01   8.6434070445e+00    0.4421352     0.307168  55.75  0.001132491    1.791    0.442
       135  -8.4964    211.0022    202.2645   8.0537172047e+01   9.0607935387e-01    0.2053332    0.1876759 -55.88 0.0005905941    1.559    0.359
       136  -9.0426    243.0319    200.9221   7.4338548678e+01  -3.7812097973e+00    0.2852969    0.1661289 -35.46  0.000973055    1.653    0.395
       137  -8.8982    140.3901    200.9884   9.5235441693e+01   1.3045189481e+01    0.3564768    0.2476894  83.97  0.001439706    2.420    0.587
       138  -8.6126     80.2622    201.6285   1.0899912451e+02   2.2290027963e+01    0.3594254    0.1745141  60.29  0.001518786    2.569    0.611
       139  -7.8806     73.2861    202.6032   1.1068109641e+02   2.3025051032e+01    0.1396157   0.08715593  71.18 0.0006998471    1.774    0.436
       140  -8.4075     48.1204    201.9329   1.1615087183e+02   2.6292106249e+01    0.2847897    0.1383175  65.49  0.001336425    2.307    0.567
       141  -8.0821     10.7997    202.6310   1.2395619924e+02   2.9905528005e+01    0.1589239   0.08467802  46.35 0.0009515573    1.700    0.412
       142  -9.1989    237.0033    198.6555   7.4980674300e+01  -2.5608015394e+00    0.3366274    0.1651409 -41.09  0.001034674    2.158    0.537
       143  -9.5576    149.6098    198.5984   9.2765803908e+01   1.1945487915e+01    0.4429026    0.3159923 -83.39  0.001511023    2.312    0.568
       144  -8.9259    123.9984    199.2282   9.8669638216e+01   1.6140849987e+01    0.3240266    0.2214383 -80.39  0.001476855    2.032    0.508
       145  -9.1947    112.8974    198.6080   1.0112356946e+02   1.8069309311e+01    0.4451694    0.2720807  68.15  0.001905114    2.330    0.571
       146  -9.1091     88.6571    198.6978   1.0671827793e+02   2.1742075338e+01    0.3509673    0.2287359  83.08  0.001530303    1.896    0.473
       147  -8.6754    177.1276    198.8267   8.6800348402e+01   7.1487952921e+00    0.2245252     0.185854 -52.48 0.0006986936    1.453    0.312
       148  -8.4184    202.3083    197.8152   8.1412119845e+01   3.0577366562e+00    0.2328687    0.2048143 -57.54  0.000872124    1.568    0.362
       149  -9.3146     61.4335    197.0490   1.1271975735e+02   2.5777493893e+01    0.4000477    0.2135948  70.77  0.001532342    2.282    0.562
       150  -8.9081     13.0970    197.8960   1.2319570897e+02   3.0716393955e+01    0.2792953    0.1162069  64.16  0.001370252    2.390    0.582
       151  -7.8388     29.3593    197.6774   1.1980136431e+02   2.9236811565e+01    0.1328187   0.07161208  64.50 0.0007043729    1.773    0.436
       152  -8.6951    215.8439    195.6116   7.8333527457e+01   1.2039022651e+00    0.2421078    0.1699388 -50.47 0.0008288212    1.902    0.474
       153  -8.8348    185.2288    195.0583   8.4387843660e+01   6.4335953155e+00    0.2437197    0.2181464 -54.51 0.0006136909    1.396    0.284
       154  -8.1165    133.0003    196.0363   9.6091972609e+01   1.5300466962e+01    0.2164466    0.1642641  69.62 0.0005409088    1.653    0.395
       155  -8.6762    224.4053    193.8994   7.6376374828e+01   1.0954343716e-01    0.2708924    0.1436912 -44.13  0.001222895    2.135    0.532
       156  -9.0598    160.8167    194.3867   8.9527073574e+01   1.0820058263e+01    0.3176208    0.2589674  76.68 0.0009364503    1.722    0.419
       157  -8.9497     43.7453    193.5034   1.1631527974e+02   2.8649899831e+01    0.4374351    0.2066588  77.32  0.001902824    2.721    0.632
       158  -7.8912    230.8158    194.3782   7.5281197329e+01  -9.6859410286e-01    0.1784772    0.1448646 -21.17 0.0005993696    1.155    0.134
       159  -8.6867     76.8468    193.8908   1.0882729957e+02   2.4468513616e+01    0.2419186    0.1724696 -87.59 0.0006221347    1.465    0.317
       160  -7.4192    241.5993    192.2600   7.2929349544e+01  -2.2849755841e+00     0.110617    0.1046372  68.55 0.0006964324    1.719    0.418
       161  -7.7414    205.2412    191.9295   7.9694592703e+01   3.5648797667e+00    0.1692013    0.1095726 -36.91 0.0004166201    1.535    0.349
       162  -8.1980    198.9266    191.9286   8.0962690725e+01   4.6345365496e+00    0.1937416    0.1756546 -86.86 0.0006534374    1.648    0.393
       163  -8.0050    179.1398    191.8292   8.5064020684e+01   8.0833957773e+00    0.1969114    0.1891257  55.11 0.0004715092    1.267    0.211
       164  -8.5022    172.4731    191.8151   8.6496474586e+01   9.2601522193e+00    0.2539853    0.2028875 -72.78  0.001107331    1.821    0.451
       165  -9.2198    139.6176    190.7562   9.3670081012e+01   1.5257518530e+01    0.3798722    0.2786622  85.62  0.001098874    2.060    0.515
       166 -10.4117     92.0807    188.4300   1.0450906382e+02   2.3519287783e+01     0.977597    0.4492478  51.84  0.003107545    2.419    0.587
       167  -8.6325    148.5547    189.5052   9.1396930347e+01   1.3948670284e+01    0.2911563    0.2085697  76.05  0.001036937    2.214    0.548
       168  -9.0499    129.4830    188.7310   9.5676512273e+01   1.7430657107e+01    0.3424604    0.2486726  73.40  0.001107123    1.861    0.463
       169  -8.4203      6.4501    190.4979   1.2408238526e+02   3.2884660013e+01    0.1162009   0.09014554  84.65 0.0003659114    1.017    0.016
       170  -8.3654    237.1217    188.6051   7.3010490577e+01  -1.0463955752e+00    0.2178305    0.1560537 -35.22 0.0006625045    1.393    0.282
       171  -8.6189    216.5405    188.1424   7.6739491873e+01   2.3169806405e+00    0.2210556    0.2135751 -60.00 0.0006881477    1.452    0.311
       172  -9.2751    191.0187    186.9081   8.1604981179e+01   6.8955601181e+00    0.4498108    0.3009661 -69.90  0.001843649    3.141    0.682
       173  -9.2408    155.9387    187.6147   8.9372327286e+01   1.3019040415e+01    0.3581442    0.2422471 -65.45  0.001043311    2.049    0.512
       174  -9.7758    120.7901    186.5903   9.7367126357e+01   1.9365396968e+01    0.5407196    0.3128455 -76.23  0.002139813    2.810    0.644
       175  -8.6654     34.3150    188.2632   1.1792768772e+02   3.0832163662e+01    0.3224564    0.1472879  69.16  0.001333503    2.606    0.616
       176  -7.9240    156.4306    208.1781   9.2891670217e+01   8.9502507820e+00    0.1732037    0.1341283 -63.30 0.0007927645    1.646    0.392
       177  -9.1215     54.4798    186.8231   1.1318940319e+02   2.8934299325e+01    0.4002921    0.2240393  74.83  0.001449841    2.092    0.522
       178  -8.1120    230.4385    187.2172   7.3946832614e+01   2.1593038982e-01    0.1838684    0.1167611 -43.62  0.000946178    1.769    0.435
       179  -8.7833    164.8635    186.8396   8.7225216744e+01   1.1573591497e+01    0.2825397    0.2376954  79.69  0.001006849    1.645    0.392
       180  -9.1349    109.5582    186.0379   9.9960634410e+01   2.1338276141e+01    0.3839629    0.2657619  79.19  0.001082375    1.939    0.484
       181  -8.6359    249.2021    185.6684   7.0318953375e+01  -2.4242344244e+00    0.2162875    0.1533846 -35.96 0.0008273699    1.417    0.295
       182  -8.8109    182.8742    185.1066   8.2965249627e+01   8.6720767190e+00    0.3089189    0.1973978 -44.63 0.0009497048    1.652    0.395
       183  -8.6960    210.1891    184.4767   7.7242721488e+01   4.0011342453e+00    0.2363615    0.1738582 -30.42  0.000445837    1.291    0.225
       184  -9.0560    202.9285    184.7726   7.8744442745e+01   5.1966945258e+00    0.3043464    0.2182207 -48.97  0.000949827    1.666    0.400
       185  -8.8148    205.0406    177.6960   7.6886288703e+01   6.0767849779e+00    0.3643827     0.192515 -38.66  0.001644633    1.836    0.455
       186  -9.0780     66.4444    184.5311   1.1010473260e+02   2.7980274983e+01     0.328631    0.2103801  72.32  0.001149858    1.732    0.423
       187  -8.2494    224.0793    183.6498   7.4412793792e+01   1.8175477952e+00    0.2218704    0.1683262 -37.16 0.0005903844    1.363    0.266
       188  -8.4930    197.0065    183.9541   7.9782153058e+01   6.3749810849e+00    0.2037866      0.17951 -88.45 0.0007945031    1.715    0.417
       189  -8.8944    174.2583    183.6449   8.4536655781e+01   1.0500271639e+01      0.27547    0.2332981  88.61 0.0009412779    1.712    0.416
       190  -9.0478     44.2839    182.2555   1.1507180243e+02   3.1150599602e+01    0.3484831    0.1935479  85.20  0.001174514    1.958    0.489
       191  -7.9410      1.8076    183.6147   1.2461592946e+02   3.4760074162e+01    0.1558931   0.08728459  47.03 0.0009446926    1.709    0.415
       192  -9.2757    147.5317    180.6831   8.9998698159e+01   1.5951406969e+01     0.361672    0.2770651 -82.47  0.001110978    1.866    0.464
       193  -9.4672     25.4516    178.6000   1.1906442699e+02   3.3900689809e+01    0.6328036    0.2442147  76.94  0.002262173    4.127    0.758
       194  -8.7667    137.7714    179.2898   9.2032360090e+01   1.8002055382e+01    0.3331575    0.2246654  65.07  0.001110485    2.056    0.514
       195  -9.2506    191.5005    178.4393   7.9806344210e+01   8.3612775945e+00     0.276988     0.243661  53.69 0.0005744305    1.393    0.282
       196  -8.0707    169.4006    178.6929   8.4626852003e+01   1.2354804193e+01    0.2600945    0.1398452 -49.03 0.0009421293    2.024    0.506
       197  -8.9395    129.1471    177.4182   9.3752974382e+01   1.9938068647e+01    0.3804663    0.2540766 -79.41  0.001157353    2.256    0.557
       198  -9.0214     35.9069    176.8005   1.1647448288e+02   3.3301245538e+01    0.4832178    0.2037836  81.39  0.001783457    3.666    0.727
       199  -9.3670    248.3555    176.5143   6.8639959468e+01  -9.0113653556e-01    0.4429662    0.2504059 -44.43  0.001993805    1.986    0.496
       200  -8.6897    250.5191    172.8855   6.7542043150e+01  -6.7178010776e-01    0.2442557    0.1365769 -36.83 0.0005107201    1.614    0.380
       201  -8.5869    231.0680    177.1561   7.1807921817e+01   1.7361499467e+00    0.2603309    0.1701108 -42.51 0.0007295356    1.627    0.385
       202  -8.5909    217.5162    177.3053   7.4366108718e+01   3.9778165939e+00    0.2611868    0.2159963 -67.96 0.0009351756    1.895    0.472
       203  -8.7849     89.0213    176.9456   1.0355153574e+02   2.6608046216e+01    0.3127283     0.211879  86.41  0.001011314    1.829    0.453
       204  -8.8187    183.1339    176.1705   8.1113806056e+01   1.0314676970e+01     0.279278    0.2261302 -51.79  0.000473658    1.430    0.301
       205  -8.0978     97.2712    177.5925   1.0160590129e+02   2.5202754593e+01    0.1902802    0.1358865  22.24 0.0009070062    1.641    0.391
       206  -9.8929     57.5152    173.4970   1.1089057692e+02   3.1679413563e+01    0.8214515    0.3773297  78.88  0.002687892    4.435    0.775
       207  -7.7050     53.5776    174.4586   1.1197621448e+02   3.1920332270e+01    0.1832233    0.1500594 -43.82 0.0001779091    1.423    0.297
       208  -8.7556     12.7317    176.6148   1.2176914738e+02   3.5466810575e+01    0.2727059    0.1221012  68.84 0.0009472034    2.397    0.583
       209  -7.5033    211.6701    176.2991   7.5288753369e+01   5.1601632673e+00    0.1267121     0.114935 -85.80 0.0007030153    1.642    0.391
       210  -9.3184    158.9104    174.8493   8.6228786538e+01   1.5074317987e+01    0.4368803    0.3278068 -65.97  0.001423737    1.732    0.423
       211  -9.5426    104.1658    174.7486   9.9425380861e+01   2.4767127088e+01    0.5235767     0.306918  62.98  0.001804088    2.329    0.571
       212 -10.6755     75.9294    169.5049   1.0572089548e+02   3.0245958098e+01     1.405576    0.5120562 -69.46  0.004785107    3.401    0.706
       213  -9.5125    175.7905    172.2703   8.1905746730e+01   1.2437043984e+01    0.3613234    0.2398806 -43.74  0.001036289    1.536    0.349
       214  -8.6411    143.2012    172.8848   8.9516410666e+01   1.8396578421e+01    0.2820185    0.2190051  83.05 0.0008943596    1.811    0.448
       215  -7.4134    194.3032    172.6581   7.8028635134e+01   8.9244950907e+00    0.1359734     0.118008 -81.39 0.0007039591    1.679    0.404
       216  -8.5178    134.7652    171.7358   9.1323231855e+01   2.0185927070e+01     0.281502    0.2047788 -63.60 0.0007923719    1.581    0.367
       217  -9.5677    121.2622    170.3856   9.4387057742e+01   2.2891270474e+01    0.4091382    0.2948096 -86.39 0.0009664007    1.915    0.478
       218  -9.1932     45.1373    170.9094   1.1362464062e+02   3.3716055411e+01    0.4235523    0.2122432 -85.75  0.001850807    2.224    0.550
       219  -8.4704    205.9561    170.5389   7.5214462007e+01   7.1934592310e+00    0.2565697    0.1917384 -51.47 0.0007615997    1.619    0.382
       220  -8.4122    198.8516    170.5750   7.6654994433e+01   8.4771248364e+00    0.2668877    0.1872463 -55.33 0.0008884154    1.849    0.459
       221  -8.2175    237.1403    169.7118   6.9189490245e+01   1.9558862846e+00    0.2273767    0.1616054 -38.24 0.0006443619    1.384    0.278
       222  -8.6487    230.4888    170.0342   7.0444660552e+01   3.0054817523e+00    0.2002719    0.1711244   0.45 0.0007496337    1.072    0.067
       223  -9.1041    167.3521    168.8458   8.3076161365e+01   1.4716993380e+01    0.3869859    0.2749563  71.75  0.001224944    2.311    0.567
       224  -8.6821    149.6849    169.6113   8.7324348549e+01   1.7895730979e+01    0.2831631    0.2286695 -72.63 0.0007352022    1.562    0.360
       225  -8.2235    224.2967    174.0893   7.2423548253e+01   3.3701003691e+00     0.197503    0.1571266 -26.75 0.0006148156    1.152    0.132
       226  -8.2288    244.4117    169.2865   6.7839954849e+01   8.4906752699e-01    0.1795871    0.1118679 -40.48 0.0004814354    1.584    0.369
       227  -8.4960    218.8082    168.3105   7.2246979037e+01   5.3017561985e+00    0.2260988    0.1771615 -41.17  0.000650202    1.347    0.257
       228  -8.7950    111.7834    167.8454   9.6298123223e+01   2.5103745877e+01     0.391357    0.2457818  70.21  0.001588211    2.435    0.589
       229  -8.6337     88.4911    168.5044   1.0235564292e+02   2.8673710786e+01    0.2417816    0.1355564 -74.22  0.001015165    2.155    0.536
       230  -7.9379    211.3571    168.1927   7.3654240702e+01   6.6427917445e+00    0.2007471      0.12348 -45.79 0.0004913391    1.756    0.430
       231  -8.8981    191.9104    166.6921   7.7266162652e+01   1.0489563377e+01    0.2673189    0.2032141 -43.77 0.0004954173    1.370    0.270
       232  -9.0165    185.0087    166.5528   7.8698871894e+01   1.1817763323e+01    0.2693471    0.2002926 -54.68 0.0007198199    1.610    0.379
       233  -9.0940     20.6138    166.3693   1.1909091918e+02   3.7174059340e+01    0.3344585    0.1532201  60.87  0.001273954    2.421    0.587
       234  -8.3364    140.6389    166.3073   8.8824498762e+01   2.0301069560e+01    0.2790821    0.1728292  48.91 0.0006781503    1.720    0.419
       235  -9.6206    135.7006    164.0321   8.9572655103e+01   2.1721484191e+01    0.4228019    0.2815558  57.32 0.0009484661    1.815    0.449
       236 -10.0183     94.9336    162.6794   9.9707373323e+01   2.9072169395e+01     0.852966    0.4939516  80.86  0.002989771    3.321    0.699
       237  -8.2672    233.9456    164.8247   6.8734250923e+01   3.2903768112e+00    0.2344627    0.1578862 -44.19 0.0007274638    1.587    0.370
       238  -8.6083    159.3960    164.4477   8.3977569320e+01   1.7146832579e+01    0.2918434    0.2535715 -80.46 0.0008477981    1.459    0.314
       239  -8.1869     55.8593    164.4263   1.1013242130e+02   3.4048675824e+01    0.2546946    0.1501108 -37.53  0.001174313    2.272    0.560
       240  -9.3171     33.3765    163.4836   1.1569555707e+02   3.6694898697e+01    0.4881526    0.1992944  55.45   0.00202968    2.916    0.657
       241  -8.7882    246.0170    163.1606   6.6300000109e+01   1.5700528219e+00    0.2315745    0.1654751 -28.11 0.0004314692    1.196    0.164
       242  -8.5230    213.0737    163.7193   7.2366462075e+01   7.1299702200e+00      0.24054    0.1771976 -43.22 0.0006820273    1.417    0.294
       243  -8.6285    204.8659    163.0731   7.3838452243e+01   8.7487232463e+00    0.2064107    0.1914057 -47.67 0.0004679541    1.272    0.214
       244  -9.5098      3.4901    162.4880   1.2279240645e+02   3.9409345451e+01    0.3837711    0.1671316  51.88  0.001727274    2.324    0.570
       245  -9.0536    151.4426    160.8778   8.5095246573e+01   1.9436281578e+01    0.3214547     0.251509 -86.54 0.0009350473    1.836    0.455
       246  -8.9424    177.5132    160.7099   7.9067288050e+01   1.4408657575e+01    0.2734872     0.244059 -71.42 0.0009900776    1.404    0.288
       247  -8.7528     60.8709    160.5192   1.0829510439e+02   3.4387976046e+01    0.3746982    0.1986209  60.58  0.001607512    2.374    0.579
       248  -9.4316    242.8582    155.1487   6.5145945050e+01   3.3894160729e+00    0.2897286    0.2244641 -74.00 0.0004213104    2.292    0.564
       249  -9.7451    250.1541    157.9280   6.4522227313e+01   1.7391587907e+00    0.3465382    0.1769229 -35.93 0.0007920039    1.689    0.408
       250  -9.4681    243.5793    159.4373   6.5931470006e+01   2.5690979276e+00    0.3976071    0.2020535  25.89  0.001259923    2.613    0.617
       251  -8.3946    246.5585    155.5491   6.4613687035e+01   2.7084188501e+00    0.2219177    0.1461768 -25.00 0.0004838688    1.344    0.256
       252  -8.4740    227.5515    159.1461   6.8673302412e+01   5.3477869503e+00    0.3164396    0.1876945 -52.28  0.001154536    2.244    0.554
       253  -9.6462    105.7324    157.9708   9.6018082705e+01   2.8439211504e+01    0.4728777    0.3143053  89.19  0.001316802    2.273    0.560
       254  -8.5477    237.1071    158.9281   6.6932094161e+01   3.7357408137e+00    0.2025623     0.171708 -39.52 0.0006735882    1.277    0.217
       255  -8.4369    128.1445    159.0521   9.0447048240e+01   2.4238626411e+01    0.2795566    0.1923476  65.72 0.0008653222    1.963    0.491
       256  -8.2729    196.3972    157.8320   7.4409040672e+01   1.1320977587e+01    0.2451955    0.1973432  71.45 0.0007177645    1.805    0.446
       257  -8.3108    188.1424    157.9168   7.6153122520e+01   1.2896100403e+01    0.2130209    0.2014499 -62.56  0.000484842    1.263    0.208
       258  -9.1679    167.5923    157.3830   8.0563918714e+01   1.7027457526e+01    0.3349851      0.27628 -80.49 0.0009366391    1.666    0.400
       259  -8.5393    217.9459    156.6965   6.9915736477e+01   7.4935576451e+00    0.2707052    0.1757832 -52.16 0.0009889798    1.910    0.476
       260  -8.9758    157.8080    156.2829   8.2592314491e+01   1.9183515818e+01    0.3640653    0.2170226 -52.54 0.0009834528    1.840    0.457
       261  -9.3143    119.5159    155.3180   9.1895166049e+01   2.6667203584e+01     0.420565    0.2909941 -79.53  0.001501453    2.022    0.505
       262  -9.4800     81.7448    154.8046   1.0183578718e+02   3.2971432332e+01     0.496365    0.3066605  82.83   0.00142874    2.407    0.585
       263  -9.4887     49.9825    155.5389   1.1046290812e+02   3.6886262831e+01    0.4603382    0.2349297  62.40  0.001878176    2.563    0.610
       264  -7.6916    204.7344    155.3733   7.2179322482e+01   1.0192556593e+01    0.1408909    0.1138431 -63.77 0.0006205548    1.668    0.400
       265  -8.7200    144.4254    154.8385   8.5497170977e+01   2.2110344449e+01    0.2840428     0.238867  77.61 0.0007849668    1.493    0.330
       266  -9.5505    132.7757    152.9255   8.7991784646e+01   2.4770949909e+01    0.4714106    0.3447573  75.47  0.001332463    1.968    0.492
       267  -9.4071    133.6918    148.0056   8.6688335649e+01   2.5715606821e+01    0.3544066    0.2625058 -42.15  0.001225353    1.344    0.256
       268  -9.7534     68.0229    153.7430   1.0536694053e+02   3.5132307609e+01    0.4841338    0.2911227  79.75  0.001495145    2.326    0.570
       269  -8.0179    232.7186    154.1369   6.6671896235e+01   5.2961228801e+00    0.2133563    0.1565467 -44.42 0.0005216564    1.434    0.303
       270  -8.3005    151.6329    152.8227   8.3301561516e+01   2.1143986962e+01    0.2186059    0.1431139 -55.68 0.0009432138    1.714    0.417
       271  -9.1300     20.1609    152.6486   1.1786753240e+02   4.0465857288e+01    0.2425427    0.1343648  78.60 0.0007000441    1.922    0.480
       272  -9.5391     29.0984    150.5020   1.1532706986e+02   4.0219000315e+01    0.5216711    0.2413123  72.48  0.002088842    3.131    0.681
       273  -8.7056      2.8648    150.8603   1.2201804512e+02   4.2157170574e+01    0.3326907    0.1342885 -81.99  0.001574622    2.120    0.528
       274  -9.4776    248.7746    149.3367   6.2934218241e+01   3.3477798622e+00    0.3290123    0.1850104 -33.72 0.0009211337    1.521    0.343
       275  -8.5771    243.1751    149.8808   6.3967928320e+01   4.2021915987e+00    0.3092737    0.1643897 -45.73   0.00128793    1.984    0.496
       276  -8.8192    240.3888    145.2709   6.3435798266e+01   5.4478124520e+00    0.2357686    0.1512115 -39.44 0.0004903448    1.422    0.297
       277  -9.9560    242.6764    143.2895   6.2626881266e+01   5.3790641187e+00    0.4592192    0.2184888 -26.89  0.001943864    2.185    0.542
       278  -8.8432    189.3629    150.3115   7.4190245356e+01   1.4140809209e+01    0.3147746    0.2379894 -53.70 0.0008204815    1.521    0.343
       279  -8.3268    182.2019    151.2102   7.5926738142e+01   1.5387056322e+01    0.1991723    0.1831144 -87.25 0.0005686972    1.367    0.268
       280  -8.6429    162.5939    150.8237   8.0254109462e+01   1.9393411798e+01    0.2915479    0.1888977 -58.17  0.001077357    1.898    0.473
       281  -8.7812     98.3813    150.7479   9.6590174459e+01   3.1384896945e+01    0.3095947    0.2294587  74.51  0.001214677    1.694    0.410
       282  -8.9840    237.1875    150.2415   6.5054706715e+01   5.1734280242e+00    0.1766318    0.1513436 -43.94 0.0004634881    1.292    0.226
       283  -8.3121    212.7552    149.9279   6.9403791563e+01   9.6723884743e+00    0.2032501    0.1700644 -30.07 0.0003718259    1.106    0.096
       284  -8.4982    198.8659    149.0826   7.1946011386e+01   1.2504322739e+01    0.2155691    0.1972544 -56.56 0.0005090391    1.280    0.218
       285 -10.2973    149.1756    145.1796   8.2175017339e+01   2.3303451311e+01    0.6099215     0.430794 -88.79  0.001825491    2.493    0.599
       286 -10.0727     89.2951    146.4386   9.8246946217e+01   3.3878147279e+01    0.6738577    0.3927003 -89.54  0.002407903    3.197    0.687
       287  -9.7720     39.6718    147.8602   1.1218583544e+02   3.9860707344e+01    0.4965837    0.2570478  67.64  0.001815057    2.604    0.616
       288  -9.1326    233.4865    147.6743   6.5132509899e+01   6.2593435629e+00    0.2638069    0.1726131 -33.52 0.0007351693    1.349    0.259
       289 -10.3171    106.6757    144.1462   9.3000386028e+01   3.1576515730e+01    0.8128048     0.537101 -87.26  0.002271368    2.411    0.585
       290  -8.6125     78.3765    147.3958   1.0145326405e+02   3.5272254509e+01     0.312537    0.1965294  73.48 0.0008133577    2.274    0.560
       291 -10.3159     54.9563    144.8705   1.0755644798e+02   3.8941641976e+01    0.7930878    0.3931177  69.12  0.002543814    3.652    0.726
       292  -8.0507     53.3896    137.2948   1.0679018925e+02   4.1000142118e+01    0.2591977    0.1730633 -23.03  0.001235231    2.056    0.514
       293  -8.9366     57.5024    135.4847   1.0529468620e+02   4.0968056170e+01    0.2438142    0.1434526  23.10  0.001140582    2.031    0.508
       294  -8.4140    223.3350    146.9752   6.6776229571e+01   8.2221191754e+00    0.2243265    0.2030404 -74.37 0.0007825451    1.474    0.322
       295  -7.8340    206.7993    146.7336   6.9834133715e+01   1.1399056452e+01    0.1861153    0.1686417 -57.86 0.0005436009    1.312    0.238
       296 -10.0742    139.1280    145.0802   8.4652574894e+01   2.5321513449e+01    0.5155941    0.3486301 -75.52  0.001602536    2.323    0.570
       297  -9.1997     13.1037    146.3221   1.1903197890e+02   4.2524980611e+01    0.2821627    0.1639219  78.02  0.001049824    1.758    0.431
       298  -8.2933    175.4572    146.3080   7.6286724998e+01   1.7734852149e+01    0.2367029    0.1890085  68.10 0.0006213369    1.645    0.392
       299  -8.9776    165.4262    144.1775   7.8069978744e+01   2.0222222647e+01    0.2665453     0.242509  59.88 0.0005285041    1.242    0.195
       300  -9.8783    125.1278    142.8881   8.7772389442e+01   2.8524882431e+01    0.5241139    0.3640575 -86.50   0.00154569    2.323    0.569
       301  -8.7609    247.0091    143.8713   6.2048832569e+01   4.5363653528e+00    0.2313458    0.1646827 -31.77 0.0005150576    1.198    0.165
       302  -7.7889    194.1171    144.1373   7.1782977422e+01   1.4392953820e+01     0.193363    0.1798897 -75.25 0.0005715783    1.317    0.241
       303  -9.8947     73.2363    129.0218   9.9439507819e+01   4.0534001063e+01    0.5398987    0.2920736 -71.43  0.001619219    2.226    0.551
       304 -10.4345     69.4895    141.4429   1.0288704542e+02   3.7971893297e+01    0.5918764    0.3843831 -83.93  0.001914306    1.850    0.460
       305  -9.6826     70.0458    134.2078   1.0139747531e+02   3.9689279490e+01    0.5102287    0.2895209   2.84   0.00187653    3.433    0.709
       306  -9.5026      2.6932    141.7799   1.2127537201e+02   4.4307130368e+01    0.4254978    0.1975911  77.67  0.001982946    2.400    0.583
       307  -8.4593    182.0381    141.6269   7.3748933254e+01   1.7338718678e+01    0.2824572    0.2052133 -55.33 0.0006084535    1.596    0.373
       308  -8.2692    250.3147    141.0084   6.0907217207e+01   4.4408717708e+00    0.1959154    0.1489712 -30.45 0.0007068057    1.111    0.100
       309  -9.7237     23.4267    138.2194   1.1538807300e+02   4.3689316143e+01    0.5384368    0.2755693  72.87   0.00215532    2.533    0.605
       310  -7.6882    218.7499    138.9771   6.5808923058e+01   1.0506954601e+01    0.1873934     0.113105 -35.56 0.0003747845    1.506    0.336
       311  -8.5665    172.3020    138.4112   7.5137894030e+01   2.0005039402e+01    0.3090617     0.216825 -73.13 0.0009108764    2.303    0.566
       312  -8.2955    207.4537    137.7854   6.7651550020e+01   1.2931714141e+01    0.2692905    0.1325017 -42.94 0.0007260772    1.954    0.488
       313  -8.7517    197.6790    137.6122   6.9534753481e+01   1.4928742662e+01    0.2915789    0.1856084 -46.87 0.0007717784    1.615    0.381
       314  -8.7788    150.5835    136.3512   7.9756755225e+01   2.4952443312e+01     0.532075    0.3218803  13.72  0.001862612    2.914    0.657
       315  -8.3750    241.2784    137.3818   6.1563800913e+01   6.6101070392e+00    0.1430412   0.09769984  -8.55 0.0007004795    1.716    0.417
       316  -8.4839    162.5566    136.3718   7.6888632247e+01   2.2463189209e+01    0.2833859    0.1481086 -47.64 0.0006134057    1.955    0.489
       317  -9.3827    139.7430    137.1960   8.2669904829e+01   2.6972114924e+01    0.3241308    0.2177185  28.95 0.0008697098    1.651    0.394
       318  -8.9451    248.2125    135.2169   5.9984071073e+01   5.7476150132e+00    0.2937214    0.1861023 -44.67 0.0007081266    1.535    0.349
       319  -8.5795    246.9600    130.4982   5.9147802233e+01   6.7429140456e+00    0.2550443    0.1611549 -44.67 0.0006151021    1.518    0.341
       320 -10.4176     83.3765    132.9538   9.7247732446e+01   3.8090478527e+01    0.5889863    0.3419829 -70.65  0.001458782    2.061    0.515
       321  -8.5693     84.0216    123.4652   9.5021868553e+01   4.0313565166e+01    0.4009406    0.2075565 -34.52  0.001511556    2.500    0.600
       322  -8.3829    237.4688    133.7490   6.1382688625e+01   7.9085367264e+00    0.2554516    0.1184234 -40.28 0.0008162971    1.919    0.479
       323  -7.9631    231.5206    134.0539   6.2443989456e+01   8.9542847501e+00    0.2101495    0.1244744 -35.52 0.0004601778    1.493    0.330
       324  -8.5800    179.5467    134.0587   7.2485913742e+01   1.9377988923e+01    0.2650127    0.2215824  67.00 0.0007746798    1.470    0.320
       325 -10.1133    132.2262    131.3565   8.3217606294e+01   2.9797156795e+01    0.6248308    0.4416741 -82.04  0.002096289    2.252    0.556
       326  -8.9628    112.7610    133.2552   8.8928895891e+01   3.3087056851e+01    0.3413567    0.2582766  85.93 0.0009384784    1.838    0.456
       327  -9.0876    143.1581    131.8663   8.0521467655e+01   2.7467960011e+01    0.3525456    0.2597855 -71.25 0.0007711693    1.826    0.452
       328 -10.5158     98.2823    129.3175   9.2127835906e+01   3.6583458940e+01     1.106452    0.3339199 -50.89  0.003486302    3.057    0.673
       329  -9.0382    250.6200    129.8018   5.8433891039e+01   6.2123126387e+00    0.4379359    0.1114024 -36.76   0.00144336    3.330    0.700
       330 -10.1363     12.8869    129.1379   1.1723682377e+02   4.6675299778e+01    0.4910298    0.2560754  80.59  0.001901928    2.241    0.554
       331  -8.2073    220.5908    130.2142   6.3463320034e+01   1.1716080921e+01     0.199737    0.1273358 -28.01 0.0007109513    1.516    0.340
       332  -8.1332    204.4354    130.2544   6.6462069328e+01   1.4943069513e+01     0.210021    0.1321918 -47.22 0.0009382818    1.629    0.386
       333  -8.1874    192.9305    130.3268   6.8760152925e+01   1.7308572110e+01    0.2037794    0.1962964   4.28 0.0004909014    1.063    0.060
       334  -9.1209    168.3468    129.5589   7.3884197719e+01   2.2669441741e+01    0.3110372    0.2526449 -69.69 0.0008247323    1.548    0.354
       335  -8.9267    161.5110    130.0411   7.5588580180e+01   2.4022704370e+01    0.2457233    0.1506883 -42.34 0.0007934548    1.591    0.371
       336  -9.3003    153.0477    129.1948   7.7406217134e+01   2.5993867854e+01    0.4152075    0.2648121 -56.75 0.0009526992    1.842    0.457
       337  -8.1427      1.6712    130.3317   1.2046485471e+02   4.7084953590e+01    0.1915336    0.1169178  68.65  0.001088263    1.745    0.427
       338  -8.0044    211.5200    129.1108   6.4851777123e+01   1.3716514723e+01    0.2256011     0.133664 -39.53 0.0007557814    1.557    0.358
       339  -8.6954     39.0809    136.1915   1.1072590787e+02   4.2791727668e+01    0.2393544    0.1667183  59.03  0.000811157    1.603    0.376
       340 -10.4060     60.1272    125.3939   1.0268113632e+02   4.3153175467e+01    0.7035634    0.4176493  76.52  0.002409258    2.793    0.642
       341 -10.7317     44.9973    123.7834   1.0700411146e+02   4.5266304168e+01     1.091586    0.5672336  76.96  0.003909241    3.771    0.735
       342 -10.3208    118.3383    124.8576   8.5383595294e+01   3.4010835297e+01    0.7433158    0.5317658 -62.17  0.001759732    1.577    0.366
       343  -7.7341    228.4488    125.4984   6.1015908715e+01   1.1017636421e+01    0.1426372     0.125461 -34.46 0.0002475985    1.062    0.059
       344  -9.0121    178.8713    124.6222   7.0313793526e+01   2.1418099791e+01      0.29691    0.2785644  24.13  0.001206853    1.086    0.079
       345 -10.1852     28.1329    122.1462   1.1186190104e+02   4.7238513792e+01    0.6674266    0.3304587  78.40  0.002601173    3.343    0.701
       346  -8.9205    188.0696    135.2929   7.0959916583e+01   1.7352336094e+01    0.3928092    0.1922285 -39.60  0.001079965    1.951    0.487
       347  -7.8080    188.4457    124.1920   6.8181474138e+01   1.9447094803e+01    0.2141454    0.1386618 -49.09 0.0005029248    1.619    0.382
       348  -9.1005    158.6855    121.7476   7.4169318469e+01   2.6377591349e+01    0.3774157    0.2894694 -87.01   0.00114691    1.931    0.482
       349  -7.8174    203.0047    121.9850   6.4748236994e+01   1.6782255494e+01     0.189909    0.1513199 -34.66 0.0004524347    1.165    0.142
       350  -8.0462    194.9688    122.0009   6.6318214323e+01   1.8477197243e+01    0.2337774    0.1812028 -67.78 0.0005357525    1.676    0.403
       351  -8.5346    172.0345    121.5639   7.1046846850e+01   2.3515615850e+01    0.2868249    0.2078056 -53.54 0.0005746037    1.512    0.338
       352  -9.6520     71.1412    119.5264   9.8097883293e+01   4.3160762951e+01    0.5354176    0.2935666 -69.16  0.001769163    2.130    0.530
       353 -10.0883    141.4931    117.9508   7.7432256323e+01   3.0879148546e+01    0.6434177    0.3293823 -51.12  0.001795131    2.108    0.526
       354  -9.9278    130.7393    118.6162   8.0423459773e+01   3.2973788518e+01    0.5185831    0.3205015 -63.40   0.00168182    2.200    0.545
       355  -9.9277    133.3304    109.6507   7.7355606421e+01   3.4412252762e+01    0.6798012    0.3277666 -45.04  0.002010638    2.034    0.508
       356  -9.8626      3.2838    117.7220   1.1866840265e+02   5.0002249381e+01    0.4920412     0.238138  71.11   0.00222547    2.717    0.632
       357  -9.4373     16.2529    119.0058   1.1498896029e+02   4.8900456233e+01    0.3059233    0.1482531 -12.70  0.001299777    3.551    0.718
       358  -7.9996    231.5871    117.7660   5.8716670698e+01   1.1740785804e+01    0.2036591    0.1171205 -45.04 0.0005367144    1.654    0.395
       359 -10.0249    109.3614    114.3403   8.5285681936e+01   3.8150361198e+01     0.589927    0.3903981 -73.38  0.001805231    2.281    0.562
       360  -9.1896    109.8017    107.3274   8.3308712023e+01   3.9671788048e+01    0.4195554    0.1852452  30.17   0.00138855    3.004    0.667
       361  -8.8849     59.2828    115.5262   1.0097692350e+02   4.5688864083e+01    0.4134705    0.2398662 -20.86   0.00169315    2.664    0.625
       362  -8.1796    219.4735    116.5392   6.0450318726e+01   1.4365188158e+01    0.1447658    0.1306746 -33.54 8.341352e-05    1.028    0.027
       363  -8.2030    192.8972    115.3222   6.5068776625e+01   2.0191929939e+01    0.2581873    0.1926247 -48.57 0.0005004058    1.363    0.267
       364  -8.6359    185.7030    115.9657   6.6687307714e+01   2.1637796206e+01    0.2213183    0.1852665 -39.77 0.0004377354    1.146    0.128
       365  -7.9905    153.2473    115.9435   7.3970743078e+01   2.8781017537e+01    0.2051072    0.1311667 -42.90 0.0008657998    1.528    0.346
       366  -8.2888    250.0574    115.3059   5.5333987698e+01   8.6692747135e+00    0.1753338     0.169145 -13.64  0.001129267    1.150    0.130
       367 -10.1328     92.7207    112.5564   8.9797904240e+01   4.1531687541e+01    0.5700918    0.3687996 -69.87  0.001427995    2.026    0.507
       368  -9.0118     92.8392    105.1744   8.7865431049e+01   4.3239471936e+01    0.3041416    0.2187312 -21.16 0.0008477511    1.644    0.392
       369  -9.8946     79.0318    112.5684   9.4053503264e+01   4.3712098080e+01     0.580758    0.3753523 -83.33  0.001841152    2.464    0.594
       370  -8.5929     78.2893    105.3997   9.2542176964e+01   4.5533988301e+01    0.3890752    0.2622617   0.45  0.001651442    2.077    0.518
       371  -8.1115    167.2260    114.2507   7.0243759344e+01   2.6055065627e+01    0.2114977    0.1832102 -68.26 0.0006308493    1.340    0.254
       372  -9.8002    122.0125    112.7814   8.1277546060e+01   3.6050638812e+01    0.3751839    0.3168812 -72.80  0.000727115    1.409    0.290
       373 -10.0462    119.7212    106.5622   8.0244681594e+01   3.7898062532e+01    0.4830571    0.3826955 -52.87  0.001900215    1.304    0.233
       374  -8.5885     26.8177    113.5195   1.1093219737e+02   4.9454521872e+01    0.2198635    0.1495099 -50.20 0.0007668994    1.301    0.231
       375  -9.8233     14.5024    111.7451   1.1452090350e+02   5.0772515466e+01    0.3717665    0.2173196  64.14  0.001428536    2.188    0.543
       376  -8.4656    174.8137    112.0374   6.7982023534e+01   2.4811748363e+01    0.2343984    0.2054692 -65.03 0.0005013134    1.287    0.223
       377  -8.7144    159.1829    111.6962   7.1427416295e+01   2.8359407276e+01    0.2979208     0.218723 -37.10  0.000664622    1.330    0.248
       378 -10.0556     66.4492    109.9343   9.7459543553e+01   4.6133741233e+01    0.6071813     0.332771 -57.41   0.00229485    1.674    0.403
       379  -8.1627    182.6661    109.7868   6.5730716130e+01   2.3500670997e+01    0.2188565    0.1338152 -45.79 0.0005447365    1.629    0.386
       380  -9.9448    248.9549    108.1843   5.3911316320e+01   1.0022561908e+01    0.4026111    0.2727963 -47.66  0.001677313    1.398    0.285
       381 -10.9303    248.2091    102.1887   5.2677198507e+01   1.1124530273e+01    0.6857112    0.4496227 -72.23  0.003282689    2.334    0.572
       382  -9.0286     43.2508    109.5076   1.0493626828e+02   4.8953586042e+01    0.3021731    0.1427852  19.14  0.001300054    2.661    0.624
       383  -8.3609      3.7418    109.2501   1.1751280988e+02   5.1997739742e+01    0.1704354   0.09587356 -12.87 0.0008985459    2.430    0.588
       384  -8.2198    189.1985    108.1461   6.3980377449e+01   2.2359832325e+01    0.2278034     0.199914 -15.51 0.0004817416    1.167    0.143
       385  -9.2402    139.8855    104.7618   7.4297593562e+01   3.4052816407e+01    0.3306858    0.2775357 -77.59 0.0007498123    1.494    0.331
       386 -10.5355     45.7779    102.4432   1.0265601555e+02   5.0405735964e+01    0.7669682    0.4429576  71.69  0.003012392    3.341    0.701
       387  -9.2029     46.0887     92.7789   1.0038819463e+02   5.2672675258e+01    0.5341327    0.2752744  -1.66  0.002058506    3.416    0.707
       388 -10.6107     22.8586    102.6962   1.1041751544e+02   5.2377586369e+01    0.6870255    0.3800117  73.17  0.002870963    2.858    0.650
       389  -8.6998    166.6560    104.1952   6.7698556026e+01   2.8192399578e+01    0.3334316    0.2377231 -60.20 0.0007716978    1.703    0.413
       390  -9.6112    150.7087    103.2441   7.1163836311e+01   3.1978420781e+01    0.4781023    0.3193421 -65.48    0.0013204    2.136    0.532
       391  -9.1084      6.9581    103.2061   1.1569819926e+02   5.3264886056e+01    0.2955091     0.179963  60.92 0.0009145885    2.077    0.518
       392  -9.8142    128.3812    102.2143   7.6634580756e+01   3.7060022516e+01    0.3458576    0.2783621 -67.69 0.0008582566    1.517    0.341
       393 -10.5461    108.7943     98.8129   8.1252959151e+01   4.1766717324e+01    0.8719053     0.522451  64.98  0.001581402    3.004    0.667
       394  -9.0197    108.1723     92.4593   7.9604483482e+01   4.3267466704e+01    0.4983676    0.2800831  22.15  0.001840011    2.603    0.616
       395  -7.9143    175.5268    102.0222   6.5181427794e+01   2.6598659287e+01      0.23634    0.1470187 -39.61 0.0004870695    1.548    0.354
       396  -9.4074     82.0610     99.9970   8.9926599245e+01   4.6214986587e+01    0.4215823    0.2985207 -81.83 0.0009893372    2.148    0.534
       397  -8.3743    159.8217    101.1274   6.8415890865e+01   3.0349325494e+01    0.2354656    0.2074113 -63.01 0.0004434898    1.256    0.204
       398 -10.3428     63.7173     95.4505   9.4881116867e+01   4.9942403126e+01    0.8379443    0.3876739 -62.43   0.00274667    2.488    0.598
       399  -9.5177     95.2099     96.1259   8.4651591665e+01   4.4885564766e+01    0.6911946    0.2616721 -44.11  0.002001858    2.508    0.601
       400  -8.4466    130.4509     97.2744   7.4669263515e+01   3.7663868067e+01    0.3408939    0.1843046  31.91  0.001275174    2.246    0.555
       401  -8.5769    151.4857     95.3108   6.8751031760e+01   3.3395375298e+01    0.3290439    0.2157188   7.20  0.001229276    2.556    0.609
       402  -8.1390    164.8112     94.0910   6.5335032816e+01   3.0571871904e+01    0.2340929    0.2026984 -62.97 0.0004542169    1.277    0.217
       403  -9.1911    139.0800     92.2832   7.0954051489e+01   3.6794325696e+01     0.419815    0.3055884 -73.39 0.0007465659    2.022    0.505
       404 -10.3176    123.6642     91.4316   7.4820841578e+01   4.0324252717e+01    0.6085258    0.4516644  20.33   0.00169721    1.565    0.361
       405  -7.7957    188.4787     93.4928   6.0294583036e+01   2.5221369437e+01    0.1505849    0.1422447 -49.19  0.000809785    1.048    0.046
       406  -8.2363    176.4740     93.0483   6.2557533952e+01   2.8067151993e+01    0.2351779    0.1456842 -39.18 0.0005838229    1.557    0.358
       407  -9.6112      5.0184     92.1036   1.1470247657e+02   5.5984345895e+01    0.3154961    0.1800493  64.74  0.001450307    2.459    0.593
       408  -8.6713    248.5134     92.4608   5.0457846214e+01   1.2605978063e+01    0.1335969    0.1158068 -36.27 5.782456e-05    1.046    0.044
       409  -9.7156     34.7018     89.2123   1.0365341839e+02   5.4623066771e+01    0.6306261    0.2930694 -70.68  0.002628111    2.515    0.602
       410  -9.0801     22.7801     90.1292   1.0813603532e+02   5.5371220838e+01    0.2863986    0.2113334 -32.78 0.0009535025    1.334    0.250
       411  -8.4385    150.9002     89.1788   6.7129883237e+01   3.4722116326e+01    0.2337902    0.2108703 -69.74 0.0005598749    1.248    0.199
       412 -10.0782     86.3126     86.7298   8.4806049765e+01   4.8502792464e+01    0.4597733    0.3627236  85.50  0.001223689    1.937    0.484
       413  -7.3907    188.2788     87.6312   5.8772033193e+01   2.6308319255e+01    0.1562074    0.1121608 -63.82 0.0007010856    1.686    0.407
       414  -7.6705    163.7139     87.3257   6.3671327003e+01   3.2095219730e+01    0.1543385    0.1202341 -70.04  0.000290432    1.606    0.377
       415  -9.6602     48.4769     83.8879   9.7326872827e+01   5.4470917312e+01    0.5953824    0.3839028 -72.44  0.002669274    1.973    0.493
       416  -8.4891    197.2158     85.0154   5.6458818329e+01   2.4704438434e+01     0.302232     0.198551 -20.75  0.001257963    1.793    0.442
       417  -8.3931     68.3433     86.4339   9.0857091841e+01   5.1371434330e+01    0.2667955    0.1421527  25.27  0.001148112    2.161    0.537
       418  -8.7389    105.0496     77.0203   7.5809734959e+01   4.7068083976e+01    0.3016525    0.1943031 -13.76  0.001246021    2.118    0.528
       419  -9.7349    101.0883     84.8841   7.9497602093e+01   4.6237774372e+01    0.2704465    0.2102176 -37.85 0.0003363525    1.230    0.187
       420  -9.6308    104.7402     83.3622   7.7901177381e+01   4.5849386966e+01    0.4081516    0.3419362 -61.17  0.001006005    1.405    0.288
       421  -8.5698    157.9868     83.8746   6.3949856520e+01   3.4071294397e+01    0.2698662    0.2149187 -37.52  0.000423778    1.238    0.193
       422  -9.0820    140.8580     82.8178   6.7695795362e+01   3.8236453663e+01    0.3732346      0.20972 -50.60  0.000959035    2.042    0.510
       423  -8.7372    127.4042     83.5165   7.1407978042e+01   4.1110662318e+01    0.3335132    0.2139466  16.81  0.001308683    2.288    0.563
       424  -9.3132    249.8111     82.1643   4.7991089347e+01   1.3943385644e+01    0.3136627   0.06926096 -40.04  0.001033955    3.490    0.713
       425  -9.6772     24.5528     80.5009   1.0546994043e+02   5.7475189680e+01    0.4212778    0.2551099 -89.02  0.001491313    2.513    0.602
       426  -9.3947      9.7973     80.9865   1.1110307985e+02   5.8315570696e+01    0.3207188    0.1952495  61.25   0.00133607    2.428    0.588
       427  -8.4366    150.0937     80.5661   6.4787205763e+01   3.6523635404e+01    0.2934508     0.206015 -52.95  0.000701996    1.595    0.373
       428  -8.9590    119.4034     80.6227   7.2726902191e+01   4.3403137257e+01    0.3047298    0.2461508 -78.88   0.00071133    1.722    0.419
       429  -9.1259     74.4940     80.0897   8.6844851468e+01   5.1853588982e+01    0.4304086     0.224957 -57.31  0.001445742    2.264    0.558
       430  -8.3031    166.8525     79.7152   6.0824803811e+01   3.2728839040e+01    0.2501386    0.2014602 -21.57 0.0004923917    1.320    0.243
       431  -7.8925    184.3380     78.2495   5.6968013262e+01   2.8843983009e+01    0.2117285    0.1286196 -43.52 0.0006654236    1.609    0.378
       432  -9.3079    128.0467     75.4095   6.8713303751e+01   4.2515463218e+01    0.3781451    0.2358025 -49.81 0.0008619523    1.803    0.445
       433  -9.9059     63.3408     73.9054   8.8978160372e+01   5.4813220101e+01    0.5164678    0.2733659 -60.81  0.001482267    2.490    0.598
       434  -8.1175    156.9939     76.3211   6.1955247821e+01   3.5662680413e+01    0.2113292    0.1980869  58.21 0.0005198648    1.091    0.084
       435  -9.6287     82.4032     72.7453   8.1787506111e+01   5.2107262228e+01    0.4007791    0.3087086 -76.58 0.0009155155    2.037    0.509
       436  -8.4807    163.4649     73.1060   5.9617300694e+01   3.4678972767e+01    0.3236145    0.1338245 -41.46  0.001124522    2.397    0.583
       437  -8.3756    151.4218     73.2605   6.2286643898e+01   3.7516825447e+01    0.2089855    0.1404522 -45.69 0.0005209339    1.546    0.353
       438  -8.6474    115.7145     72.7579   7.1271823530e+01   4.5694598488e+01    0.2899842    0.1960133 -44.88  0.000628506    1.537    0.349
       439  -9.2193    105.8617     71.9007   7.3899821909e+01   4.7899333766e+01    0.3115323    0.2058273 -52.77 0.0006516136    1.789    0.441
       440  -8.3552     42.8406     73.1019   9.6554938805e+01   5.7493504594e+01    0.1944092    0.1760204 -68.09 0.0006075743    1.303    0.232
       441  -7.8306    175.4942     72.5426   5.7046471918e+01   3.1897905872e+01    0.1454843    0.1443772  -4.11 0.0001282671    1.029    0.028
       442  -9.3433     95.1594     71.1577   7.7008408824e+01   5.0134300912e+01    0.3414918     0.237286 -54.10 0.0007896299    1.707    0.414
       443  -9.5311     51.3507     69.5415   9.2196444036e+01   5.7299568699e+01    0.4679324    0.2842345 -69.78  0.001483502    2.579    0.612
       444  -9.0351     29.3994     70.2099   1.0109422173e+02   5.9403089555e+01    0.4157286    0.1977744 -24.30   0.00179592    2.693    0.629
       445  -9.1338     16.6256     70.0099   1.0617394134e+02   6.0394618373e+01    0.2928513    0.1942467 -81.28  0.001255224    1.870    0.465
       446  -8.4232    140.3511     75.6424   6.5633496234e+01   3.9681573756e+01     0.257845    0.2265125 -62.46 0.0006772759    1.289    0.224
       447  -8.6828    147.0329     68.1927   6.1738294476e+01   3.9425194301e+01    0.3085774    0.2066861 -42.66 0.0005930071    1.529    0.346
       448  -8.2576    129.9629     69.3595   6.6280855989e+01   4.3181946674e+01    0.2628143    0.1064313  32.83 0.0007043652    4.521    0.779
       449  -7.5309    203.4496     67.4395   5.0847500604e+01   2.6124840802e+01    0.1432629    0.1288652 -62.47 9.686578e-05    1.077    0.071
       450  -8.6504    138.5557     66.2690   6.3135731802e+01   4.1742183289e+01    0.2673259    0.1406439 -40.60 0.0006273392    1.928    0.481
       451  -8.9957    121.5906     65.9592   6.7398546433e+01   4.5653996477e+01    0.3515385    0.2387893 -53.83  0.001138732    1.805    0.446
       452  -8.6751     83.8548     65.3313   7.8815435755e+01   5.3318897120e+01    0.3754591    0.2233412  -2.80   0.00143391    2.869    0.651
       453  -8.9952    110.2602     63.9615   6.9929742834e+01   4.8452035325e+01    0.3161099    0.2487548 -52.31 0.0008654069    1.482    0.325
       454  -8.9751     64.1996     63.9239   8.5450894257e+01   5.6749542377e+01    0.4577438    0.2492318 -14.84  0.001756055    3.004    0.667
       455  -8.9060     37.3429     64.1774   9.6184981729e+01   5.9978894185e+01    0.2983698    0.2109957 -86.03  0.001071943    2.441    0.590
       456  -9.6409     97.4211     61.2538   7.2911263111e+01   5.1548809837e+01    0.4384905     0.335813 -18.35  0.001699561    1.319    0.242
       457  -7.9781    158.1424     62.1143   5.7449887788e+01   3.7765405452e+01     0.196896    0.1711169 -68.53  0.001029895    1.278    0.217
       458  -9.6920     73.2867     59.4911   8.0535719796e+01   5.6213803231e+01    0.4135685    0.2338537 -50.22  0.001128213    1.994    0.499
       459  -8.0581     88.8198     59.7902   7.5199484347e+01   5.3455100086e+01    0.1833005    0.1706973 -52.41 0.0005788632    1.298    0.229
       460  -7.8978    146.7850     59.0537   5.8937604224e+01   4.0978365835e+01    0.1980604    0.1190962 -34.13 0.0006238765    1.687    0.407
       461  -9.9595     23.5105     56.5158   9.9775361430e+01   6.2816457963e+01    0.4312738    0.2960866  85.09  0.002024316    2.797    0.642
       462  -8.5306    130.8276     57.7728   6.2274485899e+01   4.4938429062e+01    0.2586363    0.1820085 -59.41  0.000442753    1.869    0.465
       463  -9.5694      7.3880     57.1573   1.0695565096e+02   6.3729983027e+01    0.3083568    0.2137897 -85.19  0.001241529    1.916    0.478
       464  -9.4433    119.1233     55.6801   6.4598605851e+01   4.7931744353e+01    0.3990645    0.2270531 -44.64  0.001465439    1.948    0.487
       465  -8.0888    139.9101     56.1468   5.9564185055e+01   4.3069006958e+01    0.2175634    0.1949575 -61.56 0.0004433631    1.252    0.201
       466  -9.1865     54.1940     55.1566   8.6355773697e+01   5.9856668712e+01     0.292882    0.2162106 -59.29 0.0009358795    1.749    0.428
       467  -8.9662     44.0613     55.2142   9.0549941485e+01   6.1098668289e+01    0.3326826    0.1684506 -53.22  0.001560971    2.017    0.504
       468  -8.5450    105.7244     52.9934   6.7436441641e+01   5.1268507196e+01    0.2523111    0.1932065 -48.15 0.0007920473    1.517    0.341
       469  -9.5460     92.3939     50.6758   7.0715960053e+01   5.4349968147e+01    0.3881418     0.250793 -46.86 0.0009383074    1.808    0.447
       470  -8.3779     74.5381     51.9793   7.7354514521e+01   5.7377128964e+01    0.2776196    0.1544428   5.07  0.001015834    3.305    0.697
       471  -8.1687    158.4795     49.4953   5.3536513972e+01   3.9584389723e+01     0.142475    0.1380252  59.18 0.0008103176    1.002    0.002
       472  -8.6904    144.8526     49.1062   5.6187814491e+01   4.2943230704e+01    0.2180953    0.1942747 -62.41 0.0004384972    1.246    0.198
       473  -8.5469    129.9436     49.3047   5.9651303472e+01   4.6448976351e+01     0.205034    0.1830036  41.89  0.000431353    1.067    0.063
       474  -8.9090    120.9703     47.5006   6.1270157807e+01   4.8780002797e+01    0.2492294    0.1939566  -7.27 0.0004749776    1.395    0.283
       475  -8.5160    112.1783     46.8103   6.3369270123e+01   5.0845484355e+01    0.2414804    0.1862904 -40.38 0.0006852336    1.405    0.288
       476  -9.1490     82.1526     46.6413   7.2624884029e+01   5.6945564995e+01    0.2628904    0.2323106 -35.40 0.0005770765    1.262    0.208
       477  -8.5194     45.0105     44.7597   8.6414370146e+01   6.2975903242e+01    0.2267483      0.16098 -37.76 0.0005667355    1.265    0.209
       478  -9.2189     16.4494     44.4432   9.9290469617e+01   6.5795530280e+01    0.2560805     0.187982 -65.39 0.0009351202    1.630    0.386
       479  -8.9821    133.0258     43.7102   5.7029142548e+01   4.6527858208e+01    0.2757134    0.2236432 -56.41 0.0008072664    1.449    0.310
       480  -8.6779     92.6576     43.3101   6.7854701627e+01   5.5463851066e+01    0.2964793    0.1861904   8.72   0.00132391    2.102    0.524
       481  -9.0609     58.2732     42.7084   8.0057800160e+01   6.1550438910e+01    0.2993429    0.2163658 -56.73  0.001141189    2.005    0.501
       482  -9.8446      5.1681     42.0689   1.0392457439e+02   6.6963946607e+01    0.3389571    0.1944899 -71.63  0.001554648    2.206    0.547
       483  -9.2916     69.5232     41.5457   7.5194783789e+01   5.9979030879e+01    0.3348373    0.2349643 -52.06   0.00106081    1.940    0.484
       484  -8.6508    105.9191     41.3444   6.3118196350e+01   5.3004910063e+01     0.221852    0.1896959 -35.73 0.0004748441    1.275    0.216
       485  -7.6253    140.4489     41.5137   5.4653453388e+01   4.5058887343e+01    0.1402001    0.1351642  55.05 0.0001299295    1.047    0.045
       486  -8.6605     36.8095     40.8964   8.8589015210e+01   6.4631994055e+01     0.212389    0.1667841 -55.13 0.0006498875    1.609    0.378
       487  -7.4937    160.3404     39.6594   5.0182607551e+01   4.0467264394e+01    0.1499783     0.105025 -68.57 0.0007049591    1.770    0.435
       488  -8.7392     95.5025     38.0228   6.4925707034e+01   5.5665348886e+01    0.2277449    0.1962132  65.13  0.000618469    1.461    0.315
       489  -8.0437     80.7022     36.5817   6.9160946631e+01   5.8770043033e+01    0.2131795    0.1609031 -48.20 0.0007314406    1.709    0.415
       490  -9.4384     26.1835     35.4846   9.1501583917e+01   6.6694841462e+01    0.3080674    0.2159304 -56.81   0.00109597    1.770    0.435
       491  -7.6436    133.4776     36.4527   5.4461510090e+01   4.7387741160e+01    0.1408644    0.1303753  41.23 0.0001783623    1.004    0.004
       492  -8.1353    126.0580     35.8234   5.5918974849e+01   4.9217373606e+01    0.1990946    0.1864633  88.67 0.0003943999    1.219    0.180
       493  -8.5364    111.8951     34.6374   5.8987314037e+01   5.2608332548e+01    0.2633822    0.1732008 -47.32 0.0007888456    1.874    0.466
       494  -7.7952     88.5350     34.4899   6.5713506911e+01   5.7562957534e+01    0.1368197    0.1212006  12.18 0.0005085456    1.031    0.030
       495  -8.9892     48.4990     33.2594   8.0310943987e+01   6.4504492129e+01     0.235089     0.207977 -42.76 0.0007689677    1.482    0.325
       496  -8.4220    119.2077     33.1824   5.6606897881e+01   5.1138306946e+01    0.1844204    0.1637564 -60.80 0.0004828333    1.361    0.265
       497  -9.0586     60.7525     32.3666   7.4815890665e+01   6.2837668198e+01    0.3179086    0.1731607 -42.02 0.0008087042    2.013    0.503
       498  -8.7185     72.2170     31.3851   7.0017551780e+01   6.1059348830e+01    0.2149698    0.2023376  84.14 0.0006325231    1.593    0.372
       499  -9.2561    242.8450    246.4706   8.2397006816e+01  -9.8156519027e+00    0.4281296    0.1851848 -20.80  0.002124105    2.623    0.619
       500  -7.9332     42.3035     29.6901   8.1544920480e+01   6.5896549763e+01    0.1057629    0.1026399 -55.40 0.0002736276    1.608    0.378
       501  -8.9282     81.5072     27.3391   6.5069795638e+01   5.9890898669e+01    0.2776468    0.2003744 -51.80 0.0008147947    2.017    0.504
       502  -8.9448      3.4948     27.3532   1.0002433027e+02   6.9881455869e+01    0.2427343    0.1728655 -66.34  0.001066815    1.814    0.449
       503  -8.8007    128.9552     26.0837   5.1856269959e+01   4.9706514272e+01    0.2496695     0.210909 -78.29 0.0009403211    1.431    0.301
       504  -8.9962     91.8060     26.4828   6.1452732637e+01   5.7948519654e+01    0.2845189    0.1817687 -37.04 0.0009635121    1.745    0.427
       505  -8.6357    104.4784     23.1213   5.6541587838e+01   5.5644413302e+01    0.2083752    0.1852067  74.84 0.0006153828    1.360    0.265
       506  -7.8631     34.9749     23.4754   8.2234029489e+01   6.7779856687e+01    0.1514612    0.1030758  49.56 0.0008101353    2.583    0.613
       507  -8.8795     63.7257     21.3152   6.8783346943e+01   6.3895119873e+01     0.264101    0.1864077 -39.48 0.0008969082    1.710    0.415
       508  -8.9870     48.3457     21.9124   7.5368114618e+01   6.6243254670e+01    0.2077285    0.1843311   0.95 0.0005994895    1.243    0.195
       509  -8.2225     19.5905     21.7464   8.9227425602e+01   6.9677163621e+01    0.1498963     0.100782 -45.94 0.0004749524    1.567    0.362
       510  -7.8109    120.5414     21.4687   5.2036838546e+01   5.2185912257e+01    0.1345474    0.1229605  44.19 0.0001611064    1.043    0.041
       511  -9.0949     73.9819     19.4672   6.4216328832e+01   6.2291008629e+01    0.2614906    0.2042619 -47.89 0.0008712184    1.796    0.443
       512  -8.7821    101.6932     29.3864   5.9744373431e+01   5.5510365347e+01    0.2297767    0.1617635 -38.26 0.0007121047    1.596    0.373
       513  -8.4968     88.0080     17.7966   5.8980373291e+01   5.9731982097e+01    0.1819991    0.1752589  55.88 0.0005962292    1.297    0.229
       514  -8.2823     38.8464     18.1002   7.7895105555e+01   6.8092583711e+01    0.2313503    0.1258986 -32.40 0.0009456337    1.669    0.401
       515  -7.6630    112.7741     16.9625   5.2124190438e+01   5.4439235181e+01    0.1586715    0.1097405 -17.62 0.0002952841    1.561    0.359
       516  -7.9225    234.3097     16.2866   3.4952713827e+01   2.5934797212e+01    0.1098158   0.09126887  43.37 0.0002242822    1.574    0.365
       517  -8.0896     30.1434     16.1835   8.1221324370e+01   6.9445808508e+01    0.1491862    0.1305565 -15.16 0.0006008293    1.337    0.252
       518  -8.2511     96.9429     15.1382   5.5346768095e+01   5.8132780994e+01    0.1826655    0.1808458 -36.40  0.000653427    1.254    0.203
       519  -7.7918      7.4055     15.7130   9.3273384602e+01   7.1668438274e+01   0.09670124   0.08756183  39.57 0.0006987422    1.801    0.445
       520  -8.0814     17.2091     14.2200   8.7099799120e+01   7.1097141096e+01    0.1426294    0.1238327 -18.50 0.0004975078    1.344    0.256
       521  -7.9857     83.5196     11.4944   5.7609341569e+01   6.1299439993e+01    0.1287801    0.1105786  25.15 0.0001141623    1.050    0.048
       522  -8.4608    218.5746    247.6170   8.6923749849e+01  -6.7843363094e+00    0.2841175    0.1081332 -36.84  0.001372237    2.827    0.646
       523  -8.8483    175.7179    247.8634   9.5076781688e+01  -7.0710482461e-01    0.2719047     0.220857  80.31  0.001183251    2.125    0.529
       524  -9.1278    147.4874    246.6980   1.0047041565e+02   3.6874109820e+00    0.3512012    0.2154531  66.71  0.001672594    2.920    0.658
       525  -8.8256    132.3870    248.2529   1.0366137210e+02   5.6835859574e+00    0.2914868     0.165308  54.88 0.0007185471    1.988    0.497
       526  -8.3312    113.0463    248.7959   1.0754042030e+02   8.4099423186e+00    0.1976155    0.1469038  88.35 0.0009859286    1.678    0.404
       527  -9.4903    103.5786    246.4788   1.0915234259e+02   1.0157375522e+01    0.4703199    0.2612914 -89.46    0.0022366    3.074    0.675
       528  -8.7499    232.5314    247.4617   8.4376237787e+01  -8.6186442274e+00    0.1938768    0.1693912   8.58 0.0006389547    1.374    0.272
       529  -9.9519    223.9594    244.4092   8.5429084407e+01  -7.1006442595e+00     0.433808    0.2194047 -42.16  0.002300019    2.503    0.601
       530  -8.9984    156.2506    247.4137   9.8830867825e+01   2.2613479114e+00    0.3029133    0.1907238 -30.42  0.001428634    2.002    0.501
