#   1 NUMBER                 Running object number                                     
#   2 MAG_AUTO               Kron-like elliptical aperture magnitude                    [mag]
#   3 X_IMAGE                Object position along x                                    [pixel]
#   4 Y_IMAGE                Object position along y                                    [pixel]
#   5 X_WORLD                Barycenter position along world x axis                     [deg]
#   6 Y_WORLD                Barycenter position along world y axis                     [deg]
#   7 A_WORLD                Profile RMS along major axis (world units)                 [deg]
#   8 B_WORLD                Profile RMS along minor axis (world units)                 [deg]
#   9 THETA_WORLD            Position angle (CCW/world-x)                               [deg]
#  10 FWHM_WORLD             FWHM assuming a gaussian core                              [deg]
#  11 ELONGATION             A_IMAGE/B_IMAGE                                           
#  12 ELLIPTICITY            1 - B_IMAGE/A_IMAGE                                       
         1 -14.2394    167.8576     49.3508   7.1374394563e+01   3.7033381111e+01     1.981812     1.183403  25.46  0.006119573    2.275    0.561
         2 -14.0953    181.7701     34.5800   6.4017892765e+01   3.5459202528e+01     1.047554    0.9596253  -2.23  0.003538307    1.105    0.095
         3 -13.3691    186.1548     27.9579   6.1156554708e+01   3.5119057066e+01    0.5828454    0.5628504  70.04  0.001226929    1.049    0.047
         4 -12.6272    189.6867     14.9045   5.6391955890e+01   3.5643055843e+01    0.3309574    0.3034673   6.20 0.0009439876    1.130    0.115
         5 -11.7431     82.4465     11.4596   7.7854153696e+01   6.2108266926e+01    0.5348338    0.2446298  60.42  0.002083641    3.436    0.709
         6 -13.8253    203.0054      3.9403   5.1314246442e+01   3.3173878256e+01     1.026119    0.5982802  62.94  0.004373162    1.634    0.388
         7 -12.3360     66.8313      7.8756   8.1536869643e+01   6.5399090103e+01    0.4877437    0.2190262  51.79  0.001743071    2.844    0.648
         8 -12.5709     57.4675      6.1103   8.4256291764e+01   6.7160448096e+01    0.4285023     0.227128  44.87  0.001500984    2.177    0.541
         9 -11.5171      5.9890    206.7557   1.3447856319e+02   3.2730903933e+01    0.1756217   0.09372309  56.64 0.0008491096    1.355    0.262
        10 -18.6214     48.8672    242.9850   1.2953974388e+02   2.2894580130e+01     5.763454     4.594929  61.35    0.0537205    1.295    0.228
        11 -12.0844     99.3942    180.8607   1.1596122983e+02   2.6416984600e+01    0.2447256    0.2372837  54.92 0.0005556201    1.320    0.242
        12 -10.8362    158.3504    204.2413   1.0803460898e+02   1.3398579857e+01    0.3002928    0.1582886  66.19  0.001326958    3.429    0.708
        13 -11.1039    208.5179    178.4960   9.5259197963e+01   8.1367250261e+00    0.3304576    0.2030663  17.40  0.001736099    1.954    0.488
        14 -12.1565    140.0774    200.3864   1.1077165177e+02   1.6923522257e+01    0.2430814     0.193294  32.26  0.001664303    1.338    0.252
        15 -11.6877    195.8635    169.9075   9.5954073032e+01   1.1589855510e+01    0.3937716    0.2879851 -30.34  0.002039023    1.538    0.350
        16 -10.8706    193.3382    164.6402   9.5448861237e+01   1.2803558833e+01    0.3200072    0.2820759  31.57  0.001643192    1.027    0.027
        17 -10.0144     17.4194    200.8955   1.3239143023e+02   3.2669804573e+01    0.1208415    0.0882557  54.39 0.0001352166    1.290    0.225
        18 -10.4790      2.4000    162.6059   1.3318458117e+02   4.0776950259e+01    0.1501889    0.1056413  39.64 0.0006438568    1.621    0.383
        19  -9.5165      9.6083    160.8067   1.3171728074e+02   4.0538497786e+01   0.07865595   0.07562124 -55.10 0.0006746553    1.598    0.374
        20 -10.7320    120.1434    156.7590   1.0848112903e+02   2.7522051385e+01     0.288709    0.1677269 -64.45   0.00147483    1.978    0.495
        21 -12.4208    193.4600    192.5260   1.0020013129e+02   9.0128251276e+00    0.6159644    0.3926353 -46.78   0.00312666    2.052    0.513
        22 -11.1347    165.5953    154.1732   9.8758313329e+01   1.9721395967e+01    0.3128522    0.2055189  71.27  0.001479573    2.231    0.552
        23 -10.8909     11.4041    153.5182   1.3092991603e+02   4.1788003574e+01    0.2114061    0.1131879  49.82  0.001438223    1.671    0.402
        24 -12.7278    134.0829    145.6268   1.0365390497e+02   2.7146013023e+01     1.010496    0.2771752 -55.10  0.003034113    5.225    0.809
        25 -10.5898    174.8462    149.1329   9.5980479654e+01   1.8740212249e+01    0.2053053    0.1823817  69.14 0.0006170577    1.260    0.206
        26 -10.0592    163.3279    204.0268   1.0713582616e+02   1.2608597584e+01     0.151141    0.1371291  47.77 0.0004189631    1.140    0.123
        27 -12.4398    144.7289    145.7454   1.0142545222e+02   2.5152032320e+01    0.4369577    0.2967224 -81.14  0.002093251    2.232    0.552
        28 -12.4936     99.8478    139.6017   1.1015386863e+02   3.4159400206e+01    0.2505111    0.2311653  65.75 0.0005125222    1.097    0.089
        29 -10.2172     86.8903    136.0775   1.1255873222e+02   3.6849315203e+01    0.1975019    0.1502751  73.87 0.0004728525    1.285    0.222
        30 -11.8532    105.8235    130.8427   1.0728109491e+02   3.4963948004e+01     0.336585    0.2783155 -80.91  0.001317995    1.203    0.169
        31 -11.3122    105.1480    126.2817   1.0660358769e+02   3.6007046159e+01     0.279578     0.224169 -43.94  0.001138313    1.395    0.283
        32 -12.4689    117.9590    129.8872   1.0429731848e+02   3.3076295886e+01    0.4539835    0.3030514  37.62  0.001696821    1.589    0.370
        33 -11.3150    161.1739    128.2189   9.4427363975e+01   2.5049147396e+01    0.3604319    0.2491803 -66.01  0.001708454    1.966    0.491
        34 -12.3848    135.6410    124.9729   9.9283206359e+01   3.0765342297e+01    0.8232268    0.1647102 -50.10  0.002124439    5.986    0.833
        35 -11.7622    121.3624    123.7466   1.0229928881e+02   3.3689916690e+01    0.3798336    0.2329228 -26.80  0.001605411    2.752    0.637
        36 -10.3959    127.3067    123.3083   1.0083285400e+02   3.2677234874e+01    0.1328686    0.1108658  -1.03 0.0002888355    1.612    0.380
        37 -10.7607    111.9338    119.1638   1.0359670240e+02   3.6305405236e+01     0.220982    0.1914319 -60.57 0.0004154989    1.141    0.124
        38 -11.7969     12.4804    115.8073   1.2784213039e+02   4.9342884118e+01    0.1798445    0.1514247  52.28  0.001403355    1.352    0.260
        39 -11.0976    167.9302    112.9051   8.9500722918e+01   2.6328606858e+01    0.3850352    0.2930376 -82.29  0.001704126    1.872    0.466
        40 -19.0762     31.0841    104.6098   1.2186696185e+02   5.0226137034e+01     15.08834     0.651167 -68.96   0.02493874   18.811    0.947
        41 -10.5366    205.4893    110.1740   8.1508213547e+01   1.8433805475e+01    0.3217247    0.1970174  41.48  0.001007128    1.590    0.371
        42 -13.0412     61.7214    108.8729   1.1437053228e+02   4.6045367858e+01    0.3503621    0.3389878  64.31  0.002452341    1.214    0.176
        43 -12.4281     66.9927    104.3660   1.1217589750e+02   4.6362111546e+01    0.3330592    0.2582394  12.13  0.001944882    1.844    0.458
        44 -10.1378    152.1194    102.7052   9.0405704450e+01   3.1621901850e+01    0.2007053    0.1818194  44.64 0.0003665498    1.086    0.079
        45  -9.9151     64.5030     98.4743   1.1175581491e+02   4.7970460706e+01    0.1282928    0.1107247 -79.01 -2.76172e-05    1.037    0.036
        46  -9.7285    127.3093     94.6562   9.4183596433e+01   3.8381785834e+01    0.1483694     0.113541 -84.12 0.0004896084    1.698    0.411
        47  -9.5318      2.0275     91.7905   1.2823445786e+02   5.5130984203e+01    0.1149138   0.08825552  30.54 0.0005499666    1.666    0.400
        48 -11.1957    176.3466     74.5194   7.7498678407e+01   3.0963302879e+01    0.3106343    0.2597531 -79.31 0.0008050075    1.469    0.319
        49  -9.8487     78.6835     75.0226   1.0233987886e+02   5.1101134194e+01    0.1841057    0.1585976 -55.28 0.0004321004    1.045    0.043
        50 -10.4256     13.6501     60.0290   1.2028433793e+02   6.1283534146e+01     0.168429    0.1415943  87.57 0.0004759982    1.238    0.192
        51  -9.6138    169.3132    237.2938   1.1027075692e+02   7.5147786755e+00    0.1037403   0.06925695  26.56 0.0002562245    1.595    0.373
        52 -10.3372    198.8052    222.8139   1.0374642443e+02   4.5624009802e+00    0.1655657    0.1192145  32.01 0.0005050832    1.112    0.101
        53 -11.8169     97.4555    213.2137   1.1968032470e+02   2.1342007559e+01    0.2820994    0.1645001  42.19  0.001733985    1.510    0.338
        54 -10.4924    209.0838    198.0840   9.8431849479e+01   5.6600384038e+00    0.1695006    0.1401484  67.51  0.001050646    1.706    0.414
        55 -10.7371    153.8231    195.7135   1.0768304932e+02   1.5360730842e+01    0.2054742    0.1478938  83.41   0.00103461    1.967    0.492
        56 -10.7960    167.1199    188.0950   1.0417678602e+02   1.4200089153e+01    0.2272848     0.178428 -53.56  0.001278342    1.573    0.364
        57 -13.5581     11.5682    206.4787   1.3358345611e+02   3.2279864914e+01    0.3497842    0.2026543  47.81  0.002067137    1.476    0.323
