#   1 NUMBER                 Running object number                                     
#   2 MAG_AUTO               Kron-like elliptical aperture magnitude                    [mag]
#   3 X_IMAGE                Object position along x                                    [pixel]
#   4 Y_IMAGE                Object position along y                                    [pixel]
#   5 X_WORLD                Barycenter position along world x axis                     [deg]
#   6 Y_WORLD                Barycenter position along world y axis                     [deg]
#   7 A_WORLD                Profile RMS along major axis (world units)                 [deg]
#   8 B_WORLD                Profile RMS along minor axis (world units)                 [deg]
#   9 THETA_WORLD            Position angle (CCW/world-x)                               [deg]
#  10 FWHM_WORLD             FWHM assuming a gaussian core                              [deg]
#  11 ELONGATION             A_IMAGE/B_IMAGE                                           
#  12 ELLIPTICITY            1 - B_IMAGE/A_IMAGE                                       
         1 -15.8989    241.2038    115.0869   4.2510650699e+01   1.2291138225e+01      9.14013     1.971281 -36.49   0.02924164    4.234    0.764
         2 -14.0823    154.9621      4.6094   2.6336771085e+01   4.5261351591e+01     2.996208    0.4762297  71.33  0.009096671    5.079    0.803
         3 -11.2216    223.6850    221.2133   6.5334623827e+01  -2.1787354823e+00    0.2862553    0.2403254  82.43  0.001650971    3.100    0.677
         4 -14.3819    227.1874    183.4250   5.8089618478e+01   3.2047579612e+00     2.200423    0.8690277 -45.00  0.009710073    2.559    0.609
         5 -14.0523    243.1247    183.6933   5.5565808306e+01   1.1171476928e+00     2.056128    0.9566306 -39.90   0.01081264    1.831    0.454
         6  -9.1985    218.2559    225.4352   6.6982326322e+01  -2.1652183203e+00    0.1462748    0.1030663  30.18 0.0005358276    1.570    0.363
         7 -10.9733    211.0250    218.2473   6.7091182251e+01  -2.2618313098e-01    0.2671973    0.2362517 -67.60  0.001453147    2.006    0.501
         8  -9.1632    194.8578    220.8004   7.0537392911e+01   1.4029469465e+00    0.1563793    0.1455705  12.84  0.001071215    1.357    0.263
         9 -10.5920    234.1397    216.6406   6.2790329026e+01  -2.7124006345e+00    0.1896247    0.1388707 -31.55 0.0008173158    1.327    0.247
        10 -10.5934    138.9636    206.4802   7.9947263263e+01   1.1802102524e+01    0.2681032     0.180336 -31.70  0.001033462    1.596    0.374
        11 -10.5017    129.1250    203.1319   8.1695713270e+01   1.3953296620e+01    0.2682259    0.1880706 -23.82  0.001349997    1.654    0.395
        12  -8.9332    114.3267    206.3252   8.5707674199e+01   1.5468792231e+01    0.1422146    0.1036547 -14.06 0.0004385769    1.695    0.410
        13  -8.7501    204.6740    217.3270   6.8105063352e+01   7.0632843799e-01    0.1051409    0.1017502  71.22 0.0007049893    1.698    0.411
        14 -10.8876    149.2148    204.5165   7.7305559738e+01   1.0665316043e+01    0.2527213    0.1896086 -42.47  0.001339352    1.363    0.266
        15  -8.9891    213.2739    204.3427   6.4298055740e+01   1.6674726873e+00    0.1297869   0.08095522 -13.07 0.0003626659    1.618    0.382
        16 -10.2669    175.3065    203.8351   7.1563759828e+01   6.9563683608e+00    0.1960806     0.166546 -47.57 0.0008842672    1.387    0.279
        17  -9.7991    109.7741    204.0411   8.6471649300e+01   1.6622683962e+01    0.2334798    0.1497361 -27.95  0.001082732    2.004    0.501
        18 -10.4031     97.8378    203.8705   8.9374533863e+01   1.8373720734e+01    0.2197077    0.1906191 -11.29  0.001255783    1.285    0.222
        19  -9.2228    179.6093    216.8466   7.2887587734e+01   4.0675673996e+00      0.16913     0.119208 -49.94 0.0009484075    1.715    0.417
        20 -10.8843    134.1030    201.8975   8.0329874758e+01   1.3460554089e+01    0.2806218    0.1860885 -54.08  0.001412231    1.643    0.391
        21  -9.2765    143.4860    216.5256   8.0508385062e+01   9.1818072713e+00    0.2210716    0.1335675 -63.67  0.001034638    2.374    0.579
        22  -9.3218    193.2909    201.9834   6.7625865488e+01   4.7345104306e+00    0.1897363    0.1471206 -24.59 0.0009873097    1.145    0.126
        23 -10.0988    160.6055    202.2429   7.4407679759e+01   9.4074338281e+00    0.1930425    0.1174762 -34.35 0.0008592082    1.656    0.396
        24  -9.2080     82.3348    202.3444   9.3035436404e+01   2.0860245082e+01    0.1419569    0.1039158 -23.48  0.000704982    1.766    0.434
        25 -10.6150    210.3318    200.2477   6.4106524571e+01   2.7122339360e+00    0.3456382    0.1498068 -42.75  0.001300984    2.210    0.548
        26  -9.5072    209.4753    195.0328   6.3324754188e+01   3.6852378413e+00    0.2507822     0.105697 -35.92  0.001056477    2.133    0.531
        27 -10.4360    105.8383    200.2596   8.6879859939e+01   1.8025601607e+01    0.2793438     0.167449 -32.01  0.001237313    2.153    0.536
        28  -9.4180    186.4764    200.0281   6.8621490080e+01   6.0344218291e+00    0.1979029    0.1194385 -39.63 0.0009881938    1.576    0.365
        29 -10.2600    220.0338    215.9496   6.5092617799e+01  -9.7006259480e-01     0.190291    0.1469865 -10.62 0.0006385485    1.005    0.005
        30  -9.3885    180.4864    198.9925   6.9645967718e+01   7.0822528391e+00    0.1997795    0.1214655 -39.38  0.000532606    1.569    0.362
        31 -10.8521    124.1988    198.4498   8.2119022927e+01   1.5683504646e+01    0.2617174    0.1962185 -49.82  0.001158693    1.389    0.280
        32  -9.6964    201.9303    197.4784   6.5166249779e+01   4.3068879310e+00    0.2301608    0.1767875 -50.05   0.00135198    1.622    0.383
        33  -9.0911    162.2972    198.3409   7.3361931008e+01   9.9005806669e+00    0.1429537   0.09793661 -12.13 0.0007033204    1.663    0.399
        34 -11.0592    138.9213    196.9195   7.8379754829e+01   1.3754301380e+01     0.353027    0.1796999 -39.62  0.001527326    2.083    0.520
        35  -9.3028    114.3058    198.3447   8.4504773528e+01   1.7196496214e+01    0.1454118    0.1056283 -17.97 0.0006727736    1.692    0.409
        36 -11.7965    215.5031    196.3208   6.2470709859e+01   2.6674040897e+00    0.2765007    0.2076786 -44.32  0.001075171    1.516    0.341
        37 -10.6181    214.3236    192.0616   6.1907980571e+01   3.5207418094e+00    0.2316613    0.1604273   6.83 0.0007869504    1.486    0.327
        38  -8.8166    167.2931    197.3345   7.2107591338e+01   9.3406621199e+00    0.1416225   0.09697916 -11.90 0.0007025081    1.639    0.390
        39 -11.3277    144.5500    196.0411   7.6927495625e+01   1.3067333372e+01     0.315855     0.217399 -15.25  0.001381617    1.739    0.425
        40  -9.2381    156.5031    196.5098   7.4311204772e+01   1.1136122226e+01    0.1387122    0.1241397  -2.54 2.593873e-05    1.006    0.006
        41  -9.6988    129.0482    195.4427   8.0463708667e+01   1.5584962585e+01      0.29383    0.1559991 -22.41  0.001029173    3.450    0.710
        42  -9.8955    185.6591    194.1697   6.7729465925e+01   7.1979350863e+00    0.2974089    0.1452824 -39.70  0.001374191    1.916    0.478
        43  -8.9917    162.4725    193.5164   7.2466468579e+01   1.0806709377e+01    0.1399338    0.1223055  -6.40 0.0001349238    1.041    0.039
        44 -10.4532    124.8956    192.8280   8.1030207833e+01   1.6789216375e+01     0.228842    0.1879726  -7.42  0.001229849    1.318    0.242
        45 -10.7760    115.0115    192.7317   8.3443259566e+01   1.8329821142e+01    0.2693563     0.190349 -28.37  0.001317042    1.648    0.393
        46  -9.2064    198.9655    192.0134   6.4732454368e+01   5.6577192526e+00    0.1616697    0.1343563 -15.43 0.0006825128    1.014    0.014
        47 -10.2708    206.0051    190.8320   6.3193991822e+01   4.8682866338e+00    0.2302655    0.1675031 -31.82  0.001005495    1.215    0.177
        48  -9.1910    195.5158    195.9240   6.6108287050e+01   5.4686639791e+00    0.1960803    0.1171003 -39.72  0.001023153    1.569    0.363
        49  -9.6300    110.4717    191.4782   8.4376236182e+01   1.9301426871e+01    0.1411369    0.1346091   9.49 0.0001026613    1.031    0.030
        50 -11.0107    102.9186    190.7402   8.6172256736e+01   2.0605779396e+01    0.3224284    0.2043933 -29.00  0.001434729    2.055    0.513
        51 -10.2820    194.3604    189.7816   6.5205110315e+01   6.7114114638e+00     0.237788     0.110802 -41.63  0.001080347    1.993    0.498
        52  -9.4502    171.2997    190.3309   6.9988272312e+01   1.0064895016e+01    0.1431922   0.09826434 -11.47 0.0007031566    1.646    0.392
        53 -10.6306    138.1234    190.1325   7.7397168262e+01   1.5298096663e+01    0.2234747    0.1858307  -9.01 0.0006641931    1.244    0.196
        54  -9.9169    130.4114    189.7862   7.9178408219e+01   1.6587794158e+01    0.2036554    0.1270051 -39.09 0.0009447774    1.675    0.403
        55 -10.6730    156.3576    187.3215   7.2692095492e+01   1.2989703126e+01    0.4860927    0.2165106 -27.34  0.001541676    4.082    0.755
        56 -12.1409    218.2368    209.4101   6.4293755178e+01   2.4509029536e-01    0.4937028    0.2119127 -40.45  0.002202301    2.153    0.535
        57 -10.1134    170.1028    213.3046   7.4252704188e+01   5.9960531699e+00    0.2329261    0.1656768 -26.26  0.001256756    1.363    0.266
        58 -11.0786    120.5510    187.4774   8.1198065388e+01   1.8644658553e+01    0.3049459    0.2517568 -15.02  0.001224278    1.322    0.244
        59  -9.3561    166.3824    186.8115   7.0390187322e+01   1.1508750989e+01    0.2018478    0.1185157 -33.87 0.0009416463    1.703    0.413
        60  -9.7898     86.0000    186.9554   8.9992776303e+01   2.3958547488e+01    0.2342237   0.08067427 -61.17 0.0008064401    2.970    0.663
        61  -9.1730    183.3557    185.8572   6.6653817738e+01   9.0625458184e+00    0.2006511    0.1115858 -32.81 0.0009413972    1.743    0.426
        62 -10.2882    151.2770    185.8862   7.3577183483e+01   1.4091800539e+01    0.2690322     0.177801   0.62  0.001219178    1.992    0.498
        63 -10.8493    142.3844    184.9647   7.5469155965e+01   1.5712666046e+01    0.3155811    0.2001494 -30.23  0.001162844    1.753    0.430
        64  -9.1285    177.4255    184.2314   6.7563760950e+01   1.0280600810e+01    0.2621392    0.1208098 -39.30  0.001100707    2.060    0.515
        65  -9.5940    129.2352    185.5815   7.8731316620e+01   1.7689932041e+01    0.2031741    0.1349968  20.07 0.0009464284    1.636    0.389
        66 -11.9273     96.6543    182.6981   8.6534084176e+01   2.3422455115e+01    0.4881382     0.291581 -38.19  0.002144137    1.957    0.489
        67 -10.5665    204.3309    181.0492   6.1670445893e+01   6.7936559689e+00    0.2924785    0.1427104 -42.89  0.001057053    1.908    0.476
        68  -8.6670    188.4889    184.4592   6.5359659688e+01   8.5410002589e+00    0.1374827    0.1160107 -12.69 0.0001983935    1.041    0.039
        69 -10.1344    198.6146    182.2240   6.2967085427e+01   7.4278968800e+00    0.2471932    0.1161431 -43.94    0.0011138    2.026    0.506
        70 -10.2913     74.7562    182.9974   9.2427839002e+01   2.6475848674e+01    0.1894427    0.1186486 -64.57 0.0008859332    1.605    0.377
        71 -10.7100    134.3970    182.7669   7.6974583972e+01   1.7475297663e+01    0.2907896    0.2055773 -20.73  0.001031008    1.667    0.400
        72 -11.8677    110.6766    181.5638   8.2691188517e+01   2.1539328816e+01    0.5840548    0.2719518  24.89  0.002190198    2.534    0.605
        73 -10.8002     89.8286    181.2929   8.8125702402e+01   2.4768619592e+01    0.2888732     0.172863 -35.39  0.001236052    2.089    0.521
        74 -11.5513    122.5063    180.3674   7.9473226166e+01   1.9931294803e+01    0.4116436    0.2927718   4.10  0.001702996    1.759    0.431
        75  -9.6596    163.2953    177.6746   6.9329593118e+01   1.3820776187e+01    0.4062655    0.2311919 -10.90  0.001480309    3.231    0.691
        76  -8.7009    175.3019    179.3168   6.7067107683e+01   1.1557149521e+01    0.1436914    0.1005373 -10.80 0.0006312736    1.619    0.383
        77  -8.8603    189.6585    177.2713   6.3748564800e+01   9.6851513865e+00    0.1219216    0.1105414  82.42 0.0006991967    1.610    0.379
        78  -9.2434    170.6117    176.2061   6.7456042352e+01   1.2920620331e+01     0.203475    0.1209911 -33.87 0.0009425418    1.654    0.395
        79  -9.6538    200.5767    176.4202   6.1480910188e+01   8.1690233433e+00    0.2496789    0.1070522 -32.42  0.001020558    2.380    0.580
        80 -12.0654    212.4881    163.7326   5.6822293407e+01   8.6084602213e+00    0.5639355    0.2682571 -32.49   0.00256445    1.967    0.492
        81  -9.5519    154.4724    213.9849   7.7693386838e+01   8.0887488294e+00    0.1936771    0.1273164 -44.32  0.001028058    1.580    0.367
        82 -10.5039     90.5202    173.9977   8.6777213369e+01   2.6442005058e+01    0.2306293    0.1425112 -58.63  0.001040599    1.617    0.382
        83  -8.6418    153.4751    173.5002   7.0722668690e+01   1.6308275486e+01    0.1473224    0.1312995 -11.85 0.0008091842    1.070    0.066
        84  -9.6119    129.9564    173.4929   7.6347622653e+01   2.0259893087e+01    0.2268452     0.143351  31.70  0.001029175    1.591    0.371
        85 -10.9311    107.0014    172.5469   8.2084699205e+01   2.4241819539e+01     0.301057    0.1966143 -38.85  0.001366371    1.657    0.397
        86 -10.6503     77.2013    172.7938   9.0266328745e+01   2.8670055772e+01    0.2083297    0.1721227 -30.26  0.001084031    1.370    0.270
        87  -8.9091    159.0337    174.4896   6.9656201240e+01   1.5173409832e+01    0.2004632    0.1218055   8.65 0.0008086956    2.436    0.589
        88  -9.0549    192.5347    171.9583   6.2143002575e+01   1.0219262431e+01    0.2020087    0.1041866 -23.44 0.0008093173    2.529    0.605
        89 -10.3364    145.8067    178.8760   7.3536053062e+01   1.6447660362e+01    0.2321211    0.1882512 -12.29 0.0009316298    1.294    0.227
        90  -9.6040    142.6890    170.6367   7.2687549522e+01   1.8745005391e+01    0.2349021    0.1697395  -9.68   0.00109604    1.709    0.415
        91 -10.7252     95.6784    170.8726   8.4843632881e+01   2.6424609924e+01    0.2448733    0.1790475 -37.50  0.001104699    1.487    0.328
        92 -11.3820     83.7693    170.3017   8.8039759060e+01   2.8354215489e+01    0.3140922    0.1929447 -51.07  0.001421685    1.621    0.383
        93 -11.0511    119.1702    169.4562   7.8324138888e+01   2.2984507860e+01    0.3028502    0.2310895 -20.13  0.001464296    1.525    0.344
        94  -9.8284    112.2312    170.6030   8.0350230890e+01   2.3859163631e+01    0.2075222    0.1422119  21.14 0.0007055944    1.614    0.380
        95 -10.0492    205.7962    169.1985   5.9101340468e+01   8.6643568442e+00    0.1892984    0.1395588 -14.14 0.0008707629    1.341    0.254
        96  -8.7965    158.3721    169.3209   6.8780753751e+01   1.6355206217e+01    0.1551695     0.108359  -7.55 0.0007032744    1.804    0.446
        97  -8.7320    152.3501    169.2980   7.0150408569e+01   1.7385887319e+01    0.1520103    0.1099264  -7.22 0.0004870887    1.686    0.407
        98 -10.5562    129.0269    167.2447   7.5379342679e+01   2.1832209735e+01    0.2867964    0.2003268 -26.81  0.001318454    1.647    0.393
        99  -9.5902     68.6815    168.6628   9.2047026007e+01   3.0881404758e+01    0.1516169    0.1083285 -31.06  0.000704918    1.704    0.413
       100 -11.3761    101.2960    169.7874   8.3125562744e+01   2.5812020467e+01    0.3635392    0.2463885 -27.46  0.001620543    1.848    0.459
       101  -9.6431     97.8284    213.3673   9.0652657792e+01   1.6301506308e+01     0.295936    0.1255369 -39.45  0.001083705    3.409    0.707
       102  -8.9988    179.4996    166.4942   6.3653213669e+01   1.3366820177e+01    0.1422365    0.1259236 -18.84 3.119333e-05    1.009    0.008
       103  -9.3388     91.8522    213.9911   9.2168556761e+01   1.6982927005e+01     0.223939     0.143871 -32.20  0.001083756    2.023    0.506
       104 -10.6632    207.7691    160.3613   5.6979458716e+01   9.9331128126e+00    0.5023432    0.1307388 -40.34  0.001694385    3.369    0.703
       105  -8.3565    196.3156    163.3010   5.9681300151e+01   1.1219749895e+01    0.1395927   0.09851233  -9.02 0.0003952377    1.615    0.381
       106  -9.7028    139.3189    162.5047   7.1875433836e+01   2.1120280614e+01    0.3048391    0.2033509  -0.78  0.001270394    2.201    0.546
       107 -10.3559    119.7740    163.2052   7.6964867052e+01   2.4345740447e+01    0.2142018    0.1757982 -13.77 0.0009339346    1.369    0.270
       108 -10.2727    111.2036    162.8176   7.9162650789e+01   2.5883899856e+01    0.2147065    0.1764347 -21.31 0.0006353135    1.350    0.259
       109 -11.4477    100.3731    162.9425   8.2139643455e+01   2.7629733184e+01    0.2993066    0.2289781  22.30  0.001312787    1.397    0.284
       110  -8.8006    182.9995    161.5145   6.1919899254e+01   1.3750260923e+01    0.1921859    0.1182288  10.68 0.0008083971    2.406    0.584
       111  -8.8263    146.9832    162.5005   7.0029263879e+01   1.9776737971e+01    0.2094241    0.1288218   9.85 0.0008099458    2.506    0.601
       112  -8.7626    153.6696    160.6828   6.8088766474e+01   1.8992317040e+01    0.1537349    0.1117855  -9.64 0.0007046892    1.685    0.406
       113 -11.9066     79.6588    158.4592   8.7230195636e+01   3.1950032678e+01    0.3465084    0.2830088  -7.58  0.001741728    1.465    0.317
       114  -9.9856    114.2287    157.5946   7.7324629088e+01   2.6624608257e+01    0.2155756    0.1462202  20.92 0.0009064159    1.694    0.410
       115 -11.7368     91.3335    156.9967   8.3584565601e+01   3.0546063415e+01    0.4096676     0.271223 -17.18  0.001689594    2.218    0.549
       116  -9.4496    122.4781    155.5199   7.4708665214e+01   2.5683782474e+01    0.1521846    0.1445644 -19.24 0.0003730921    1.037    0.036
       117 -10.5240    103.2118    153.7788   7.9591724697e+01   2.9419152807e+01    0.2172247    0.1797375 -21.12   0.00107086    1.353    0.261
       118  -9.1055    130.6651    157.6493   7.3034233663e+01   2.3743449994e+01     0.161379    0.1158492 -14.36 0.0007046551    1.783    0.439
       119  -8.8317    208.4745    153.4755   5.5450230710e+01   1.1051939366e+01    0.1376665    0.1142237 -22.68 0.0003175538    1.068    0.063
       120  -8.6523    158.3512    153.3286   6.5461055831e+01   1.9720881028e+01    0.1565437    0.1125211  -8.18 0.0004732562    1.767    0.434
       121 -10.6439     73.0072    152.8212   8.8224466333e+01   3.4363262335e+01     0.248551    0.1728867 -13.10  0.001086153    1.994    0.499
       122 -11.1314     78.7452    151.1139   8.6195952523e+01   3.3970814130e+01    0.3014579     0.197633 -43.22  0.001354834    1.590    0.371
       123 -10.8450    106.8533    150.8501   7.7980997753e+01   2.9522175264e+01    0.2466164    0.2092631 -18.86  0.001095954    1.300    0.231
       124  -8.4228    176.2968    150.3823   6.0938478540e+01   1.7102636862e+01    0.1529565     0.106518 -13.37 0.0007020063    1.765    0.433
       125  -8.7414    129.2888    150.3289   7.1842111651e+01   2.5677134177e+01    0.1562764    0.1169519 -16.88 0.0003812479    1.618    0.382
       126  -8.9904    204.3792    154.8036   5.6451698108e+01   1.1473421384e+01    0.2002934    0.1115965 -31.49 0.0009405969    1.692    0.409
       127  -9.8643    123.0281    148.9957   7.3189666157e+01   2.7120518088e+01    0.2528758    0.1871997 -12.73  0.001133834    1.724    0.420
       128 -10.9800     85.0328    148.7081   8.3864868345e+01   3.3633371914e+01    0.2165204    0.2064621  29.55 0.0009689772    1.082    0.075
       129 -10.8923    215.5426    147.7399   5.3057201311e+01   1.0935310644e+01    0.2467511    0.1666612 -24.06  0.001109004    1.442    0.306
       130 -10.6325     91.3480    148.3465   8.1923720320e+01   3.2726047608e+01     0.245984    0.1810396 -22.27  0.001113125    1.681    0.405
       131 -10.4700    207.5349    144.5168   5.3748752205e+01   1.2814631113e+01    0.3823265    0.2113698 -19.25  0.001591131    2.595    0.615
       132 -10.4325     98.9489    145.5088   7.9129335489e+01   3.2185624896e+01    0.2373742    0.1527651  33.16  0.001035387    1.600    0.375
       133  -9.5693    117.9828    143.9890   7.3455399548e+01   2.9218861507e+01    0.2556383    0.1895356 -12.91  0.001136987    1.737    0.424
       134 -11.1037     92.9780    140.6356   7.9868922254e+01   3.4407432478e+01    0.3369918    0.1859834  41.57  0.001371411    1.861    0.463
       135 -11.9191     79.5654    143.8741   8.4586970815e+01   3.5715454549e+01    0.3688979     0.300553  13.94  0.001841094    1.377    0.274
       136  -9.5618    209.6006    137.2202   5.1847730819e+01   1.3776467848e+01    0.2001992     0.113042 -31.00 0.0009439982    1.695    0.410
       137  -9.7622    249.4197    218.1326   6.0561664553e+01  -4.5838437271e+00     0.342999    0.1577463 -47.75  0.001628304    3.398    0.706
       138 -11.3334     88.6375    135.6091   8.0115105320e+01   3.6396705850e+01    0.3661973    0.2046439  26.83  0.001462401    2.023    0.506
       139 -10.5273    160.6671    210.9845   7.5866389802e+01   7.7570978816e+00     0.278741    0.1539472 -38.23  0.001361428    1.822    0.451
       140 -10.6546     97.8469    132.6772   7.6678235027e+01   3.5571220289e+01    0.2485947    0.2019706   6.58  0.001015206    1.441    0.306
       141  -9.9186    124.5079    212.0230   8.4144458395e+01   1.2802677078e+01    0.1981738     0.133486 -50.96 0.0009374935    1.585    0.369
       142 -10.3479     81.9859    130.5134   8.1089442534e+01   3.8774252692e+01     0.237168    0.1539298  31.14  0.001040376    1.618    0.382
       143  -9.7959     91.5036    121.4960   7.6019995875e+01   3.9453705869e+01    0.1549262    0.1487719 -40.43 6.648928e-05    1.008    0.008
       144  -9.4455     98.4925    117.4988   7.2871136371e+01   3.9181075689e+01    0.1556272    0.1492309 -34.33 0.0002203979    1.017    0.017
       145 -11.8939    231.3073    210.4126   6.2209579051e+01  -1.4808918715e+00    0.2960132    0.2483103  76.20  0.001753038    2.875    0.652
       146 -11.4699    225.9437    209.2709   6.2925576077e+01  -6.7423274711e-01    0.3173439    0.1583107 -42.29   0.00168171    1.997    0.499
       147  -9.8546    111.3979    214.7813   8.7613454041e+01   1.4109684780e+01    0.1894379    0.1208137 -43.57 0.0009550566    1.705    0.414
