#   1 NUMBER                 Running object number                                     
#   2 MAG_AUTO               Kron-like elliptical aperture magnitude                    [mag]
#   3 X_IMAGE                Object position along x                                    [pixel]
#   4 Y_IMAGE                Object position along y                                    [pixel]
#   5 X_WORLD                Barycenter position along world x axis                     [deg]
#   6 Y_WORLD                Barycenter position along world y axis                     [deg]
#   7 A_WORLD                Profile RMS along major axis (world units)                 [deg]
#   8 B_WORLD                Profile RMS along minor axis (world units)                 [deg]
#   9 THETA_WORLD            Position angle (CCW/world-x)                               [deg]
#  10 FWHM_WORLD             FWHM assuming a gaussian core                              [deg]
#  11 ELONGATION             A_IMAGE/B_IMAGE                                           
#  12 ELLIPTICITY            1 - B_IMAGE/A_IMAGE                                       
         1 -13.9353    204.3509    114.4920   6.5739426200e+01   1.8287560154e+01     3.058931     1.969036  17.82   0.01435728    2.041    0.510
         2 -12.9568    233.6487      9.2184   3.5615254294e+01   2.6017135811e+01     2.714098     1.430673   4.09   0.01118132    3.670    0.728
         3 -14.9722    175.1471     70.7826   5.9448941447e+01   3.1769294994e+01     8.934729     4.618494 -62.04   0.00912042    3.401    0.706
         4 -12.5403    249.1626      4.7233   3.3674336621e+01   2.3225312283e+01     1.366068     0.500518 -12.14  0.004606769    5.263    0.810
         5 -14.9587    218.9762     75.7163   5.3959036791e+01   2.1129994231e+01     9.495618     2.597342 -46.56   0.02680656    5.047    0.802
         6 -15.0797    242.2449     41.6132   4.2904670518e+01   2.0704874761e+01     3.400985     1.274022  58.80   0.01512903    2.926    0.658
         7 -12.9363    249.9256     24.2591   3.8177332951e+01   2.1098246261e+01    0.7286094    0.3760941 -26.00  0.001782027    1.723    0.420
         8 -10.8274    144.8390     27.2712   5.0644917592e+01   4.5880367106e+01    0.5354134    0.2761536 -27.14  0.001505415    1.969    0.492
         9 -10.1329    214.5652     17.6929   3.9153679750e+01   2.9402643472e+01       1.1402    0.9098242   6.08  0.001549741    1.574    0.365
        10  -9.3981    165.1001     14.0458   4.2982935576e+01   4.2058338964e+01     0.378689      0.20243 -18.11  0.001179594    2.069    0.517
        11 -11.8264    207.8417     11.3525   3.7967967150e+01   3.1627336683e+01    0.3697317    0.2627805 -59.64  0.001111563    1.292    0.226
        12  -9.6979    115.9602     12.5194   5.0236196885e+01   5.5226268883e+01     0.348496    0.2487962  65.52  0.001051532    1.346    0.257
        13 -11.5802    120.4055      8.8567   4.7756486988e+01   5.4446736285e+01    0.5866622     0.486341 -36.94  0.002030007    1.248    0.199
        14  -9.2874    183.0919      4.2070   3.7943102163e+01   3.8386134372e+01     0.684823   0.06484842 -35.79  0.002002578    4.480    0.777
        15  99.0000    187.7981      4.7426   3.7700866573e+01   3.7151885541e+01    0.5188684    0.3032073 -29.37   0.00258277    1.626    0.385
        16  -9.4199    223.9980      9.5381   3.6314406114e+01   2.8098060113e+01     0.446915     0.150432 -26.60  0.001844827    2.588    0.614
        17 -13.2031    248.3238     60.6105   4.6868549362e+01   1.7219893643e+01     1.776049    0.5374636 -33.53  0.007090253    2.491    0.599
        18  -8.5889    171.9485      2.3848   3.8382351448e+01   4.1405657705e+01    0.2576116    0.1536661 -52.96 0.0008063089    1.624    0.384
        19  -8.4230    143.0019      1.2524   4.1157207277e+01   4.9141110363e+01    0.1847894    0.1142741  74.05  0.000375323    1.522    0.343
        20  -8.8797    195.0074    179.0029   8.0781439004e+01   9.9997662422e+00     0.183204    0.1568391  11.64  0.001201874    1.046    0.044
        21 -10.2183    229.1397    176.3793   7.4372031802e+01   5.1784268408e+00    0.5981622    0.1843046  45.21  0.002373794    3.953    0.747
        22 -11.4445    228.2334    172.5996   7.3829916389e+01   5.7929504523e+00    0.6819606    0.2805273  22.25  0.002551583    4.162    0.760
        23  -7.8975     59.4658    171.0370   1.1026086391e+02   3.2406826822e+01    0.1596993    0.1196007 -78.18  0.000259775    1.350    0.259
        24  -8.4736    208.7623    165.0591   7.5719801150e+01   9.8184676183e+00    0.2347571    0.1634081  65.33  0.001156121    2.803    0.643
        25  -9.4163     66.9234    145.6974   1.0529481095e+02   3.7234780229e+01     2.619195      1.19689  21.30   0.01008729    3.057    0.673
        26 -13.1015     36.0950    160.6110   1.1535311852e+02   3.7362204807e+01    0.8659365    0.7167453  -0.19  0.003083078    1.637    0.389
        27 -12.4874     49.0980    153.6599   1.1121873603e+02   3.7567273263e+01    0.7451517    0.5915151 -70.68  0.003134371    1.274    0.215
        28  -9.2606    136.2607    242.1860   1.0095782664e+02   9.4695228438e+00    0.2786189     0.129784  47.79     0.001515    2.168    0.539
        29  -8.7715    165.1507    157.6378   8.2736184770e+01   1.8444818051e+01    0.2274479    0.1606877 -32.77  0.001205148    1.485    0.327
        30 -11.4871     21.6765    156.0717   1.1883069117e+02   3.9763342306e+01    0.3361169    0.3278394 -32.08  0.002404278    1.337    0.252
        31  -9.6334    205.1920    153.9371   7.4181808103e+01   1.2034898022e+01    0.3913057    0.2953597 -63.72   0.00208147    2.234    0.552
        32  -9.5120    193.2713    153.8300   7.6351238181e+01   1.4102784220e+01    0.2005913     0.166275 -46.54 0.0009353458    1.443    0.307
        33 -10.0041    133.6561    145.2715   8.7457342539e+01   2.6512655373e+01    0.9724752    0.2527713 -54.40  0.002521029    5.883    0.830
        34 -12.6459    197.6819     77.3407   5.7481542731e+01   2.5513451293e+01      1.34251      1.02729  19.91   0.00410834    1.586    0.369
        35  -8.3356    157.4484    149.4695   8.2789590902e+01   2.1311993940e+01    0.1384672    0.1293083  19.55 9.827319e-05    1.015    0.015
        36  -8.4031    217.8246    147.8727   7.0763986141e+01   1.0793555724e+01    0.1668515    0.1454763 -37.13  0.000828424    1.340    0.254
        37  -8.2062    222.5369    145.4592   6.9489122799e+01   1.0350952686e+01    0.1286068    0.1082626  -4.86 7.797596e-05    1.004    0.004
        38  -8.4969    199.3087    144.6822   7.3353044046e+01   1.4473560302e+01    0.1969606    0.1905816  -0.99   0.00113504    1.201    0.167
        39  -8.7855    192.2450    144.2391   7.4575946708e+01   1.5814843568e+01    0.2344905    0.1738415  38.58 0.0004429993    1.340    0.254
        40  -9.3173    195.8566    143.1008   7.3658273381e+01   1.5343019051e+01    0.2295557    0.2207097  -1.90 0.0007920571    1.168    0.144
        41  -7.9724    246.6566    242.2626   8.2099277762e+01  -4.1485144885e+00   0.08600488   0.06769037  25.49 0.0003474043    1.598    0.374
        42  -9.3406    158.5786    142.7269   8.1157111192e+01   2.2352135255e+01     0.239975     0.178663  63.13  0.001191667    1.718    0.418
        43  -8.9535    211.5667    136.2680   6.9396937534e+01   1.3577997870e+01    0.1888263    0.1164438 -21.62 0.0009385862    1.620    0.383
        44 -10.5967    224.8062    129.1610   6.5688355064e+01   1.2282784351e+01     0.311992    0.2536716 -74.74  0.001661295    1.995    0.499
        45  -9.5121    158.4728    131.5070   7.8750801509e+01   2.4483238332e+01    0.2482156    0.1387654  43.80 0.0006419814    1.757    0.431
        46 -10.2919    160.4787    127.9628   7.7504056524e+01   2.4754470260e+01    0.3751957    0.2736307 -44.28  0.001884812    1.408    0.290
        47  -9.9643    137.0286    127.8426   8.2960712670e+01   2.9450790277e+01    0.6239068    0.3858512 -73.20   0.00236868    2.906    0.656
        48  -8.9021    142.2060    126.1868   8.1321837218e+01   2.8763706644e+01    0.2143816    0.1944053  -6.28 0.0004848251    1.171    0.146
        49 -13.4682    230.1531     61.8203   4.9083739712e+01   2.0685600967e+01     1.218432    0.8931892  42.59  0.004609649    1.605    0.377
        50  -8.4766    142.2572    122.3995   8.0434353312e+01   2.9522795814e+01    0.2107787    0.1382556  52.67 0.0009483059    1.622    0.383
        51  -9.9028    162.8828    120.3387   7.5194938149e+01   2.5700961605e+01    0.2620664     0.209967 -30.08 0.0005269448    1.256    0.204
        52  -9.8426    168.4034    115.4524   7.2828815317e+01   2.5460910680e+01    0.4323539     0.225932 -30.68  0.001752819    2.119    0.528
        53  -8.7497    218.0946    231.8125   8.5111316741e+01   1.7532296816e-01    0.1546977    0.1168245  22.09 0.0005499111    1.210    0.174
        54  -9.0595    121.0627    112.3618   8.3476146199e+01   3.5926638164e+01    0.3095116    0.2249606 -59.93  0.001283924    1.494    0.331
        55 -10.6068    135.2405    109.5347   7.9044252911e+01   3.3621824904e+01     1.072951    0.3540707 -44.08  0.003455007    3.051    0.672
        56 -11.0647    123.2328    103.6713   8.0692059611e+01   3.7378537908e+01     1.292162    0.5768826 -60.94  0.003838564    3.945    0.746
        57  -9.5947      6.4989    108.5001   1.2001736193e+02   5.2357276042e+01    0.1278552    0.1061559  88.48 -0.0006553133    1.004    0.004
        58  -9.5551    149.4343    101.9776   7.3614821276e+01   3.2098251740e+01    0.3529045    0.2151769  45.20 0.0007962447    1.651    0.394
        59  -8.0988     88.3212     99.9925   9.0170717130e+01   4.4984212110e+01    0.1645003    0.1349808 -58.24 0.0004466879    1.192    0.161
        60 -10.5179    160.2819     96.7728   6.9769272954e+01   3.0683057670e+01    0.5405205    0.3179204  38.02  0.002284191    1.879    0.468
        61  -9.4897    135.2613     98.0783   7.6025817457e+01   3.5992048127e+01    0.2741106    0.2197963  57.38 0.0001934351    1.312    0.238
        62 -13.6796    236.3651     81.6286   5.3173075514e+01   1.6813507472e+01     1.980452    0.9128021 -55.73  0.007116064    3.583    0.721
        63  -9.9953    143.2439     92.2147   7.2415447100e+01   3.5398245330e+01    0.3074913    0.2763894  68.22 0.0005798214    1.190    0.159
        64  -8.7633    216.6140    214.0769   8.2749532547e+01   2.3285811138e+00     0.169411    0.1449259  31.65  0.001265369    1.494    0.331
        65 -11.4380    158.6605     87.2970   6.7494985138e+01   3.2803464647e+01    0.3495122    0.2787849 -20.28 0.0005994678    1.356    0.262
        66 -10.3595    208.6107     85.0390   5.7809004650e+01   2.1963369241e+01    0.4736734    0.3268862 -63.47   0.00163985    1.887    0.470
        67 -10.7643      5.1252     83.3388   1.1829945993e+02   5.8749211410e+01    0.2659747    0.1916096 -62.57  0.001590769    1.242    0.195
        68 -10.3901    104.9059     80.1253   7.9352417252e+01   4.6351467422e+01    0.2546906     0.236287 -64.61            0    1.093    0.085
        69  -9.2932    116.6608     78.4495   7.5322083957e+01   4.4174059609e+01    0.4520581    0.2391282 -42.42   0.00166855    1.875    0.467
        70 -10.9168    122.9706     76.6508   7.2987683772e+01   4.3124308125e+01    0.7016332    0.3210762 -46.49  0.002571262    2.219    0.549
        71 -10.5554    126.5057     76.5046   7.1985635706e+01   4.2344012240e+01    0.3454329    0.3010883 -34.58  0.001238378    1.156    0.135
        72  -9.3672     38.2041    214.5839   1.1838312491e+02   2.5957462516e+01    0.1512014   0.09866873  23.41 0.0009565479    1.720    0.419
        73  -9.1070    106.3272     60.4873   7.2378596088e+01   5.0132356801e+01    0.2714266    0.1401537 -40.74 0.0007349482    1.914    0.478
        74  -8.1283     72.5920     58.4676   8.3526098773e+01   5.7431457297e+01    0.1457511      0.13732 -42.68 0.0001339621    1.017    0.017
        75 -10.2963    235.9411    207.2835   7.8537482036e+01   6.0311325321e-01    0.1938168    0.1438736  10.42 0.0003063866    1.051    0.049
        76 -10.6834      6.1306     53.7078   1.1387675599e+02   6.6113499373e+01    0.2587253    0.1367168 -75.18 0.0009783549    1.626    0.385
        77  -8.9882    204.1264    208.3773   8.4010366960e+01   4.6922884949e+00    0.1577476    0.1198948  22.64 0.0004905598    1.116    0.104
        78 -10.5415    123.0990     37.9092   5.9205716501e+01   5.0049571089e+01    0.3956242    0.1924573 -42.51   0.00153946    2.098    0.523
        79  -9.1766    205.4753    204.1635   8.3113915025e+01   5.0335193540e+00    0.1947782    0.1365032  26.84 0.0002880342    1.209    0.173
        80  -9.4075    109.6089     28.7570   5.8841153302e+01   5.4799022511e+01    0.2077278    0.1340153 -40.14 0.0008577725    1.579    0.367
        81 -10.0150    193.9855    197.1407   8.4045315194e+01   7.6024520472e+00    0.4173154    0.2559519 -61.46  0.001825488    4.327    0.769
        82 -10.1420    179.2693     23.8783   4.4462187833e+01   3.7313025400e+01    0.4762114    0.3944998 -69.88  0.002636557    1.178    0.151
        83  -8.1833    163.3072     24.9629   4.6906139728e+01   4.1307465830e+01    0.1930286    0.1725042 -41.22 0.0002887135    1.100    0.091
        84 -10.3751    147.1704    143.4932   8.3895218197e+01   2.4358030326e+01    0.2585179    0.2446941  89.02 0.0003553391    1.209    0.173
        85  -9.1743    206.0114    199.3398   8.2246510279e+01   5.5720264909e+00    0.1665685    0.1240719  21.73 0.0003447461    1.120    0.107
        86  -9.9733    173.7152    194.4550   8.7445365218e+01   1.1033322938e+01    0.2121095    0.1889833  23.28 0.0003046104    1.135    0.119
        87  -8.1038    125.9886    193.2617   9.7176715372e+01   1.8582725883e+01    0.1532841   0.09636028  36.65 0.0002419543    1.357    0.263
        88 -10.1292    210.6335    187.1339   7.9394810805e+01   6.4932432540e+00    0.6574727    0.2899464  49.43  0.002813556    3.502    0.714
        89  -8.9065     58.5733    186.5267   1.1192377541e+02   2.9212313281e+01    0.1868534     0.168807  81.99  0.001283484    1.161    0.139
        90 -12.6633      4.4389    177.3219   1.2414788224e+02   3.6481154918e+01    0.8134764    0.4492792 -87.95  0.004921962    1.619    0.382
        91 -10.4016    155.1933    153.0622   8.3999953982e+01   2.1060980241e+01    0.8360034    0.5264038 -87.50  0.002525516    5.980    0.833
        92 -13.2464    241.4995     73.9493   5.0741756977e+01   1.6840227410e+01     1.500032    0.7348601 -53.79  0.006609098    2.603    0.616
        93  -9.5998    219.1192    183.6038   7.7323023355e+01   5.7115240521e+00    0.2853883    0.2107135  61.69  0.001602655    2.620    0.618
        94 -10.4812    236.3862    174.6647   7.2901509626e+01   4.3523013162e+00    0.5328704    0.3537742  64.09  0.002486623    4.185    0.761
        95 -10.4739    230.9103    168.2763   7.2595616629e+01   5.9531597635e+00    0.4344702    0.2061992 -44.06  0.002060409    2.831    0.647
