#   1 NUMBER                 Running object number                                     
#   2 MAG_AUTO               Kron-like elliptical aperture magnitude                    [mag]
#   3 X_IMAGE                Object position along x                                    [pixel]
#   4 Y_IMAGE                Object position along y                                    [pixel]
#   5 X_WORLD                Barycenter position along world x axis                     [deg]
#   6 Y_WORLD                Barycenter position along world y axis                     [deg]
#   7 A_WORLD                Profile RMS along major axis (world units)                 [deg]
#   8 B_WORLD                Profile RMS along minor axis (world units)                 [deg]
#   9 THETA_WORLD            Position angle (CCW/world-x)                               [deg]
#  10 FWHM_WORLD             FWHM assuming a gaussian core                              [deg]
#  11 ELONGATION             A_IMAGE/B_IMAGE                                           
#  12 ELLIPTICITY            1 - B_IMAGE/A_IMAGE                                       
         1 -10.3926     60.4862     26.5188   6.0256325340e+01   6.5081713870e+01    0.4120135     0.200542 -21.95  0.001538287    3.030    0.670
         2 -12.7404    241.6877      8.9351   2.0055480735e+01   2.2929938902e+01     1.257086    0.4647816 -30.62  0.005431817    2.133    0.531
         3 -10.9782    249.1734      3.4149   1.8194025817e+01   2.1784651951e+01    0.4787802    0.2258874 -49.63  0.002335381    1.848    0.459
         4 -12.2284     20.6185     17.2166   7.5377666616e+01   7.2275308419e+01    0.3194073    0.2757021 -36.97  0.001102554    1.112    0.101
         5 -12.5673    152.1269     12.1800   2.9812067443e+01   4.5424432804e+01    0.8355538    0.4415564 -18.31  0.003507791    1.943    0.485
         6 -13.5260    151.4224      3.3624   2.6534518445e+01   4.6429934727e+01     1.802325    0.4939757  71.58  0.005626643    3.547    0.718
         7 -12.9065    161.6899      8.9638   2.7321183148e+01   4.3160279954e+01     1.085821    0.5745774 -39.48  0.004673141    1.844    0.458
         8 -13.3525    175.0932      4.5904   2.4237622662e+01   3.9961711344e+01     1.895181     1.012897 -61.64  0.007943475    2.140    0.533
         9 -12.4168    184.3580      3.5583   2.2973003035e+01   3.7593569620e+01    0.6409017    0.4803747  86.72  0.002116608    1.343    0.255
        10 -12.1293    127.7895     14.5525   3.4810441528e+01   5.1644254929e+01    0.5583391    0.3507583  68.94  0.001494392    1.658    0.397
        11 -10.9990     49.5858     14.2659   5.8437153026e+01   6.8946437687e+01    0.2867025    0.2253053 -12.50 0.0007768085    1.167    0.143
        12 -11.0655     44.9052     12.5023   5.9612342131e+01   6.9976171334e+01    0.2755139    0.2323355 -25.06 0.0009484334    1.082    0.076
        13 -12.1310    114.4054      9.5349   3.5238896213e+01   5.5609204930e+01    0.4402577    0.3116204 -14.79 0.0009125433    1.413    0.292
        14 -12.8371     24.0646      6.1896   6.7066605174e+01   7.3907676849e+01    0.6050066     0.211933  39.49  0.002631261    3.483    0.713
        15 -11.7746     27.0732     12.5845   6.9117707205e+01   7.2432355447e+01    0.3270126    0.2113212 -37.02 2.857835e-05    1.266    0.210
        16 -11.6278     35.5760     12.9639   6.4620391337e+01   7.1273182256e+01    0.3925853    0.2506954  18.47  0.002049031    1.851    0.460
        17 -11.7800     32.1294     10.8396   6.5238207748e+01   7.2099474530e+01     0.529468    0.2237381 -34.77  0.001303687    2.134    0.531
        18 -11.5790    190.8087     11.3941   2.4877810419e+01   3.5171587502e+01    0.4460813    0.2902131 -71.33  0.001479898    1.675    0.403
        19 -11.6135     94.0977     11.6203   4.1065261404e+01   6.0335084445e+01    0.4500207    0.2469073  38.59  0.001999272    1.882    0.469
        20 -12.1023    102.1618     10.8296   3.8608992894e+01   5.8506873275e+01    0.3791738    0.2645096  62.59  0.001158436    1.499    0.333
        21 -11.9971     98.6960      8.9392   3.8521174644e+01   5.9545450047e+01    0.3206776    0.2814948 -63.67 0.0009616084    1.357    0.263
        22 -11.2569     73.4718     10.2729   4.6600975152e+01   6.5053079354e+01    0.3904782    0.1762396  36.42  0.001586478    2.522    0.604
        23 -10.7900     69.1389      9.8174   4.7859585329e+01   6.5997200172e+01    0.2659388    0.2089055 -32.71  0.000682875    1.277    0.217
        24 -12.3136     56.3570      9.2083   5.2467698314e+01   6.8527752221e+01    0.4586339    0.3359587   5.09   0.00134303    1.400    0.286
        25 -11.9611      3.3661      8.5669   8.2115335037e+01   7.5432940510e+01     0.324262     0.227547 -44.06  0.000905601    1.076    0.070
        26 -10.7765    219.8565      8.8786   2.1577393731e+01   2.8063194630e+01    0.1969348    0.1853902  24.69  0.001206253    1.216    0.178
        27 -12.6717     86.3590      7.2593   4.0919780116e+01   6.2604656737e+01    0.5538738    0.3375542  39.36  0.001041144    1.617    0.382
        28  -9.4725    213.5962      8.4757   2.1950560812e+01   2.9639726585e+01    0.1391997    0.1211168 -47.50 0.0002372714    1.038    0.036
        29 -12.1105    134.5237      4.4952   2.9382700812e+01   5.0855035140e+01    0.5536459    0.2831085  32.20  0.002039074    2.300    0.565
        30 -12.1619    131.0340      3.6888   2.9593443836e+01   5.1849339413e+01    0.4913847    0.3042718  45.27  0.002296586    1.579    0.367
        31 -12.3129    124.4770      6.9326   3.2113847861e+01   5.3275993396e+01    0.4339495    0.3964652  89.23  0.002159583    1.177    0.151
        32 -12.3101     16.2475      4.8319   7.1182071788e+01   7.5020487207e+01    0.3822009    0.2336359 -37.11  0.001371242    1.301    0.231
        33 -11.5830    101.6032      3.8217   3.5261230541e+01   5.9355307840e+01    0.3556125    0.1823691  51.67  0.001578939    1.808    0.447
        34 -11.9390     38.7923      2.8243   5.6555005061e+01   7.2389515126e+01    0.3701314    0.2908981  32.47  0.001685487    1.383    0.277
        35 -12.4156    114.7495      2.1448   3.1733339401e+01   5.6217534779e+01    0.6296117    0.2397435  65.74  0.001505705    2.523    0.604
        36 -10.5377     31.1590      2.4678   6.0437720529e+01   7.3576055245e+01    0.1947537    0.1576846 -38.77   0.00125597    1.339    0.253
        37 -11.2285    250.0746     12.8580   2.0516077289e+01   2.0682224081e+01    0.7051842    0.2364352 -20.45  0.002713263    2.919    0.657
        38 -11.3671     89.4725      1.4897   3.6961710250e+01   6.2474687159e+01    0.3839524    0.2219173  75.29   0.00126405    2.232    0.552
        39 -10.8958    205.1230      1.3623   2.0523827256e+01   3.2414385411e+01    0.3062814    0.1265837  76.04  0.001236806    2.443    0.591
        40  -9.6902     79.3235      1.3249   3.9646109116e+01   6.4802520499e+01    0.1477612   0.09177144  24.34 0.0002759938    1.687    0.407
        41 -10.3319    215.0200      3.3258   2.0359450549e+01   2.9766655518e+01    0.3168216    0.1009925 -44.29  0.001170297    2.729    0.634
        42  -8.9708     77.6701     55.7163   6.6244150636e+01   5.6454802264e+01    0.1436294    0.1108462  -8.69 0.0002003853    1.610    0.379
        43  -9.8781      3.9998     64.7803   9.8063237399e+01   6.2855737199e+01     0.183902    0.1306451 -51.60 0.0006683477    1.311    0.237
        44  -9.9401     15.1113     51.6583   9.0627866445e+01   6.5257584305e+01    0.1597694    0.1426731 -49.36 0.0004162012    1.155    0.134
        45  -9.4990    170.7924     49.8330   4.0293554712e+01   3.5779588535e+01    0.2052308    0.1745007 -66.96 0.0004980228    1.281    0.219
        46 -10.6165    249.3682     44.7544   2.8730632008e+01   1.7397647624e+01    0.3016189    0.1851329 -28.18  0.001159836    1.376    0.273
        47 -10.2865     38.7323     44.4740   7.7651564252e+01   6.4668812473e+01    0.2535505    0.1913835 -62.09  0.001094464    1.292    0.226
        48 -10.0796      3.2121     42.4733   9.4001902881e+01   6.8118860082e+01    0.2246278    0.1321317  73.81  0.001084869    2.302    0.566
        49  -9.4503     71.5774     42.2660   6.3125528149e+01   6.0243736614e+01    0.2071632    0.1236878 -32.05 0.0009440718    1.659    0.397
        50 -10.8824    151.6569     40.7269   4.0586746246e+01   4.2085142840e+01    0.2538277    0.2405314 -63.97 0.0002777423    1.094    0.086
        51  -9.7221    158.9010     39.8798   3.8952400033e+01   4.0303127439e+01    0.2253099      0.20103  22.62  0.000329375    1.186    0.157
        52  -9.8517     95.9042     38.8502   5.3380591532e+01   5.6018971641e+01    0.2253424     0.189406  -1.70  0.000555821    1.252    0.202
        53  -9.3085    198.6317     37.1795   3.2101218230e+01   3.0285550366e+01    0.1915632    0.1359217 -12.17 0.0002004236    1.499    0.333
        54 -10.5998     40.5754     36.1137   7.3548745599e+01   6.6222706323e+01    0.2308249    0.2104622  -9.30 0.0007019301    1.173    0.147
        55  -9.1719     82.2961     36.2799   5.6661800752e+01   5.9311270802e+01    0.1417784    0.1081333   3.50  0.000195301    1.536    0.349
        56  -9.6941    119.3609     34.9640   4.5296806973e+01   5.1170445720e+01    0.2116855    0.1848003 -15.61 0.0005682316    1.123    0.109
        57 -10.5126      6.4082     34.7594   9.0320955098e+01   6.9689115745e+01    0.2620391    0.1594716 -73.51  0.001505241    1.536    0.349
        58  -9.9382      3.5727     31.5143   9.0888074587e+01   7.0575895019e+01    0.1657019    0.1344671  83.56 0.0006885721    1.465    0.318
        59  -9.8633    140.0441     33.0099   3.9946143546e+01   4.6192371629e+01    0.2621966    0.1751044  25.94  0.001130057    1.809    0.447
        60  -9.5076     51.4967     33.0944   6.7254606180e+01   6.5319626579e+01    0.2036007     0.117389 -41.77 0.0004618964    1.503    0.335
        61 -10.3074     17.5590     31.7184   8.3364710768e+01   6.9565101106e+01    0.1914514     0.172215 -49.76 0.0002715636    1.139    0.122
        62 -10.5157    244.6065    199.1602   6.3805458018e+01  -5.2899471353e-01    0.1596308      0.09046 -11.16 0.0009551333    1.755    0.430
        63  -9.8519    104.1810     28.7001   4.6503351072e+01   5.5743267845e+01    0.2685705    0.1917735  80.75  0.001231255    1.924    0.480
        64 -10.0601    160.5186     27.2059   3.4130888347e+01   4.1515917179e+01    0.2429923      0.20588  65.91 0.0002964591    1.197    0.165
        65 -10.5152     46.9135     26.9916   6.6454900068e+01   6.7158926362e+01    0.1974466    0.1655016 -31.49 0.0002853971    1.019    0.018
        66 -11.4974     98.6150     22.9820   4.5401288730e+01   5.7849291000e+01    0.2814222    0.2519634   2.69 0.0004270169    1.068    0.064
        67 -10.4408      7.8936     23.8362   8.5841207048e+01   7.1985010901e+01    0.1935375    0.1323621 -42.38 0.0006465883    1.207    0.171
        68 -10.4752    142.0934     22.6673   3.5507327127e+01   4.6966659510e+01    0.2678435    0.2170619  -9.90 0.0004238024    1.271    0.213
        69 -10.3997    106.2341     22.3431   4.3066681325e+01   5.6135939141e+01    0.2451732    0.2146362  -0.33 0.0003633413    1.115    0.103
        70 -10.3169    109.5026     19.0164   4.0722027598e+01   5.5765875430e+01    0.2917713      0.14458 -18.48  0.001157243    2.147    0.534
        71  -9.4367     90.9924     22.9867   4.7615424426e+01   5.9579863891e+01    0.1728332    0.1549206 -12.30 0.0003584874    1.035    0.033
        72 -10.5286     72.7313     22.4429   5.3415050866e+01   6.3492088344e+01    0.2542829    0.2074713 -44.52 0.0002545714    1.326    0.246
        73  -9.5911     38.0365     22.9377   6.8745910169e+01   6.9153752840e+01    0.1586008    0.1308628 -31.82 0.0004176386    1.009    0.009
        74 -10.7897     84.2274     20.0795   4.8276407565e+01   6.1471388793e+01    0.3367312    0.2511473  88.01  0.001315154    2.068    0.516
        75 -11.6806     84.8648     15.9203   4.5945572471e+01   6.1897072520e+01    0.4400495    0.2628148  61.25  0.001275163    1.944    0.486
        76 -11.8824      6.1981     19.7684   8.5277171567e+01   7.2958841364e+01    0.4214876    0.2258042   5.86  0.002320274    2.419    0.587
        77 -11.3268      6.8728     16.1262   8.3319944876e+01   7.3667939447e+01    0.2350368    0.1544623 -68.96 0.0006685479    1.639    0.390
        78 -10.7406    243.9524    179.9923   6.0506370576e+01   1.6098620518e+00    0.1600725    0.1440999 -41.69   0.00110361    1.704    0.413
        79 -10.1337    226.6840    178.3541   6.2939980217e+01   4.5199403174e+00    0.1067112   0.09934878 -66.48 9.661039e-05    1.741    0.426
        80 -11.6588    153.2611     28.0570   3.5629224252e+01   4.3347818898e+01    0.2652896    0.2510206  -9.38 0.0002406812    1.058    0.055
        81  -9.5657     48.7356     19.6181   6.1818837784e+01   6.8202698376e+01    0.1532026     0.127169  44.40 0.0002744322    1.463    0.317
        82  -9.9551     15.0556    167.0410   1.0480240658e+02   3.8536333128e+01    0.1674808    0.1246858  74.17 0.0003036066    1.014    0.013
        83  -9.2254     48.9787    141.9688   9.4624424510e+01   4.0531490657e+01    0.1484835    0.1244819  81.50            0    1.017    0.017
        84  -8.9435      6.6964    142.7158   1.0521007022e+02   4.4450263934e+01    0.1048335   0.07783295 -58.92 0.0002339556    1.558    0.358
        85 -10.0166     46.9949    135.7488   9.4374128543e+01   4.2182779649e+01    0.1536765    0.1050517  38.76 0.0006875726    1.553    0.356
        86  -9.6220     10.4155    134.1582   1.0369360458e+02   4.6072366736e+01    0.1683627   0.08724369  84.62 0.0004843722    1.650    0.394
        87  -9.6941     58.5621    129.4483   9.0432243125e+01   4.2238355796e+01    0.1316639    0.1136088 -88.56 4.371566e-05    1.013    0.013
        88  -9.0178    117.2858     18.3000   3.8602043838e+01   5.3915875780e+01    0.1511213    0.1064226  25.29 0.0002321665    1.554    0.357
        89 -12.7472    244.9982    121.7410   4.8293483837e+01   8.5126279794e+00    0.4412504    0.2477218 -26.98  0.002247187    1.561    0.359
        90 -10.8945    119.9506     13.1009   3.5717680485e+01   5.3824886332e+01    0.3100686    0.1604898  37.68  0.001252606    2.116    0.527
        91  -9.1636    122.2817    121.9751   7.2235103759e+01   3.3562536334e+01    0.1670562    0.1272264 -52.05 0.0002776592    1.309    0.236
        92  -9.5685     30.4192    123.4990   9.7357942635e+01   4.6791424598e+01    0.1263086    0.1020583 -85.86 0.0001738258    1.029    0.028
        93 -11.5871    112.6735     13.6775   3.7525493184e+01   5.5604712856e+01    0.3298907    0.2206216  53.46  0.001172543    1.452    0.311
        94  -9.6711     91.2755    116.9520   7.9216706657e+01   4.0311644713e+01    0.1974714    0.1718718 -64.28 0.0003898048    1.091    0.083
        95  -9.2585     53.5089    117.5075   8.9985958726e+01   4.5683499362e+01    0.1336814    0.1152352 -81.94 0.0001559655    1.021    0.021
        96  -9.5041     13.9168    117.5632   1.0133885812e+02   4.9622102127e+01    0.1541647     0.119642  30.37  0.001015599    1.574    0.365
        97  -9.3688     69.6091    107.4636   8.3425014860e+01   4.5921453101e+01    0.1393799     0.121709 -75.45 0.0001471065    1.025    0.024
        98  -9.8133    104.0283    106.4715   7.3325459448e+01   4.0428692963e+01    0.2077455    0.1447238  44.57 0.0003373202    1.486    0.327
        99  -9.4700     13.5925    106.2809   1.0027166281e+02   5.2311259488e+01    0.1307174   0.07392411  63.81 0.0006981083    1.789    0.441
       100 -10.2730    246.3372    102.9846   4.3710629246e+01   1.0704184301e+01    0.2269456    0.1025665  -7.36 0.0007050447    4.357    0.770
       101  -9.8590    103.2110     96.5424   7.1014108772e+01   4.2799712554e+01    0.2716595    0.1660949 -58.03 0.0005781087    1.684    0.406
       102  -9.9793      4.8558     96.1818   1.0189061137e+02   5.5312115611e+01    0.2549382    0.1245423 -49.25  0.001327534    2.166    0.538
       103  -9.5346     63.9647     96.4930   8.2818499152e+01   4.9339779684e+01    0.1958758    0.1395638  36.52  0.001026237    1.572    0.364
       104 -10.7623    131.6433     92.9821   6.2450927046e+01   3.7695569721e+01    0.3435216    0.2193219  47.82 0.0007789119    1.613    0.380
       105 -10.3731    107.6094     89.6883   6.7880751757e+01   4.3450171005e+01    0.3406989    0.2670511 -82.66  0.001641362    1.574    0.365
       106  -9.9880    249.5072     85.9940   3.9160670982e+01   1.2283500900e+01    0.2001279    0.1080581  -2.72 0.0008038288    2.621    0.619
       107  -9.4593     77.8850     78.1662   7.3591216148e+01   5.1504308159e+01    0.1870731    0.1616897 -28.17 0.0002501058    1.262    0.207
       108 -10.1594     52.6571     77.4983   8.2101017233e+01   5.5390211112e+01    0.3380942    0.1278173  36.83  0.001350121    2.896    0.655
       109  -9.7514     63.8591     70.1050   7.6019494285e+01   5.5565559041e+01     0.182322     0.149905 -35.81 -0.0006383859    1.239    0.193
       110  -9.9171     40.9663     69.6968   8.4433801193e+01   5.8642757038e+01    0.1777618    0.1644654 -70.67 0.0004251434    1.102    0.093
       111 -10.0637      7.8945     69.0492   9.7219689722e+01   6.1616218988e+01    0.1898964    0.1446744 -71.43 0.0004406785    1.022    0.021
       112 -11.4368    192.1398     66.0586   4.1850024578e+01   2.7964236610e+01    0.2272506    0.2232485 -55.30 0.0002740923    1.072    0.067
       113  -9.5986    204.4705     65.8614   3.9884820190e+01   2.4985671509e+01     0.225003    0.1373942 -28.54 0.0006884037    1.510    0.338
       114  -9.8596     67.0121     65.0875   7.3316253730e+01   5.6220206545e+01     0.202224    0.1819275 -55.00  0.001165858    1.042    0.041
       115 -11.1761     98.8835     61.9572   6.1564729752e+01   5.1075667269e+01    0.3809868    0.2843861 -72.48  0.001765479    1.775    0.437
       116  -9.8299     43.9534     62.5121   8.1299008270e+01   5.9984498580e+01    0.2141255    0.1552823 -56.70 0.0005397862    1.168    0.144
       117  -9.4384     86.4697     61.0397   6.5182538970e+01   5.3723598318e+01    0.2188655    0.1358981 -44.00 0.0003329227    1.480    0.324
       118  -8.9461    124.5916     60.4309   5.3804944725e+01   4.5661726168e+01    0.1534839    0.1448178 -15.83  0.000157778    1.054    0.051
       119 -10.6442      3.5923     59.4643   9.7324809379e+01   6.4136989120e+01    0.2504658    0.2171537 -63.18  0.001142319    1.141    0.123
       120  -9.2124     22.4707     58.4629   8.9081629330e+01   6.3096470125e+01    0.1286446    0.1060917 -70.51 5.448987e-05    1.093    0.085
       121 -11.2297    249.2602     53.8332   3.1072711895e+01   1.6348790277e+01    0.3169585    0.1352024 -30.06  0.001375913    1.904    0.475
