#   1 NUMBER                 Running object number                                     
#   2 MAG_AUTO               Kron-like elliptical aperture magnitude                    [mag]
#   3 X_IMAGE                Object position along x                                    [pixel]
#   4 Y_IMAGE                Object position along y                                    [pixel]
#   5 X_WORLD                Barycenter position along world x axis                     [deg]
#   6 Y_WORLD                Barycenter position along world y axis                     [deg]
#   7 A_WORLD                Profile RMS along major axis (world units)                 [deg]
#   8 B_WORLD                Profile RMS along minor axis (world units)                 [deg]
#   9 THETA_WORLD            Position angle (CCW/world-x)                               [deg]
#  10 FWHM_WORLD             FWHM assuming a gaussian core                              [deg]
#  11 ELONGATION             A_IMAGE/B_IMAGE                                           
#  12 ELLIPTICITY            1 - B_IMAGE/A_IMAGE                                       
         1 -13.9344    170.4395     35.8969   7.5534722378e+01   3.8165643582e+01     1.484143     1.026151  11.97  0.004604366    1.620    0.383
         2 -12.7918    186.7638      3.9942   6.1969083428e+01   3.7205683900e+01    0.9517916    0.5509651  65.23   0.00428185    1.649    0.394
         3 -11.0247      4.2115    224.4360   1.4646687947e+02   2.9305394063e+01     0.075499   0.05529986 -72.78 0.0003904125    1.701    0.412
         4 -18.6109     61.8567    244.1846   1.3852966907e+02   2.0970266879e+01     4.668494      3.40758  39.35   0.03060903    1.412    0.292
         5 -10.8723    180.1974    192.7305   1.1260538221e+02   1.1737269441e+01    0.2637823    0.1818116  60.66  0.001163162    2.013    0.503
         6 -11.0875    157.2978    192.0476   1.1679833143e+02   1.5601357019e+01    0.1604965    0.1432102  37.49 0.0004444094    1.106    0.096
         7 -12.2019    209.2205    180.9251   1.0532696670e+02   8.3179786376e+00    0.6342788    0.3718711  13.64  0.003288889    1.956    0.489
         8 -11.2204     39.0310    183.4394   1.3876878440e+02   3.2914018113e+01    0.1706741    0.1328819  86.38 0.0003671836    1.151    0.131
         9  99.0000     10.7501    206.5188   1.4486728356e+02   3.1547617881e+01    0.2487894    0.2136434  78.54  0.002383991    1.327    0.246
        10 -11.9302    197.8970    175.3659   1.0640319302e+02   1.0996716056e+01    0.3927044    0.3108068 -37.46  0.001433116    1.566    0.361
        11  -9.7489    185.4608    174.5150   1.0859515069e+02   1.3308602876e+01     0.129697    0.1076011  28.29 0.0001607497    1.027    0.026
        12 -13.3032    137.4508    171.3328   1.1762860991e+02   2.2078288655e+01    0.6250266    0.3491718  49.65  0.003253222    1.697    0.411
        13 -11.4078    203.6265    167.4306   1.0387364235e+02   1.1021575287e+01    0.4796877    0.2927381  39.93   0.00248565    1.425    0.298
        14 -11.1137    164.1489    157.2878   1.0971011160e+02   1.9740040349e+01    0.2222173    0.1802779 -16.75 0.0007381418    1.373    0.271
        15 -10.7892     24.7445    156.6800   1.3978902554e+02   3.9202706699e+01    0.4274353    0.1175306  41.19   0.00215877    2.898    0.655
        16 -13.8381    132.8355    145.2384   1.1424287645e+02   2.7455712220e+01    0.8315529    0.5444975 -61.26  0.004144544    1.863    0.463
        17 -10.4538    174.2650    149.5627   1.0613368834e+02   1.9086953572e+01    0.2044147    0.1159056  33.46 0.0009573494    1.682    0.405
        18 -12.9150    193.3808    193.3114   1.1028557096e+02   9.4689026904e+00    0.6617115    0.4523589 -52.04  0.003430542    2.296    0.564
        19 -12.6261    114.9019    138.9744   1.1724176856e+02   3.1685832102e+01       0.4966      0.36968 -17.03  0.002627167    1.910    0.476
        20 -12.2589    104.6358    139.0345   1.1967828769e+02   3.3309413549e+01    0.3545345    0.2610253  55.07 0.0004800719    1.355    0.262
        21 -13.2668    137.4827    198.3365   1.2141422467e+02   1.7805063467e+01    0.6194322    0.2568852  47.79  0.003051439    2.138    0.532
        22 -11.8510    106.0232    130.8501   1.1791263368e+02   3.4740123417e+01    0.3479883    0.3124109 -72.60  0.001243565    1.132    0.117
        23 -10.7967    108.3198    125.6908   1.1638240732e+02   3.5421905097e+01    0.2536631    0.2238536  -9.49 0.0004567177    1.340    0.254
        24 -11.8607    119.5079    129.7957   1.1443387287e+02   3.2723117230e+01    0.2986736    0.2627886 -48.19 0.0008257359    1.179    0.152
        25 -11.5933    125.8910    127.9807   1.1253419610e+02   3.1965898656e+01    0.3702641    0.2444122  74.11  0.001635173    2.448    0.592
        26 -19.2273     53.6394    106.3562   1.2743834162e+02   4.7024875445e+01     16.17089     1.139755 -64.41   0.02967921   13.641    0.927
        27 -10.4018    170.4225    205.2831   1.1625058632e+02   1.1682341842e+01    0.1355395    0.1154406 -60.78 0.0009468793    1.667    0.400
        28 -11.7207    135.8164    122.4511   1.0898511462e+02   3.1221734068e+01    0.4422297    0.2391728 -57.49  0.001845216    2.394    0.582
        29 -10.5444    113.7946    118.8843   1.1364637974e+02   3.5899566373e+01    0.2014959    0.1858522 -10.73 0.0004835259    1.189    0.159
        30 -10.4925    168.3121    113.5694   9.9402858612e+01   2.6300192471e+01    0.2906537    0.2276567 -62.44  0.001423528    1.739    0.425
        31 -10.6115      7.9086    111.6372   1.4028813445e+02   4.9642489276e+01    0.2255777    0.1343549   4.13  0.001322846    2.589    0.614
        32 -10.1316    205.8351    110.1633   9.0847593713e+01   1.8717098017e+01    0.2108387    0.2029267   7.75 0.0005703731    1.192    0.161
        33 -10.9085     94.6740    109.9432   1.1678670633e+02   4.0887884008e+01    0.2243101    0.1911687  19.55 0.0007674785    1.335    0.251
        34  -9.8276     13.9676     59.0652   1.3218241424e+02   6.0888724138e+01     0.201605    0.1034343 -45.98  0.001131784    1.760    0.432
        35 -13.0311    158.7463     51.3818   8.3287682426e+01   3.8994456984e+01    0.7039769    0.5462452  67.18   0.00162393    1.517    0.341
        36 -11.5612     13.7789    248.3018   1.4577244822e+02   2.5084334186e+01    0.1575571   0.08938593  47.02  0.001053055    1.335    0.251
        37 -12.2545    174.4312     28.1203   7.2102356170e+01   3.8068726910e+01    0.5965754    0.4150631  20.28  0.001390024    1.554    0.356
        38  -9.7249    134.0576     29.8547   8.1098967519e+01   4.8253608099e+01    0.2375313     0.180199 -82.78 0.0005943543    2.003    0.501
        39 -11.7810    164.4967    205.3718   1.1733794445e+02   1.2607781895e+01    0.2757525    0.2222173 -48.83 0.0008261538    1.625    0.384
