#   1 NUMBER                 Running object number                                     
#   2 MAG_AUTO               Kron-like elliptical aperture magnitude                    [mag]
#   3 X_IMAGE                Object position along x                                    [pixel]
#   4 Y_IMAGE                Object position along y                                    [pixel]
#   5 X_WORLD                Barycenter position along world x axis                     [deg]
#   6 Y_WORLD                Barycenter position along world y axis                     [deg]
#   7 A_WORLD                Profile RMS along major axis (world units)                 [deg]
#   8 B_WORLD                Profile RMS along minor axis (world units)                 [deg]
#   9 THETA_WORLD            Position angle (CCW/world-x)                               [deg]
#  10 FWHM_WORLD             FWHM assuming a gaussian core                              [deg]
#  11 ELONGATION             A_IMAGE/B_IMAGE                                           
#  12 ELLIPTICITY            1 - B_IMAGE/A_IMAGE                                       
         1 -14.6357    210.8537     69.3433   8.0981431509e+01   2.3168874978e+01     2.199422     1.229046 -71.71  0.007711936    3.097    0.677
         2 -18.2168    235.7859     48.1562   7.1919152286e+01   2.0101775296e+01      8.43729     4.526906 -24.42   0.03168409    2.030    0.507
         3 -10.5651     92.1772     25.6060   9.2201766593e+01   5.8783696757e+01    0.3299501    0.2107009 -31.14 0.0008708732    1.537    0.350
         4 -10.5075     79.0675     15.4574   9.1925878724e+01   6.2652008089e+01    0.3975682     0.174935 -28.54  0.001398399    2.204    0.546
         5 -16.0559    132.4833     18.7235   7.9046213278e+01   5.0506774067e+01     7.939212     4.197387 -33.17   0.03555994    1.956    0.489
         6 -10.4147    185.6492    193.3186   1.1452307504e+02   7.4975587386e+00    0.2344246    0.1938944  30.24 0.0003787655    1.109    0.098
         7 -12.3849    246.3835    248.3074   1.1274132975e+02  -9.5074569513e+00    0.7129605    0.3796967  32.74  0.004578617    1.426    0.299
         8 -11.1538    237.4494    249.5298   1.1435715443e+02  -8.3419727281e+00    0.3158029    0.1444293  33.87  0.001709327    1.688    0.408
         9 -10.9372    215.5242    190.8712   1.0847367900e+02   2.3052511826e+00    0.2684258    0.2459688  -3.47  0.001583575    1.146    0.128
        10 -13.4638     30.7567    172.3208   1.4413613390e+02   3.6397944061e+01    0.9506719    0.7065187  51.77  0.003906285    1.340    0.254
        11 -13.6650     19.3598    180.0800   1.4703390950e+02   3.5915593217e+01     1.944326    0.7939919  66.67   0.01009088    2.339    0.572
        12 -11.5321    209.1461    186.4116   1.0881699407e+02   4.1398073823e+00    0.3453725     0.305298 -85.14  0.001137219    1.610    0.379
        13 -10.9579    214.0099    186.0162   1.0784552047e+02   3.2902631889e+00    0.2502488     0.177047  37.84 0.0009736894    1.261    0.207
        14 -11.7453    210.4596    179.2028   1.0720149115e+02   4.9834290632e+00    0.5765569    0.3673713  63.45  0.002632871    2.335    0.572
        15 -12.8450     13.1715    163.4002   1.4711351290e+02   3.9950139711e+01     1.202854    0.4890658  38.09  0.006720331    2.434    0.589
        16  -9.7081    187.1544    178.9687   1.1162676467e+02   9.5522831745e+00    0.2507653    0.1677047  55.95  0.001226103    1.607    0.378
        17 -10.8168    220.5832    176.0340   1.0472071914e+02   3.5355674177e+00    0.4309486    0.2695733 -55.77  0.001999153    2.534    0.605
        18 -11.3962    216.5014    169.7062   1.0420267847e+02   5.2791501306e+00    0.8243872    0.3935032  57.54  0.003164545    3.065    0.674
        19 -11.9752    180.7263    165.4863   1.1029919389e+02   1.3177349888e+01     1.204575    0.5666528  63.82  0.001995879    5.219    0.808
        20 -11.4447    192.3480    171.6960   1.0920287850e+02   9.7417654087e+00    0.5138669    0.2800029  62.74  0.001993953    2.912    0.657
        21 -10.7618    188.6640    170.0312   1.0960331131e+02   1.0765654318e+01    0.4038936    0.2310388  52.86   0.00088099    1.806    0.446
        22 -10.4221    229.8313    172.9821   1.0245810198e+02   2.2465343918e+00    0.5214855    0.1965554  48.22  0.001950674    2.709    0.631
        23 -11.7250    194.1968    166.8805   1.0787947333e+02   1.0182510043e+01    0.5707078     0.355414  68.86  0.002109999    2.669    0.625
        24 -11.8288    203.3690    165.8644   1.0589058091e+02   8.4956647954e+00    0.5299674    0.3880537  51.62  0.002787273    1.401    0.286
        25 -11.1648    203.4289    160.8117   1.0483534186e+02   9.3205779846e+00     0.275539    0.2484927  60.45 0.0007005175    1.246    0.198
        26 -10.3059    180.3769    174.3649   1.1210490809e+02   1.1681802402e+01    0.2778992    0.2018178  78.42  0.001328484    2.055    0.513
        27 -11.7707     80.8686    142.0151   1.2884508958e+02   3.6864287476e+01    0.6124091    0.4529416 -80.87  0.001658105    1.302    0.232
        28 -12.0979     55.6771    157.8456   1.3718790980e+02   3.6724193314e+01    0.3907223    0.3067368 -58.01 0.0009449385    1.414    0.293
        29 -14.0690     66.5416    149.7377   1.3356059806e+02   3.7141890869e+01     1.461595     1.048326 -48.91  0.004375288    1.623    0.384
        30 -12.2775    192.8664    154.3558   1.0554088175e+02   1.2625238188e+01    0.8333282    0.3857916 -50.44  0.003160652    2.751    0.636
        31  -9.5190    153.8952    158.3314   1.1455619016e+02   2.0041127204e+01    0.2195828    0.1942767 -75.39   0.00034353    1.229    0.186
        32  -9.2788    147.4040    158.5845   1.1603970080e+02   2.1307000100e+01    0.2532763    0.1918249  64.38 0.0005812923    1.390    0.281
        33  -9.2017     64.8186    246.1777   1.4339819583e+02   1.8347560392e+01    0.1577382     0.104963  65.33 0.0003470414    1.100    0.091
        34 -10.8530    222.4450    243.2906   1.1590673202e+02  -5.4536087117e+00    0.2847779    0.1333298  20.05  0.001298915    3.119    0.679
        35 -11.8295    160.6385    128.8047   1.0662750400e+02   2.4532509409e+01    0.4757955    0.4020964 -37.56  0.001812603    1.239    0.193
        36 -11.7930    134.1422    122.5247   1.1139894536e+02   3.1615920870e+01     2.296603     0.829253 -59.94  0.005119744    7.014    0.857
        37 -10.6427    127.7459    113.1716   1.1073601181e+02   3.4980642446e+01    0.9221554    0.3731569 -59.92 0.0009864467    4.240    0.764
        38 -11.5615    120.0190    103.7026   1.1034133039e+02   3.8633670694e+01    0.4941416    0.3205471 -45.76  0.001305611    1.519    0.342
        39 -10.7508    123.5068    102.5133   1.0910255308e+02   3.8170543701e+01    0.4101892    0.3300156 -83.91  0.001625775    1.483    0.326
        40  -8.7961    129.5837    129.7144   1.1418104654e+02   3.0999404323e+01    0.2027416    0.1402113 -64.16  0.000483365    1.595    0.373
        41 -11.1457    116.3312     95.2535   1.0907461384e+02   4.1208717742e+01    0.7475376    0.4413545  56.91  0.001776564    1.971    0.493
        42  -9.0249    126.7652    126.0628   1.1405546021e+02   3.2367863824e+01    0.3295032    0.1938584 -25.37  0.001172438    3.123    0.680
        43 -10.4823    151.7020    119.9419   1.0654084702e+02   2.8344899155e+01    0.5302834    0.2542402 -50.62   0.00150327    2.251    0.556
        44 -11.3579    198.5144    152.7300   1.0407368557e+02   1.1716996516e+01     0.362776    0.2831131 -28.81  0.001167649    1.342    0.255
        45  -9.4391     91.0343    116.1966   1.2125124580e+02   4.1197766136e+01    0.3223032    0.1827248 -61.18   0.00144971    1.736    0.424
        46 -10.8458    156.8463    112.7410   1.0352675925e+02   2.8651610588e+01    0.4705302    0.3072103 -71.88   0.00112689    2.328    0.571
        47  -9.8106    135.0000    113.4709   1.0897519715e+02   3.3379578321e+01    0.4306363    0.2026404 -50.08  0.001445035    2.184    0.542
        48 -10.4287    135.0000    108.5239   1.0771288235e+02   3.4434678028e+01    0.7818816    0.2117866 -48.43  0.002187159    3.912    0.744
        49  -9.1152    146.1198    112.7159   1.0605319848e+02   3.1096131378e+01    0.2289636    0.2009342  89.15  0.001152514    1.248    0.199
        50  -9.6077    121.5946    113.2890   1.1235380262e+02   3.6218508994e+01    0.2083692    0.1408591 -40.61 0.0008473056    1.559    0.359
        51 -10.8107    117.9999    109.4579   1.1234976003e+02   3.7783567248e+01     0.311674    0.2268341 -51.02 0.0009342632    1.346    0.257
        52 -10.7486    113.2857    105.4986   1.1261613167e+02   3.9588536846e+01    0.4236694    0.2706794 -37.92  0.001700689    1.713    0.416
        53  -9.0761    139.7964    106.2128   1.0590968899e+02   3.3867660359e+01    0.2097192    0.1865059   1.61 0.0008213915    1.321    0.243
        54 -11.0345    153.6662     99.4062   1.0072100376e+02   3.2080655514e+01    0.6033241    0.4388003 -68.32  0.002656014    1.725    0.420
        55  -9.7910    144.3284    102.9866   1.0393342059e+02   3.3518004579e+01    0.2827399    0.2238843  39.49  0.000566387    1.311    0.237
        56  -9.0709     35.8790    101.5144   1.3434925868e+02   5.1754856735e+01    0.1558147    0.1250849  32.84 0.0004196829    1.490    0.329
        57  -9.6839    132.0471     98.3677   1.0575552290e+02   3.7223665123e+01    0.2874932    0.2225955 -56.65 0.0008003611    1.341    0.254
        58  -9.2243    177.0320     96.7406   9.4797032296e+01   2.6953821080e+01    0.2185607    0.2094878  69.12 0.0004479468    1.050    0.048
        59 -11.5684    149.6968     89.1540   9.8768907109e+01   3.5048646357e+01    0.3417563    0.2707788 -47.15 0.0005738101    1.273    0.214
        60 -10.2630    180.9417    152.5154   1.0757235400e+02   1.5488380493e+01    0.3264506    0.2364546  72.96  0.001514312    1.856    0.461
        61 -10.7318    171.6505     86.4630   9.3054524296e+01   3.0188846918e+01    0.2662105    0.2607279  59.48 0.0004503002    1.016    0.016
        62  -8.8456     30.5838     81.7174   1.3236337960e+02   5.6708192805e+01    0.1710947    0.1031183 -73.57 0.0009381133    1.570    0.363
        63 -10.3060     79.6362     75.8508   1.1449300149e+02   5.2050959434e+01    0.2988544    0.1907707 -59.48 0.0009240531    1.655    0.396
        64 -11.2592    204.3028    152.3516   1.0286677337e+02   1.0563845384e+01    0.2726679    0.2612632 -86.96  0.001421842    1.225    0.184
        65 -10.0374    134.0811    147.6917   1.1691888401e+02   2.6226799535e+01    0.5720074    0.1915557 -55.54   0.00180352    3.645    0.726
        66  -9.4087     58.7185     47.1265   1.1255662329e+02   6.0910055883e+01    0.2271114     0.138553 -47.18 0.0007062075    1.501    0.334
        67 -12.4046    204.1871     39.6659   7.3692668983e+01   2.9203113818e+01      0.38031    0.2098721 -32.99   0.00129884    1.785    0.440
        68 -10.8007    198.8926     38.5353   7.4114087893e+01   3.0737614106e+01    0.1955729    0.1810701 -49.95 0.0001027667    1.081    0.075
        69  -9.5836    131.5417    140.5029   1.1604300516e+02   2.8268477404e+01     0.421906    0.3402914 -68.45  0.001356979    1.302    0.232
        70 -10.5132    177.3913    147.1304   1.0714919687e+02   1.7254679440e+01    0.3026009    0.2277108  85.66  0.001167509    1.887    0.470
        71  -9.7287    171.0879     28.4872   7.5299289240e+01   3.9388966670e+01    0.2588652    0.1721622 -23.07 0.0005979935    1.639    0.390
        72 -11.6649    205.4904     29.5577   7.0659329578e+01   3.0163497142e+01    0.3697971    0.2199474  67.88  0.001074591    1.610    0.379
        73 -11.5247    204.4662    200.3332   1.1219643098e+02   2.9551397571e+00    0.3294763    0.2151215  -9.31  0.001700896    2.061    0.515
        74  -8.4089    177.5264     25.6736   7.3390210903e+01   3.8019831467e+01    0.1460798    0.1279515  65.09 0.0003894294    1.078    0.073
        75 -10.2317    202.8917     22.1493   6.8889220328e+01   3.1729872740e+01    0.1733492    0.1317327 -19.56 0.0003682625    1.488    0.328
        76 -11.0793    199.7919     25.1228   7.0122851614e+01   3.2191405867e+01    0.2467834    0.1725393 -68.70 0.0007430929    1.514    0.340
        77 -11.5194    201.2781     17.7455   6.7833791903e+01   3.2652905940e+01    0.2086725    0.1940204 -80.11 0.0004631963    1.033    0.032
        78 -12.0063    192.9037    194.9995   1.1342751770e+02   5.8744844908e+00     0.942978    0.4825533 -61.78  0.003163294    5.350    0.813
        79  -9.6757    160.6882    145.4392   1.1038571866e+02   2.1180661292e+01    0.4110124    0.2553844  28.85   0.00172688    2.044    0.511
        80  -8.9799    163.5160     13.2902   7.1536456574e+01   4.3108322859e+01    0.1734671    0.1383113   8.41 0.0007428172    1.470    0.320
