#   1 NUMBER                 Running object number                                     
#   2 MAG_AUTO               Kron-like elliptical aperture magnitude                    [mag]
#   3 X_IMAGE                Object position along x                                    [pixel]
#   4 Y_IMAGE                Object position along y                                    [pixel]
#   5 X_WORLD                Barycenter position along world x axis                     [deg]
#   6 Y_WORLD                Barycenter position along world y axis                     [deg]
#   7 A_WORLD                Profile RMS along major axis (world units)                 [deg]
#   8 B_WORLD                Profile RMS along minor axis (world units)                 [deg]
#   9 THETA_WORLD            Position angle (CCW/world-x)                               [deg]
#  10 FWHM_WORLD             FWHM assuming a gaussian core                              [deg]
#  11 ELONGATION             A_IMAGE/B_IMAGE                                           
#  12 ELLIPTICITY            1 - B_IMAGE/A_IMAGE                                       
         1 -13.2269    195.8166     33.1422   6.1367191495e+01   3.1935051723e+01     1.303538     1.071726  41.10  0.006729824    1.237    0.192
         2 -14.0514    209.0508     17.1212   5.4663763042e+01   3.0275613425e+01     1.943081     1.231182  23.19  0.008668866    1.976    0.494
         3 -10.7832      2.3084      3.9197   1.1017488070e+02   7.3386199743e+01    0.3471766    0.1182422 -59.50  0.001707244    2.454    0.592
         4 -11.0915    185.2460    248.0072   1.0900450287e+02   3.9910136184e+00    0.2831883    0.1001133  34.05  0.001360439    2.965    0.663
         5 -12.7585    137.9214    248.4872   1.1635250526e+02   1.0807475251e+01    0.6511007    0.2300484  47.51  0.003657285    2.047    0.512
         6 -11.5890    126.8740    249.4052   1.1813937262e+02   1.2243581285e+01    0.2617486    0.1993244  35.96  0.001770908    1.402    0.287
         7 -12.8014    107.3612    244.9709   1.2078328287e+02   1.5465532686e+01    0.5319017    0.3217563  56.48  0.003415302    1.254    0.202
         8 -12.6807     93.8212    249.4516   1.2319420032e+02   1.6647795351e+01    0.6261344    0.2598306  45.17  0.004050834    1.733    0.423
         9 -11.4095     95.4526    241.9637   1.2239813928e+02   1.7439062836e+01    0.2246787     0.156131 -76.76   0.00134332    1.689    0.408
        10 -10.6477     62.7032    249.8769   1.2786516921e+02   2.0374549268e+01    0.3508642   0.09859213  56.20  0.001903653    2.847    0.649
        11 -14.6354     35.4967    246.7331   1.3166005940e+02   2.3788279878e+01       8.8795     2.514859  32.94   0.02876484   10.963    0.909
        12 -13.4315     16.0216    241.6951   1.3423792031e+02   2.6438014989e+01     1.109127    0.4776494  59.99  0.007859931    1.546    0.353
        13 -14.7204      8.6471    208.7217   1.3413512605e+02   3.2175748411e+01     2.753463    0.8705289 -84.19   0.01622956    2.817    0.645
        14 -15.3987      9.7979    152.2431   1.3117200854e+02   4.2165924288e+01     4.512895     1.355483 -87.93   0.02056186    3.358    0.702
        15 -11.4846    151.5168    228.7240   1.1217563805e+02   1.1239356441e+01    0.3497117    0.1497264  45.68  0.001981591    1.754    0.430
        16 -14.1168     42.6488    215.7733   1.2904395078e+02   2.7684213552e+01    0.8530152    0.5235571  62.18  0.003603401    1.178    0.151
        17 -12.7583     35.3262    224.8987   1.3068517907e+02   2.7027888756e+01    0.3070131    0.2170907  55.81 0.0007289984    1.207    0.172
        18 -14.8192     50.6905    206.9627   1.2717525472e+02   2.8228036485e+01     4.208498    0.6614242  53.02   0.01531705    5.500    0.818
        19 -10.4812    226.6924    202.2998   9.6230366552e+01   2.2691003530e+00    0.3239062    0.2208171 -54.14 0.0009265984    2.751    0.637
        20 -12.7018      5.1529    246.9748   1.3591146501e+02   2.6689045084e+01    0.8167171    0.3703129  61.23  0.006718737    1.411    0.292
        21 -10.8796    198.4303    245.6963   1.0672135724e+02   2.2777367959e+00     0.193561   0.09539122  31.85  0.000970875    1.780    0.438
        22  -9.7866    192.0394    193.0591   1.0052966064e+02   9.1908183819e+00    0.2719165    0.1522831 -62.03  0.001140674    4.429    0.774
        23 -11.6880     62.1258    192.3751   1.2410275980e+02   2.9370248913e+01    0.2851068    0.2345586 -57.27  0.001685784    1.662    0.398
        24  -8.4375    181.4723    192.4516   1.0227844661e+02   1.1101291102e+01    0.1226296   0.09950881  37.62 0.0001279871    1.017    0.017
        25 -11.7233     67.9072    185.3264   1.2243170890e+02   2.9903684507e+01    0.2271826     0.194409 -73.58 0.0005758759    1.369    0.269
        26 -10.9789     77.7074    173.5635   1.1938481495e+02   3.0779498653e+01     0.198061    0.1715617  77.95 0.0003341832    1.118    0.105
        27 -13.2098     64.7428    170.8639   1.2167605800e+02   3.2950222301e+01    0.4014856    0.2432911 -48.73  0.001545884    2.301    0.565
        28 -12.1203     85.3247    165.0877   1.1688384068e+02   3.1327898646e+01    0.8113844    0.4336888  57.94  0.004428738    1.793    0.442
        29 -11.2916     42.2002    231.7486   1.2997192473e+02   2.5260536163e+01    0.1801127    0.1599593  69.88  0.001459572    1.482    0.325
        30 -12.8333     67.2998    144.0189   1.1813753611e+02   3.7900794750e+01    0.8883483    0.4944976  81.06   0.00265096    2.151    0.535
        31 -12.1640     56.5978    128.9256   1.1865529060e+02   4.2350108364e+01      1.43549    0.4626074 -77.94  0.004114559    6.599    0.848
        32  -9.9157     98.1667    149.4747   1.1206357186e+02   3.2458899488e+01    0.2392488    0.2232783  81.08 0.0007384949    1.120    0.107
        33  -9.1490    101.2502    145.5254   1.1078439480e+02   3.2757356011e+01    0.2288516    0.1592458 -33.34   0.00120594    2.153    0.536
        34 -12.1359     86.6875    148.4535   1.1442982232e+02   3.4371453936e+01    0.2424967    0.2141214 -63.39 0.0004845931    1.258    0.205
        35 -11.8926     55.4770    239.0114   1.2834182159e+02   2.2727882537e+01    0.3283486    0.1835753  57.48  0.001866554    1.248    0.199
        36  -9.5810    109.7442    135.5581   1.0721977285e+02   3.3359823870e+01    0.2604561     0.209968 -18.96 0.0009341338    1.809    0.447
        37 -10.0934     68.6797    134.9292   1.1662022791e+02   3.9598749753e+01    0.1737965    0.1389951 -83.42 0.0004831766    1.104    0.095
        38 -10.5040     96.8778    132.3408   1.0962878785e+02   3.6101509603e+01    0.2257611    0.2078057 -30.88 0.0008240668    1.368    0.269
        39  -9.1685    106.9078    122.6871   1.0550157683e+02   3.6449437637e+01     0.176338    0.1561579  63.18 0.0003376969    1.090    0.082
        40 -10.4205    167.8826    112.9012   8.9509741411e+01   2.6339661917e+01    0.3456119    0.2759142 -82.17  0.001378396    1.665    0.399
        41  -9.3268    204.3685    110.9218   8.1893957284e+01   1.8569263031e+01    0.3182784    0.1709459  35.27  0.001327505    2.043    0.510
        42  -9.5373     33.3091    109.3149   1.2189214488e+02   4.9003762232e+01    0.1136411   0.07848093 -48.72 0.0003015319    1.631    0.387
        43 -10.3417     53.4850    229.2983   1.2809862203e+02   2.4385767153e+01     0.196594    0.1080487  80.53  0.001431637    1.679    0.404
        44 -10.1518    249.4904    249.0461   9.9588859618e+01  -5.3020217689e+00    0.2096805    0.1139687   3.07  0.001387618    2.162    0.538
        45 -12.1491    178.9532    250.0000   1.1018858907e+02   4.7102949181e+00     1.246983   0.07316057  42.58   0.00255177   14.848    0.933
        46 -10.5587    189.9019     15.4842   5.6551838750e+01   3.5524563356e+01     0.228682     0.201154 -20.11  0.001088828    1.152    0.132
