#   1 NUMBER                 Running object number                                     
#   2 MAG_AUTO               Kron-like elliptical aperture magnitude                    [mag]
#   3 X_IMAGE                Object position along x                                    [pixel]
#   4 Y_IMAGE                Object position along y                                    [pixel]
#   5 X_WORLD                Barycenter position along world x axis                     [deg]
#   6 Y_WORLD                Barycenter position along world y axis                     [deg]
#   7 A_WORLD                Profile RMS along major axis (world units)                 [deg]
#   8 B_WORLD                Profile RMS along minor axis (world units)                 [deg]
#   9 THETA_WORLD            Position angle (CCW/world-x)                               [deg]
#  10 FWHM_WORLD             FWHM assuming a gaussian core                              [deg]
#  11 ELONGATION             A_IMAGE/B_IMAGE                                           
#  12 ELLIPTICITY            1 - B_IMAGE/A_IMAGE                                       
         1 -11.8057      2.3165     24.1526   1.2300254011e+02   7.0338244281e+01    0.6281268    0.1014325 -55.49  0.002258112    4.487    0.777
         2 -12.0151      2.3639     14.0272   1.1907247515e+02   7.2102694192e+01    0.4339287    0.2210697 -38.60  0.002724724    1.461    0.316
         3 -13.0755    192.7731     30.4187   6.8167373252e+01   3.3174561246e+01     1.135391     1.086653 -38.70  0.006271964    1.120    0.107
         4 -13.7829    206.3822     13.0246   6.1878256337e+01   3.1780837029e+01     1.587132     1.084544  37.64  0.008340153    1.863    0.463
         5 -11.4025      2.2827      5.6999   1.1541487399e+02   7.3460058118e+01    0.6460084     0.153522 -47.43  0.002858691    3.250    0.692
         6 -10.9547     98.1144    249.1384   1.3437744878e+02   1.1949651872e+01    0.2950606    0.1738845  52.37  0.001851368    1.346    0.257
         7 -10.5889    249.5092    249.4389   1.0781466705e+02  -1.0657729174e+01    0.2461886    0.1504666 -19.18  0.001667327    1.630    0.386
         8 -11.0994    139.1110    247.6454   1.2683989690e+02   6.0516826398e+00    0.4094092    0.1687637 -47.07  0.002035341    3.101    0.678
         9 -11.4867    126.6269    249.3323   1.2929036618e+02   7.7082836182e+00    0.3461932    0.2511913  23.77  0.001941237    1.675    0.403
        10 -11.9714    100.7886    245.6233   1.3356498027e+02   1.2141510313e+01    0.5481561    0.2949329  71.05  0.002900965    2.378    0.579
        11 -10.6382     81.5525    249.2296   1.3730146383e+02   1.4245797536e+01    0.2556704     0.136135  55.25  0.001558149    1.514    0.340
        12  -9.7129     66.9562    250.0430   1.3988657568e+02   1.6044466822e+01    0.1650876    0.1244093  61.69 0.0003110165    1.033    0.032
        13 -10.2933     46.4821    249.1428   1.4327349269e+02   1.8736145988e+01    0.2643306    0.1341365  77.10  0.001630674    1.890    0.471
        14 -14.2916     31.1099    247.0189   1.4567344489e+02   2.0865841819e+01     10.52974     3.356803  28.91   0.02956642   11.713    0.915
        15 -15.2737     12.1841    157.2248   1.4316147116e+02   4.0745906944e+01     6.309951     2.158004 -88.40   0.02524686    3.391    0.705
        16  -9.5458    229.5549    229.7394   1.0800062440e+02  -5.6460313826e+00    0.1437724    0.1091902 -37.56  0.000943906    1.665    0.399
        17 -12.5104     38.8108    229.9151   1.4334239102e+02   2.3053000789e+01    0.2804706    0.2394714  82.21   0.00077657    1.263    0.208
        18  -9.8194    193.7640    196.1804   1.0872159878e+02   4.9629798222e+00    0.5655871    0.2851037 -62.64  0.001375403    9.786    0.898
        19 -11.3931     64.6547    196.2939   1.3555666191e+02   2.6495456427e+01    0.3269835    0.2330016 -48.54   0.00114707    1.818    0.450
        20 -10.6179    150.4406    229.3431   1.2241101526e+02   7.0874019776e+00    0.2624186    0.1348725  43.38  0.001359053    1.623    0.384
        21 -11.5831     70.1502    188.6288   1.3354531488e+02   2.7375239307e+01    0.2682551    0.2286484 -67.18 0.0004240354    1.270    0.213
        22 -10.7861     79.6570    176.3589   1.2989497400e+02   2.8698261067e+01    0.2338248    0.2142362 -89.45 0.0002921409    1.106    0.096
        23 -13.0597     66.7971    174.0307   1.3251738211e+02   3.1017411338e+01    0.4837559    0.2763338 -45.92  0.001760311    2.244    0.554
        24 -11.8377     86.8572    166.8440   1.2685260479e+02   2.9742121434e+01    0.8290106    0.5443716  60.51  0.004268235    1.565    0.361
        25 -14.3939     45.3057    221.1223   1.4155783745e+02   2.3948226096e+01     1.835228     1.406102  30.05  0.009489425    1.736    0.424
        26  -9.7963     99.4175    151.2878   1.2119569677e+02   3.1260164490e+01    0.3084952    0.2615242 -47.71 0.0007961137    1.255    0.203
        27  -9.1366    102.2663    147.1872   1.1971691243e+02   3.1715207161e+01    0.2158178    0.1926318 -29.24 0.0005968849    1.320    0.243
        28 -11.8919     88.0035    150.4615   1.2390221839e+02   3.3304674689e+01    0.2802136    0.2495538 -43.95  0.000573256    1.264    0.209
        29 -12.5017     67.4445    144.1099   1.2807413509e+02   3.7801302741e+01    0.7966916    0.5274535  79.31  0.003521422    1.753    0.429
        30 -11.8558     56.9456    129.1069   1.2837641598e+02   4.2711421190e+01     1.602468    0.5494206 -75.14  0.003849484    7.402    0.865
        31 -13.4380      6.4043    240.1501   1.4929915569e+02   2.4629998967e+01     2.086675    0.7545282 -85.48   0.01206843    2.462    0.594
        32  -8.4656    192.3651    144.1808   9.8364538830e+01   1.4332785008e+01    0.1962206    0.1342472 -48.08 0.0003542516    1.558    0.358
        33  -9.5845    110.4256    136.6684   1.1552313056e+02   3.2678164283e+01    0.3581436    0.2315423 -21.53  0.001302126    2.664    0.625
        34 -10.4278     97.7928    133.8412   1.1821847058e+02   3.5561899120e+01    0.2649362    0.2337131 -36.10 0.0004808379    1.251    0.201
        35 -10.6661     50.4147    129.8963   1.3029734538e+02   4.3307959115e+01    0.2403748    0.2042303  63.14 0.0006358204    1.229    0.186
        36  -8.5574    116.3202    129.3253   1.1239188994e+02   3.3247310346e+01    0.1504335    0.1195964 -12.29 0.0005355863    1.680    0.405
        37  -9.0952    107.1890    123.6144   1.1348573288e+02   3.6256933834e+01    0.1928075    0.1797559  34.38 0.0005972469    1.149    0.129
        38  -9.3625     44.2987    130.3532   1.3203397535e+02   4.3888904191e+01     0.133423   0.08800474 -43.59 0.0003630561    1.695    0.410
        39 -10.1997    168.1150    113.0866   9.5881956540e+01   2.5677455154e+01    0.3469593    0.2841122 -76.21 0.0008583465    1.489    0.328
        40  -8.8863    203.4947    111.5047   8.8366109341e+01   1.7887069057e+01    0.1495961      0.14156 -15.37 -1.781877e-05    1.042    0.040
        41 -14.0964      8.6200    203.9688   1.4714283901e+02   3.1184846488e+01     2.570629    0.8839827 -88.09  0.008885576    2.762    0.638
        42  -8.7801    152.7796    212.8559   1.1958578335e+02   9.4226435135e+00    0.1654948    0.1389277  63.84 0.0003083451    1.275    0.216
        43 -10.6419    110.1462    249.1539   1.3223376782e+02   1.0201256675e+01    0.1703376    0.1434915  42.91 0.0008273008    1.209    0.173
        44 -11.0185    240.3286    248.3230   1.0914193193e+02  -9.3052402866e+00    0.2379596   0.08081961  35.66   0.00116742    2.425    0.588
        45 -11.5013     83.4054    245.3151   1.3664236559e+02   1.4649980232e+01     0.460192    0.2205783  63.69   0.00245457    2.187    0.543
        46 -10.1577    249.2082    244.3916   1.0707337037e+02  -1.0093232647e+01     0.150589   0.08914912  38.98 0.0006606025    1.671    0.402
