#   1 NUMBER                 Running object number                                     
#   2 MAG_AUTO               Kron-like elliptical aperture magnitude                    [mag]
#   3 X_IMAGE                Object position along x                                    [pixel]
#   4 Y_IMAGE                Object position along y                                    [pixel]
#   5 X_WORLD                Barycenter position along world x axis                     [deg]
#   6 Y_WORLD                Barycenter position along world y axis                     [deg]
#   7 A_WORLD                Profile RMS along major axis (world units)                 [deg]
#   8 B_WORLD                Profile RMS along minor axis (world units)                 [deg]
#   9 THETA_WORLD            Position angle (CCW/world-x)                               [deg]
#  10 FWHM_WORLD             FWHM assuming a gaussian core                              [deg]
#  11 ELONGATION             A_IMAGE/B_IMAGE                                           
#  12 ELLIPTICITY            1 - B_IMAGE/A_IMAGE                                       
         1 -13.3948    234.5349     26.3398   3.4921061275e+02   2.6657871402e+01    0.7969286    0.5934105 -50.57  0.003967939    1.081    0.075
         2 -10.7225     34.3198     15.8238   2.3815560304e+01   7.2496703185e+01    0.2439215    0.1734769  65.02  0.001285506    1.924    0.480
         3 -10.1891     20.6025      4.1932   2.5109538761e+01   7.6557655270e+01    0.1722582    0.1114367 -21.80 0.0009577773    1.718    0.418
         4  -9.8379    102.8057    238.4853   5.2962929898e+01   1.1084061022e+01    0.2814103    0.1576781 -52.47 0.0009560397    2.035    0.509
         5 -10.0871    101.4490    250.1173   5.4442975928e+01   9.1862943409e+00    0.2035541    0.1990238 -28.46 0.0009389521    1.250    0.200
         6 -10.3125    100.4766    245.5080   5.4201952949e+01   1.0096015455e+01     0.328972    0.2459234  72.34  0.002038464    1.837    0.456
         7  -8.9458     96.6994    250.1620   5.5484997761e+01   9.7036717592e+00     0.154391    0.1006346 -45.94 0.0009306037    1.807    0.447
         8 -11.7628     76.0892    245.0705   5.9629445400e+01   1.2886364109e+01    0.3227217     0.216218 -54.39  0.000567109    1.775    0.437
         9 -18.7169     15.5178    215.8060   7.2202104601e+01   2.5060896495e+01     7.334326     4.308803 -83.05   0.03018247    1.761    0.432
        10  -8.6184    234.4131    191.1993   2.0805466289e+01   3.3875668250e+00    0.1445606   0.08716904 -40.79  0.000376135    1.558    0.358
        11  -9.3468    194.5451    224.7207   3.2494535284e+01   2.8484588215e+00     0.137362     0.101569 -41.70 0.0009315712    1.556    0.357
        12  -9.7673     70.0118    184.9099   5.5072687334e+01   2.6490896470e+01    0.2581303    0.2013322 -86.28 0.0006556461    1.398    0.285
        13  -9.2314     84.2857    184.1849   5.1035052620e+01   2.4765702062e+01    0.2031575    0.1565462  59.90  0.001054716    1.386    0.278
        14 -10.8333    116.3777    182.7656   4.2430408086e+01   2.0492235990e+01    0.2466837    0.2008316  22.35  0.001057594    1.189    0.159
        15  -9.5762     97.9241    182.5063   4.7131015242e+01   2.3241522195e+01    0.2172859    0.1321269  32.07 0.0005203401    1.541    0.351
        16  -9.8648    175.1283    179.5781   2.8843141268e+01   1.2531164479e+01    0.2594877    0.1990721  21.35  0.001414378    1.315    0.240
        17 -11.1692    179.9798    167.3211   2.5697777904e+01   1.4033724661e+01    0.6370156    0.4270774 -43.24   0.00356624    1.394    0.283
        18 -10.8660    171.7421    175.3221   2.8748732550e+01   1.3780730530e+01    0.3271947    0.3059161 -19.63 0.0009579223    1.122    0.108
        19 -10.7790    173.7566    171.7649   2.7709569789e+01   1.4137977456e+01    0.3941054    0.2930206  59.74  0.001552693    1.993    0.498
        20 -11.2823    159.5967    223.6761   3.8934282785e+01   6.9362898907e+00    0.2445144    0.1695807   8.77  0.001264554    1.328    0.247
        21 -10.4095    127.9131    177.1560   3.8675550031e+01   1.9970753116e+01    0.2097705    0.1890019  53.18 0.0005578306    1.232    0.188
        22  -9.3855    107.7346    235.7216   5.1558886824e+01   1.1010706486e+01    0.2007693    0.1444103 -49.42  0.001036357    1.587    0.370
        23 -11.5730    111.9421    169.3183   4.1329654099e+01   2.4162842024e+01    0.8047364    0.4483543 -81.13  0.002728544    3.842    0.740
        24 -11.0500    104.7559    171.7233   4.3625649913e+01   2.4718022391e+01    0.3422418    0.3162791 -68.36 0.0008450867    1.148    0.129
        25 -11.6264    133.5912    144.9447   3.1219798836e+01   2.6037553101e+01     1.209748    0.3059619 -54.75  0.002986059    5.720    0.825
        26 -10.7224     81.9505    150.0014   4.6418541938e+01   3.3538529938e+01    0.2650277    0.2453834 -34.04 0.0003476276    1.157    0.136
        27  -9.2735    104.0834    233.1189   5.2096306891e+01   1.1917201700e+01    0.1857454    0.1504243  -6.95 0.0005240301    1.302    0.232
        28  -9.7139    175.0000    223.0528   3.5834978948e+01   5.2508293487e+00    0.1792304   0.06213607 -45.52 0.0007993256    2.921    0.658
        29 -11.7913     89.0462    144.3283   4.3228041320e+01   3.3855053870e+01    0.6490025    0.4897706 -18.92  0.003008079    1.706    0.414
        30 -10.2708     32.1618    144.9461   6.2039648477e+01   4.1386020290e+01    0.4821222    0.2702939  42.92  0.002136549    1.702    0.412
        31  -8.5028    116.4817    144.4676   3.5464284978e+01   2.9156933456e+01    0.1479679    0.1430534  80.94 0.0001262946    1.074    0.069
        32  -9.9289    147.2684    142.9897   2.7623875510e+01   2.4045803455e+01    0.2075667    0.1828831 -39.24  0.001161288    1.075    0.070
        33 -11.0745    103.2807    132.6694   3.6643016955e+01   3.4309132763e+01    0.5491171    0.3668577 -21.64  0.002247535    2.212    0.548
        34 -11.4800     90.3112    131.4960   4.0275819976e+01   3.6884011990e+01    0.3929636     0.285243 -47.94 0.0003241785    1.396    0.284
        35 -11.0376     43.5466    130.6939   5.6067591155e+01   4.4054684573e+01    0.5129596    0.3782139  49.40  0.002391539    1.350    0.259
        36  -9.4118     38.9870    128.0083   5.7343645399e+01   4.5329364645e+01    0.3417664    0.1744518  41.75 0.0008523849    1.918    0.478
        37 -10.4496    136.0000    129.5647   2.7313317017e+01   2.8959027208e+01    0.4844465    0.0810336 -47.84  0.001135593    5.730    0.825
        38  -9.4736    162.7902    128.3642   2.1169873074e+01   2.4228585162e+01    0.2265785    0.1828055  38.98 0.0006020359    1.356    0.262
        39 -10.6777    111.8847    126.0762   3.2736413485e+01   3.4305007754e+01    0.3458255    0.2911702 -10.25 0.0009377632    1.443    0.307
        40 -10.2291     79.1015    125.9471   4.2695469833e+01   4.0203000047e+01     0.595898    0.3136467  61.64  0.002022368    2.941    0.660
        41  -9.4880     76.2055    120.7853   4.2561186805e+01   4.2023691514e+01    0.2258562    0.1991877 -61.08 0.0005973529    1.119    0.106
        42 -10.1789     45.0233    123.9940   5.4437224259e+01   4.5720907951e+01    0.3655161    0.2034883 -58.46  0.001146277    1.708    0.415
        43 -10.8414    116.8781    121.9249   3.0406286502e+01   3.4321021441e+01    0.2372659    0.2110995 -17.05  0.000665522    1.273    0.214
        44 -10.4587     98.9099    121.1785   3.5358708000e+01   3.7907164612e+01    0.3131844    0.2670989   1.13 0.0009045731    1.422    0.297
        45  -9.9225    107.9046    116.0331   3.1488879779e+01   3.7430877285e+01    0.2288438    0.2190118 -80.20 0.0003198803    1.030    0.029
        46  -9.8100     40.0711    113.7538   5.4584890721e+01   4.9142654959e+01    0.2315263    0.1918245  59.44  0.000431953    1.232    0.188
        47 -11.1429    105.8325    214.1693   4.9465835826e+01   1.5356026942e+01    0.4197091    0.2040927 -51.87  0.001306835    2.203    0.546
        48 -11.5264     33.5016    109.2513   5.6475769479e+01   5.1132648537e+01    0.5915959    0.3192655 -64.30  0.002388083    1.722    0.419
        49  -9.3984     80.9716    214.8633   5.5607779450e+01   1.8321754322e+01    0.1963303    0.1702313  37.44 0.0005655095    1.035    0.033
        50 -12.0335    115.6212    100.8847   2.5462941814e+01   3.9333113758e+01    0.6932642    0.4389016  72.65  0.002729206    2.367    0.577
        51 -12.3024    114.8667    108.5170   2.7662756518e+01   3.7783091883e+01    0.7071223    0.5409048  20.90  0.003309476    1.663    0.399
        52  -9.5867    188.6758    212.6457   3.1735777381e+01   5.3018383320e+00    0.1266603    0.0764868 -11.76 0.0007046692    1.764    0.433
        53 -10.1067     38.9992    103.8416   5.3165460084e+01   5.1984406426e+01    0.4808564    0.2211801  40.06  0.001864515    2.167    0.539
        54 -11.4347     33.4033    100.7564   5.4968379163e+01   5.3472473474e+01    0.4640788     0.375394  69.81  0.001096668    1.314    0.239
        55  -9.8669     71.9559    232.9934   5.9553121013e+01   1.5659962505e+01    0.2870168    0.1482099  33.69 0.0009122965    1.567    0.362
        56  -9.9399    102.7640     92.0568   2.6673065572e+01   4.3985532236e+01    0.4780702     0.301062  88.31  0.001690515    3.002    0.667
        57 -10.8825     58.4661     93.6187   4.2707892504e+01   5.1965521331e+01    0.4954024     0.201111  40.76  0.001763126    2.437    0.590
        58 -11.6316     26.9720     91.3273   5.6036978821e+01   5.6710352022e+01    0.5253537    0.2114766 -51.81  0.001982417    2.301    0.565
        59 -11.0023    141.1046    229.8087   4.3572226168e+01   8.1009591791e+00    0.2836681    0.2133871  81.66  0.001585178    2.505    0.601
        60  -8.7860    165.0000    210.9749   3.5992940332e+01   8.3953085692e+00    0.1848608   0.06605946 -46.95 0.0005205927    2.838    0.648
        61 -14.0990     69.2736    144.4017   4.9437058089e+01   3.6898362714e+01     1.937404     1.188167  84.47  0.007741503    2.243    0.554
        62  -9.8864    210.9112    198.9404   2.5716032250e+01   4.8465725629e+00    0.1810319     0.144537  -0.66 0.0004897338    1.132    0.116
        63  -8.4687    133.5166     69.5760   1.2202420494e+01   4.1659274992e+01    0.1478437    0.1320956 -77.19 8.125874e-05    1.060    0.056
        64 -10.4288    192.6534    194.7494   2.8166066978e+01   7.6516612926e+00    0.6030386    0.2991892 -60.24  0.001964828    6.635    0.849
        65 -12.3155    186.5493     64.3684   2.0375165716e+00   3.0840665641e+01     0.440082    0.3989915 -82.60 0.0008161218    1.146    0.128
        66 -13.8182    203.6685     52.5755   3.5730190823e+02   2.9106567130e+01     1.066563    0.9155023  37.56  0.004535056    1.650    0.394
        67 -12.6070    209.4631     47.8261   3.5566648069e+02   2.8624131066e+01    0.4514154     0.388529 -71.44   0.00120449    1.147    0.128
        68  -9.6155     37.9932     53.9751   4.0066876789e+01   6.4682281575e+01    0.1756842    0.1584851 -44.87 0.0009894473    1.104    0.094
        69  -9.2618     74.2714    194.0981   5.5009098728e+01   2.3767684395e+01    0.1835922    0.1686206 -87.19 0.0003404131    1.158    0.137
        70 -10.9728    149.4008    226.6219   4.1417988047e+01   7.6544150316e+00    0.2139107    0.1577861 -41.40  0.001355041    1.449    0.310
        71  -9.2388    112.7189    243.0764   5.1261080101e+01   9.1328190825e+00     0.279336    0.1147581 -37.22  0.001201964    3.362    0.703
        72 -10.6217     69.7043    242.7277   6.0894152566e+01   1.4020845418e+01    0.3549072    0.2090804 -57.48  0.002020203    1.994    0.498
        73  -9.9911     60.8671     21.5775   1.4248982469e+01   6.6301831059e+01    0.2673948    0.2165707  66.35 0.0009362414    1.261    0.207
