#   1 NUMBER                 Running object number                                     
#   2 MAG_AUTO               Kron-like elliptical aperture magnitude                    [mag]
#   3 X_IMAGE                Object position along x                                    [pixel]
#   4 Y_IMAGE                Object position along y                                    [pixel]
#   5 X_WORLD                Barycenter position along world x axis                     [deg]
#   6 Y_WORLD                Barycenter position along world y axis                     [deg]
#   7 A_WORLD                Profile RMS along major axis (world units)                 [deg]
#   8 B_WORLD                Profile RMS along minor axis (world units)                 [deg]
#   9 THETA_WORLD            Position angle (CCW/world-x)                               [deg]
#  10 FWHM_WORLD             FWHM assuming a gaussian core                              [deg]
#  11 ELONGATION             A_IMAGE/B_IMAGE                                           
#  12 ELLIPTICITY            1 - B_IMAGE/A_IMAGE                                       
         1 -12.9706     61.5213     44.3237   6.5153650506e+01   5.9933866160e+01    0.4780896    0.4348283 -36.62 0.0009228341    1.166    0.143
         2 -10.6775     87.3417     33.6677   5.2242773010e+01   5.7680776349e+01    0.9857609    0.3957774 -23.04  0.003239464    4.034    0.752
         3 -11.5717     72.5419     28.1110   5.5024982975e+01   6.1058146448e+01    0.8954772    0.6536437  16.59  0.005231061    1.392    0.282
         4 -11.4462     61.5984     22.0314   5.6488613194e+01   6.3655545978e+01    0.7828266    0.4678624 -34.61  0.001343258    1.506    0.336
         5 -11.7454     69.4194     11.3729   4.8883633940e+01   6.3924976264e+01    0.5149939    0.3364099  16.40 0.0003357262    1.550    0.355
         6 -12.2348    107.8246     29.3721   4.4355249682e+01   5.4292077574e+01    0.5283307    0.3973237  14.43  0.001221025    1.381    0.276
         7 -11.5075    105.0112     21.3808   4.1962820917e+01   5.5951134659e+01    0.4217917    0.2622835 -13.96 0.0004863002    1.718    0.418
         8 -10.7760    131.2952     22.1606   3.5622088256e+01   4.9896169966e+01    0.5724167    0.3183852 -20.91  0.002490716    1.932    0.483
         9 -10.7495     72.9145     15.8988   4.9688787259e+01   6.2754895342e+01    0.3522531    0.2701525  33.52 0.0006942084    1.310    0.237
        10 -10.3446     40.8022     21.0898   6.4407336136e+01   6.6478078738e+01    0.3957929    0.3368054  69.29   0.00257816    2.135    0.532
        11 -10.6851     35.4950     18.0725   6.5421810008e+01   6.7538158762e+01    0.3113903    0.2121338   5.29 -0.0003306758    1.531    0.347
        12 -11.4182     35.1545     26.4623   6.8912348319e+01   6.6176167431e+01    0.8553679    0.4054919  25.78  0.002080578    2.416    0.586
        13 -11.1387    182.3587     18.3386   2.4834397255e+01   3.7161375234e+01    0.3314344    0.2750875  47.06 0.0004056967    1.191    0.160
        14 -11.0838    174.3709     13.5826   2.4550017202e+01   3.9807223401e+01    0.7984589     0.620414  45.84  0.003618993    1.255    0.203
        15 -10.6805    151.8991     18.1997   2.9907815071e+01   4.5207259710e+01    0.2964337    0.2783971  70.31 0.0002333379    1.091    0.083
        16  -9.8466    225.1795     16.8536   1.8965248397e+01   2.6050390066e+01    0.3437766    0.2435343  13.45 0.0006151029    2.004    0.501
        17 -10.3667    166.0291     18.3096   2.7419412717e+01   4.1507763997e+01    0.4475505    0.2558044  33.26  0.001149891    2.065    0.516
        18 -10.4311    143.7939     16.5771   3.0906794042e+01   4.7452141657e+01    0.5599151    0.2929465 -41.19  0.002402291    2.154    0.536
        19 -10.8512      6.1000      8.6816   7.5274145185e+01   7.1513739312e+01    0.5558258    0.3094657  31.19  0.003318961    2.378    0.580
        20 -11.3028      5.8382     16.1790   7.8206169882e+01   7.0256005365e+01     0.304692    0.2831176  50.41  0.001680794    1.641    0.391
        21 -10.4691      9.4735     15.4360   7.6223584235e+01   7.0163231131e+01    0.2543938    0.1841759 -26.28 0.0006940243    1.155    0.134
        22 -11.3125    115.8971     14.8896   3.6477364312e+01   5.4342152873e+01    0.4519757    0.3513682  82.51 0.0009561012    1.729    0.422
        23  -9.1132     19.8382     17.1844   7.2062997479e+01   6.9124147580e+01    0.2896012    0.1466966 -45.07  0.001303103    1.546    0.353
        24  -9.5375     15.9741     17.2438   7.3864336336e+01   6.9408852875e+01    0.3159144    0.1457467 -26.70  0.001714038    2.239    0.553
        25 -11.4673    132.8486     12.4888   3.1653992485e+01   5.0606668083e+01    0.3062709     0.289665 -15.40 0.0004219452    1.144    0.126
        26 -10.1733    124.0519      6.4399   3.1227560902e+01   5.3329896384e+01    0.5853757     0.386266  37.17  0.002921276    1.406    0.289
        27  -9.4934    124.9025     11.7280   3.3100679504e+01   5.2597083587e+01    0.3132873    0.2237288  33.61  0.001648007    1.325    0.246
        28 -10.9799    207.8706      3.7382   1.7325845952e+01   3.1925754504e+01     0.564423    0.2985107 -61.76  0.002446184    2.165    0.538
        29  -9.8043    210.4351     13.9848   1.9851647355e+01   3.0185238279e+01     0.360296     0.242324 -13.31  0.001760061    1.808    0.447
        30  -9.1774    211.2337     10.0092   1.8670589928e+01   3.0404642396e+01    0.2351922    0.2173464   1.41 0.0008250705    1.274    0.215
        31  -9.4905    191.5293     11.5653   2.1501917427e+01   3.5445228122e+01    0.3286839    0.2737542 -19.57  0.001019086    1.341    0.255
        32  -9.4746    190.7428      7.0704   2.0275250090e+01   3.6113237560e+01    0.2632612    0.2417822 -12.58 0.0004799109    1.233    0.189
        33  -9.8929    195.1561      3.8791   1.8803055537e+01   3.5256210657e+01     0.491445    0.2574077  76.51  0.002167715    1.829    0.453
        34  -9.6361    199.4769      2.5087   1.7910905343e+01   3.4247892508e+01    0.3496854    0.1493463  45.65  0.001356727    2.630    0.620
        35  -9.2855     86.1133     14.0560   4.4483304834e+01   6.0641333891e+01    0.4528773    0.1689052  40.58  0.001255315    2.607    0.616
        36  -9.8115    244.5956     13.0004   1.6065504671e+01   2.1655717221e+01    0.4700533    0.2601491  37.50  0.002054034    2.703    0.630
        37  -9.8161    107.0825      2.4070   3.3536578649e+01   5.7593923764e+01    0.3870211    0.2164765  32.02  0.001885233    1.748    0.428
        38 -10.5018    106.8587      7.1053   3.5570209899e+01   5.7185644844e+01    0.5516214    0.2186104  49.11  0.001691427    2.180    0.541
        39 -11.0551    101.4906     11.2534   3.8742204814e+01   5.7897591201e+01    0.3219882    0.3149816 -42.11 0.0004987365    1.280    0.219
        40 -10.0460     96.9837     12.9852   4.0744788934e+01   5.8635692286e+01    0.2507556    0.1788346  -4.07 0.0004383163    1.396    0.284
        41 -10.9285     31.3716     12.3297   6.4784560142e+01   6.8868019897e+01    0.3025531    0.2631485   8.74  0.001520947    1.333    0.250
        42  -9.5305    219.2466     11.1547   1.8102923520e+01   2.8203867682e+01    0.4037503    0.2147227 -64.59  0.001728126    2.181    0.541
        43  -9.9487     54.4319      9.0041   5.3427146062e+01   6.6534638800e+01     0.389245    0.2764703 -15.17  0.001702473    1.194    0.162
        44  -8.7637     39.8623      9.6548   5.9805420655e+01   6.8338594440e+01    0.3391302    0.1351645 -39.47  0.001693884    2.209    0.547
        45  -8.9102     46.3479      4.2795   5.4457561320e+01   6.8266872894e+01    0.2257796   0.09961352 -33.38 0.0004730078    2.000    0.500
        46 -10.5545     37.9440      4.6314   5.8265835984e+01   6.9272750008e+01     0.284589    0.1870785  -7.53 0.0009276835    1.398    0.285
        47  -9.8153     42.1825      1.3017   5.4756219267e+01   6.9193698221e+01    0.2923255    0.1271484  41.82 0.0009819329    2.723    0.633
        48  -9.0891    198.4159     10.0726   2.0191680414e+01   3.3771189295e+01    0.2739454    0.1716724  54.78 0.0006923527    1.518    0.341
        49 -12.0719    156.0602      3.5621   2.4130165486e+01   4.5607249035e+01    0.5644453    0.2436827  45.52 0.0003956192    2.198    0.545
        50 -12.1550    159.9519      1.7018   2.2887408283e+01   4.4761289551e+01    0.6862457    0.4813843 -69.17  0.001454819    1.717    0.418
        51  -9.9567     90.4102      8.3474   4.0651425527e+01   6.0477655121e+01    0.5018844     0.312334  56.01  0.002636698    1.789    0.441
        52  -9.2743     44.3252      9.6972   5.7906011230e+01   6.7791018326e+01    0.2808658    0.1639495  -5.46  0.001540675    1.974    0.493
        53  -9.3648     48.6734      7.9409   5.5256781812e+01   6.7471535030e+01    0.1728146     0.126599 -21.17  0.001135126    1.146    0.127
        54 -10.8920     79.3451      4.3621   4.2267769591e+01   6.3020577986e+01     0.239583    0.2046155  -4.40 0.0004134642    1.121    0.108
        55 -10.3939     73.5268      5.5093   4.4729051895e+01   6.3935470570e+01    0.3270426    0.1939953 -31.18  0.001479399    1.685    0.407
        56 -10.9282     74.5041      2.4747   4.2966099816e+01   6.4099446021e+01    0.3162289    0.2145087  42.74  0.001209944    1.455    0.313
        57  -9.4320    171.1185      6.3441   2.2727986017e+01   4.1397949366e+01     0.281422    0.2024982  28.96 0.0007339624    1.556    0.357
        58  -9.1069     22.7459      1.3976   6.3788982468e+01   7.1345418005e+01    0.2049703   0.09529109  33.57  0.001178013    2.541    0.607
        59 -10.1847     13.4631      2.9749   6.9151435631e+01   7.1911316225e+01    0.2496246    0.1958346 -51.07  0.001857019    1.631    0.387
        60  -9.2686     17.5430      2.4720   6.6871404387e+01   7.1655455645e+01    0.2177734    0.1186915 -27.48  0.000788097    1.492    0.330
        61 -10.1925     24.6098      6.8515   6.5458424520e+01   7.0365328528e+01    0.1806337    0.1453496 -33.61 0.0004872573    1.283    0.221
        62 -10.1657     21.1902      5.6053   6.6528290983e+01   7.0866387395e+01    0.2236089    0.1587052   1.11 0.0009883941    1.359    0.264
        63  -9.7774    230.0601      4.9498   1.5421659319e+01   2.6113337979e+01    0.3411099    0.1835748 -63.94  0.001463446    1.990    0.498
        64  -9.8688    232.7947      2.5692   1.4578544712e+01   2.5677396184e+01    0.3442901    0.1960171  83.91   0.00105005    1.701    0.412
        65  -8.9461     98.6665      5.9938   3.7263479598e+01   5.9050428608e+01    0.2591479    0.1538724  28.70  0.001303503    1.663    0.399
        66  -9.9788    238.6358      3.2749   1.4239507592e+01   2.4162677109e+01    0.2937851    0.2086549  68.06  0.000742604    1.362    0.266
        67 -10.5714    218.3845      3.1193   1.6073355300e+01   2.9264321427e+01    0.3428737    0.2524336  52.87 0.0008907245    1.417    0.294
        68  -9.8303     30.7768      2.7042   6.0589769431e+01   7.0348116442e+01     0.248732    0.1498644 -43.79  0.001263443    1.831    0.454
        69 -10.0190    179.7804      2.1505   2.0209222501e+01   3.9495875010e+01    0.4941607    0.2221764  72.60    0.0020124    2.098    0.523
        70  -9.9593    135.5160      2.2605   2.7281318501e+01   5.0937559842e+01    0.3576254    0.2624456  68.82  0.001914302    1.359    0.264
        71 -10.5115     92.1840      2.5587   3.7556697011e+01   6.0728360370e+01    0.3945002    0.2456851  68.10  0.001797352    2.249    0.555
        72 -10.9612    249.8793      1.5783   1.2911379575e+01   2.1632049404e+01    0.2115339    0.1539079  87.48 0.0003507413    1.271    0.213
        73 -10.2278    115.7373      1.9585   3.1294511631e+01   5.5687747437e+01    0.2282167     0.167272  43.13 0.0003256496    1.193    0.162
        74  -8.2480     50.6489      2.6974   5.1896649846e+01   6.7880752124e+01    0.1253273   0.07695501   4.57 0.0007039668    1.700    0.412
        75  -9.3241      5.2814      1.5856   7.2734247367e+01   7.2710643604e+01    0.1597335    0.1041503  -7.94 0.0007064166    1.477    0.323
        76  -9.5404    127.1980     15.5119   3.4040342287e+01   5.1644703182e+01    0.5007039    0.2239131 -12.55  0.001879568    2.956    0.662
        77  -8.7650     16.1056      8.1521   7.0128709404e+01   7.0896845650e+01     0.137011    0.1160567 -38.76 0.0007362311    1.349    0.259
        78  -9.6532     64.3642    119.1807   8.3133002533e+01   4.3703730582e+01      0.34266    0.2280924  -1.43  0.001612811    2.887    0.654
        79 -10.2343    201.3991    249.4971   7.4737000294e+01  -3.1367636027e+00    0.2301118    0.1654829  32.07 0.0007526287    1.122    0.109
        80 -10.5277    115.7882    248.3223   8.9015948424e+01   1.0876141181e+01    0.2289996    0.1842619  74.61   0.00163867    1.215    0.177
        81  -8.6983     57.8569    118.8253   8.4780757407e+01   4.4588493531e+01    0.1722398     0.131893  89.33 0.0004275247    1.288    0.224
        82  -9.4144     13.9509    113.4675   9.5362627619e+01   4.9946756604e+01    0.1960707    0.1555872  49.94 0.0007145118    1.454    0.312
        83  -8.8622      4.8153    110.9711   9.7373384534e+01   5.1099602185e+01    0.1710989    0.1197765 -59.52 0.0007286951    1.313    0.238
        84 -10.6196      5.9563    116.2929   9.7652307519e+01   4.9887637311e+01    0.3841694    0.2852139  26.01  0.002236931    1.789    0.441
        85 -10.1132      9.4475    113.9552   9.6544703311e+01   5.0156200054e+01     0.442376    0.2053152  73.04  0.002228867    2.703    0.630
        86  -8.3433     36.7157    116.2970   8.9905939174e+01   4.7426323390e+01    0.1683036   0.08473471 -68.07 0.0004709668    1.630    0.387
        87  -8.5785     33.5369    114.4724   9.0469813962e+01   4.8128552997e+01    0.1651863     0.118364  35.23   0.00064033    1.663    0.399
        88  -8.6998    104.4332    115.4356   7.1795035558e+01   3.8437005697e+01    0.1410468    0.1332894 -73.25 1.800714e-05    1.012    0.012
        89  -8.9785     82.2644    115.1411   7.7611585603e+01   4.2133165537e+01    0.3448463    0.1629114  23.50   0.00121429    4.026    0.752
        90  -9.0383     46.6630    113.9958   8.6940152694e+01   4.6937031257e+01    0.1803282    0.1384164 -70.20   0.00059572    1.089    0.082
        91  -8.7085    140.5362    111.9326   6.1771651382e+01   3.2027360274e+01    0.2263559    0.1499442 -44.23 0.0004814645    1.526    0.345
        92 -10.6373     36.9496    108.8465   8.8724664652e+01   4.9059695888e+01    0.4353897    0.1707433 -65.34   0.00100835    2.065    0.516
        93 -10.3660     31.5858    106.2939   8.9782969887e+01   5.0114557315e+01    0.3665313     0.238779 -20.31  0.001468719    2.405    0.584
        94  -9.5039     36.0474    100.4651   8.7616884626e+01   5.1003744243e+01    0.3385794    0.1557037 -39.56  0.001545543    2.837    0.647
        95  -8.9632     24.9898    111.2110   9.2245434452e+01   4.9590630242e+01    0.1491264    0.1374984 -80.69 0.0004067767    1.191    0.161
        96 -10.9961     20.8046    109.6154   9.3125485517e+01   5.0274148685e+01    0.3442491    0.2850021  71.84  0.002503425    1.265    0.210
        97  -9.3075     91.5882    107.0002   7.3332606005e+01   4.2497619675e+01    0.3179689    0.2013601 -35.40  0.001039095    1.904    0.475
        98  -8.2349    235.7592    107.0003   4.0882347689e+01   1.0549771198e+01    0.1904719      0.11912 -31.78 0.0003669622    1.541    0.351
        99  -9.3148    141.9641    103.6093   5.9275680210e+01   3.3436701277e+01    0.2771711    0.2257326 -53.10 0.0006713542    1.261    0.207
       100  -9.0786     40.9827    103.3608   8.6722817023e+01   4.9891799489e+01    0.2199015     0.149721 -89.30 0.0007794857    1.557    0.358
       101  -8.1282    161.3730    103.7560   5.4697413283e+01   2.8943046483e+01    0.1569888    0.1224492  82.65 0.0004480705    1.626    0.385
       102  -9.0027    100.6656    103.0395   6.9913166835e+01   4.1836503464e+01    0.2062967    0.1795121 -55.36 0.0005733266    1.088    0.081
       103 -10.4125     71.0256    102.1450   7.7999771613e+01   4.6657052073e+01     0.313823    0.2016525 -55.45  0.001089864    1.379    0.275
       104  -8.6856     80.9887    101.4982   7.5033737132e+01   4.5378369556e+01    0.1785094    0.1114649  64.94 0.0008031076    2.226    0.551
       105 -11.5359    117.7455     98.1383   6.4042803442e+01   3.9697437990e+01    0.3239865    0.2899606 -85.28 0.0004197668    1.217    0.179
       106 -10.2701     56.7003    100.6862   8.1783620175e+01   4.8797784332e+01    0.3337123    0.2289298 -38.52  0.001865076    1.617    0.382
       107  -9.9910    105.3399    100.0345   6.7888958753e+01   4.1655498880e+01    0.3172832    0.2100529  24.06  0.001428678    2.013    0.503
       108 -10.0650     45.0409     99.8238   8.4952587937e+01   5.0271618545e+01    0.2973875    0.1953196  32.13  0.001107674    1.806    0.446
       109  -9.0936     16.4976     99.3542   9.2889279743e+01   5.2831194165e+01    0.2467533   0.09074367 -69.67  0.001197851    2.120    0.528
       110 -10.0076     50.6126     99.5870   8.3313688030e+01   4.9733483435e+01    0.3276379    0.1919715 -42.01  0.001034622    1.828    0.453
       111  -9.4187      6.5449     98.1198   9.5434816538e+01   5.3749062062e+01    0.3617808    0.1305523  29.08  0.001904457    3.239    0.691
       112  -9.9387    124.8596     96.7862   6.1799865158e+01   3.8536983075e+01    0.4418752    0.2449021  55.56  0.001786267    2.072    0.517
       113  -9.5651    141.1791     96.1277   5.7452028546e+01   3.5138501939e+01    0.2429026     0.214643  -0.38 0.0009499161    1.287    0.223
       114  -9.3388     85.8961     96.0892   7.2366579183e+01   4.5822488194e+01    0.2599942    0.2006958  52.10 0.0005964383    1.425    0.298
       115  -9.3281     81.1166     95.1669   7.3522172923e+01   4.6760718712e+01    0.3556892    0.2025042  55.11  0.001315947    2.244    0.554
       116  -9.5344     42.1380     95.4042   8.4974282558e+01   5.1544529528e+01    0.2284816    0.1521872 -69.95 0.0005875481    1.321    0.243
       117 -10.3387     23.8594     94.5998   9.0119395975e+01   5.3324814005e+01    0.3029492    0.1746421 -82.47  0.001557973    1.721    0.419
       118 -10.8880     26.1488     87.3076   8.8232753147e+01   5.4737143150e+01    0.5207754    0.3168588 -37.50  0.001595015    1.826    0.452
       119  -8.9413     14.0008     88.0376   9.1944784870e+01   5.5451069852e+01    0.1863353     0.103175 -48.48 0.0008276558    1.651    0.394
       120  -9.6748     18.9954     81.8845   8.9451934798e+01   5.6439580427e+01    0.5022291    0.3966833 -57.51  0.003587537    1.088    0.080
       121 -10.8048     32.1854     93.1117   8.7464479871e+01   5.2970450165e+01    0.4136142     0.220281 -53.63  0.002018556    1.566    0.362
       122  -8.8641     13.0063     93.4913   9.3034223851e+01   5.4339344736e+01    0.2009755    0.1442554 -41.62   0.00137703    1.512    0.338
       123 -10.0024     17.9315     90.9114   9.1245543137e+01   5.4564039991e+01    0.2209011    0.1804661  -2.87 0.0003650052    1.638    0.389
       124  -9.3570      3.6804     79.4658   9.3708745914e+01   5.7890039485e+01    0.2790643    0.1139829 -58.64 0.0001239639    1.755    0.430
       125  -9.7425      2.3747     92.3125   9.5843676696e+01   5.5231688925e+01     0.338672     0.170922  71.11  0.001645594    2.555    0.609
       126  -9.8200      2.4687     85.7210   9.4953628214e+01   5.6628662906e+01    0.3496038     0.135506 -61.33  0.001343575    1.819    0.450
       127  -9.9292    133.6594     92.2570   5.8274192089e+01   3.7593780050e+01    0.4843671    0.2472267  33.95  0.001763735    2.522    0.603
       128 -11.3593     64.7749     86.0840   7.6210287543e+01   5.1035428158e+01    0.7459467    0.4816525  14.64  0.003514051    2.185    0.542
       129  -9.8343     61.9752     91.5141   7.8311208568e+01   5.0198390445e+01    0.1992674    0.1867771  31.12 0.0003357661    1.232    0.189
       130 -10.7837     73.6327     79.7253   7.1877690447e+01   5.1206918954e+01      0.59194    0.3503694 -46.47  0.002354197    1.512    0.339
       131  -9.8616     77.1845     83.4010   7.1751636239e+01   4.9906566129e+01    0.2793441    0.2129706 -53.59 0.0007827364    1.196    0.164
       132  -9.8967     47.3512     92.5338   8.2885972203e+01   5.1648913331e+01    0.3001808    0.2297907 -80.93   0.00148894    1.323    0.244
       133  -9.7772     44.1753     88.1312   8.2949614869e+01   5.2945172470e+01    0.1950256    0.1451892 -45.51  0.000742636    1.267    0.210
       134  -8.8402    104.1790     90.4081   6.5700215961e+01   4.3937421505e+01    0.2527537    0.1668033 -57.42 0.0006052844    1.583    0.368
       135 -10.0639     53.3991     91.1024   8.0787162424e+01   5.1306478429e+01    0.3378619    0.2154589  78.93  0.001665262    2.339    0.572
       136  -8.8584     71.0172     91.0302   7.5503588789e+01   4.9123256940e+01    0.2032553    0.1554257  88.35 0.0005304246    1.620    0.383
       137 -10.0908    131.2272     83.7027   5.6452023720e+01   3.9846814529e+01    0.4119499     0.316528  -3.58  0.001147444    1.693    0.409
       138 -11.3462    124.5959     85.9141   5.8839999314e+01   4.0833447501e+01    0.6246003    0.4703486  47.88  0.002085309    1.356    0.263
       139 -10.6229    119.4310     83.7975   5.9617631766e+01   4.2340329910e+01     0.526374    0.2776572  46.03  0.002178147    1.945    0.486
       140  -9.7567     86.4012     88.7241   7.0375346727e+01   4.7348333726e+01    0.4242937    0.2742838 -25.65  0.001888031    2.085    0.520
       141  -8.9269     87.0752     83.8086   6.8877641291e+01   4.8294898756e+01    0.2026882     0.180736 -80.06 0.0004269511    1.244    0.196
       142  -9.6634     97.7514     88.7480   6.7081200409e+01   4.5444647966e+01    0.2823177      0.23945  81.41 0.0005495685    1.404    0.288
       143  -9.8069    150.4700     79.9977   5.0551092534e+01   3.6129808359e+01    0.3195196    0.2965164 -78.57   0.00121938    1.176    0.150
       144 -10.3728    155.2288     85.0673   5.0917326972e+01   3.4029004328e+01    0.2928798    0.2641025  36.40 0.0002834264    1.115    0.103
       145 -11.1144    155.6725     78.8570   4.8984993932e+01   3.5082726871e+01    0.5246747    0.4079764  27.23  0.001259087    1.446    0.308
       146  -9.9454    143.1396     83.1349   5.3262903453e+01   3.7263281022e+01    0.4013902    0.2474894 -36.40 0.0008558783    1.653    0.395
       147  -8.9016    138.5641     83.9503   5.4645475083e+01   3.8156578865e+01    0.3309033    0.1945328  16.98  0.001054763    3.611    0.723
       148  -9.6087    110.5032     85.3874   6.2536080179e+01   4.3798411275e+01    0.2768233    0.1823182  38.99  0.001292765    1.605    0.377
       149  -9.1836     98.6431     84.1456   6.5565001155e+01   4.6261870634e+01    0.2080476    0.1237762 -38.19  0.000537205    1.708    0.414
       150 -10.6899     51.7176     82.3067   7.9364989625e+01   5.3420659240e+01    0.3488677    0.2460615 -53.29 0.0007644093    1.195    0.163
       151 -10.1567     47.6535     63.7957   7.6101508583e+01   5.7787378797e+01    0.4986719    0.2459539 -59.87   0.00190013    1.952    0.488
       152 -12.2449     53.1152     75.3044   7.7253128811e+01   5.4771698405e+01    0.3342625      0.22683 -49.60 0.0002783862    1.247    0.198
       153 -11.3000     51.7404     68.9338   7.6082219272e+01   5.6272804315e+01     0.733202    0.5229832  82.60  0.003941837    2.170    0.539
       154 -10.9613     38.8338     81.6410   8.3255246202e+01   5.4880141645e+01    0.3043481    0.2142839 -56.77 0.0006087931    1.157    0.135
       155  -8.2722     91.5741     80.5423   6.6635676269e+01   4.8242685410e+01    0.1396757    0.1290969 -47.53  0.000104073    1.032    0.031
       156  -9.0273     59.8977     82.5845   7.6875984434e+01   5.2407999640e+01    0.2406555    0.1526662  48.45  0.001274924    1.901    0.474
       157 -10.8760    165.7788     70.5651   4.4212628683e+01   3.4049203039e+01    0.5193277    0.4114718  15.27  0.001129469    1.504    0.335
       158 -10.1870    166.8856     77.9639   4.6185771729e+01   3.2465423288e+01    0.2725413    0.2563057  66.67 0.0002951396    1.083    0.077
       159 -10.7613    169.6965     74.0000   4.4399270534e+01   3.2456954916e+01     0.439069    0.3483427 -20.95  0.001233807    1.369    0.269
       160  -9.8249    144.9254     76.4044   5.0809658657e+01   3.8123448201e+01    0.3951123    0.3052379  -5.30  0.001194175    1.605    0.377
       161  -8.6299    141.4876     75.5673   5.1401912885e+01   3.9088513904e+01    0.2282075    0.1851565  15.85 0.0005693412    1.429    0.300
       162 -10.4026    110.3136     75.2807   5.9625294207e+01   4.5890382648e+01    0.6272289    0.3148461 -59.07   0.00221493    3.060    0.673
       163  -8.8172     12.8863     77.8775   9.0646742999e+01   5.7698981599e+01    0.1715726    0.1141004 -53.01 0.0002571619    1.249    0.199
       164 -10.0968    134.1698     76.3235   5.3482874823e+01   4.0628015364e+01    0.4038844    0.2590191  67.06  0.001663375    2.082    0.520
       165  -9.2578    126.6170     76.9281   5.5642044038e+01   4.2185691451e+01    0.3080425    0.1414752 -32.78  0.001096892    2.519    0.603
       166  -9.7868    100.0677     76.3805   6.2917741529e+01   4.7612238763e+01    0.2937536    0.1930625 -44.62 0.0006686393    1.438    0.305
       167  -9.8932     75.2959     65.9917   6.7466309687e+01   5.3817965052e+01    0.2576087    0.2066403 -29.66 0.0005917702    1.195    0.163
       168 -10.1514     77.3135     62.0953   6.5612477222e+01   5.4291745853e+01    0.2667831    0.2440608   8.68 0.0007657249    1.149    0.130
       169 -10.5594     88.2993     74.2877   6.5831795487e+01   5.0087677101e+01    0.5982845    0.2839983 -37.83 0.0008970408    2.202    0.546
       170 -10.6584     94.6031     72.2256   6.3302910348e+01   4.9431774990e+01    0.5873049     0.390002 -62.44  0.002083771    1.872    0.466
       171 -10.5161     87.7174     67.0583   6.3836951263e+01   5.1646134701e+01    0.6028271    0.3039668  29.75  0.001676027    2.515    0.602
       172  -9.5667     83.5258     65.4222   6.4649634480e+01   5.2658888118e+01    0.2274656    0.2148863  12.62 0.0001340509    1.121    0.108
       173  -9.7855     82.0165     62.2496   6.4137271838e+01   5.3526756103e+01     0.254845    0.2207356   1.00 0.0006142192    1.215    0.177
       174  -9.3201     19.0572     73.2510   8.7863765951e+01   5.8280374658e+01    0.3575901    0.2471769 -83.56  0.002296605    1.517    0.341
       175  -8.9210     77.7566     74.9025   6.9274401687e+01   5.1622180450e+01    0.1914764    0.1571504 -48.13  0.001101854    1.107    0.097
       176  -9.8437     64.1323     74.7663   7.3561895596e+01   5.3550642159e+01    0.3101551    0.2211276  53.43  0.001713621    1.760    0.432
       177  -8.3614     68.4898     74.5026   7.2096047303e+01   5.3028619193e+01    0.1345884    0.1161379 -39.55 -6.664509e-05    1.058    0.055
       178 -10.6757    178.0182     72.7970   4.2300313981e+01   3.0536373472e+01    0.5366481    0.3364546 -81.07  0.001124698    2.899    0.655
       179  -9.6840    173.5035     68.9681   4.2089955077e+01   3.2348656273e+01    0.2943214    0.2326875  59.28 0.0003950564    1.260    0.207
       180  -9.9255    117.7291     72.4281   5.6669192359e+01   4.4948939758e+01     0.414654    0.2211617 -39.97  0.001303414    1.833    0.455
       181  -9.9478     33.9041     58.5937   7.9535642702e+01   6.0192026522e+01    0.4979168    0.2248549 -31.96  0.002271514    2.806    0.644
       182 -10.2148     35.6596     53.1360   7.7432275315e+01   6.1138526755e+01    0.3385167    0.2756142   3.59   0.00158078    1.408    0.290
       183 -11.4057      8.2820     51.5685   8.7110383924e+01   6.3430510994e+01    0.5598682    0.4780418 -14.49  0.003829051    1.371    0.271
       184 -11.3315      2.4130     66.3271   9.2015003048e+01   6.0708661082e+01    0.4811725    0.1836538 -69.50  0.001346622    2.055    0.513
       185 -11.4080      5.1615     60.7728   9.0098260595e+01   6.1719399032e+01    0.4741703    0.3179523  27.05  0.002198149    1.924    0.480
       186 -11.0106     24.6597     54.6563   8.1857684892e+01   6.1746871614e+01    0.3698274    0.2266377 -60.12 0.0009618482    1.375    0.273
       187 -10.6102     19.5780     55.1135   8.3814019587e+01   6.2019661201e+01    0.3969284    0.2807171  73.71  0.002285842    2.097    0.523
       188  -9.6517     28.5947     52.1613   7.9766740475e+01   6.1941802296e+01    0.1840495    0.1521493  12.61  0.001028363    1.440    0.305
       189  -8.6394    136.5258     72.4740   5.1695082502e+01   4.0817190182e+01    0.1501646    0.1492656 -11.81 0.0008093355    1.032    0.031
       190  -9.4417    102.0952     69.9807   6.0377888428e+01   4.8519336549e+01    0.3016648     0.198978 -36.31   0.00144995    1.477    0.323
       191  -9.8091     22.1483     63.9169   8.4922666835e+01   6.0027709670e+01    0.4045967    0.1530631 -45.55   0.00187815    2.230    0.552
       192 -11.3798     24.9310     67.7509   8.4812796508e+01   5.9020966192e+01    0.3153604    0.2302747 -46.55 0.0004067705    1.176    0.149
       193 -10.2269     30.0751     68.8288   8.3323593175e+01   5.8389683043e+01    0.3362764    0.2101127 -43.00  0.001575069    1.429    0.300
       194 -10.3214    218.7225     69.8570   3.4081220161e+01   2.0535505102e+01    0.2525342    0.2403623  66.94 0.0002728582    1.060    0.056
       195 -10.4122    140.8775     68.5426   4.9371899713e+01   4.0524948588e+01    0.3922505    0.2903255 -62.58   0.00151221    1.688    0.408
       196 -10.0702    145.8683     69.6397   4.8495370108e+01   3.9139244768e+01    0.4284338    0.2889699 -58.47  0.001832171    1.859    0.462
       197 -10.7430     81.0476     83.0253   7.0480000473e+01   4.9408299381e+01    0.3837224    0.2791187 -21.07  0.000458832    1.705    0.414
       198  -8.9699    157.2025     68.0474   4.5345060605e+01   3.6644417897e+01    0.2460535     0.210212  12.67  0.001209208    1.300    0.231
       199 -10.3699     15.0944     64.9652   8.7545383503e+01   6.0284162174e+01    0.3824449    0.2115932 -19.80  0.002159688    2.460    0.594
       200  -9.4730    248.9639     66.9075   2.8908865601e+01   1.3608754148e+01    0.2051529    0.1921647 -40.13 0.0003024079    1.019    0.019
       201  -8.8120     36.1755     67.1971   8.0889535339e+01   5.8208260257e+01    0.1563313    0.1284905 -75.82 0.0004335802    1.306    0.234
       202  -8.5934    215.2195     65.9954   3.3593129630e+01   2.2019673142e+01    0.2023481    0.1892686 -39.88  0.000219043    1.060    0.056
       203  -9.9582     29.3479     74.8256   8.4853871099e+01   5.7175855915e+01    0.2918558    0.1674971 -49.38 0.0009483094    1.446    0.308
       204 -11.4044    134.6156     63.3246   4.9273967992e+01   4.2922803642e+01    0.8141136    0.5301673 -64.84  0.001440969    2.326    0.570
       205  -9.9323    125.2459     56.9107   4.9588083533e+01   4.6178145613e+01    0.3489947    0.2710445  74.39  0.001195209    1.667    0.400
       206 -10.0589     45.6711     69.5464   7.8267614365e+01   5.6797075808e+01    0.2659421    0.2123747  78.38 0.0007746455    1.646    0.392
       207 -10.1327     97.6957     64.0462   5.9815264328e+01   5.0488711874e+01    0.2585254    0.2301651 -46.60 0.0002712755    1.143    0.125
       208 -10.0267     64.3759     62.2103   6.9945169064e+01   5.6112401478e+01    0.3796927    0.2294713  24.92  0.001957969    1.977    0.494
       209  -9.2509    193.8193     60.4777   3.5654946284e+01   2.8427134004e+01    0.3508067    0.2298014 -19.51 0.0009041312    1.765    0.433
       210  -8.9942    176.0001     61.4006   3.9292834847e+01   3.2951649854e+01    0.2401014    0.2039258 -32.26  0.001191071    1.206    0.171
       211 -10.2575    166.9713     61.0866   4.1046433103e+01   3.5342027675e+01    0.4467939    0.1742312 -44.67   0.00146063    2.863    0.651
       212  -9.6262     71.3700     60.4749   6.7067470599e+01   5.5492406667e+01    0.2807308    0.2219855 -55.77  0.001065932    1.315    0.240
       213 -10.6440     52.9910     60.2128   7.3257015226e+01   5.7926333925e+01    0.3695986    0.2896216  71.23  0.001416493    1.867    0.464
       214 -11.9450     56.1927     56.6367   7.1079643905e+01   5.8263536739e+01    0.3634249    0.3041017  73.79  0.000316046    1.691    0.409
       215  -9.1457    150.8869     60.9093   4.4541238020e+01   3.9437849956e+01    0.2403002    0.2093197  15.09 0.0005364845    1.228    0.186
       216  -8.5454    213.1598     59.8493   3.2230171068e+01   2.3479777114e+01    0.1949178    0.1729702  10.01 0.0003030789    1.271    0.213
       217  -9.3054     94.1634     59.4255   5.9386660573e+01   5.2007990569e+01    0.2714536    0.1796969 -17.27  0.001264103    1.880    0.468
       218  -9.6667    141.8672     59.0402   4.6072844025e+01   4.1954786352e+01    0.3097504    0.1851054  30.40  0.001124546    2.092    0.522
       219  -9.6372    100.0096     59.4974   5.7625626603e+01   5.0919725388e+01    0.2059691    0.1400655  43.66 0.0004883601    1.544    0.352
       220  -8.5509    190.0181     57.0377   3.5324959367e+01   2.9957685022e+01    0.1807828    0.1729634  63.45  0.000955683    1.020    0.019
       221 -10.8408    225.8419     55.3986   2.9116609035e+01   2.0894181614e+01    0.2645181    0.2382617 -59.02 0.0002722506    1.087    0.080
       222 -10.1621    161.4757     54.2170   4.0042957610e+01   3.7858672703e+01    0.4122963    0.3090932 -85.99  0.001591708    1.750    0.428
       223  -8.4455    157.7387     54.3425   4.0887772011e+01   3.8793624725e+01    0.1579636    0.1491584  25.16 0.0003186566    1.055    0.052
       224  -9.1288    136.9299     55.8007   4.6213135118e+01   4.3678342659e+01    0.3068185     0.190559  -3.13  0.001163314    2.568    0.611
       225  -8.2034    115.6881     55.3088   5.1648638637e+01   4.8536676741e+01    0.1422493    0.1174482 -75.60 0.0003319087    1.624    0.384
       226  -9.2186     92.5030     54.4534   5.8228630594e+01   5.3228203678e+01    0.2456632    0.2208029  -9.12 0.0006627151    1.057    0.054
       227  -9.4173     95.4648     52.4891   5.6628311848e+01   5.3045921924e+01    0.2514883    0.2396366 -20.18 0.0007104652    1.088    0.081
       228  -9.1711     83.7066     54.0054   6.0884201156e+01   5.4825842713e+01    0.2933301      0.21056 -17.76  0.001538227    1.522    0.343
       229 -10.0383     86.5633     49.1128   5.8261081814e+01   5.5234884788e+01    0.4926622    0.2572998  35.54  0.002245218    2.073    0.518
       230 -11.3039     70.3122     50.1447   6.4058790065e+01   5.7629561126e+01    0.6161572    0.4820158 -36.05  0.003378612    1.129    0.114
       231  -8.6784     57.0989    249.0877   9.8460188890e+01   1.8952747813e+01    0.1338668   0.08145018  67.24            0    1.195    0.163
       232 -10.3293     43.1188     51.8293   7.4319831479e+01   6.0676270400e+01    0.5598785    0.2465672 -59.02   0.00257219    2.371    0.578
       233 -10.2783     47.0168     47.0405   7.1398117600e+01   6.1192932057e+01    0.2876765    0.1959485 -16.31 0.0009655476    1.637    0.389
       234  -8.4224    218.0193     53.9772   2.9870347570e+01   2.3091971712e+01    0.1760623    0.1671132 -50.27 0.0003739152    1.040    0.039
       235 -10.1982    182.5140     52.0885   3.5206131585e+01   3.2689852310e+01    0.5847924    0.3921394  89.07  0.001270732    1.986    0.496
       236  -8.9277    107.1479     53.6507   5.3517714341e+01   5.0589722147e+01    0.3351684    0.1840505  37.89  0.001461056    1.923    0.480
       237  -9.7913    192.7291     52.1408   3.3399013791e+01   2.9978594295e+01    0.3373437    0.2638074 -30.88   0.00164841    1.315    0.239
       238 -10.0674    145.5285     52.0743   4.2897803516e+01   4.2212139571e+01    0.2619189    0.2226971 -30.85 0.0005799622    1.198    0.165
       239 -10.0795    145.7987     46.2557   4.0879359829e+01   4.3053088842e+01    0.3689401    0.2414958  42.88 0.0004973761    1.501    0.334
       240 -10.9424    136.7771     49.4290   4.4096578809e+01   4.4755316410e+01    0.5388606    0.2879558  48.54 0.0002982139    1.800    0.444
       241  -9.6036    142.0250     49.4853   4.2852018143e+01   4.3480669200e+01    0.2985015    0.2246818  42.98  0.001450798    1.292    0.226
       242  -9.4886    123.3897     51.1750   4.8120379714e+01   4.7565770065e+01    0.2538368    0.2238262  -9.60  0.001370283    1.130    0.115
       243  -9.8047    155.3884     60.7854   4.3474100835e+01   3.8337166557e+01    0.3120423    0.2828788  85.97 0.0008690619    1.219    0.179
       244  -9.5599    175.3554     49.0924   3.5625056654e+01   3.5027172780e+01    0.4249653    0.2826846  -1.80  0.001445461    2.070    0.517
       245  -9.1790     56.9694     50.4300   6.8853671171e+01   5.9378165537e+01    0.2247676    0.1652557 -58.84 0.0008444047    1.509    0.338
       246 -10.3020    115.5055     45.7147   4.8334771238e+01   5.0189737611e+01    0.8095508    0.2770462  46.82  0.002842489    2.845    0.649
       247 -10.5168    128.0314     48.0039   4.5800110046e+01   4.7031958704e+01    0.3150546    0.3016204   4.20 0.0004444971    1.025    0.024
       248  -9.5308    125.4944     44.4857   4.5216370737e+01   4.8169205296e+01    0.3531369    0.2441479  35.63  0.001110237    1.468    0.319
       249 -10.0026    154.2934     47.6677   3.9457168000e+01   4.0706174734e+01    0.3928109    0.3311895  12.33  0.001645141    1.294    0.227
       250 -10.8178     85.9596     22.1726   4.8015786349e+01   5.9615279360e+01    0.3142235    0.2473529  59.37  0.000558522    1.666    0.400
       251  -8.9870      1.4639    244.0189   1.0633480838e+02   2.5878067680e+01    0.1292091   0.06677102  89.54 0.0003872796    1.515    0.340
       252 -11.2828     78.9695     33.6635   5.5021010188e+01   5.9136040239e+01    0.6851031    0.4838011  15.67  0.003768102    1.529    0.346
       253  -9.1943     30.5963    247.8275   1.0235079336e+02   2.2274473389e+01    0.1380841   0.06748834  83.15 0.0009525086    1.734    0.423
       254 -10.9170     78.6414     45.1962   5.9478631930e+01   5.7249557182e+01    0.6624516    0.3598483 -33.16  0.002271383    1.762    0.432
       255  -9.4117     83.5080     41.0936   5.6345785971e+01   5.7149913437e+01    0.2522749    0.1809344 -40.12 0.0006762679    1.362    0.266
       256  -9.7399    245.1282    242.3277   6.6453356753e+01  -9.3243865661e+00     0.231546    0.1214463  37.25  0.001387101    1.453    0.312
       257  -9.3797    247.1913    239.3748   6.5659934548e+01  -9.3522994576e+00    0.1793924    0.1414087  38.83  0.001298432    1.376    0.273
       258  -9.3390     32.0516     47.4517   7.7156899017e+01   6.2584607285e+01    0.1920761    0.1356718 -46.78  0.001068226    1.125    0.111
       259  -9.0805     22.6607     46.3803   8.0435339884e+01   6.3548960610e+01     0.335806    0.1990294  39.55 0.0009205519    2.241    0.554
       260  -9.6186     24.7319     38.4072   7.7310905712e+01   6.4932632738e+01    0.4825097    0.2245256 -22.03  0.002165282    3.107    0.678
       261 -10.0459     17.2626     46.3284   8.2487950442e+01   6.3936752530e+01    0.3110617    0.1709707 -62.26  0.001288828    1.585    0.369
       262 -11.0554     13.5661     38.7821   8.1911161055e+01   6.5645903279e+01    0.6410976    0.4642164 -35.47  0.004609389    1.191    0.160
       263  -9.4775      4.4731     31.9654   8.3755212046e+01   6.7460719893e+01    0.3621618    0.1598514 -50.94  0.001293807    1.576    0.366
       264 -11.0415      7.3679     36.1344   8.3696090138e+01   6.6515567216e+01    0.3548575    0.2388676  -3.20  0.001257393    1.754    0.430
       265 -11.1924      9.6361     31.5960   8.1478966538e+01   6.7247589977e+01    0.2372444    0.2005909 -26.82 0.0001558035    1.204    0.169
       266  -8.9074    242.0771     46.6893   2.4703876304e+01   1.8083487556e+01    0.1919093    0.1724573  75.75 0.0003144497    1.129    0.114
       267  -9.0777    245.7366     44.5870   2.3736014827e+01   1.7482032023e+01    0.2442902    0.1312852  66.44  0.001094698    1.909    0.476
       268  -8.8849    235.0028     47.1656   2.5710370783e+01   1.9755174907e+01    0.2164548    0.1741547 -67.81 0.0004667469    1.267    0.211
       269  -9.0034     38.3063     46.6530   7.4547748045e+01   6.2166325201e+01    0.1936491    0.1667054 -60.10 0.0007925745    1.287    0.223
       270  -8.8460    164.3887     46.6546   3.7006222804e+01   3.8261682760e+01    0.2622827    0.1375014  56.60 0.0009315499    1.809    0.447
       271  -9.2688     45.5735     42.6716   7.0512190836e+01   6.2177645592e+01    0.3484628    0.1859587 -32.00  0.001310276    1.843    0.457
       272  -8.8785      3.7795     45.8017   8.7495131417e+01   6.4815248239e+01    0.1827726    0.1180239 -63.48 0.0002456477    1.252    0.202
       273  -8.9853      2.7811     42.6247   8.7146702173e+01   6.5490205494e+01    0.1458887    0.1319475  39.65  0.000540216    1.499    0.333
       274  -9.2094    185.4147     43.9275   3.2202781887e+01   3.3107385434e+01    0.2972127    0.1915078  43.70  0.001011788    1.604    0.376
       275  -8.3976    180.3214     44.7045   3.3342142303e+01   3.4351342280e+01     0.156357    0.1163586 -70.65 0.0003514953    1.616    0.381
       276 -10.1443    108.2924     42.0468   4.9035923629e+01   5.2301473848e+01    0.4915531    0.2619764 -29.99  0.001846565    1.889    0.471
       277  -8.2484    103.6874     44.6816   5.1347383691e+01   5.2811253266e+01     0.146333    0.1054497   6.89 0.0002722165    1.646    0.393
       278  -9.1046    200.9783     43.0278   2.9377950116e+01   2.9094606156e+01    0.3207973    0.2016283  53.09 0.0009178095    1.546    0.353
       279  -9.4450    203.8099     39.5513   2.7944103714e+01   2.8817912069e+01    0.2707902    0.2338306 -44.49  0.000469838    1.167    0.143
       280  -8.8919    191.1306     43.1910   3.1009622824e+01   3.1688682393e+01    0.2262263    0.1992103  28.54 0.0007337537    1.230    0.187
       281  -9.8880     91.2031     41.8019   5.4115919747e+01   5.5672694626e+01    0.3485501    0.3146388 -68.59  0.001692048    1.454    0.312
       282  -9.9714     97.5858     35.0899   4.9578890145e+01   5.5539358040e+01    0.2492673    0.2168911  13.32 0.0004054126    1.077    0.071
       283  -9.2773     93.8213     38.1451   5.1912926019e+01   5.5783012165e+01    0.2461999    0.1705427 -11.98  0.000249334    1.574    0.365
       284  -9.7073     28.0090     42.7830   7.7337379093e+01   6.3833367034e+01    0.1768777    0.1410253 -30.39 0.0003830966    1.133    0.117
       285 -10.2576    144.1433     41.1929   3.9525932305e+01   4.4217442841e+01    0.3479897    0.2582617  61.03 0.0009190263    1.374    0.272
       286  -8.7911     35.1508     41.6687   7.4204337762e+01   6.3420546155e+01    0.1875179    0.1129226 -21.90 0.0009350916    1.843    0.457
       287 -10.1437    228.7622     39.1327   2.4402809995e+01   2.2398248886e+01    0.3480476    0.3110462 -22.34  0.001169253    1.207    0.172
       288  -9.3920    222.7662     40.8317   2.5631565671e+01   2.3700335682e+01     0.234063     0.221391 -69.27 0.0004540264    1.015    0.015
       289  -9.0974    103.6448     40.6648   4.9878188668e+01   5.3470066430e+01    0.2663309    0.2042128 -70.88  0.001051458    2.020    0.505
       290  -9.5908     51.6362     40.0626   6.7314349194e+01   6.1964977067e+01    0.3444619    0.2240634 -14.90   0.00144755    1.749    0.428
       291  -9.5079    158.5135     39.0869   3.5720210278e+01   4.0873787553e+01    0.2950597    0.2253031 -82.24 0.0005516006    1.654    0.395
       292  -9.1390    129.4543     32.2915   3.9808626593e+01   4.9034524911e+01    0.4724612    0.1213137 -33.59  0.001468481    3.675    0.728
       293  -9.8402    128.7462     40.0606   4.2804538771e+01   4.8093028613e+01    0.3834801    0.2385548  54.85  0.001088007    1.614    0.380
       294  -8.9174    131.2087     36.5836   4.0943458022e+01   4.8020135006e+01    0.2224838    0.1833927   1.72  0.001161617    1.272    0.214
       295  -9.8554    246.0374     39.0076   2.2309328879e+01   1.8145658569e+01    0.2459328    0.1502502 -61.97  0.001147843    1.784    0.439
       296  -9.7566    177.6417     37.6056   3.1610971509e+01   3.6048210380e+01    0.3096687    0.2788546 -86.09 0.0008969868    1.160    0.138
       297  -9.4486    153.6862     37.0693   3.6037920751e+01   4.2395576657e+01    0.3754951     0.196758  53.41  0.001027476    1.764    0.433
       298 -10.5550    114.0685     35.3652   4.4923314325e+01   5.2095991345e+01    0.6185886    0.4647827 -47.42  0.002962842    1.546    0.353
       299  -9.2878    145.9813    242.2270   8.3268323131e+01   6.9564617233e+00    0.1713256    0.1220748  49.35 0.0007205494    1.058    0.055
       300 -10.4100     45.3671    119.4387   8.8132160851e+01   4.5857126941e+01    0.2546911    0.2143191  56.32 0.0009201785    1.291    0.225
       301  -9.4955    109.6539     23.2644   4.1441554720e+01   5.4718322006e+01    0.2379947    0.1962612  58.47 0.0007500701    1.351    0.260
       302  -9.7777     79.6432     19.8620   4.9111783954e+01   6.1066579158e+01    0.3762795    0.2264819  52.89  0.001917197    2.053    0.513
       303  -9.4841    237.9665     36.4507   2.2590601413e+01   2.0446111918e+01    0.4319283    0.2200271 -67.97  0.001652543    2.764    0.638
       304  -9.4526    138.7914     36.5065   3.9115128335e+01   4.6205353989e+01    0.4096381    0.2132179  41.46  0.001418627    1.944    0.486
       305  -8.7450    200.2485     36.0891   2.7476327253e+01   3.0221641406e+01     0.401858    0.1380542  49.42 0.0006966321    2.948    0.661
       306  -8.7224    163.6907     36.2945   3.3769280310e+01   3.9910150635e+01    0.1509836    0.1156436 -70.18 0.0007003344    1.589    0.371
       307  -9.4471     61.0350     34.6065   6.1778066137e+01   6.1715761492e+01    0.2446609    0.1780966 -55.73  0.001201138    1.753    0.430
       308  -9.6387     56.8245     35.8424   6.3821107569e+01   6.2067108978e+01     0.257135    0.1911831 -48.69 0.0003208717    1.430    0.301
       309  -9.4733     46.8195     34.4302   6.7147651185e+01   6.3538801072e+01     0.344201    0.1651742  41.28   0.00158521    2.682    0.627
       310  -8.1380     51.0035     32.5366   6.4806429752e+01   6.3373980621e+01    0.3818513    0.3025666 -20.21  0.002502803    1.086    0.079
       311  -9.0059     54.6697     31.6872   6.3062806420e+01   6.3058932424e+01    0.2015845    0.1461799 -25.42 0.0008901233    1.191    0.160
       312  -9.5371    225.4269     33.6204   2.3360080301e+01   2.3961695006e+01    0.5052094    0.2047897  58.06  0.001508779    2.324    0.570
       313  -9.1259     19.0669     34.2204   7.8330043885e+01   6.6145190799e+01    0.2205098    0.1230852 -31.86 0.0007884465    1.640    0.390
       314 -10.9534     18.3369     28.0497   7.6654990586e+01   6.7335029742e+01    0.3653177    0.2408661 -57.20 0.0008758273    1.473    0.321
       315  -9.4654     17.8407     22.1570   7.4830769842e+01   6.8422317787e+01    0.1872054     0.131827 -48.65 0.0002616831    1.262    0.208
       316  -8.4905    242.4457     34.4775   2.1580544428e+01   1.9599888132e+01    0.1383435    0.1273735 -65.31 5.034415e-05    1.013    0.013
       317  -8.9069    145.3439     34.3836   3.6895856677e+01   4.4876298620e+01    0.3840414    0.1632141  52.45  0.001458951    2.138    0.532
       318  -8.5524    159.5612     32.7844   3.3408983969e+01   4.1454496273e+01     0.208038    0.1365205 -40.70 0.0005462077    1.620    0.383
       319 -10.3052    247.9459     30.4663   1.9992161124e+01   1.8775272985e+01    0.3563277    0.2409346 -26.41  0.001082769    1.542    0.352
       320 -10.2558    233.6825     30.8645   2.1653881920e+01   2.2222540375e+01     0.420018    0.2383388  56.92   0.00054927    1.764    0.433
       321  -8.5451    190.0798     32.7917   2.8058615236e+01   3.3360752694e+01    0.2042033    0.1159004  66.40 0.0008591847    1.702    0.412
       322  -9.0434    153.2922     32.0054   3.4396776047e+01   4.3176713639e+01    0.3198087    0.1939355 -84.61  0.001186832    2.863    0.651
       323 -11.3403    145.3689     28.7861   3.4927813633e+01   4.5606926442e+01    0.6742833    0.3813528  40.34  0.001037696    1.788    0.441
       324  -9.7320    133.7779     30.6954   3.8195197397e+01   4.8217030813e+01    0.4702129    0.3818105 -30.76   0.00210249    1.281    0.220
       325  -8.9275    189.2650    240.3968   7.5561981346e+01  -5.5678440753e-02    0.1743511    0.0893093  49.13 0.0009508171    1.660    0.398
       326  -9.1920    119.2423     31.4127   4.2050599097e+01   5.1513591815e+01    0.2699892    0.1965403  15.64 0.0008196105    1.507    0.336
       327  -9.6692    221.5578    234.8474   6.9224968921e+01  -4.8029393951e+00    0.2949538    0.2561566 -13.48  0.002179696    1.374    0.272
       328  -9.8712     24.2919     31.3614   7.5231995543e+01   6.6279041524e+01    0.2265666    0.2042066 -20.87  0.001341078    1.217    0.178
       329  -9.3211    125.2609     30.6118   4.0217852143e+01   5.0245733172e+01    0.2644104    0.2077678   8.06 0.0003302388    1.346    0.257
       330  -9.1414     93.9868     30.3129   4.8810123025e+01   5.6951368593e+01     0.238016    0.1922856 -53.68  0.001321756    1.604    0.376
       331  -9.7320    178.6185     29.3439   2.8851611054e+01   3.6860264402e+01       0.3673    0.2647752  47.89  0.001336511    1.348    0.258
       332  -9.6049     26.2608     22.7021   7.1303712370e+01   6.7651417779e+01    0.2042397    0.1461206 -31.38 0.0007144554    1.086    0.079
       333 -10.0249     43.6013     15.5778   6.0878125077e+01   6.7018021619e+01    0.5170846    0.1798318  29.80  0.002266898    3.387    0.705
       334 -10.2291    187.6078    235.4534   7.5166878920e+01   8.4544927163e-01    0.2939148    0.1192653  39.54   0.00116781    1.993    0.498
       335  -8.6712    228.3511    234.2927   6.7990857379e+01  -5.8536688357e+00    0.1236978   0.07253574  21.72 0.0007030028    1.676    0.403
       336 -10.7803     49.0554     26.9383   6.3398408191e+01   6.4557374256e+01    0.2528048    0.2141559  27.65 0.0003756058    1.390    0.281
       337 -10.8013     50.4431     22.2420   6.0924881248e+01   6.5143604209e+01    0.2927681    0.2057807 -17.87 0.0005937642    1.270    0.212
       338  -9.1060    211.8350     27.0995   2.3307867580e+01   2.8298074758e+01    0.2660164    0.1865258 -27.81  0.001313056    1.502    0.334
       339  -8.8786    189.5716     28.4672   2.6834633187e+01   3.4040932525e+01    0.3241929    0.1371876  63.99   0.00121558    2.196    0.545
       340  -9.0471     31.9540    232.1743   1.0132831646e+02   2.4686880335e+01    0.1602807   0.09360743  67.90 0.0004220455    1.226    0.184
       341  -8.7769    161.4918     26.9728   3.1098494452e+01   4.1688146523e+01     0.218072     0.149378 -21.12 0.0009394288    1.585    0.369
       342  -8.8451     82.2451     26.1804   5.0902359626e+01   5.9717073629e+01    0.2607197    0.1582449  28.95  0.001011816    1.721    0.419
       343 -10.0522      2.0235     25.1043   8.2841562406e+01   6.8861569215e+01    0.2738176    0.1342601 -59.19 0.0009040803    1.661    0.398
       344  -8.6850    178.0481    231.2219   7.6259712977e+01   3.0467115161e+00    0.1748598   0.07998072  43.47 0.0008814437    1.701    0.412
       345  -8.6923    184.3257     13.1362   2.2952907397e+01   3.7200935094e+01    0.2547199    0.1787197  54.61 0.0006488005    1.329    0.248
       346 -10.5394    171.8016     22.9844   2.7969308686e+01   3.9445463675e+01    0.6031086    0.3021135  53.39  0.001873302    1.806    0.446
       347  -9.1451    186.6580    230.6743   7.4659388779e+01   1.6265180129e+00    0.1242662   0.08245472  21.80 0.0007051087    1.735    0.424
       348  -9.5511    238.1035     17.1233   1.7696050810e+01   2.2773897680e+01    0.2796083     0.194166  45.98 0.0007589189    1.674    0.402
       349  -8.7625    208.4224     23.1589   2.2647724980e+01   2.9668891170e+01    0.2002568     0.124335 -43.36 0.0004244229    1.612    0.379
       350  -8.5518    152.5392     13.5462   2.8172285602e+01   4.5544687881e+01    0.2343042      0.20789 -74.92 0.0007010034    1.265    0.210
       351  -9.9487    153.6300     22.6792   3.1128528077e+01   4.4248408261e+01    0.2682737    0.2565898  72.75  0.000283667    1.086    0.079
       352  -8.5376    207.1657    226.5830   7.0441477652e+01  -1.4049191044e+00      0.17803   0.09122223  34.80 0.0005184819    1.660    0.398
       353  -8.6728    116.5898     23.1425   3.9561305915e+01   5.3203459601e+01    0.2002033    0.1274465  -5.39 0.0009288825    1.830    0.454
       354  -9.0256    163.2473    226.2998   7.8232616461e+01   6.3132470323e+00    0.1857678    0.1241038  70.66 0.0007127235    1.958    0.489
       355 -10.5381    231.0613     15.2799   1.7940636816e+01   2.4739035391e+01    0.5136608    0.2428952  79.41  0.001956206    2.226    0.551
       356 -10.3194    219.8244     20.8528   2.0623695019e+01   2.6964184124e+01    0.5178926     0.306477  84.53  0.002360156    1.799    0.444
       357  -9.4298    217.1892     17.8141   2.0111662702e+01   2.7996799293e+01    0.2842524    0.2452942  26.49 0.0008643393    1.380    0.276
       358  -8.8936    188.5324     21.6171   2.4923261270e+01   3.5138183794e+01    0.2557545    0.1505027 -18.60  0.000796953    1.967    0.492
       359  -9.7664    246.4684     20.2848   1.7655156846e+01   2.0364803224e+01    0.4078572    0.1790044  58.19  0.001765887    2.274    0.560
       360  -8.1734    143.6736    226.3385   8.1771971154e+01   9.6871139822e+00    0.1257231   0.08159932  68.19 0.0007051565    1.727    0.421
       361  -8.7821    223.7997    225.0104   6.7303952055e+01  -4.0559581480e+00    0.1665059     0.130781  24.97 0.0005996342    1.048    0.045
       362  -9.9137    144.8853     12.5447   2.9247013210e+01   4.7605815371e+01    0.4960714    0.1684307  61.43  0.001461574    2.632    0.620
       363  -8.7120    199.8060     19.7544   2.2802800634e+01   3.2345320553e+01    0.3139833    0.1255154 -16.18  0.001038408    3.610    0.723
       364  -8.4818    140.4330     20.4699   3.2999084365e+01   4.7855902977e+01    0.1429357    0.1332989  39.25 0.0001448459    1.023    0.022
       365  -9.5419    205.0645     18.4558   2.1751323160e+01   3.1099742620e+01    0.2523019    0.2089652 -29.59 0.0002837837    1.289    0.224
       366  -8.8568    132.1745    225.1824   8.3707301978e+01   1.1807062340e+01    0.1664338     0.116923  63.04  0.000374469    1.290    0.225
       367  -8.4372    125.4987    225.5068   8.4948561026e+01   1.2859580106e+01    0.1223143   0.09520612  56.84 0.0003754012    1.002    0.002
       368  -9.5398     89.3757    220.8274   9.0917145891e+01   1.9274237590e+01    0.2063195     0.168059  46.41 0.0008737199    1.367    0.268
       369  -8.7000    174.7980    217.9389   7.4947958206e+01   5.4829944725e+00    0.1439831    0.1027873 -42.26 0.0007870951    1.741    0.426
       370  -8.4284    117.9990    212.0152   8.4735796938e+01   1.6352438725e+01    0.1538371    0.1173292  55.97  0.000451107    1.063    0.060
       371  -8.5629      1.6880    212.2920   1.0502835962e+02   3.1176910627e+01    0.1043596   0.04874301  67.32  0.000522562    1.589    0.371
       372  -8.9716    242.7571    210.1021   6.1548210359e+01  -5.5185660133e+00    0.1702147    0.1523193  23.39  0.000588654    1.258    0.205
       373  -8.3185    230.7264    210.0036   6.3601517242e+01  -3.4528533604e+00    0.1440061    0.1056181 -22.86 0.0008897017    1.501    0.334
       374  -8.5428    221.4636    198.5776   6.3221957171e+01  -3.4382125225e-01    0.1307594    0.1068994  27.45 0.0001176549    1.010    0.010
       375  -8.8312    250.4034     15.7617   1.6199876959e+01   1.9948846955e+01    0.2612229     0.111241 -34.07  0.001143208    2.132    0.531
       376  -8.4855     95.9828    195.9357   8.7027597368e+01   2.2815929007e+01    0.1488708    0.1215986  70.45 0.0003900611    1.014    0.014
       377  -9.4881      6.8427    194.8786   1.0334027684e+02   3.3871785194e+01    0.1469751    0.1142329 -85.15  0.001212823    1.305    0.234
       378  -9.5029    248.5482    191.8214   5.7226494509e+01  -4.3198649941e+00    0.2778832    0.1040776 -40.56  0.001138759    3.413    0.707
       379  -8.8193    195.1097     15.1540   2.2086666438e+01   3.4108442876e+01    0.2193796    0.1562925 -68.97 0.0003616538    1.529    0.346
       380  -9.2063     16.2071    188.2578   1.0133493170e+02   3.4261652398e+01    0.1488479   0.08811092  73.98 0.0003924558    1.312    0.238
       381  -9.2368      6.4742    175.0440   1.0225664119e+02   3.7701859966e+01    0.2305077   0.07990694  52.36  0.001276274    2.479    0.597
       382  -8.4024     77.0288    174.0303   8.8220089404e+01   2.9999506691e+01    0.1477913    0.1219692  80.28 0.0003488117    1.011    0.011
       383  -9.7832     18.0677    174.1814   1.0004327491e+02   3.6844715575e+01    0.1575665    0.1296517 -80.14  0.001235118    1.297    0.229
       384 -10.8399    233.0936     21.0792   1.9208556734e+01   2.3559720559e+01    0.5446128    0.3527648  48.04   0.00223698    1.726    0.421
       385  -8.8822     91.6232     13.8277   4.2685029184e+01   5.9609410442e+01     0.167575    0.1575232 -40.87 0.0007532735    1.347    0.258
       386 -10.4606     11.5288    166.5316   1.0074277117e+02   3.8963088308e+01    0.1892788    0.1304485 -82.24 0.0008555578    1.168    0.144
       387  -8.4483     28.3248    164.3077   9.7254269443e+01   3.7870698081e+01    0.1035692    0.0783501 -54.48 0.0004287047    1.650    0.394
       388 -10.1907     24.4060    163.3410   9.7961434852e+01   3.8449298326e+01    0.1898652    0.1610673 -65.12 0.0006488393    1.422    0.297
       389 -11.0455     21.3492    150.2633   9.7447857549e+01   4.1457096062e+01     0.475532    0.2308302 -43.63  0.002343313    3.424    0.708
       390 -12.0016     39.2251    160.2718   9.4627937849e+01   3.7594621629e+01    0.7509925     0.298449  57.75  0.003572788    2.685    0.628
       391 -12.1770     30.9035    154.6594   9.5832222145e+01   3.9633524066e+01    0.6887823    0.3424005  77.86  0.003660861    2.125    0.529
       392 -10.5731     20.5044    158.4103   9.8336392851e+01   3.9830753213e+01    0.3052026    0.1392378 -69.95 0.0008351515    1.786    0.440
       393  -8.3605    200.4967     13.5083   2.0918469939e+01   3.2855937616e+01    0.1432302    0.1309039  82.79 -2.832469e-05    1.001    0.001
       394 -10.0376     10.0564    157.4853   1.0037181955e+02   4.0923765554e+01    0.1885873    0.1165798  79.49 0.0008881466    1.310    0.237
       395  -9.7692      2.2369    157.0516   1.0188804771e+02   4.1631464801e+01     0.216696    0.1472721 -81.96 0.0007322888    1.150    0.130
       396 -10.4680      2.4678    153.4851   1.0159561364e+02   4.2338291539e+01    0.2505383    0.2297216  63.41  0.002141119    1.406    0.289
       397  -9.5379    249.1018    154.1188   4.9503415995e+01   5.8994632494e-01     0.216125    0.1668988   9.40 0.0006150524    1.255    0.203
       398 -10.0719     10.8183    147.2301   9.9408893015e+01   4.2981417706e+01    0.2543244    0.1715158 -48.37  0.001259627    1.898    0.473
       399 -10.0807     12.8060    142.2892   9.8563399665e+01   4.3858933264e+01    0.2286347    0.1711764 -49.32  0.001635305    1.665    0.399
       400 -10.9230     10.6888    151.5881   9.9788657053e+01   4.2086189746e+01    0.2657609    0.2335226  41.20   0.00214516    1.501    0.334
       401  -8.8787     62.6685    147.0948   8.7889738721e+01   3.7694004507e+01    0.2713212    0.1458738 -87.39  0.001191825    2.182    0.542
       402  -8.8054     18.6794    147.2994   9.7747997408e+01   4.2315626648e+01    0.1165176   0.06710394  71.82 0.0003379256    1.622    0.384
       403  -9.7782      5.1293    144.1423   1.0035449386e+02   4.4061894614e+01    0.2560849    0.1750492 -37.61  0.001059851    2.222    0.550
       404  -9.8014    240.7271    144.3162   4.8791854534e+01   3.6797332139e+00    0.2131384    0.1710408 -30.39 0.0004693115    1.253    0.202
       405  -8.6934    239.4682    141.4498   4.8368910035e+01   4.3694971985e+00    0.1876461    0.1347319  55.78 4.066915e-05    1.587    0.370
       406  -7.9852    121.6965    139.7059   7.2623519865e+01   2.9946139450e+01    0.1356225    0.1162495  -5.16  0.000235828    1.576    0.366
       407  -9.0071    235.9577    136.5419   4.7867908388e+01   5.8534109540e+00    0.2083463    0.1353476  45.83 0.0004085815    1.525    0.344
       408  -8.2261     83.3237    136.2557   8.1287492781e+01   3.7237649474e+01    0.1209135    0.1052929 -22.63 0.0002396902    1.547    0.354
       409  -9.6172     58.3488    135.6393   8.7294374477e+01   4.0764100743e+01    0.2306125    0.1930909 -53.18 0.0002061054    1.321    0.243
       410  -8.8774     62.5437    133.5654   8.5959921219e+01   4.0705661596e+01    0.2316539    0.1756817 -81.97 0.0005972005    1.184    0.156
       411  -9.2883     60.5544    131.1423   8.6078715759e+01   4.1495973788e+01    0.2708162    0.1950014 -35.87  0.001523228    1.865    0.464
       412  -8.9620     15.6925    135.3142   9.7279503407e+01   4.5108272647e+01    0.1162852     0.068464  74.00 0.0007027143    1.626    0.385
       413 -10.8317      8.5794    132.1188   9.8579804839e+01   4.6332597341e+01    0.5640155    0.2362426 -46.25  0.002789562    3.282    0.695
       414  -9.7711      3.2213    130.4221   9.9630787088e+01   4.7069262785e+01     0.194068    0.1013825  82.92   0.00076682    1.736    0.424
       415  -9.7182     41.6383    130.3944   9.0624426259e+01   4.3810153323e+01    0.2434852    0.1320766 -66.60  0.001346771    1.532    0.347
       416  -8.7439     87.0162    130.0829   7.9270591911e+01   3.8055165077e+01    0.2046512    0.1493717  83.09 0.0004883392    1.526    0.345
       417  -9.3236     18.1319    128.1684   9.5989317739e+01   4.6447603004e+01    0.2840174    0.1193909 -52.82   0.00146723    2.401    0.583
       418  -9.5689     33.8866    126.6291   9.2025534975e+01   4.5409121501e+01    0.2399926    0.1320384 -87.84 0.0007783803    1.822    0.451
       419  -8.9799     50.7915    126.2571   8.7776063416e+01   4.3742315490e+01    0.1808254    0.1451381  89.19  0.000433708    1.132    0.117
       420  -9.1882    241.6841    124.0334   4.3987013759e+01   6.5714189299e+00    0.2123383    0.1766684 -25.81  0.001159584    1.151    0.131
       421 -10.0335     39.1320    123.5794   9.0319864513e+01   4.5574128205e+01     0.262144    0.2264949  24.80  0.001815504    1.504    0.335
       422 -10.5369      7.9159    122.3149   9.7793918671e+01   4.8467726902e+01     0.281035    0.1366033 -60.60  0.001675057    1.725    0.420
       423  -9.6432     71.9030    121.8865   8.1643230171e+01   4.2097846435e+01    0.3311209    0.1542324 -51.46 0.0007479275    2.036    0.509
       424  -8.4091     83.3468    122.7194   7.8823150081e+01   4.0266532759e+01    0.1978145     0.122654  23.70 0.0009138493    2.292    0.564
       425 -10.5376     29.1205    118.7315   9.2187412302e+01   4.7584533663e+01    0.4839987    0.2270446  85.74  0.002176021    2.887    0.654
       426 -11.1864     21.2135    119.0025   9.4203728093e+01   4.8190537517e+01    0.4598871    0.3098558  76.31  0.002983515    1.468    0.319
       427  -9.9461    221.3562    119.3743   4.6419941476e+01   1.1825367650e+01    0.3678982    0.2534046  41.64 0.0007058107    1.444    0.308
       428  -9.5536     93.6984    119.1167   7.5403489468e+01   3.9448618137e+01    0.2717003    0.2298191 -22.67  0.001008152    1.493    0.330
