#   1 NUMBER                 Running object number                                     
#   2 MAG_AUTO               Kron-like elliptical aperture magnitude                    [mag]
#   3 X_IMAGE                Object position along x                                    [pixel]
#   4 Y_IMAGE                Object position along y                                    [pixel]
#   5 X_WORLD                Barycenter position along world x axis                     [deg]
#   6 Y_WORLD                Barycenter position along world y axis                     [deg]
#   7 A_WORLD                Profile RMS along major axis (world units)                 [deg]
#   8 B_WORLD                Profile RMS along minor axis (world units)                 [deg]
#   9 THETA_WORLD            Position angle (CCW/world-x)                               [deg]
#  10 FWHM_WORLD             FWHM assuming a gaussian core                              [deg]
#  11 ELONGATION             A_IMAGE/B_IMAGE                                           
#  12 ELLIPTICITY            1 - B_IMAGE/A_IMAGE                                       
         1 -11.7322      7.2386     17.0560   1.1237790322e+02   7.0593632493e+01    0.4944856    0.1867133 -59.85   0.00150195    2.045    0.511
         2 -11.4049     59.1433     15.5551   8.8217905330e+01   6.5454635570e+01    0.3483561    0.2161697 -46.58 0.0005705793    1.684    0.406
         3 -12.2661    113.0852     15.1576   7.0708752963e+01   5.5211250511e+01    0.4193332     0.325343  67.03  0.001538456    1.502    0.334
         4 -11.5344     80.5490     14.8664   8.0089069847e+01   6.1982831103e+01    0.3281069    0.2176913 -39.06  0.001364662    1.504    0.335
         5 -10.6324     43.3832     16.4032   9.5158582660e+01   6.7450461545e+01    0.3444628    0.2735098 -83.30  0.001765941    2.200    0.545
         6 -11.2103     46.3404      9.2864   9.0530821213e+01   6.8268053741e+01    0.4280998     0.199944 -22.39  0.001804089    3.001    0.667
         7 -10.2713     50.3374     11.6794   8.9978221954e+01   6.7343386619e+01    0.2129375    0.1677777  57.07 0.0009742032    1.903    0.475
         8 -11.1330     50.1669      8.5434   8.8512544872e+01   6.7865368498e+01    0.3025224    0.2689962  29.91  0.002076453    1.354    0.261
         9 -12.6784     26.0553     13.0367   1.0164083010e+02   6.9917420557e+01    0.2499723    0.2261767  -9.83 0.0005424048    1.238    0.192
        10 -10.8344     65.0951     13.1167   8.4762436109e+01   6.4913435996e+01     0.351691    0.2351909   5.23   0.00187608    1.795    0.443
        11 -11.7137    175.4414      9.1716   5.6425783488e+01   4.0049326369e+01    0.4523858    0.1992529 -31.20  0.001519072    2.179    0.541
        12 -10.5037      2.3533     10.8603   1.1274159121e+02   7.2072225905e+01    0.1691225    0.1456502  38.82  0.000710308    1.596    0.374
        13 -10.6701      7.1285     10.3049   1.1005289482e+02   7.1900443008e+01    0.1677788    0.1444979  13.24 0.0003630155    1.462    0.316
        14 -11.9011    211.7500      9.6161   5.2101314466e+01   3.0332336650e+01    0.2767722    0.2246576  85.21 0.0009050894    1.257    0.204
        15 -12.4504    209.0031      5.1611   5.1052987005e+01   3.1479267759e+01    0.3384683    0.2713707 -58.98 0.0003619273    1.268    0.212
        16 -10.6247     74.8086      9.2677   7.9364340603e+01   6.3818581076e+01    0.2292583    0.1602161 -35.24   0.00101284    1.390    0.281
        17 -11.9247     74.8088      3.1314   7.6276628575e+01   6.4629179037e+01    0.4020713    0.3552778  -5.10  0.002584928    1.074    0.069
        18 -10.8620     87.6883      7.6064   7.4341797602e+01   6.1595539175e+01    0.2722724    0.1697698 -18.41 0.0009425325    1.537    0.349
        19 -11.6782     39.4326      5.6224   9.1805425028e+01   6.9738457811e+01    0.4446233    0.2130618 -38.91  0.002093813    1.728    0.421
        20 -10.1004    108.4864      8.0756   6.8751153538e+01   5.7107611478e+01    0.2079249    0.1313723 -20.65  0.001013112    1.534    0.348
        21 -11.5513     24.6382      6.7298   9.9516169764e+01   7.1173023002e+01    0.2839046    0.1590344 -51.00 0.0007623429    1.635    0.388
        22 -11.3484     19.0940      7.3563   1.0262806450e+02   7.1563669938e+01    0.3067603    0.1813684   8.67 0.0008594596    2.132    0.531
        23 -10.5645    236.2853      6.9859   4.8979847530e+01   2.4344328728e+01    0.1906632    0.1684684 -32.21 0.0002911849    1.088    0.081
        24 -11.6232    195.1955      3.5059   5.2040247648e+01   3.5290507412e+01    0.3637973    0.2293827  64.24   0.00117035    1.511    0.338
        25 -10.7165     62.1158      6.0638   8.2401586192e+01   6.6433074040e+01    0.2550068    0.1802323  43.67  0.001500959    1.614    0.380
        26 -11.7130    180.7620      2.6479   5.3487432603e+01   3.9239574421e+01    0.4755174    0.2379877  56.86  0.002016457    1.836    0.455
        27 -11.3188    161.0993      3.3762   5.6455533137e+01   4.4442626883e+01    0.3217684    0.2861096 -60.20  0.001772546    1.221    0.181
        28 -11.0971     31.0444      3.2210   9.4594009700e+01   7.1105804150e+01    0.2931979    0.1411238 -38.31  0.001597694    1.671    0.402
        29 -11.1609     11.2875      2.7988   1.0472830523e+02   7.3000263556e+01    0.2492015    0.1619395 -47.07 0.0009057021    1.199    0.166
        30 -10.8687    218.0220      3.0271   4.9525319397e+01   2.9330502336e+01      0.23482    0.1575706  34.28  0.001139768    1.718    0.418
        31 -10.6158     91.3006      2.7279   7.0887446120e+01   6.1445835159e+01    0.2005183    0.1913702 -13.54 0.0003662669    1.184    0.155
        32 -10.3418    190.7273    240.9390   1.0733571874e+02   3.8962242842e+00    0.2085023    0.1143467  30.39  0.001333456    1.680    0.405
        33  -9.9942    168.9812    249.5035   1.1166231793e+02   6.2181487331e+00    0.1396416    0.1220431  41.83 0.0008282729    1.234    0.189
        34 -10.1040    149.2590    250.7679   1.1482095330e+02   8.9284932366e+00    0.2355974   0.06340682  42.25 0.0009442817    2.727    0.633
        35 -11.4480    129.4435    247.7804   1.1759978892e+02   1.2085322589e+01    0.2201475       0.1894  19.95  0.001592696    1.617    0.382
        36 -10.1666    118.3571    250.6897   1.1955442257e+02   1.3252795530e+01    0.1931645   0.09829585  51.69 0.0007208776    1.434    0.303
        37 -11.0688    115.3975    249.7480   1.1993016876e+02   1.3771315869e+01    0.2454737    0.1876416  14.03  0.001812453    2.322    0.569
        38 -12.0692    106.2378    248.5323   1.2123594701e+02   1.5151798683e+01    0.4280155     0.198622  51.08  0.002090991    1.549    0.354
        39 -12.3401    109.6106    244.8463   1.2042457050e+02   1.5179979241e+01    0.3026802    0.1883038  72.08  0.002211611    1.694    0.410
        40 -10.3517     98.7083    249.4590   1.2245372107e+02   1.6017978329e+01    0.1539168    0.1142953  41.71 0.0005036556    1.390    0.281
        41 -10.8908     91.9946    250.3490   1.2353304749e+02   1.6762330513e+01    0.1365657    0.0971356  50.55 0.0007419174    1.158    0.137
        42  99.0000     45.7094    245.0311   1.3010483578e+02   2.2948112710e+01    0.4885273    0.3197939  62.49  0.001395004    1.013    0.013
        43 -12.7235     19.5234    210.9299   1.3250773915e+02   3.0814848718e+01    0.2409815    0.2155864  57.23 0.0006742083    1.542    0.352
        44 -13.2053     18.1319    199.6862   1.3221700157e+02   3.2806924551e+01     0.831207    0.7060034  78.95  0.007573394    1.349    0.259
        45 -14.0958     25.1059    218.7977   1.3198307932e+02   2.9015051664e+01    0.7514891    0.6619534  35.53  0.006199725    1.768    0.435
        46 -12.3054     38.8573    211.5118   1.2941944836e+02   2.8776522781e+01    0.3113964    0.1641385  48.98 0.0004836144    1.490    0.329
        47 -15.0550     10.4153    232.9387   1.3474078770e+02   2.8244413796e+01     1.143701    0.8505527 -89.98  0.008332281    1.420    0.296
        48 -13.2337     45.8458    219.4299   1.2873812591e+02   2.6756519728e+01    0.6928298    0.2885138 -59.63  0.003849531    3.117    0.679
        49 -13.5609     27.9838    230.7475   1.3207307363e+02   2.6886121911e+01    0.5060974     0.393711  89.43   0.00190566    1.397    0.284
        50 -13.7307     30.1688    247.9557   1.3246904307e+02   2.4160958738e+01     0.732174    0.2724764  75.71  0.003198613    2.643    0.622
        51 -13.9183     34.5577    242.9723   1.3163381953e+02   2.4420047148e+01     0.439342     0.267629 -87.08  0.001760371    1.571    0.364
        52 -13.3671     37.4427    225.2613   1.3037552984e+02   2.6750828348e+01    0.3086556    0.1889486  88.38  0.001462309    1.450    0.310
        53 -13.2359     37.6400    218.8963   1.3001720007e+02   2.7722290393e+01    0.3175032    0.2397429  81.80  0.001274221    1.217    0.179
        54 -14.9049     15.9042    248.2065   1.3447363862e+02   2.5522196907e+01    0.6085972    0.3339373  49.15  0.003074741    1.392    0.282
        55 -13.0087      9.0166    250.1719   1.3547827845e+02   2.5889560232e+01     0.236571    0.1178593  64.70  0.001118283    1.309    0.236
        56 -10.8610    183.7828    240.1815   1.0832658642e+02   5.0175374552e+00     0.179426    0.1416737  49.63 0.0007217538    1.245    0.197
        57 -11.3159    129.0824    240.9803   1.1703827343e+02   1.2984552650e+01    0.2710326    0.1135659  46.28  0.001622024    1.726    0.421
        58 -10.7214    168.5924    239.1392   1.1059328465e+02   7.4143325921e+00    0.1874361    0.1715526 -88.48  0.001020377    1.475    0.322
        59 -10.0400    172.4911    239.4539   1.1001379198e+02   6.7937660826e+00    0.1555552    0.1058556  56.71 0.0006088883    1.486    0.327
        60 -11.2079    142.3171    238.0383   1.1465108028e+02   1.1446138714e+01    0.5398011    0.1657302  50.77  0.002106091    2.883    0.653
        61  -9.7173    136.0383    237.0000   1.1555124814e+02   1.2491509373e+01    0.1630489   0.07800401  51.01            0    1.635    0.388
        62 -10.4288    119.6773    233.5380   1.1785286730e+02   1.5290676750e+01    0.1750589    0.1265794  84.85 0.0009019567    1.595    0.373
        63 -11.1781    116.0118    238.4843   1.1888429937e+02   1.5142693157e+01    0.1813281    0.1466642  34.67  0.000614623    1.460    0.315
        64 -10.4573    157.3298    237.6978   1.1222123918e+02   9.2672356898e+00    0.2017492    0.1168026  52.56  0.001342531    1.459    0.315
        65 -11.8234    154.4910    232.7743   1.1213984611e+02   1.0285845572e+01     0.368649    0.1575975  50.24 0.0006671551    1.926    0.481
        66 -10.8498    188.1503    236.0347   1.0714442202e+02   4.7963115305e+00    0.3522403    0.1313997  33.53  0.001684157    2.828    0.646
        67 -11.4341    196.2365    233.0404   1.0549858226e+02   3.8765381321e+00     0.380359    0.1627059  48.92  0.000871161    2.058    0.514
        68 -10.7503    173.6458    234.1305   1.0921513776e+02   7.2164868794e+00    0.2318226    0.1210202  36.79 0.0006026717    1.572    0.364
        69 -10.9034    181.4404    235.3088   1.0811559114e+02   5.8962699794e+00    0.2484825    0.1423006  37.21 0.0008128387    1.360    0.265
        70 -10.6219    178.7870    232.2104   1.0816428757e+02   6.6458739726e+00    0.1990371     0.147883  34.10 0.0005924379    1.141    0.123
        71 -11.4484     59.5708    232.4591   1.2733714521e+02   2.3217383832e+01     0.373757    0.1742662  79.77  0.002370649    2.346    0.574
        72  -9.8990     55.6173    228.5312   1.2772009350e+02   2.4259204010e+01    0.1474223    0.1077561  64.88 0.0005068805    1.068    0.064
        73 -10.6212    236.1776    229.0023   9.8786798017e+01  -1.7807097086e+00    0.2597762    0.1827554  48.77  0.001859784    1.626    0.385
        74 -10.0019    230.9754    233.2188   1.0016332270e+02  -1.3835815333e+00    0.1608794     0.110325  27.90 0.0005585482    1.076    0.070
        75  -9.7278    232.3372    230.3097   9.9551922091e+01  -1.3267760418e+00    0.1124722   0.08321279  31.18 0.0003737598    1.085    0.079
        76 -11.9923    144.0754    232.1787   1.1376367627e+02   1.1921752246e+01    0.2822772    0.1432213  44.43 0.0007496145    1.471    0.320
        77 -10.5589    133.0022    232.9991   1.1564456254e+02   1.3448210213e+01    0.1632705    0.1175865  54.50 0.0004954334    1.103    0.093
        78 -11.1472     81.3246    231.9478   1.2388106437e+02   2.0660141299e+01    0.1674129     0.134652  73.08  0.000442881    1.192    0.161
        79 -11.5272     78.8932    223.2820   1.2363484497e+02   2.2253165625e+01    0.2878821    0.1625399 -84.27  0.001256379    1.954    0.488
        80 -11.3075     76.7942    216.2964   1.2344926242e+02   2.3594260507e+01    0.2551877    0.1544558  70.96  0.001390293    1.483    0.326
        81 -10.5492     72.8533    217.4062   1.2419166683e+02   2.3915068812e+01    0.1475014    0.1259332  53.86 0.0004469777    1.332    0.249
        82 -11.0548     71.5551    225.9897   1.2502227518e+02   2.2757360421e+01    0.3316886    0.2043164  70.98  0.002472972    1.390    0.281
        83 -10.5504     74.2988    231.3152   1.2495195915e+02   2.1627918396e+01    0.2126177    0.1184881  52.00 0.0008406179    1.307    0.235
        84 -11.1614     75.3255    228.6653   1.2460416381e+02   2.1892549318e+01    0.1924836    0.1084292  57.60  0.000733417    1.328    0.247
        85 -11.2927     94.7876    228.8435   1.2147848054e+02   1.9366343043e+01    0.3159742    0.1980149  58.72 0.0008142383    1.234    0.189
        86 -10.6477     88.1515    231.3086   1.2274342521e+02   1.9880361551e+01    0.2568285   0.09064378  49.01   0.00145492    2.062    0.515
        87 -10.8591     90.0572    228.2267   1.2219672500e+02   2.0079913589e+01    0.1579603    0.1350044  88.51 0.0001983169    1.329    0.248
        88 -10.3407    161.9783    234.8461   1.1116440627e+02   8.9060891075e+00     0.155724    0.1164155  31.74 0.0005863251    1.295    0.228
        89 -10.2245    249.3622    228.1001   9.6688585260e+01  -3.6346532095e+00    0.1236844   0.09280823 -27.69 0.0009404764    1.773    0.436
        90 -11.2310    158.4663    226.0536   1.1073046503e+02   1.0510129916e+01    0.2864377    0.1775259 -63.02  0.001722508    2.429    0.588
        91 -11.6289    111.4254    227.0426   1.1860144276e+02   1.7350240626e+01    0.2230268    0.1717393 -62.76  0.001373082    1.644    0.392
        92  -9.6091    241.2919    227.6464   9.7823355099e+01  -2.4178899827e+00    0.0904811   0.08036637  50.72 0.0006648116    1.680    0.405
        93 -10.6191    152.0046    226.9410   1.1189579733e+02   1.1390665881e+01    0.1579958    0.1219703  43.77 0.0002920955    1.064    0.061
        94  -9.8681    133.2253    227.4001   1.1504139272e+02   1.4156060010e+01    0.1655418   0.07639398  50.38 0.0008806524    1.709    0.415
        95 -10.4315    164.4855    225.2938   1.0965048568e+02   9.6714077446e+00     0.173662     0.142534  14.84 0.0007823769    1.470    0.320
        96 -10.1990    121.2371    224.9783   1.1678251079e+02   1.6241992000e+01    0.2014849    0.1077227  38.42 0.0008257886    1.713    0.416
        97  -9.8966    228.2145    223.9815   9.9280904608e+01  -1.2676708922e-01     0.144783     0.110576  24.31 0.0003229475    1.072    0.067
        98 -10.5481    219.2226    232.5450   1.0185952221e+02   4.3072280812e-01    0.2280707    0.1309563 -25.62  0.001525984    2.188    0.543
        99 -10.3811    106.5952    223.3476   1.1906329500e+02   1.8555563491e+01    0.2133422    0.1525989  70.59  0.001589086    1.301    0.231
       100 -10.4410    100.0354    223.5255   1.2016901198e+02   1.9434561685e+01    0.3187542    0.1023049  53.80  0.001520579    2.853    0.650
       101  -9.6061    143.4603    223.4327   1.1291892542e+02   1.3149422143e+01     0.111914   0.08350289  51.09 -1.857264e-06    1.056    0.053
       102 -10.5254     85.0172    221.3716   1.2247856734e+02   2.1757556356e+01     0.148187    0.1259903  67.43 0.0006643641    1.214    0.176
       103 -10.7658    196.6349    220.4422   1.0377365948e+02   5.1653341856e+00    0.2009794    0.1541319 -38.64  0.001461746    1.715    0.417
       104 -10.9859    193.9612    216.1626   1.0362002254e+02   6.0738979962e+00    0.1841851    0.1635416  83.17  0.001368348    1.626    0.385
       105  -9.8203    125.3933    221.1424   1.1570153878e+02   1.6173053848e+01    0.1366227   0.09667666 -85.48 0.0009444935    1.763    0.433
       106 -10.8285     94.6691    220.6420   1.2081259749e+02   2.0590495247e+01    0.2218908    0.1755946  54.21  0.001756802    1.146    0.128
       107 -11.3229     63.0316    219.9839   1.2599294811e+02   2.4706572868e+01    0.2077454    0.1161097  64.63 0.0005969926    1.442    0.306
       108 -10.1711     52.4692    221.0431   1.2777082991e+02   2.5766091914e+01    0.2739258    0.1004679  44.14  0.001657838    2.084    0.520
       109 -10.2495    222.0265    219.7006   9.9622665157e+01   1.2392594069e+00    0.1616078    0.1085085  35.78 0.0004727492    1.129    0.114
       110 -11.1337    133.6448    219.1026   1.1409235371e+02   1.5227037158e+01    0.3121327    0.1453612  43.67 0.0003413837    1.679    0.405
       111 -10.5408    132.6223    214.9887   1.1381397008e+02   1.5961276369e+01    0.2676169    0.1836728  27.81  0.001430122    1.790    0.441
       112 -12.2598    125.8390    215.4594   1.1502879198e+02   1.6917710930e+01    0.2294747    0.1553184  52.74 0.0003337392    1.160    0.138
       113 -10.3253    121.8070    212.3749   1.1539322217e+02   1.7971077502e+01    0.1811462    0.1149139  42.65 0.0002381525    1.342    0.255
       114 -11.0225    117.9256    212.0052   1.1602661323e+02   1.8602009115e+01    0.2520634    0.1521782  41.43 0.0004219572    1.446    0.308
       115 -11.0861    121.3864    203.3655   1.1447441631e+02   1.9395627397e+01    0.2192189    0.1645882  60.75  0.000326576    1.144    0.126
       116 -10.6541    121.4887    199.1382   1.1396938858e+02   2.0037980505e+01    0.1913315     0.171309  78.25 0.0006317592    1.175    0.149
       117 -11.0131    118.1141    207.9751   1.1556437381e+02   1.9181942011e+01    0.2120757    0.1584696  82.80 0.0005269693    1.448    0.309
       118 -10.7941    117.0227    204.2077   1.1534639271e+02   1.9923858601e+01    0.2324316    0.1624836  27.83  0.001469438    1.844    0.458
       119 -10.9009      8.9198    207.3987   1.3404069916e+02   3.2367041883e+01    0.3057689   0.09753934 -78.69  0.001840103    2.739    0.635
       120 -12.2578      8.9953    219.0349   1.3446651702e+02   3.0498199043e+01    0.2578551    0.1084321  55.00  0.000359151    1.633    0.388
       121 -12.5350      8.6528    214.4882   1.3435243476e+02   3.1247308964e+01    0.5394599    0.1484453  55.24   0.00324971    2.419    0.587
       122 -12.0487     12.7052    216.4808   1.3380487559e+02   3.0562743572e+01    0.1986392    0.1547131  41.22  0.001529487    1.640    0.390
       123  -9.7600    203.4753    219.2397   1.0250337674e+02   4.2091135425e+00    0.1195886    0.1100031 -52.29 0.0008184605    1.575    0.365
       124 -10.9531    217.6756    217.6899   1.0001522529e+02   2.1226797984e+00    0.2025138    0.1493825  38.14 0.0006863229    1.141    0.124
       125 -10.5867    161.0365    217.6915   1.0929888818e+02   1.1168627059e+01    0.3543445    0.1142969  42.30  0.001518483    2.442    0.590
       126 -10.5971    141.4699    217.2820   1.1256141978e+02   1.4284784540e+01    0.1847048    0.1359148  44.98 0.0003255411    1.096    0.087
       127 -12.0548    107.8775    215.1052   1.1807160115e+02   1.9593576951e+01    0.3726455    0.3314372 -13.58  0.002442895    1.834    0.455
       128 -11.0267    106.9783    209.7765   1.1770190266e+02   2.0534086927e+01    0.4546791    0.1078628  46.98  0.001905165    3.242    0.692
       129 -10.5860    100.5230    217.5356   1.1955296463e+02   2.0258952477e+01    0.2090763    0.1706004  44.76 0.0006934874    1.297    0.229
       130 -11.2428    103.0438    214.0859   1.1880245671e+02   2.0430975707e+01    0.2639097    0.2189722 -81.12 0.0003188387    1.354    0.261
       131 -10.0985    152.2826    217.1185   1.1070713795e+02   1.2624416425e+01    0.1492645    0.1205847  53.10 0.0003154527    1.102    0.092
       132 -10.6565    146.1506    215.7269   1.1158389857e+02   1.3771801628e+01    0.1726084    0.1625793 -36.79 0.0006514272    1.401    0.286
       133 -11.6095     85.2452    214.6560   1.2189181110e+02   2.2761109471e+01    0.2816818    0.2410885 -57.00  0.001378438    1.648    0.393
       134  -9.6563      1.2510    216.6061   1.3555197730e+02   3.1562477876e+01   0.09892213   0.04213936  67.71 0.0004271718    1.684    0.406
       135 -11.1917    172.3303    214.9957   1.0705558160e+02   9.7056563330e+00    0.1917558    0.1307679  45.54 0.0003775719    1.161    0.138
       136  -9.8358     59.6929    215.6228   1.2624748350e+02   2.5787229030e+01    0.1246563   0.09194672  38.55  0.000954631    1.593    0.372
       137 -11.0628     58.3478    211.7102   1.2620567883e+02   2.6572077159e+01    0.2992156    0.2223657  62.27  0.002064086    1.074    0.069
       138 -10.6345    199.7337    212.9634   1.0222229177e+02   5.5032810099e+00    0.2629933    0.1005348 -38.02  0.001318456    3.283    0.695
       139 -10.5639    217.1785    212.8202   9.9376945353e+01   2.7040095489e+00      0.16508    0.1294909  37.58 0.0003732601    1.157    0.136
       140  -9.9420    160.4786    212.9822   1.0880302973e+02   1.1871568388e+01    0.1366867    0.1156084 -45.65  0.000523244    1.515    0.340
       141 -10.3680     70.5761    203.2482   1.2348088391e+02   2.6481298108e+01    0.3761701    0.2050251  83.30  0.002341913    1.962    0.490
       142 -10.5748     70.5319    210.4866   1.2405891597e+02   2.5301931548e+01    0.2388613    0.1730211 -66.39  0.001820753    1.643    0.391
       143 -11.6092     66.8945    206.6453   1.2438741562e+02   2.6375113726e+01    0.2383615    0.1646374  73.24 0.0003744107    1.193    0.162
       144 -11.3007     44.2619    236.0686   1.2987792301e+02   2.4397481911e+01     0.740063    0.1657531  51.49  0.003962853    2.855    0.650
       145 -11.0834     52.2340    207.4281   1.2694519535e+02   2.7976413385e+01     0.231887    0.1680514  77.08  0.001187724    1.123    0.109
       146 -10.5215     94.1293    212.0911   1.2014970651e+02   2.1972374868e+01    0.1646378    0.1476283 -56.16 0.0004792663    1.567    0.362
       147 -10.1937    142.6190    210.4335   1.1156196521e+02   1.5060510359e+01     0.283252    0.1703216  82.23  0.001434404    3.125    0.680
       148 -11.8773     80.4636    208.3915   1.2218494747e+02   2.4379577616e+01    0.3338026    0.1966831  89.74  0.002121122    1.829    0.453
       149 -10.3263    184.2774    198.9698   1.0277620726e+02   9.7636867490e+00     0.196777    0.1590389 -29.64 0.0004587114    1.502    0.334
       150 -10.5415    184.0811    210.0855   1.0441427493e+02   8.4007652777e+00    0.1659613    0.1249737  29.48 0.0002920628    1.204    0.169
       151 -12.6897    183.4988    204.5264   1.0372412601e+02   9.1874086262e+00    0.2718048    0.2424725 -23.69  0.001168495    1.369    0.269
       152 -13.5867     40.0809    200.9886   1.2859632211e+02   3.0391495474e+01    0.7833648    0.6395077  38.56   0.00536242    1.598    0.374
       153 -11.3314    128.5830    208.1019   1.1373935635e+02   1.7579751825e+01    0.2486648    0.2386166  48.62  0.001472073    1.280    0.219
       154 -11.8666    239.4960    206.2418   9.4843797693e+01  -1.8081965442e-01    0.5003638    0.2351729  13.80  0.002202227    3.588    0.721
       155 -10.5341    249.1502    202.1520   9.2695785790e+01  -1.3022708281e+00    0.1887097    0.1424115 -21.07 0.0009777321    1.509    0.337
       156 -11.6188    245.0825    200.0087   9.2966890166e+01  -4.5783559591e-01    0.3251145    0.2210455 -18.80  0.002198969    1.570    0.363
       157 -11.9206    239.5967    198.5948   9.3585702772e+01   5.5785618511e-01    0.2849513    0.2456596  64.29  0.001096124    1.826    0.452
       158 -10.9356      2.6540    206.3391   1.3498756309e+02   3.3087657111e+01    0.2322588    0.1505731  68.69  0.001234882    1.033    0.032
       159 -10.5468    199.7983    205.3628   1.0109893665e+02   6.3671257248e+00    0.1846346    0.1596395 -18.50  0.001122817    1.374    0.272
       160 -10.1506    144.7905    205.3694   1.1056178000e+02   1.5438129401e+01    0.1709948    0.1481463  84.50  0.001055521    1.318    0.241
       161 -11.2232     98.7061    205.3196   1.1871287783e+02   2.2407705439e+01     0.183816    0.1490213  56.49 0.0002723471    1.106    0.095
       162 -11.4563     95.8849    200.6066   1.1875033312e+02   2.3564654685e+01    0.2398649    0.1626316 -70.37 0.0006195875    1.619    0.382
       163  -9.7122     27.2842    205.2805   1.3098235712e+02   3.0988026581e+01   0.07909843   0.07015254 -84.49  0.000257954    1.516    0.340
       164  -9.6125    105.2346    203.9548   1.1741786288e+02   2.1696342586e+01    0.1259605   0.08966851 -72.09 0.0008638011    1.574    0.365
       165 -10.6159     59.2865    204.0039   1.2550186482e+02   2.7726827844e+01    0.1691075    0.1127928  58.47 0.0005931801    1.149    0.130
       166 -10.3507    137.6253    202.5809   1.1148423431e+02   1.6988556919e+01    0.2057924    0.1367684  34.97 0.0009452718    1.507    0.336
       167 -10.0689    132.3851    203.2756   1.1250240676e+02   1.7711355146e+01    0.2034087    0.1099914  56.13 0.0006695141    1.722    0.419
       168 -11.5544     52.3228    202.0156   1.2656258063e+02   2.8867997379e+01    0.2031381    0.1795927 -89.82 0.0003702688    1.381    0.276
       169 -10.9857    166.9470    202.0608   1.0623390572e+02   1.2275285741e+01    0.1727054    0.1392733  40.53 0.0002925972    1.040    0.039
       170 -11.1667    190.5450    200.9523   1.0199758947e+02   8.4505975635e+00    0.2188317    0.1800448  36.09 0.0005058409    1.039    0.037
       171 -12.3642    188.5630    196.0701   1.0159781671e+02   9.4043299459e+00    0.2490205    0.1915893  39.32 0.0003950433    1.054    0.052
       172 -10.9785    149.9701    200.5784   1.0902917496e+02   1.5290747636e+01    0.1831792    0.1700329 -64.44 0.0005974302    1.314    0.239
       173 -10.3580     86.7562    201.2890   1.2045017554e+02   2.4706180143e+01    0.1290228    0.1199446  68.46 0.0008502009    1.322    0.244
       174 -11.3562    206.7539    198.8218   9.8936445963e+01   5.9674576710e+00    0.2471445    0.2124702 -64.03  0.001696677    1.779    0.438
       175 -12.3188    228.5441    195.2206   9.4780758278e+01   2.7165340947e+00    0.4352804    0.2677669  -7.88  0.002109174    1.921    0.479
       176  -9.9829    177.5408    198.9995   1.0394857675e+02   1.0903535276e+01    0.1893086    0.1249604  42.94 0.0002370042    1.223    0.182
       177 -10.3243    161.5476    198.4719   1.0668516370e+02   1.3673354917e+01     0.179285    0.1128293 -30.40  0.001023277    2.262    0.558
       178 -10.8758    102.8792    198.6556   1.1728847556e+02   2.2889144543e+01      0.15691    0.1436866 -89.59 0.0003052963    1.264    0.209
       179 -12.5559    109.6236    197.6754   1.1595744770e+02   2.2062088505e+01    0.2290828     0.176429  59.78 0.0003301645    1.054    0.051
       180 -11.4612    105.9120    194.5745   1.1629397457e+02   2.3117163061e+01    0.2463851    0.2060449  29.75 0.0004088348    1.509    0.337
       181 -10.2021    117.2947    197.3452   1.1452273137e+02   2.0963094156e+01    0.2564406    0.1396262  32.01  0.001358966    2.264    0.558
       182 -10.8964     82.3808    196.1081   1.2075456142e+02   2.6157904332e+01    0.1902475    0.1317054  63.40 0.0003384645    1.174    0.148
       183 -10.4749     63.0177    196.1552   1.2424733641e+02   2.8608753246e+01    0.1977525     0.102585  72.04 0.0007779525    1.905    0.475
       184 -12.6335     53.1392    192.9419   1.2576622968e+02   3.0329227444e+01    0.2616095    0.1748017  55.74 0.0004543916    1.213    0.175
       185 -12.8592     66.3956    191.1651   1.2322457707e+02   2.9060223271e+01    0.5396149    0.2669846  51.68  0.002200619    1.646    0.392
       186 -11.7746     59.7414    187.9426   1.2417458145e+02   3.0435571468e+01    0.3216386    0.2123783  24.19  0.002013405    2.381    0.580
       187 -12.5147    216.4010    192.9932   9.6394395257e+01   5.0072294397e+00    0.3737338    0.3237887  -9.16 4.589545e-05    1.275    0.216
       188 -11.7637    210.7589    191.8440   9.7145202961e+01   6.1067912174e+00    0.2514212    0.2267978 -81.73 0.0008491726    1.694    0.410
       189 -11.3194      4.4784    195.5773   1.3428943290e+02   3.4722396154e+01    0.1956493    0.1155471  77.22  8.13976e-05    1.221    0.181
       190 -12.2474      1.8239    192.8121   1.3461764476e+02   3.5416515683e+01    0.2870635    0.1076922 -70.00  0.001563112    2.543    0.607
       191 -10.7630    140.0109    194.6846   1.1004801963e+02   1.7795086330e+01    0.1760919    0.1598339  78.26  0.001277304    1.189    0.159
       192  -9.9581     95.6698    194.9995   1.1822092963e+02   2.4522843981e+01    0.1467416    0.1226639  67.66 0.0004002786    1.076    0.071
       193 -10.9693    250.1506    193.9883   9.1175773154e+01  -6.7692926764e-01    0.2223481    0.1337075  32.42  0.000901606    1.328    0.247
       194 -12.6815    245.7017    190.8572   9.1326305382e+01   3.4949137771e-01    0.5726269     0.291833  23.53  0.001501231    1.991    0.498
       195 -10.4905    125.9407    193.2916   1.1245099909e+02   2.0270572847e+01    0.1788956     0.145369  88.92 0.0002088831    1.339    0.253
       196 -11.6972    117.1407    192.1292   1.1393696180e+02   2.1829279441e+01    0.3175129    0.2098268  25.71  0.001351262    2.129    0.530
       197 -11.6915    120.7552    190.0404   1.1300959577e+02   2.1610103195e+01    0.2935456    0.2512996 -41.81  0.001222873    1.545    0.353
       198  -9.9686    163.1773    192.8468   1.0559348537e+02   1.4196084370e+01    0.1611705     0.141932  39.26  0.001123657    1.087    0.080
       199 -10.2074    164.0000    189.0279   1.0488287386e+02   1.4605663052e+01     0.282049    0.1745331 -52.78  0.001615136    2.037    0.509
       200  -9.9196    148.2177    192.5709   1.0826573056e+02   1.6762400235e+01    0.1728203   0.09840831  36.26 0.0006199962    1.695    0.410
       201 -10.8549    188.4473    190.5063   1.0075170586e+02   1.0146276513e+01    0.2015005    0.1883027  24.86 0.0006023137    1.160    0.138
       202 -11.7934    192.5282    188.2423   9.9676826776e+01   9.7278605943e+00    0.4549254    0.2158445  40.56  0.002082636    1.762    0.433
       203 -10.1711    188.2661    187.2378   1.0026182286e+02   1.0610611121e+01    0.2409632     0.153514  56.51  0.001344622    1.724    0.420
       204 -10.4766    178.0117    189.4859   1.0243316760e+02   1.2105921700e+01    0.2033991    0.1714125 -69.78  0.001144903    1.606    0.377
       205 -10.7138     91.6244    189.1989   1.1836593447e+02   2.6077222055e+01     0.226018    0.1698578 -77.42  0.000766723    1.375    0.273
       206 -11.6873    129.9984    188.3792   1.1106969906e+02   2.0410723837e+01    0.2559485    0.2011554  71.51 0.0005391871    1.282    0.220
       207 -11.3127     80.3525    189.3006   1.2047972876e+02   2.7597272554e+01    0.3401411     0.138327  51.65  0.001509767    2.085    0.520
       208 -10.2080     83.5330    188.4476   1.1980265386e+02   2.7320162319e+01    0.1923832    0.1534234  58.25  0.001009588    1.103    0.094
       209 -10.9956    221.2690    186.5784   9.4510431733e+01   4.9117984812e+00    0.2581053    0.1770795  54.29  0.000966945    1.702    0.413
       210 -10.7149    104.5876    187.0131   1.1568552990e+02   2.4582612597e+01    0.2302571     0.131288  55.90 0.0006488346    1.544    0.352
       211 -10.0015     42.7470    187.4342   1.2723752096e+02   3.2457397663e+01    0.1212619   0.09251656  42.59 0.0002708535    1.475    0.322
       212 -12.2505     15.7447    183.5085   1.3182265131e+02   3.5832101102e+01     1.029494     0.311573  36.79  0.005713811    2.997    0.666
       213 -11.9714      6.6945    180.2556   1.3325453407e+02   3.7200926947e+01      0.23345    0.1465785  89.10 0.0001730135    1.251    0.200
       214 -10.6198     75.4035    185.6718   1.2105618752e+02   2.8886183143e+01    0.1948247   0.09923708 -75.88  0.001116198    2.078    0.519
       215 -11.6375     31.8685    176.2085   1.2846146798e+02   3.5622906713e+01     0.216879    0.1588391  71.58 0.0006123098    1.037    0.035
       216 -10.8513     27.1225    179.8341   1.2957302164e+02   3.5427540680e+01    0.2834175    0.1722853  59.40  0.001647356    1.308    0.235
       217 -11.4361     33.2013    185.1645   1.2880789660e+02   3.3862758068e+01    0.2478437    0.2297682  43.55  0.002127382    1.556    0.357
       218 -10.3068     29.5567    183.5112   1.2936021762e+02   3.4524749244e+01    0.1634602    0.1138905  79.88 0.0004732021    1.101    0.092
       219 -11.6958    231.5259    182.8448   9.2180224300e+01   3.5702428234e+00    0.4415626    0.2754377 -57.62  0.002019179    3.939    0.746
       220 -11.0152    177.0432    182.9828   1.0158090595e+02   1.3185538209e+01    0.2875006    0.2185688  16.96  0.001476473    1.496    0.331
       221 -10.6885    172.8996    183.0592   1.0234535204e+02   1.3911047607e+01    0.2521999    0.1761459  48.27 0.0005045898    1.250    0.200
       222 -10.7641    156.8762    184.6983   1.0554187376e+02   1.6480223249e+01    0.3375613    0.1816849  33.94  0.001435615    1.950    0.487
       223 -10.7795    137.5707    185.1307   1.0921024962e+02   1.9692448670e+01     0.207001    0.1507557  12.38  0.001079906    2.176    0.540
       224 -11.5170    225.7727    183.5657   9.3246258431e+01   4.4801114270e+00    0.2904029    0.1996448  10.58 0.0009987232    1.491    0.329
       225 -11.2909    122.1990    182.7804   1.1181033487e+02   2.2585233142e+01    0.4394648    0.1994725  57.65  0.001915903    2.452    0.592
       226 -11.1279    118.3198    177.8821   1.1191077176e+02   2.4038232264e+01     0.247537    0.1578253  42.53 0.0002993422    1.430    0.301
       227 -10.8142    103.6277    183.1015   1.1541016752e+02   2.5398823132e+01    0.2191136    0.1317853  54.63 0.0008050968    1.434    0.303
       228 -10.7194     44.0181    182.3894   1.2664171926e+02   3.3225146151e+01    0.2547151    0.1356385  85.79  0.001254638    1.750    0.428
       229 -10.4143     47.8490    181.7903   1.2588520748e+02   3.2912291142e+01    0.1684264     0.143564  34.06 0.0004275479    1.593    0.372
       230  -9.1785    165.2892    182.2750   1.0361651093e+02   1.5372886347e+01    0.1178661   0.08902829  21.33 0.0006927587    1.515    0.340
       231 -10.0516     61.6682    179.3109   1.2306997838e+02   3.1758887581e+01    0.2289965    0.1235187  82.31  0.001075821    1.946    0.486
       232 -11.2678     58.0611    180.6091   1.2387019821e+02   3.1953888068e+01    0.2482679    0.1761874  77.73 0.0008242379    1.168    0.144
       233 -11.0746     54.2304    180.3951   1.2457636821e+02   3.2441613078e+01    0.3067464    0.1648965  63.85  0.001433758    1.638    0.389
       234 -10.8503     91.9456    180.0947   1.1731498333e+02   2.7629170666e+01    0.2312407    0.1553595 -70.67 0.0006394326    1.550    0.355
       235 -10.4586     83.2605    180.1858   1.1900504737e+02   2.8821447474e+01    0.2181973    0.1378213  83.95  0.001334412    1.655    0.396
       236 -10.6646     39.3700    179.3461   1.2728216739e+02   3.4276608890e+01    0.2595252      0.14268 -54.97   0.00161162    2.393    0.582
       237  -9.9186    153.9659    180.4545   1.0544396400e+02   1.7637647204e+01    0.1768389   0.09437412  61.53  0.000807551    2.442    0.590
       238  -9.8753    132.4374    180.5168   1.0954229526e+02   2.1295896411e+01    0.1222561    0.1035018  56.42 0.0001001486    1.012    0.012
       239 -12.0860     72.7169    178.3368   1.2085345511e+02   3.0555394301e+01     0.347683    0.2553686  39.12  0.002379212    1.496    0.331
       240 -11.7949    104.2131    178.2105   1.1470579856e+02   2.6168198574e+01    0.7132193    0.3519196  70.09  0.003099272    3.228    0.690
       241 -10.7945    101.0109    176.0094   1.1506280519e+02   2.7039888389e+01    0.1982008    0.1483438  68.31   -0.0106749    1.207    0.172
       242 -10.7061    237.1947    178.1396   9.0423086281e+01   3.1198406372e+00    0.1845646    0.1340684  21.20 0.0004647937    1.169    0.144
       243 -12.1603      8.4843    183.3970   1.3308791874e+02   3.6490537810e+01    0.2425188    0.1596919  36.76  0.001806099    1.761    0.432
       244 -11.3107    137.0223    174.3052   1.0775910742e+02   2.1558849055e+01    0.3369014    0.1739436 -47.55 0.0005017975    2.254    0.556
       245 -10.1732    134.2396    169.4043   1.0756736294e+02   2.2866220704e+01    0.2378156    0.1022848  52.44  0.001045863    2.288    0.563
       246 -11.0338    189.2704    174.2755   9.7913340458e+01   1.2201081573e+01    0.4622515    0.2595702  62.48  0.002087167    2.689    0.628
       247 -10.1544    168.4135    175.6425   1.0197469270e+02   1.5808679438e+01    0.2431286    0.1417054  65.24  0.001121869    2.533    0.605
       248 -10.7789    131.7433    174.6164   1.0883477598e+02   2.2400067578e+01    0.2804972    0.2042353 -19.91 0.0008465591    2.308    0.567
       249 -12.0055     78.7536    174.3973   1.1926753359e+02   3.0485582067e+01    0.3539295    0.2196689  53.96 0.0009757913    1.382    0.277
       250 -11.3283    157.6886    173.4263   1.0363713587e+02   1.8081771747e+01    0.3753339    0.1814451  46.06  0.000965153    1.786    0.440
       251 -11.2728    172.0529    173.6803   1.0097020305e+02   1.5443209492e+01    0.2018483    0.1886915 -34.77 0.0002294983    1.241    0.194
       252 -10.0142     94.1852    173.9533   1.1616272806e+02   2.8415218448e+01    0.1609498    0.1364491  76.83 0.0004440577    1.062    0.059
       253 -10.0856     70.2852    173.9294   1.2088691467e+02   3.1679797826e+01    0.1547193    0.1225135  87.98 0.0002836474    1.132    0.117
       254  -9.4073      9.7190    174.3323   1.3242667031e+02   3.8013739502e+01     0.168064   0.07060382  87.71  0.000775043    2.023    0.506
       255 -11.1586     13.2572    170.0510   1.3154892958e+02   3.8497214475e+01    0.1991277    0.1754085  36.49   0.00170925    1.594    0.372
       256 -10.8523    108.5671    170.3729   1.1283595675e+02   2.6902631722e+01    0.3656599    0.2825549 -37.57  0.001849201    1.801    0.445
       257 -11.1330     87.5368    172.5231   1.1731663638e+02   2.9626555780e+01    0.1987455    0.1552892  87.06 0.0006668561    1.191    0.160
       258 -10.9034     86.3079    169.6664   1.1722972292e+02   3.0328897046e+01    0.2204256    0.1444245 -72.08  0.000707498    1.538    0.350
       259  -9.7164      2.2312    173.6342   1.3374139312e+02   3.8758720198e+01    0.1091472   0.08808385  40.27 0.0005569277    1.576    0.365
       260  -9.6811     25.7533    171.9500   1.2932512067e+02   3.7008616297e+01    0.1303411   0.07206397 -80.86 0.0005545036    1.544    0.352
       261 -10.2102    232.8191    170.8204   8.9784647933e+01   4.7178411490e+00    0.1519772    0.1400156  33.90 0.0003668869    1.289    0.224
       262  -9.9038    210.2794    171.4556   9.3695107039e+01   8.7171057985e+00    0.1838247    0.1115463  53.77 0.0003898243    1.795    0.443
       263  -9.7173    178.5820    171.4923   9.9384583250e+01   1.4570364387e+01    0.1271461    0.1108456  38.72 4.857738e-05    1.018    0.018
       264 -11.7968     64.3218    170.5044   1.2172419203e+02   3.3069984835e+01    0.3514848    0.2132519  37.39  0.002182774    1.765    0.433
       265  -9.5624    100.9957    170.2406   1.1434091459e+02   2.8086596283e+01    0.1503677   0.09005544  45.46 0.0003222883    1.499    0.333
       266 -11.2501     31.3197    169.4803   1.2809781081e+02   3.6930196667e+01    0.2009266    0.1319324  73.89 0.0001754282    1.203    0.168
       267 -10.4399    114.8877    168.7961   1.1134842706e+02   2.6187755088e+01    0.1728992    0.1568302  45.70 0.0004246571    1.196    0.164
       268 -10.5557     73.6426    165.8388   1.1936084781e+02   3.2769152866e+01    0.1721708    0.1053323 -71.07 0.0004423215    1.592    0.372
       269  -9.9394      5.8926    168.9951   1.3285505689e+02   3.9311211518e+01    0.1166646    0.0848536  65.18 0.0005971102    1.155    0.134
       270  -9.8979      1.6308    169.1456   1.3364299779e+02   3.9625197961e+01    0.1256804   0.07106541 -76.51 0.0003434554    1.553    0.356
       271 -11.0718    195.4492    167.5404   9.5599284959e+01   1.1996444084e+01    0.3291564    0.2078929  -7.81  0.001098927    2.310    0.567
       272 -11.1845     49.3652    165.7421   1.2425842698e+02   3.5738177905e+01    0.3350526    0.2108217 -57.69  0.002171107    1.837    0.456
       273 -10.6027     47.6002    159.2077   1.2402121956e+02   3.7199522504e+01    0.2392484    0.1199009 -88.75 0.0005975505    2.010    0.502
       274 -11.0707     82.0209    166.2411   1.1769747611e+02   3.1567924367e+01    0.2974222     0.158476  35.27  0.001599405    2.088    0.521
       275 -10.0349     40.8779    166.2917   1.2599234074e+02   3.6557087555e+01    0.1474457    0.1154413  69.77  0.001110549    1.081    0.075
       276 -10.8486    159.2349    164.4700   1.0184806430e+02   1.9235789942e+01    0.2099949    0.1771179 -45.24 0.0002896081    1.348    0.258
       277  -9.6668     61.4837    165.4101   1.2178698466e+02   3.4386476833e+01    0.1128079    0.0917519  74.43 9.602115e-05    1.034    0.033
       278 -10.3936    203.2146    162.1773   9.3208870101e+01   1.1274535893e+01    0.2412617    0.1792456 -43.53  0.001392815    1.619    0.382
       279 -10.7239    143.8262    162.8446   1.0461527657e+02   2.2311428008e+01    0.1741721     0.139237  70.12  0.001035847    1.328    0.247
       280 -10.5023    101.8976    163.2420   1.1323112470e+02   2.9245002452e+01    0.3758891    0.1352142  41.29  0.001635217    2.585    0.613
       281 -10.5947    123.6958    165.1068   1.0903169523e+02   2.5406337576e+01    0.2347437    0.1678929  17.74  0.001250044    2.149    0.535
       282 -11.1489    190.6895    157.2674   9.4547043230e+01   1.4381027026e+01    0.2929321    0.2281453  66.29  0.001647613    1.590    0.371
       283 -12.0562    107.3473    158.0927   1.1136846149e+02   2.9363967721e+01    0.2194537    0.1981466  77.96 0.0002415957    1.062    0.058
       284 -10.7117     10.1259    162.6860   1.3172489063e+02   4.0140204595e+01    0.3054304    0.1071172  49.71  0.001778846    2.311    0.567
       285 -12.2728     33.8919    157.9120   1.2671095982e+02   3.8892060658e+01    0.3990758    0.1588283  54.81 0.0004048523    2.272    0.560
       286 -10.0974    223.2252    158.4123   8.9000860006e+01   7.9854911892e+00    0.1741859     0.116139  51.99 0.0008817042    1.605    0.377
       287 -10.0384    145.4919    158.0121   1.0346537398e+02   2.2842974031e+01    0.1732782    0.1302159 -50.30 0.0003875215    1.479    0.324
       288 -11.7089     24.3121    158.0229   1.2865162757e+02   3.9789449924e+01     0.178572    0.1307007  52.82 0.0001939091    1.321    0.243
       289  -9.3092     11.2813    158.3069   1.3124698487e+02   4.0876255527e+01   0.09208464   0.06877721 -64.59 0.0003272414    1.559    0.359
       290  -9.4101      5.4520    158.4221   1.3238485406e+02   4.1326322676e+01    0.1018365   0.07427692  80.39 0.0001504005    1.029    0.028
       291 -10.6043    136.6205    151.5840   1.0417522214e+02   2.5593936144e+01    0.3680819    0.1716577  42.64  0.001657802    2.002    0.501
       292 -11.0030    140.0105    156.9889   1.0440532854e+02   2.4015551788e+01    0.1931333    0.1693619  60.64  0.001206844    1.059    0.056
       293 -10.6445    137.6781    154.6830   1.0449124624e+02   2.4845313975e+01    0.2012942    0.1929732  77.94 0.0005222351    1.087    0.080
       294 -10.6358    183.9753    156.0795   9.5574051377e+01   1.5862495166e+01    0.1970281    0.1756502  38.85 0.0003681446    1.038    0.037
       295 -10.5896    124.3346    155.9095   1.0746916096e+02   2.6967513308e+01     0.207418    0.1560534  58.08 0.0005613255    1.233    0.189
       296 -10.0255    155.8029    155.6537   1.0097487259e+02   2.1336518376e+01    0.1927386    0.1109692  53.21 0.0007210384    1.692    0.409
       297 -10.7802    113.2963    154.1181   1.0951228301e+02   2.9154990939e+01    0.2828182    0.2069178 -84.07  0.001038695    1.528    0.346
       298  -9.9451     85.5959    155.1826   1.1557838673e+02   3.3198360287e+01    0.1593048    0.1056126 -54.70 0.0005486414    1.659    0.397
       299 -10.0163     11.9145    154.7203   1.3090325617e+02   4.1513347121e+01    0.2379211    0.0698507  54.89  0.001180728    2.988    0.665
       300 -10.6415     36.1860    153.3470   1.2585704471e+02   3.9559264157e+01    0.2401231    0.1387603  87.99  0.001004619    1.522    0.343
       301  -9.8425     19.3096    153.6557   1.2934890937e+02   4.1089713931e+01    0.1476802   0.08414245  56.38 0.0002433116    1.523    0.343
       302 -10.9892     21.0396    149.9970   1.2873176302e+02   4.1655599636e+01    0.2370253    0.1641135 -39.52  0.001573114    2.350    0.574
       303 -10.8090    225.1023    151.0975   8.7218449454e+01   8.5684021535e+00    0.3154635    0.2633598 -79.22  0.001797262    1.958    0.489
       304 -10.2530      3.4622    149.5389   1.3228045135e+02   4.3185240310e+01    0.1497142   0.07384287 -73.47 0.0002232153    1.696    0.410
       305 -10.7836    249.0735    150.9910   8.3300113598e+01   4.1012947684e+00    0.1917924    0.1612202  12.18 0.0003307534    1.036    0.035
       306 -11.0095     98.7679    149.0136   1.1186354364e+02   3.2456841367e+01    0.2012587    0.1608931  55.29 0.0002645147    1.155    0.134
       307 -10.1234     41.5009    153.0229   1.2471683051e+02   3.9076106825e+01    0.1553619     0.122896  72.90 0.0003239834    1.070    0.065
       308  -9.6799    195.7612    146.0342   9.1377989243e+01   1.5050619406e+01    0.1614221    0.1137832 -33.73 0.0004146688    1.527    0.345
       309  -9.6233     13.3004    146.3077   1.3007165187e+02   4.3044134164e+01    0.1709699   0.08575548 -76.13 0.0005604677    1.626    0.385
       310 -10.1226     14.9274    143.4916   1.2953313264e+02   4.3469744812e+01    0.1521154    0.1150161  73.99 0.0009224752    1.096    0.088
       311 -10.6077    237.0661    144.9731   8.3969351627e+01   7.0580607655e+00    0.1993792    0.1634418  15.48 0.0003437433    1.059    0.056
       312 -10.6537    165.2899    145.0927   9.7078154075e+01   2.1293801182e+01    0.3677055    0.1584178  34.23   0.00134745    3.032    0.670
       313 -10.2317     52.9044    143.9681   1.2133632656e+02   3.9650278089e+01    0.1750004    0.1371163  82.89 0.0003484976    1.057    0.054
       314  -9.9771    123.8672    142.6758   1.0533060665e+02   2.9533918958e+01    0.1831076    0.1519832  53.96 0.0004244425    1.118    0.106
       315 -11.6393     23.0618    140.5475   1.2756338929e+02   4.3366953522e+01    0.3680232    0.1846352 -49.21  0.001633795    2.729    0.634
       316 -12.7356    132.4625    140.5971   1.0308097532e+02   2.8382237777e+01    0.2587021    0.2416831  82.52 0.0005067052    1.060    0.057
       317 -10.3356     93.1739    142.1110   1.1205726772e+02   3.4685197377e+01    0.2295778     0.182857  25.68  0.001374878    1.619    0.382
       318  -9.6351      4.5169    141.1459   1.3156251791e+02   4.4751462277e+01    0.2647409   0.05800904  42.59  0.001298553    3.420    0.708
       319 -10.1234    224.0180    139.5123   8.4980482241e+01   1.0306952773e+01    0.1923156    0.1683366  -0.11 0.0003576643    1.083    0.076
       320  -9.7156     62.7790    140.3244   1.1868941265e+02   3.9225027741e+01    0.1437887    0.1090141  33.54 0.0003479131    1.582    0.368
       321  -9.4963    158.4851    144.5618   9.8352950714e+01   2.2720792874e+01     0.135741    0.1234012  41.41 2.900969e-05    1.033    0.032
       322  -9.9837     59.4416    139.1911   1.1930635746e+02   3.9865363620e+01    0.1640509   0.09956525 -84.80 0.0009339616    1.597    0.374
       323  -9.9427     97.7532    137.6487   1.1031172200e+02   3.4882497425e+01    0.2258794    0.1632249  24.70 0.0008471267    1.865    0.464
       324 -10.7072     48.6562    138.2955   1.2165192943e+02   4.1293314308e+01    0.1617072   0.09362786 -64.28 0.0004786354    1.593    0.372
       325 -10.9348     35.5382    137.6985   1.2454928124e+02   4.2784728474e+01    0.2480927    0.1479644  65.09  0.001066141    1.563    0.360
       326  -9.9534      6.9536    137.5035   1.3080985812e+02   4.5295384721e+01    0.1295582    0.0976954  43.54 0.0004148513    1.497    0.332
       327 -10.3431     44.7647    135.7818   1.2225689099e+02   4.2236197528e+01    0.1623452    0.1354935 -82.40 0.0004227778    1.120    0.107
       328 -11.2278     41.4685    134.5045   1.2287178841e+02   4.2847650939e+01    0.2291788     0.153523  80.15 0.0006072294    1.338    0.253
       329 -10.8260     41.3487    131.2731   1.2254278193e+02   4.3534679638e+01    0.1987567    0.1652139 -50.75 0.0006143211    1.489    0.329
       330 -10.4917     77.0271    135.0504   1.1469298364e+02   3.8461588559e+01    0.1900731    0.1615657  84.19 0.0004243954    1.028    0.028
       331 -12.1071    123.0359    129.1016   1.0298275689e+02   3.2322221879e+01     0.285113    0.2458393  72.16 0.0003210884    1.154    0.134
       332 -11.2796     61.9914    129.3351   1.1742324221e+02   4.1615607371e+01    0.3758525    0.1525487 -63.05   0.00178841    2.201    0.546
       333 -11.3373     48.2872    130.9114   1.2087575076e+02   4.2873966908e+01    0.1986431    0.1656558 -64.91 0.0007945125    1.272    0.214
       334 -12.4568     26.1600    130.1313   1.2594525929e+02   4.5229879445e+01    0.2633411    0.1974368  38.72 0.0006868227    1.547    0.354
       335  -9.1206    207.7019    130.2832   8.5814349234e+01   1.4939652568e+01    0.1273099    0.1118248 -82.62 0.0001707743    1.546    0.353
       336 -13.2826    156.5823    128.7502   9.5510094162e+01   2.5894878343e+01    0.3118684    0.2956091  53.50 0.0006104676    1.026    0.025
       337  -9.4793    147.0029    130.0000   9.7828679648e+01   2.7591198189e+01    0.2308854   0.07545058  46.07 0.0007962463    2.900    0.655
       338 -10.0790      1.4573    128.9565   1.3143095666e+02   4.7411990407e+01    0.1574959   0.06207363  76.82 0.0008084931    2.490    0.598
       339 -10.0563     36.0285    128.4657   1.2347897505e+02   4.4657299763e+01    0.1521161    0.1099163  38.55 0.0005959142    1.571    0.364
       340 -11.8024    195.9790    133.5080   8.8681430797e+01   1.6906746052e+01    0.2364355     0.214596 -19.00  0.001394991    1.142    0.125
       341 -10.8249     91.9529    126.3876   1.0976947321e+02   3.8097885443e+01    0.2236535    0.1734764 -58.74 0.0003220263    1.273    0.214
       342 -10.5180     19.7167    126.3643   1.2708473275e+02   4.6566625390e+01    0.2394702    0.1633966 -35.97  0.001539851    2.252    0.556
       343 -10.8900     55.0595    124.9315   1.1848985630e+02   4.3377151158e+01    0.2238351    0.1386136 -68.75  0.001313981    1.422    0.297
       344 -10.1878    108.3160    123.5845   1.0533917614e+02   3.6025910822e+01    0.1721051    0.1277356  35.65  0.000929027    1.486    0.327
       345  -9.5747     50.7659    122.9650   1.1927347370e+02   4.4284601887e+01    0.1522992   0.08639892 -69.22 0.0003804724    1.534    0.348
       346  -9.9061     38.4724    123.0076   1.2227751405e+02   4.5570263298e+01    0.1728464   0.09570151 -70.86 0.0004910172    1.521    0.343
       347  -9.6527      7.0302    123.0122   1.2974166773e+02   4.8237526292e+01    0.1253493   0.09944537  81.59 0.0003833067    1.098    0.089
       348  -9.8206    139.3297    121.7450   9.7762289830e+01   3.0665039629e+01    0.1915729    0.1284055 -37.68 0.0005304063    1.651    0.394
       349 -11.1692     68.6919    120.0204   1.1440472266e+02   4.2751448971e+01    0.3678267    0.1631335 -62.21  0.001746684    2.043    0.511
       350 -10.0854     70.9766    117.7281   1.1346009292e+02   4.2942970497e+01    0.3112801       0.1258  46.66  0.001121178    2.537    0.606
       351 -10.8638     62.8655    122.1405   1.1617831359e+02   4.3037517771e+01    0.1936351    0.1503168  76.13  0.001017686    1.220    0.180
       352 -10.2153     14.4946    121.9254   1.2790929904e+02   4.7909108981e+01    0.2064778    0.1320446 -54.84 0.0005910042    1.716    0.417
       353 -11.5514     19.9254    110.0951   1.2542454767e+02   4.9983942045e+01    0.3228869    0.2046073 -74.85  0.001091432    1.254    0.203
       354 -11.7300     20.1772    118.6889   1.2624850181e+02   4.8137741647e+01    0.3056782    0.1741031  24.93  0.001688369    2.307    0.567
       355 -11.8241     23.8946    115.9505   1.2505706551e+02   4.8410114736e+01    0.3185391    0.1900233  82.99 0.0009225685    1.542    0.351
       356 -11.2889     93.1076    118.7656   1.0811080540e+02   3.9517576553e+01    0.3790303    0.2116606 -66.64  0.001814312    1.901    0.474
       357 -10.8127     83.6816    120.0452   1.1067734536e+02   4.0674024860e+01    0.3317261    0.2180057  79.77  0.001715133    1.847    0.458
       358 -10.9005     30.5814    119.7038   1.2382130004e+02   4.7024633805e+01    0.2774775    0.1329134  36.37 0.0003138134    2.245    0.555
       359 -11.2847      2.0394    117.2745   1.3046459771e+02   4.9764826063e+01    0.3222865     0.154681  74.81  0.001905844    1.935    0.483
       360 -12.1382      3.4370    112.1542   1.2972476354e+02   5.0738197346e+01    0.3102788    0.1862383 -77.14 0.0004686402    1.279    0.218
       361  -9.6875     55.0174    117.7121   1.1748451320e+02   4.4929218592e+01    0.1618804    0.1419788  86.51 0.0005416691    1.070    0.065
       362 -11.1735     88.1996    114.7518   1.0858123239e+02   4.1125931509e+01     0.354277    0.1948191 -61.96  0.001251879    1.766    0.434
       363  -9.4123    138.6367    115.7376   9.6586066384e+01   3.1958854584e+01    0.1408039    0.1109078  15.36 0.0002449847    1.639    0.390
       364 -11.1153     33.4697    114.2514   1.2246752634e+02   4.7924205956e+01    0.3189197    0.1677102 -78.68   0.00179599    1.655    0.396
       365  -9.8666     60.8935    114.4832   1.1550003508e+02   4.4928451207e+01    0.1656936     0.118296  43.77 0.0005217633    1.493    0.330
       366 -10.4361     50.5213    113.8509   1.1806601215e+02   4.6272904513e+01    0.3153992    0.1615052  66.15  0.001312803    2.480    0.597
       367  -9.6013    111.8303    113.3931   1.0241965201e+02   3.7508895089e+01    0.1735064    0.1301087  33.70 0.0001983847    1.502    0.334
       368 -10.4102     74.8410    111.7955   1.1145142384e+02   4.3698503055e+01    0.1964086    0.1740746  26.84 0.0008951929    1.388    0.279
       369 -10.7896     37.1150    108.2477   1.2075849902e+02   4.8876326248e+01     0.289417    0.1568651 -79.70  0.001235887    1.676    0.403
       370  -9.9180    152.8054    106.8264   9.1280708173e+01   3.0707527956e+01    0.3737688    0.1086648 -44.30  0.001161583    3.546    0.718
       371 -10.3790     44.5220    106.7939   1.1859748822e+02   4.8451736550e+01    0.2038949    0.1578169  45.79  0.001344445    1.419    0.295
       372 -10.0895     87.6376    104.6019   1.0671803142e+02   4.3383375315e+01    0.1709514    0.1217252  53.45 0.0009254906    1.468    0.319
       373 -10.6551     29.1197    103.6263   1.2226216252e+02   5.0613240378e+01    0.2053396    0.1352945 -67.26 0.0003432996    1.264    0.209
       374 -10.6348     19.6639    103.3174   1.2473611928e+02   5.1459414030e+01    0.1949616    0.1453845  74.64   0.00136594    1.257    0.204
       375 -11.3928     74.8047    101.6341   1.0954630194e+02   4.5907396165e+01    0.3674471    0.2316897 -64.74  0.001177509    1.473    0.321
       376  -9.9263     55.1396    102.8618   1.1511810889e+02   4.8145821836e+01    0.1577198     0.132288 -50.61  0.001021821    1.284    0.221
       377 -10.0064    234.0043    102.3603   7.4771225363e+01   1.3265401536e+01    0.1889964     0.168797  29.80 0.0004185104    1.104    0.094
       378  -9.2661    174.3368    102.2659   8.5527511887e+01   2.6757832048e+01    0.1506019    0.1117361  21.07 0.0003650705    1.590    0.371
       379 -10.7470    135.4359    101.5236   9.3955637305e+01   3.5373560965e+01     0.245164    0.2364752  79.59 0.0007891918    1.040    0.039
       380 -11.6588     84.1808    100.4619   1.0677329611e+02   4.4801355458e+01    0.3647097    0.2738453  14.48  0.001710765    1.909    0.476
       381 -10.3916      9.2686     99.6801   1.2708901806e+02   5.2991937446e+01    0.2085128    0.1397211  57.05 0.0007031453    1.542    0.351
       382 -11.0743      4.7794     98.2563   1.2813557174e+02   5.3586291570e+01    0.4493566    0.1231952 -59.12   0.00211145    2.874    0.652
       383 -12.9155    106.4656     97.7707   1.0025378271e+02   4.1707173675e+01    0.3021563    0.2897207 -73.53  0.000569371    1.019    0.019
       384 -10.0083     43.9495    100.4872   1.1779053121e+02   4.9890596067e+01    0.1637874    0.1167881  40.55  0.001023208    1.576    0.365
       385 -12.4871     55.2876     96.7277   1.1400271979e+02   4.9475346693e+01    0.3727552    0.2137406 -69.06 0.0003719461    1.575    0.365
       386 -10.1334    124.9715     97.5024   9.5485854628e+01   3.8280297460e+01    0.2285775    0.1803536 -45.67 0.0007547878    1.255    0.203
       387 -10.7769     24.2316     96.8492   1.2270328494e+02   5.2498302379e+01    0.1773445    0.1306734  86.35 0.0006221411    1.218    0.179
       388 -10.5304     62.8333     96.1014   1.1176640412e+02   4.8701632659e+01    0.1910219    0.1732454  69.40 0.0003816932    1.158    0.136
       389 -10.9931     34.0386     94.0586   1.1956117058e+02   5.2263981780e+01    0.3335034    0.1812065 -48.64  0.001184326    1.904    0.475
       390  -9.8308    173.5021     94.0242   8.3541824627e+01   2.8367311738e+01    0.2153733    0.1470173 -34.32 -0.0001933574    1.481    0.325
       391 -10.9818    172.0173     90.0814   8.2782886498e+01   2.9390161360e+01     0.229126     0.208886 -27.11 0.0002936699    1.100    0.091
       392  -9.7719    118.2979     93.6688   9.6191492841e+01   4.0357740846e+01    0.1445336    0.1113314 -85.48 0.0003307084    1.642    0.391
       393 -11.6879    113.8197     91.2132   9.6715457119e+01   4.1713513280e+01    0.3425606    0.2371324  43.15 0.0006171038    1.503    0.335
       394 -11.3396     77.9476     87.6923   1.0568471492e+02   4.8488738859e+01     0.323596    0.1789215 -42.99 0.0003900579    1.902    0.474
       395  -9.3311     13.3079     89.3020   1.2480010003e+02   5.4953891965e+01    0.1115697   0.07006499 -51.38 0.0002658798    1.601    0.375
       396 -10.4502     10.2379     91.4469   1.2592345112e+02   5.4696191935e+01    0.1579857    0.1102766  26.64 0.0007718089    1.836    0.455
       397 -10.3131      6.1840     89.1757   1.2680204523e+02   5.5442879692e+01    0.1890141    0.1071334  59.27 0.0005347919    1.895    0.472
       398 -11.3584     88.7172     88.0965   1.0272397458e+02   4.6754706067e+01    0.3497341    0.3104811 -48.04  0.001391822    1.108    0.097
       399  -9.2499     70.2630     90.2813   1.0846842542e+02   4.9007290611e+01    0.1221468   0.09444518 -36.40            0    1.482    0.325
       400 -12.3778     63.0663     87.1341   1.0988314567e+02   5.0639416065e+01    0.2790602    0.2383595  77.26 0.0003687375    1.232    0.189
       401 -10.8481    154.4296     86.1690   8.5487191952e+01   3.4151402833e+01    0.2884306    0.2321526  13.99  0.001091143    1.470    0.320
       402  -9.9680     33.9414     86.9897   1.1846686504e+02   5.3825902414e+01    0.1701157     0.134764 -60.06 -0.001877172    1.158    0.137
       403 -11.3285     26.8507     85.6577   1.2035301460e+02   5.4730922029e+01    0.3674731    0.2260635  66.01  0.002166098    1.864    0.464
       404 -10.1913     31.0554     84.5199   1.1891793631e+02   5.4624950209e+01    0.2027995    0.1738063 -53.51 0.0007499396    1.225    0.184
       405 -10.5580    128.0307     85.8715   9.1663720037e+01   3.9970101720e+01    0.2647995    0.2077489  42.45  0.001357867    1.311    0.237
       406 -10.2309     48.4428     85.4913   1.1388364867e+02   5.2717066639e+01    0.2089265    0.1544152 -59.89 0.0001536882    1.164    0.141
       407 -11.3939     52.0559     82.4346   1.1218519029e+02   5.2990327875e+01    0.3210589     0.225255  36.51   0.00135973    1.646    0.393
       408 -12.1369      9.2706     85.6674   1.2551132047e+02   5.6006551320e+01    0.2002631    0.1799903  86.14 0.0002280846    1.207    0.171
       409 -10.6070    132.5389     82.5480   8.9615587842e+01   3.9669349382e+01    0.2399222     0.237126  54.15 0.0002368993    1.030    0.029
       410 -10.8461     42.3063     79.7277   1.1462791794e+02   5.4625880063e+01    0.3787953    0.1427847 -67.15 0.0007920026    2.450    0.592
       411 -10.9564     20.2260     82.0697   1.2178705411e+02   5.6034953353e+01    0.1920149    0.1602511  46.46 0.0004767466    1.416    0.294
       412 -10.1484    149.2568     80.3073   8.4992094625e+01   3.6395940721e+01    0.3693497    0.1891601 -58.17  0.001251639    3.138    0.681
       413 -10.6754     77.1037     80.9868   1.0433089548e+02   5.0059570523e+01    0.2007356    0.1792528 -55.56 0.0005735924    1.037    0.036
       414 -10.8548    154.0673     79.2250   8.3587401228e+01   3.5483997299e+01    0.2721587    0.2176678 -45.46 0.0004168084    1.275    0.216
       415  -9.3710    101.3483     79.2690   9.6899493563e+01   4.6468536243e+01    0.1368658    0.1105608  -3.01 0.0003271475    1.620    0.383
       416  -9.7942    108.1519     77.8342   9.4619881854e+01   4.5510392343e+01     0.188871    0.1667548   0.68 0.0004633566    1.317    0.240
       417 -10.0733     68.4976     78.4998   1.0630436458e+02   5.1810232624e+01    0.1314361    0.1157296 -62.22 0.0008106797    1.008    0.008
       418 -10.3496     29.5231     77.8890   1.1825804708e+02   5.6212629828e+01    0.2471578    0.1667263  81.95 0.0009340638    1.622    0.384
       419 -10.0924      3.5424     77.8882   1.2624989425e+02   5.8026959658e+01    0.1506048    0.1308696 -81.94 0.0004829115    1.162    0.140
       420 -10.5383    116.9984     76.9986   9.1999222257e+01   4.3961157297e+01    0.2687493    0.1879032  46.84  0.001317336    1.486    0.327
       421 -11.5605     59.0224     74.6618   1.0831344053e+02   5.3868565263e+01    0.4187565    0.2788963  68.25   0.00141979    2.022    0.505
       422  -9.9264     97.4662     76.5230   9.7234001287e+01   4.7723635116e+01    0.1392338    0.1294543 -57.59 0.0008090973    1.029    0.028
       423 -10.0156    131.0356     75.4540   8.7931873323e+01   4.1346236890e+01     0.212193    0.1456918  49.92 0.0003394907    1.495    0.331
       424 -11.0966     52.9571     74.5610   1.1020201270e+02   5.4612577096e+01    0.2424593    0.1747406 -44.78 0.0004484317    1.353    0.261
       425  -9.8264     48.5800     73.8286   1.1142819560e+02   5.5262693076e+01    0.2072878    0.1416216 -77.78 0.0008988336    1.505    0.335
       426  -9.5224     18.0000     74.9634   1.2138076546e+02   5.7747928231e+01    0.1954437   0.05267087 -69.11 0.0004361849    2.897    0.655
       427 -10.0518     68.8872     73.5697   1.0496346007e+02   5.2820656055e+01    0.2265951    0.1353139 -58.92 0.0006532868    1.532    0.347
       428  -9.9967    115.8089     72.8817   9.1106887166e+01   4.5009470039e+01     0.215421    0.1914311  -7.19 0.0005760773    1.245    0.197
       429 -10.7139      1.6098     73.2106   1.2625803154e+02   5.9138458654e+01    0.1682492   0.07288152 -65.12 0.0009254614    1.683    0.406
       430 -10.9450     87.8995     69.5468   9.8053527730e+01   5.0795580588e+01    0.3428772    0.2145385 -55.95  0.001404942    1.573    0.364
       431  -9.8338     84.2945     72.0946   9.9856806992e+01   5.0850369700e+01    0.1878299    0.1582516 -51.52 0.0003454188    1.080    0.074
       432 -10.7635     37.3965     72.1193   1.1465910644e+02   5.6773867096e+01     0.250231    0.1786646  34.76  0.000997767    1.668    0.401
       433 -10.8637     42.0861     71.0553   1.1291278241e+02   5.6549409853e+01    0.1787231    0.1629857 -61.49 0.0003110797    1.110    0.099
       434  -9.7860    101.5967     70.2313   9.4246296149e+01   4.8265401664e+01    0.2070417    0.1259034 -35.52 0.0008118022    1.720    0.419
       435 -10.4411     53.1651     69.2675   1.0889483706e+02   5.5739457427e+01    0.2982092    0.1528724 -58.22 0.0009284256    1.658    0.397
       436 -10.7006     52.7135     62.5381   1.0735413826e+02   5.7240687561e+01    0.4041372    0.1444272 -53.12  0.001727781    2.278    0.561
       437 -11.9605      3.7419     67.3198   1.2479258910e+02   6.0292441471e+01    0.3645764     0.242097  42.07  0.002519521    1.816    0.449
       438  -9.9734    130.7211     68.5410   8.5910263559e+01   4.2710137701e+01    0.1955922    0.1455345  64.04 0.0009304426    1.551    0.355
       439 -11.1796     26.8954     67.6264   1.1721030610e+02   5.8675545899e+01    0.1904499    0.1302636 -58.63  0.000416466    1.188    0.158
       440 -10.6332    212.4600     67.0963   6.8917773193e+01   2.3168640737e+01    0.2714659    0.1926997  37.35 0.0006654588    1.475    0.322
       441  -9.6281    189.5655     67.5384   7.2932989900e+01   2.8791167798e+01    0.1509634    0.1448022   3.74 0.0001187112    1.013    0.013
       442  -9.6688    127.2911     66.6824   8.6197801134e+01   4.3801043960e+01    0.1470444    0.1163293 -73.00 0.0002991974    1.599    0.375
       443  -9.3571    106.3343     66.3170   9.1715002554e+01   4.8154525402e+01    0.1453009    0.1121204  -3.00 0.0007047906    1.693    0.409
       444 -11.9553     16.7899     61.9365   1.1954933775e+02   6.0663974368e+01    0.4350007    0.2529559 -79.38  0.001631232    1.594    0.373
       445 -12.5732      7.1473     60.1806   1.2256024809e+02   6.1642104837e+01     0.496725    0.3908783  37.66  0.002763092    1.596    0.373
       446 -10.6129    128.0327     62.2289   8.4587234835e+01   4.4457230366e+01    0.1936927    0.1916352 -35.74   0.00025797    1.044    0.042
       447 -11.4803     78.1017     60.9954   9.8556988010e+01   5.4123900357e+01    0.5001693    0.2525209 -41.73  0.002271648    1.880    0.468
       448 -10.5039     70.4884     60.9921   1.0101215940e+02   5.5258371045e+01    0.1916298    0.1841464  40.20  0.001236196    1.179    0.152
       449 -10.6795     38.7926     59.1846   1.1129642858e+02   5.9448430139e+01    0.2843223    0.1780069 -82.01  0.001525802    1.951    0.487
       450 -11.0528     31.3632     59.0189   1.1386755052e+02   6.0168329740e+01    0.2365915    0.1772561 -83.04  0.000437443    1.387    0.279
       451 -11.7817     28.0922     55.7043   1.1427312860e+02   6.1158831654e+01    0.3804519     0.238329 -66.18  0.001922333    1.338    0.253
       452  -9.6632    110.6954     57.2571   8.7573565277e+01   4.9031114866e+01    0.1357263    0.1136954 -82.14 0.0006909278    1.513    0.339
       453  -9.9415     58.1845     56.8265   1.0392003747e+02   5.7785694257e+01    0.1697614    0.1309838 -35.70            0    1.278    0.218
       454 -10.3124     21.4769     56.9802   1.1692812874e+02   6.1402088720e+01    0.1964136    0.1505623  52.65 0.0008396171    1.589    0.371
       455  -9.3589    181.3731     55.7302   7.0854585492e+01   3.2634336271e+01    0.1558385    0.1186126 -72.84 0.0006995894    1.676    0.403
       456 -11.5939     93.3428     54.2471   9.1631377043e+01   5.2918143698e+01     0.260095     0.233517  -6.80 0.0002327506    1.171    0.146
       457 -11.1685     42.4389     52.8147   1.0835153782e+02   6.0439278037e+01     0.443671    0.2710108 -84.64  0.001628916    2.520    0.603
       458 -10.5760    164.1078     54.0201   7.3643243939e+01   3.7274684312e+01    0.2211457    0.2139683  12.36 0.0002985349    1.010    0.010
       459 -10.9125    118.8285     53.9125   8.4218340944e+01   4.7950695282e+01    0.2244484    0.1922489  -3.11 0.0005027412    1.257    0.205
       460 -11.5670     73.0713     52.2362   9.7449989987e+01   5.6666813058e+01      0.32191    0.2535303  82.58  0.001158655    1.799    0.444
       461 -10.4237     33.4474     52.6864   1.1159641441e+02   6.1339815229e+01    0.3386203    0.1655421 -74.61  0.001166608    2.599    0.615
       462  -9.9136     32.2339     48.3842   1.1093216803e+02   6.2359826948e+01    0.1431904    0.1109134  44.55 0.0009325022    1.597    0.374
       463 -10.1675     82.9443     51.2378   9.3876584193e+01   5.5300135667e+01     0.252554    0.1698836 -58.22  0.001267982    1.651    0.394
       464 -10.3661     18.8475     49.6173   1.1628706835e+02   6.3168400631e+01    0.1723834    0.1438325 -88.37 0.0003880191    1.291    0.225
       465 -11.7538     13.3714     50.2346   1.1847466106e+02   6.3403097919e+01    0.4259687    0.2403649 -17.93  0.001535496    2.576    0.612
       466 -11.2496     17.2329     46.4148   1.1616777511e+02   6.3960385302e+01    0.3574999    0.2174875   0.37  0.002012903    2.337    0.572
       467 -11.2189     12.4526     46.0929   1.1793688288e+02   6.4340702870e+01    0.2941297       0.1715 -76.34   0.00077922    1.609    0.378
       468  -9.9847    107.9542     50.4394   8.6010679096e+01   5.0836647801e+01     0.202167    0.1414467  45.88 5.985157e-05    1.505    0.335
       469  -9.4069    129.2704     49.7068   8.0057163144e+01   4.6374746130e+01    0.1430683    0.1153679 -65.45 0.0001734724    1.514    0.340
       470 -10.6835     64.9994     49.2939   9.9245880809e+01   5.8427911323e+01    0.1704601    0.1632266 -27.27 0.0005826105    1.113    0.102
       471 -10.2337     46.2307     48.1656   1.0563684082e+02   6.1005100795e+01    0.1694049    0.1361995 -72.58 0.0007445147    1.348    0.258
       472  -9.9376     93.8493     46.7747   8.8881668593e+01   5.4233942863e+01    0.1858896    0.1616786 -67.38 0.0005075801    1.358    0.263
       473 -11.9233    164.2389     42.8929   6.9933739049e+01   3.8902847179e+01    0.3770032    0.3321438 -36.19  0.001118964    1.145    0.126
       474 -10.9901    166.0639     37.9874   6.7921457632e+01   3.9120878682e+01    0.2406543    0.2315748   3.37 0.0003422783    1.020    0.019
       475 -10.2946    122.6513     45.9362   8.0407775890e+01   4.8497895950e+01    0.2429652    0.1948808  33.82 0.0003979456    1.294    0.227
       476 -12.1987     61.7717     44.7977   9.8894263134e+01   5.9770742908e+01    0.2546011    0.2103847 -43.23 0.0003224553    1.043    0.041
       477 -11.1251     34.9602     44.9376   1.0894425554e+02   6.2830676942e+01    0.2652597    0.1935296  86.62  0.000833431    1.869    0.465
       478 -10.6039     38.8906     40.3030   1.0602828010e+02   6.3399121500e+01    0.3314771    0.1971709   0.21  0.001507512    2.688    0.628
       479  -9.5528    184.9676     45.2229   6.6914067111e+01   3.3207433828e+01    0.1903876    0.1249662  61.50 0.0003285163    1.547    0.354
       480 -11.0560    141.3648     42.9256   7.4769130893e+01   4.4622850952e+01    0.3354188    0.2500187 -24.95  0.001129124    1.337    0.252
       481  -9.9583     80.4649     44.0051   9.2159898125e+01   5.7097066215e+01    0.2094465    0.1219061 -42.28 0.0005621472    1.546    0.353
       482  -9.7977     26.1173     44.3577   1.1221078517e+02   6.3728606020e+01    0.1390835    0.1067928  43.18  0.000562929    1.633    0.388
       483  -9.4789    103.3179     43.6731   8.4910595480e+01   5.2972684555e+01    0.1414568    0.1121532 -70.29 0.0002901259    1.678    0.404
       484 -10.7431     70.0757     41.6308   9.4842641797e+01   5.9194664255e+01    0.2397996    0.1667053 -38.15 0.0003049204    1.277    0.217
       485 -10.6432     57.1659     41.8515   9.9566490109e+01   6.0967882664e+01    0.1914498    0.1704187 -67.30  0.001112479    1.269    0.212
       486 -10.9397    246.2014     41.0118   5.7183771066e+01   1.8323197255e+01     0.209342    0.2008493  68.74 0.0003550249    1.124    0.111
       487 -10.0269    126.4170     40.7939   7.7572687705e+01   4.8486512213e+01    0.2014668    0.1390049 -18.07 0.0004363276    1.558    0.358
       488  -9.8485     92.4719     41.4536   8.7357898412e+01   5.5454297382e+01    0.1390871    0.1267954 -24.35 0.0001150539    1.005    0.005
       489 -10.1280     20.0853     41.4203   1.1382269576e+02   6.4809052660e+01    0.1420219    0.1152646   8.53  0.001000875    1.545    0.353
       490 -11.2647      9.6736     39.4512   1.1753080324e+02   6.5906154375e+01    0.2575016    0.1752485 -56.70 0.0007628035    1.113    0.101
       491 -10.8673     13.8142     39.6096   1.1588965161e+02   6.5618319310e+01    0.3445912    0.2022584  54.33  0.001991987    2.454    0.592
       492 -10.5920     24.2918     39.6194   1.1164844846e+02   6.4862635626e+01    0.2115073    0.1583849 -48.54 0.0003663635    1.092    0.084
       493 -10.4618     22.5135     36.5166   1.1149864216e+02   6.5642521431e+01    0.2029147    0.1545224 -56.12 0.0006202443    1.059    0.056
       494  -9.6075     31.6026     37.8556   1.0817517966e+02   6.4601184556e+01    0.1522034   0.09938169 -66.07 0.0002822352    1.515    0.340
       495 -10.7455    239.4349     36.4929   5.6725450384e+01   2.0454496224e+01    0.2376288    0.2204183 -26.22 0.0002678245    1.017    0.017
       496 -12.3601     78.4845     33.3588   8.8790396941e+01   5.9369500279e+01    0.4731285    0.3596503  65.58  0.002205017    1.879    0.468
       497  -9.9624     55.3416     33.7011   9.7330960891e+01   6.2785463526e+01    0.1918589    0.1609711 -52.95 0.0006481638    1.222    0.182
       498 -10.2851    143.5238     34.5645   7.1270723060e+01   4.5332926625e+01    0.2497115    0.2185501 -53.54 0.0006581894    1.258    0.205
       499 -11.1204    143.0721     31.1302   7.0102616532e+01   4.5926206603e+01    0.4241525    0.2458026  43.86  0.001569033    1.733    0.423
       500  -9.6500     97.4157     35.1988   8.3433962625e+01   5.5593033040e+01    0.2002158    0.1230037 -44.77 0.0009411521    1.655    0.396
       501  -9.7458     35.7529     34.7813   1.0550651408e+02   6.4827927177e+01    0.1440649    0.1279097 -66.19 0.0004706347    1.243    0.196
       502 -11.0547    120.4780     33.6850   7.6395651415e+01   5.0947035917e+01    0.3095993    0.2448141  58.09  0.001030754    1.371    0.271
       503 -10.5151     91.9183     33.6946   8.4529918752e+01   5.6904756658e+01    0.2281068    0.1754645 -22.32 0.0002211674    1.247    0.198
       504  -9.8074     29.0253     34.5182   1.0819638492e+02   6.5510168208e+01    0.1476236    0.1178369  27.46   0.00100222    1.538    0.350
       505 -11.4159    105.7506     31.9169   7.9682919326e+01   5.4434998451e+01     0.399731    0.2553751  31.77  0.001884397    1.752    0.429
       506 -10.2135     41.3880     36.3930   1.0376777017e+02   6.3925469506e+01    0.2236539    0.1669493 -87.42  0.001092199    1.981    0.495
       507 -10.8406    206.4483     31.5499   5.9373256429e+01   2.9340979030e+01    0.2486553    0.2343248  61.97 0.0004994323    1.075    0.070
       508  -9.7789      4.8282     32.3450   1.1785039968e+02   6.7650902345e+01    0.1343184   0.09358471 -20.26 0.0002314134    1.688    0.407
       509 -11.2264    159.0224     30.4299   6.6623568774e+01   4.1959950196e+01    0.2750672      0.21496 -21.27 0.0001866786    1.285    0.222
       510 -10.2314     85.0004     30.4799   8.5447094563e+01   5.8724837418e+01    0.2165578    0.1611186 -33.39 -9.422661e-05    1.221    0.181
       511  -9.9768     24.1777     31.1944   1.0919500366e+02   6.6592436440e+01     0.139092    0.1262332 -77.31 0.0003668313    1.298    0.230
       512 -10.5406     36.4194     29.9853   1.0358386746e+02   6.5708858247e+01    0.1724771    0.1632735  34.95  0.000162178    1.328    0.247
       513 -10.0290     32.6195     28.7306   1.0475029950e+02   6.6330753060e+01    0.1852382    0.1485191 -89.75 0.0006993769    1.768    0.434
       514 -10.1848    220.1131     28.8094   5.6813615424e+01   2.6132650287e+01    0.2136788    0.1843471 -56.33 0.0003615463    1.183    0.155
       515 -11.0668     60.1947     34.6870   9.5860315835e+01   6.1943620561e+01    0.3699517    0.2646497 -18.22  0.001697395    1.553    0.356
       516 -11.0174    187.0503     27.1656   6.0762580204e+01   3.4975686223e+01     0.238759    0.2117472 -18.04 0.0002779161    1.134    0.118
       517 -11.2637    100.9719     27.0318   7.9067456113e+01   5.6185790802e+01    0.3345612    0.2085129  48.07 0.0008608766    1.670    0.401
       518  -9.4883     17.4580     27.5282   1.1097741273e+02   6.7846192412e+01     0.118394   0.08832996 -47.78 7.142506e-05    1.047    0.045
       519 -11.2073    146.1483    244.8340   1.1472378647e+02   1.0065053829e+01    0.2529264    0.1805722  55.65  0.001204487    1.208    0.172
       520 -11.9115      2.0085     25.7094   1.1741068810e+02   6.9151611809e+01    0.2078289    0.1319129 -57.37 0.0002930255    1.148    0.129
       521 -11.6939      9.7926     23.6442   1.1325490203e+02   6.9136560283e+01    0.2301469    0.1369369 -50.77 0.0005970485    1.249    0.200
       522 -11.3427      6.1842     23.4376   1.1486441099e+02   6.9390028831e+01    0.1919936    0.1849179 -29.61 0.0004084983    1.295    0.228
       523  -9.7959    233.6534     24.2913   5.4000731845e+01   2.3229229645e+01    0.1495094   0.09840487 -58.85 0.0004577334    1.663    0.399
       524  -9.8537     89.7565     24.4067   8.1364578220e+01   5.8820596672e+01    0.1827879    0.1242863  33.75 0.0004953707    1.556    0.357
       525 -10.4484     61.9914     23.4164   9.0631791537e+01   6.3719149431e+01    0.2784036    0.1715169   2.16  0.001298629    2.517    0.603
       526 -11.0541    118.0480     22.7878   7.2666824294e+01   5.3075762611e+01    0.3887982    0.2054985  48.27  0.001478601    1.854    0.461
       527 -10.2082     78.5774     23.2520   8.4544211483e+01   6.1056245658e+01    0.2241693    0.1562018  14.55   0.00116821    1.700    0.412
       528 -10.1523     50.2549     22.3122   9.4816705019e+01   6.5545478416e+01    0.2388388    0.1218475 -35.45 0.0006474289    1.762    0.433
       529 -11.4931     17.0830     22.8954   1.0964547882e+02   6.8793704967e+01    0.2939376    0.2052821  38.55  0.001031287    1.884    0.469
       530 -11.4942     36.9897     20.7480   9.9818163246e+01   6.7404316212e+01    0.4064035    0.2753431  41.96  0.002485276    1.918    0.479
       531 -10.3414     33.9444     16.7584   9.9525596384e+01   6.8458097807e+01    0.2010687    0.1518654  -4.84 0.0008280725    1.446    0.308
       532 -10.4857    190.1540     20.3621   5.8101361024e+01   3.4929868698e+01    0.2301556    0.1985963   1.84 0.0003202295    1.220    0.180
       533 -10.7798    182.3935     18.6889   5.8657282754e+01   3.7188133956e+01    0.2707625    0.2367192  33.90 0.0006324222    1.159    0.137
       534 -10.6572     92.7964     18.8327   7.7982457363e+01   5.9059763736e+01    0.2877021    0.1715174 -36.97  0.001004284    1.623    0.384
       535  -9.8166     99.7669     17.8147   7.5466442770e+01   5.7776366828e+01    0.1730414    0.1581691 -49.09 0.0002560563    1.280    0.219
       536 -11.5531    141.5063    247.5062   1.1570528397e+02   1.0414833825e+01     0.183423    0.1322768  49.23 0.0005905361    1.023    0.022
       537 -10.2639    226.0037     16.9645   5.2742447930e+01   2.5921199026e+01    0.1662327    0.1597606 -49.28  0.000334829    1.004    0.004
       538 -10.2893    137.1181     17.1790   6.6018729818e+01   4.9208761668e+01    0.1943187    0.1696057 -51.30 0.0004460368    1.279    0.218
       539 -11.2215    132.7210     16.6289   6.6731391059e+01   5.0366372048e+01    0.2603957    0.2089785  20.44 0.0007256207    1.262    0.208
       540 -11.5562    140.4962    244.4587   1.1557143652e+02   1.0924183390e+01    0.1970793    0.1397147  37.27 0.0009731229    1.310    0.237
       541 -11.7521     83.6882    238.0374   1.2394391690e+02   1.9490435094e+01    0.2710987    0.1459293  48.84 0.0004548382    1.359    0.264
       542 -10.1527     87.4341    236.4533   1.2324268503e+02   1.9237982686e+01    0.1486464    0.1045161  85.25 0.0005254752    1.441    0.306
       543 -11.7934     77.1257    246.3253   1.2550737819e+02   1.9152285889e+01    0.2554022    0.1459643  42.81  0.001581111    1.509    0.337
       544 -13.5213     75.7164    241.1304   1.2538717386e+02   2.0044360153e+01    0.3652115    0.2024415  57.76   0.00113185    1.315    0.240
       545 -11.5626    207.5289    246.3035   1.0541433720e+02   8.8376071737e-01    0.3812441    0.1550796  48.30  0.001325023    2.163    0.538
       546 -10.1166     21.0921     17.4775   1.0581975560e+02   6.9529356110e+01    0.1475125    0.1125533  12.39 0.0008427981    1.559    0.359
       547  -9.8165    153.6005     15.2428   6.2089735305e+01   4.5212465545e+01    0.2070912    0.1403101  -3.99 0.0009461403    1.637    0.389
       548 -11.2674    199.5333    245.4167   1.0651969754e+02   2.1420807867e+00    0.2628791    0.1563663  21.98  0.001429784    1.824    0.452
       549 -10.8470     86.7036     14.0568   7.7707084542e+01   6.0933921742e+01    0.3382474    0.1638617  46.72  0.001529824    2.119    0.528
       550 -11.8562    202.1860    240.5984   1.0552436702e+02   2.2154102191e+00    0.4342436    0.1393877  43.44  0.002234067    2.271    0.560
       551  -9.9628     13.4864     14.4856   1.0838671266e+02   7.0682076953e+01    0.1150145   0.08729888 -45.37 -1.801716e-05    1.017    0.017
       552 -10.4282    217.3316     12.2988   5.2302876392e+01   2.8616019008e+01    0.1485309    0.1019658  35.42 0.0003235951    1.645    0.392
       553  -9.9380    157.0620    247.3142   1.1327367116e+02   8.1951227963e+00    0.1461451   0.09812905  44.49 0.0004577364    1.065    0.061
       554 -10.8161     95.7975    246.8880   1.2270935477e+02   1.6732843674e+01    0.1403341     0.108197  49.26 0.0008273828    1.240    0.194
       555 -12.4117     85.4339    244.8281   1.2414724523e+02   1.8329591591e+01    0.2197046    0.1953381  56.59 0.0006245615    1.416    0.294
       556 -11.2840     89.4306    244.5099   1.2351338136e+02   1.7867950139e+01    0.2203365    0.1591522  30.61  0.001642332    1.884    0.469
       557 -10.6874    216.1774    244.8697   1.0393340006e+02  -2.4872637793e-01     0.145584    0.1097316  38.48  0.000370601    1.185    0.156
       558 -10.8860    187.9935    245.2711   1.0826921034e+02   3.8624401984e+00    0.2574562    0.1007505  41.80  0.001035246    1.831    0.454
       559 -11.4236    164.6761    244.1431   1.1175732667e+02   7.4355159026e+00     0.200204    0.1616705  32.47 0.0004533191    1.234    0.190
       560 -11.8360    121.5397    243.0497   1.1841236045e+02   1.3780068084e+01    0.1833883    0.1488142  77.39 0.0004115982    1.327    0.247
       561  -9.9638    227.0718    243.5052   1.0212969521e+02  -1.7092542501e+00    0.1549295   0.07476953  39.40 0.0004462545    1.482    0.325
       562 -10.3805    109.1633    238.9481   1.2000926063e+02   1.6021499645e+01    0.1836808    0.1226742  79.39 0.0007754053    1.647    0.393
       563 -11.0244    100.1676    241.8601   1.2165649798e+02   1.6835200199e+01     0.159491     0.135987 -84.62 0.0003812851    1.425    0.298
       564 -10.5940    110.0829    235.1917   1.1954377473e+02   1.6404393714e+01    0.1925949    0.1202167  35.28 0.0008439816    1.709    0.415
       565 -10.4805    103.8097    228.2233   1.1995626205e+02   1.8238256847e+01    0.3381836    0.1324303  40.99  0.001879442    2.135    0.532
       566 -11.5011    105.8208    233.6118   1.2009242764e+02   1.7205232411e+01    0.3262309    0.1507057 -63.20  0.001554755    2.694    0.629
       567 -10.8046    102.3013    234.0767   1.2069601259e+02   1.7617601795e+01    0.2102684    0.1532449  69.52 0.0004454561    1.233    0.189
       568 -11.1493    100.1594    237.8565   1.2134329044e+02   1.7381310477e+01    0.1979002    0.1501807  55.91  0.000261002    1.084    0.077
       569 -12.7924     94.4021    237.3925   1.2221561224e+02   1.8204676555e+01    0.3460359    0.2099357  61.48  0.001758023    1.330    0.248
       570 -10.5419     64.7151    241.6781   1.2709723328e+02   2.1282723200e+01    0.1391333    0.1010914  66.93 0.0003022912    1.099    0.090
       571 -10.5485     67.0357    238.9910   1.2658206000e+02   2.1391897075e+01     0.290345    0.1049864  43.34  0.001313734    2.092    0.522
       572 -11.7740     47.4718    232.3056   1.2919544377e+02   2.4605016425e+01     0.350578    0.1573314  81.58  0.001540042    2.307    0.567
