#   1 NUMBER                 Running object number                                     
#   2 MAG_AUTO               Kron-like elliptical aperture magnitude                    [mag]
#   3 X_IMAGE                Object position along x                                    [pixel]
#   4 Y_IMAGE                Object position along y                                    [pixel]
#   5 X_WORLD                Barycenter position along world x axis                     [deg]
#   6 Y_WORLD                Barycenter position along world y axis                     [deg]
#   7 A_WORLD                Profile RMS along major axis (world units)                 [deg]
#   8 B_WORLD                Profile RMS along minor axis (world units)                 [deg]
#   9 THETA_WORLD            Position angle (CCW/world-x)                               [deg]
#  10 FWHM_WORLD             FWHM assuming a gaussian core                              [deg]
#  11 ELONGATION             A_IMAGE/B_IMAGE                                           
#  12 ELLIPTICITY            1 - B_IMAGE/A_IMAGE                                       
         1 -13.9070    196.8689     26.1362   6.0792478964e+01   3.2655048955e+01     2.110709     1.315168   6.45  0.009025202    2.586    0.613
         2 -13.9412    203.7310     20.9009   5.8429905951e+01   3.1526244522e+01     1.516445     1.228203 -21.67  0.006741127    1.417    0.295
         3 -13.3028    209.8043     14.3675   5.5951256115e+01   3.0730349378e+01    0.8808631    0.6403303  10.79  0.001422014    1.935    0.483
         4 -11.2917      2.2387     10.4793   1.1027416697e+02   6.9908172128e+01    0.5046746    0.0551939 -50.04   0.00175004    5.813    0.828
         5 -10.9072      2.4172      3.1263   1.0741633367e+02   7.0989420022e+01    0.2348964    0.1545257 -19.99  0.001833002    1.186    0.157
         6 -11.4013    224.7775      1.8780   5.1222108771e+01   2.8348032470e+01     0.576497    0.1861106  69.05  0.001755952    2.669    0.625
         7 -10.7056     53.0198    228.5031   1.3300017672e+02   2.2508236891e+01    0.2416075    0.1435344  84.81  0.001612134    1.466    0.318
         8 -11.5778    162.6521    250.0350   1.1664293930e+02   2.2716232972e+00    0.4651586     0.133964  45.92  0.001953949    2.686    0.628
         9 -11.4787    148.7140    249.2019   1.1893183623e+02   4.7339330161e+00    0.3016626    0.1859961  53.51  0.001539783    1.314    0.239
        10 -13.2590    127.5241    246.7525   1.2226699826e+02   8.5916229995e+00    0.7960753    0.4411973  53.27   0.00472939    1.430    0.301
        11 -12.6106    105.8548    243.3900   1.2557548041e+02   1.2548658107e+01    0.4515741      0.32771  78.10  0.002382538    1.280    0.219
        12 -12.8054     93.9861    248.1165   1.2798821190e+02   1.3567685019e+01    0.8004483    0.2167099  50.59  0.003554718    2.895    0.655
        13 -11.6448     95.3713    242.6419   1.2725296215e+02   1.4256325512e+01    0.3243754    0.1749407 -83.10  0.001776073    2.240    0.554
        14 -10.3210     63.0291    250.4333   1.3307249863e+02   1.7486099817e+01    0.2184567   0.08238159  45.04 0.0009829756    2.225    0.551
        15 -15.0746     35.3525    246.1196   1.3694354549e+02   2.1593174226e+01     9.411361     2.867185  34.30   0.03100579    9.288    0.892
        16 -12.9445     14.6584    241.0052   1.3965610593e+02   2.4700041742e+01    0.8885829    0.3730689  60.26  0.005945461    1.794    0.443
        17 -15.9650      7.5357    196.4812   1.3818140637e+02   3.3344221392e+01     7.028834     1.288613 -72.79   0.01520292    4.027    0.752
        18 -11.7941     70.5602    184.2904   1.2558956742e+02   2.8691166322e+01    0.2619451    0.2168677 -59.84  0.000811672    1.398    0.284
        19 -11.1770     79.7535    172.9024   1.2227475149e+02   2.9767494815e+01     0.231169    0.1941216 -74.30 0.0004091948    1.148    0.129
        20 -13.3271     67.0833    170.0472   1.2454848826e+02   3.2119998800e+01    0.4474384    0.2613002 -46.59  0.001626843    2.189    0.543
        21 -12.3967     86.6622    164.9661   1.1967237371e+02   3.0433363210e+01    0.9849651    0.5133532  58.29  0.001518484    2.100    0.524
        22 -13.4088     67.8549    144.8348   1.2083533786e+02   3.7451328368e+01     2.519212     1.162773 -87.05  0.004710877    5.431    0.816
        23  -9.3718    230.3481    166.6817   9.0028755654e+01   2.2027027624e+00    0.1340748    0.1130593 -86.57 0.0007048436    1.731    0.422
        24 -12.9295     39.5193    223.0855   1.3477908852e+02   2.5103253057e+01    0.3382096    0.2767094 -64.51 0.0009644267    1.659    0.397
        25 -10.0519     99.6488    149.0526   1.1416013094e+02   3.1828646024e+01    0.2890693     0.236552 -62.68 0.0008368102    1.173    0.147
        26  -9.4854    102.2254    145.1820   1.1285896750e+02   3.2245075332e+01    0.2763028    0.1998468 -19.76 0.0008500462    2.273    0.560
        27 -12.1701     88.1992    147.9520   1.1662327028e+02   3.3882447158e+01    0.2645055    0.2335254 -50.89 0.0004983479    1.244    0.196
        28 -11.1949     38.6140    146.6823   1.2770654076e+02   4.0457842654e+01    0.2885383    0.1700691  58.55  0.001140479    1.805    0.446
        29 -12.4846    176.8149    248.4690   1.1399893364e+02   7.9684573396e-02    0.8357868     0.182928  40.74   0.00281139    4.252    0.765
        30  -9.8050    110.4331    135.2177   1.0897158262e+02   3.3005451460e+01    0.2804958    0.2266528 -11.62  0.001096083    1.739    0.425
        31 -10.7147     97.9181    132.0120   1.1137405862e+02   3.5844761397e+01    0.2691039    0.2202711 -33.42 0.0006429884    1.437    0.304
        32 -10.4822     43.9643    130.4934   1.2429102096e+02   4.3401003298e+01    0.1625545    0.1199614  37.23 0.0006482306    1.594    0.373
        33 -15.1281     49.5143    211.6908   1.3222592887e+02   2.6014495970e+01     2.433202     1.249534  56.57   0.01051091    1.656    0.396
        34 -10.7633    224.9071    199.2070   9.7456301277e+01  -1.6701812375e+00    0.2966796    0.2346599 -58.52 0.0007262594    1.816    0.449
        35  -9.4591    107.2411    122.6158   1.0709747965e+02   3.6315594210e+01    0.1791174    0.1704196  40.81 0.0005131674    1.128    0.114
        36 -11.3164    167.8914    112.9301   9.0239609008e+01   2.5774689231e+01    0.3718746    0.3115033 -77.45 0.0007702366    1.407    0.289
        37  -9.5614    204.7357    110.9143   8.2085397489e+01   1.7443011685e+01     0.410263    0.1787045  37.72  0.001346281    3.014    0.668
        38 -10.4110    193.0856    195.1570   1.0268029624e+02   5.0351970580e+00    0.7378672    0.3766381 -65.68  0.001887302    8.478    0.882
        39 -11.5996      1.9324     89.7565   1.2896782490e+02   5.5357982311e+01    0.4936049    0.1110641 -69.36  0.001944467    3.714    0.731
        40 -11.7431     65.2863    191.1264   1.2739075679e+02   2.8013271853e+01      0.33768    0.2355612 -45.40  0.002024641    2.056    0.514
        41  -8.9096    112.3507     44.6838   8.3854109997e+01   5.0369517249e+01    0.1971803    0.1459568  66.02 0.0007124273    1.780    0.438
        42 -10.5637    107.6725     41.6011   8.4073635528e+01   5.1762921809e+01    0.4627204    0.2987443  74.82  0.001928513    3.113    0.679
        43 -11.5671    249.1462    244.9687   1.0112231995e+02  -1.1445374966e+01    0.3571091     0.186858 -29.47  0.002118395    2.179    0.541
        44 -12.6347    138.7557    248.7144   1.2057584859e+02   6.4587352264e+00    0.4989468    0.4594634  75.24  0.003800393    1.242    0.195
        45 -13.8711      5.5497    242.8818   1.4103013596e+02   2.5302945501e+01      1.74831    0.6269357 -82.70   0.01090434    2.342    0.573
        46 -12.2321     54.8229    239.0625   1.3351100122e+02   2.0440554499e+01     0.453416    0.2067388  51.51 0.0007235113    1.738    0.425
        47 -11.7805     51.9661    233.9522   1.3358380285e+02   2.1680400252e+01    0.2665887    0.2370322  34.13  0.001897324    1.820    0.451
        48 -11.1244    189.9607     15.2483   5.8775818459e+01   3.5655239754e+01    0.2281649    0.2101872 -33.02 0.0008373419    1.205    0.170
