#   1 NUMBER                 Running object number                                     
#   2 MAG_AUTO               Kron-like elliptical aperture magnitude                    [mag]
#   3 X_IMAGE                Object position along x                                    [pixel]
#   4 Y_IMAGE                Object position along y                                    [pixel]
#   5 X_WORLD                Barycenter position along world x axis                     [deg]
#   6 Y_WORLD                Barycenter position along world y axis                     [deg]
#   7 A_WORLD                Profile RMS along major axis (world units)                 [deg]
#   8 B_WORLD                Profile RMS along minor axis (world units)                 [deg]
#   9 THETA_WORLD            Position angle (CCW/world-x)                               [deg]
#  10 FWHM_WORLD             FWHM assuming a gaussian core                              [deg]
#  11 ELONGATION             A_IMAGE/B_IMAGE                                           
#  12 ELLIPTICITY            1 - B_IMAGE/A_IMAGE                                       
         1 -15.0222      6.3593     70.8388   8.2201702222e+01   6.1829821182e+01     1.199456    0.7779864 -66.04  0.005186206    1.246    0.197
         2 -12.9544      7.9318      2.7718   5.8935744034e+01   7.6629563639e+01    0.5316962    0.4401679  28.51  0.003715918    1.529    0.346
         3 -15.9552     11.3257     23.3233   6.6866419875e+01   7.2450588247e+01     2.061342      1.00316 -36.01  0.009546009    1.812    0.448
         4 -14.2690     27.0481     11.7520   5.0607982084e+01   7.3056272257e+01    0.9182512    0.5613215 -17.41  0.004984853    1.698    0.411
         5 -13.7257    122.3280     36.9001   2.5281130243e+01   5.0158953016e+01    0.9866111    0.5480719  34.67  0.002895765    2.189    0.543
         6 -13.9235    166.3818     29.6898   1.4441017980e+01   3.9759455779e+01     0.977603    0.6704513  73.89  0.003683176    1.454    0.312
         7 -13.9046    147.5563     29.7579   1.7468958514e+01   4.4630480086e+01     1.226646    0.7344142  70.25  0.004257843    1.688    0.407
         8 -13.3554    188.3003     24.5627   1.0057360925e+01   3.4813215539e+01     1.040534    0.4278496 -52.60  0.003998358    2.667    0.625
         9 -15.0462     98.7612     11.5687   2.0349594549e+01   5.9121847946e+01     1.412003    0.9289285  57.67  0.004161811    1.410    0.291
        10 -12.4417     86.0159     14.2697   2.5177371116e+01   6.1843744053e+01    0.5730066    0.4205662 -57.23  0.002940758    1.811    0.448
        11 -12.0732     60.0959     15.3105   3.5151352020e+01   6.7204705259e+01    0.5218134    0.2936329  28.61  0.002465069    1.928    0.481
        12 -11.8780    188.1113      9.8618   5.8337075188e+00   3.6424718249e+01     0.383736    0.2769966  84.16  0.001882734    1.321    0.243
        13 -11.7673     46.6818     12.7961   3.9985100287e+01   6.9981133755e+01    0.2945688      0.28973 -71.60  0.001390835    1.431    0.301
        14 -12.8398    214.7982      9.9815   3.6321826454e+00   3.0042186147e+01    0.3473029    0.3246602 -62.64  0.001342684    1.124    0.110
        15 -13.8704     41.6721      4.6203   3.7550824497e+01   7.1950235491e+01    0.7704644    0.5355446   1.51  0.003900817    1.424    0.298
        16 -11.9611     75.4550      9.9471   2.6344617835e+01   6.4701921921e+01    0.3297642    0.2441927   0.90  0.001749885    1.390    0.281
        17 -10.8113    152.3798      8.6480   9.4004675789e+00   4.5660854678e+01    0.2987931    0.1697548  38.92  0.001341336    2.055    0.513
        18 -12.5179    120.1737     25.9005   2.1444508173e+01   5.2167301654e+01    0.6852533     0.452875  29.95  0.003177745    1.735    0.424
        19 -11.7183    123.3562     11.0041   1.4790018516e+01   5.2995057135e+01    0.2707837    0.2407018 -51.36 0.0004824101    1.208    0.172
        20 -11.5692    118.0558      2.2524   1.2162567085e+01   5.5139304630e+01    0.5198784    0.2476016 -88.69  0.001908602    3.157    0.683
        21 -11.1944     67.7328      2.7036   2.5000955511e+01   6.7138605423e+01    0.2936139    0.1789258  26.77  0.001489935    1.661    0.398
        22 -10.6915    232.5143      1.5182   4.0988345350e-01   2.6944222648e+01    0.1237234   0.09976271 -58.40 0.0008102279    1.008    0.008
        23 -11.5499     80.4957      1.4568   2.0239840677e+01   6.4417371039e+01    0.6220854          nan  56.11  0.001443147    7.122    0.860
        24 -11.1406     61.3134      1.4462   2.6624736981e+01   6.8613756234e+01    0.3419099    0.1183487  54.78  0.001361655    2.754    0.637
        25 -15.3255      7.8688    183.3519   9.1685646935e+01   3.4544746934e+01     1.398056      1.20621  36.97   0.01024212    1.337    0.252
        26 -12.1916     51.5984    247.8264   8.6138500754e+01   1.7625199871e+01    0.4161389    0.3280207  11.83  0.003001181    1.791    0.442
        27 -13.8793      9.6691    245.7174   9.3715676318e+01   2.2255732718e+01    0.8493184    0.3015496  50.91  0.004287107    1.881    0.469
        28 -15.3027     14.6645    174.6016   8.9641931332e+01   3.5911436098e+01     2.019696    0.8226974  57.16  0.009824776    2.197    0.545
        29 -11.1262    249.6788    199.3444   4.1954146025e+01  -2.2846833785e+00   0.09852465   0.09018283 -31.07  0.000554293    1.729    0.422
        30 -11.0628    200.8000    191.4727   4.9010193125e+01   5.7602313700e+00     0.217463    0.2126087  53.63  0.001209577    1.482    0.325
        31 -11.4351    206.2218    190.5317   4.7828007438e+01   5.0576547298e+00    0.2302421    0.1674104 -25.53  0.001032843    1.334    0.250
        32 -11.5945     48.6657    181.6521   8.1956814880e+01   3.0927218276e+01    0.3028025    0.1977806 -51.21  0.001674639    1.828    0.453
        33 -11.3703    121.8947    180.9991   6.4030174905e+01   2.0655164427e+01    0.3960024    0.2382754  74.37  0.001543347    3.243    0.692
        34 -12.5398    124.1587    166.5913   6.1061012550e+01   2.3258288669e+01    0.5875874    0.4046778 -71.88  0.002806587    1.892    0.471
        35 -11.1703    178.1829    167.3924   4.8942855210e+01   1.3450762088e+01    0.1962043    0.1251509  47.34 0.0009507645    1.704    0.413
        36 -11.0598    222.3318    166.6802   4.0385116693e+01   6.0339893987e+00    0.1156892    0.1051827 -65.08 0.0004537021    1.694    0.410
        37 -10.8567    193.3023    164.6725   4.5345584080e+01   1.1241366536e+01    0.1247446    0.1120876 -81.60  0.000703241    1.644    0.392
        38 -12.0940     24.1500    159.1557   8.6204515393e+01   3.8644905712e+01    0.2581628    0.1531401 -62.58  0.001409709    1.661    0.398
        39 -12.4199     76.8741    156.8521   7.1724165055e+01   3.3042965415e+01    0.4905803    0.3258875  23.16  0.001554262    1.747    0.428
        40 -13.3040     73.6708    153.1351   7.2049806435e+01   3.4384381181e+01    0.8066835     0.530693  32.82  0.002996101    1.549    0.354
        41 -12.3510    110.8173    155.2824   6.2391235936e+01   2.8031428270e+01    0.5315305    0.3650251  88.58  0.002368862    2.111    0.526
        42 -12.3963      8.1836    149.7802   8.9737632490e+01   4.2174107939e+01    0.3888908    0.3070871  10.10   0.00251266    1.644    0.392
        43 -12.1048    189.2782    150.1311   4.3105046899e+01   1.4458187966e+01    0.2356829    0.1709858 -16.54 0.0009756204    1.441    0.306
        44 -11.2721    103.5379    149.6370   6.3280237888e+01   3.0561673302e+01    0.3070659    0.2432852 -26.16  0.001154058    1.543    0.352
        45 -11.5189    246.4007    148.7921   3.2832563167e+01   4.7916623288e+00    0.1880101    0.1021779 -22.31 0.0009577836    1.699    0.411
        46 -12.4552     60.1802    147.2611   7.4991675313e+01   3.7622961797e+01    0.3934057    0.3095107   7.67  0.002125299    1.635    0.388
        47 -12.2128    189.1693    155.9663   4.4369088227e+01   1.3462460508e+01    0.2541149    0.2021043  33.57   0.00140706    1.238    0.192
        48 -10.9633     38.4761    145.5310   8.0981895635e+01   4.0554725909e+01    0.1326605    0.1168822  87.99 9.216026e-05    1.026    0.026
        49 -11.7889    148.2870    141.1440   5.0089013484e+01   2.4122923444e+01     0.351925    0.1332201 -47.58  0.001213011    2.759    0.638
        50 -12.5343     40.0565    136.3758   7.9433032536e+01   4.2664785740e+01    0.5563833     0.255626  77.84  0.002057088    3.200    0.687
        51 -11.8349     44.9135    131.9755   7.7376974343e+01   4.3249746119e+01    0.4026094    0.2648033  59.41  0.002054184    1.581    0.368
        52 -10.8427      4.9941    128.9854   8.9175966563e+01   4.7422173981e+01     0.209803    0.1235134 -51.93  0.001141659    1.781    0.438
        53 -13.1060    111.7835    116.5140   5.3876845138e+01   3.6790089313e+01    0.5196649    0.3589301  40.35  0.001601965    1.461    0.316
        54 -13.3902    107.5800    124.1492   5.6896179031e+01   3.5807468655e+01     1.292024    0.6825366  34.84  0.005169608    1.999    0.500
        55 -12.8382    101.4067    118.8496   5.7468045785e+01   3.8202064753e+01    0.8404872    0.6414291  -3.20  0.003855794    1.793    0.442
        56 -11.7252     83.6702    126.1550   6.4414436731e+01   3.9474233481e+01      0.44764    0.2702402  85.48  0.001684182    2.771    0.639
        57 -13.0604     28.9977    121.3411   8.0973602873e+01   4.7530092035e+01     1.183878    0.5966042 -56.59  0.005624266    1.818    0.450
        58 -11.9656     48.8753     93.2933   6.9207070567e+01   5.2634566209e+01     0.406431    0.3092574  67.99  0.002072686    1.542    0.351
        59 -12.4127      4.7199    119.3431   8.8495490560e+01   4.9819615189e+01    0.4587063    0.3190723   4.22  0.002156628    1.873    0.466
        60 -12.1221     49.2509     98.8206   7.0254266527e+01   5.1193656210e+01    0.8071952    0.5008845  18.61   0.00381607    1.941    0.485
        61 -12.0905     42.4773     90.6216   7.1065962958e+01   5.4037023027e+01    0.4833418    0.2944186 -85.55   0.00217929    2.021    0.505
        62 -12.0218     36.7331     92.9368   7.3749117682e+01   5.4049030448e+01    0.4445026    0.3024586   7.18  0.001530465    1.837    0.456
        63 -14.6939     24.4814     93.8083   7.8583365970e+01   5.4920465057e+01      1.62681     1.287609  -8.60  0.009510046    1.526    0.345
        64 -13.4757      2.2306     96.8980   8.7247459479e+01   5.5550849785e+01     1.129795    0.3326829 -81.15  0.004213395    3.090    0.676
        65 -14.0991     18.3344    111.7868   8.3310638867e+01   5.0820045743e+01      1.04531    0.6010497  10.62  0.005285264    2.231    0.552
        66 -14.3431     13.3669    103.6129   8.4040582433e+01   5.3232639620e+01     1.055288    0.6091332  24.48  0.005597708    1.975    0.494
        67 -12.1594     78.8882    110.3272   6.2510040008e+01   4.4153255507e+01    0.4505629    0.3529053 -89.03  0.001700841    1.483    0.326
        68 -11.6899     86.7195    114.8330   6.1028358478e+01   4.1757822007e+01    0.3115314    0.2593186  -9.61 0.0009556052    1.472    0.321
        69 -12.5972     82.0102    115.1765   6.2596958942e+01   4.2451343442e+01    0.4411567    0.3237469  53.64  0.002136236    1.466    0.318
        70 -11.3363    121.8233    112.1461   4.9943775120e+01   3.5777459988e+01    0.2840646     0.256893 -78.13  0.000765536    1.215    0.177
        71 -14.3620    106.0326    104.0426   5.2374985522e+01   4.0807645810e+01     1.154609     1.083717  39.02  0.005288429    1.086    0.080
        72 -11.6340     62.3243    110.4684   6.8061939551e+01   4.6573235492e+01    0.4980459    0.2889887  64.81  0.002022633    2.432    0.589
        73 -11.9508    180.6352    121.6747   3.8308434092e+01   2.1313572749e+01    0.3642279    0.2528912  -4.11  0.001618306    1.914    0.478
        74 -12.2240    136.6489    103.2220   4.3590981639e+01   3.4559200344e+01    0.5587073    0.3003695  55.35  0.001861392    2.165    0.538
        75 -10.6850     64.5098    101.5323   6.5370189374e+01   4.8519387418e+01    0.2325414    0.2149875 -75.63 0.0006078249    1.059    0.056
        76 -11.8963     61.5217     97.5477   6.5511993958e+01   4.9935794747e+01    0.4238538    0.3055784  80.41  0.001815421    1.774    0.436
        77 -11.7821    163.8578     98.0289   3.5701367808e+01   2.9449536471e+01    0.2498886    0.2255207  46.11 0.0003971908    1.140    0.123
        78 -12.3001    136.9195     94.8654   4.1164419341e+01   3.6241676075e+01    0.5007505    0.3579137  63.84  0.002137801    1.664    0.399
        79 -12.8821    187.9774     84.3820   2.7193841152e+01   2.6321317824e+01    0.4861391    0.2569274  42.19  0.001704782    2.157    0.536
        80 -13.1545    163.8373     71.7277   2.8095363067e+01   3.4217936542e+01    0.6891109    0.4394698 -31.38  0.003049625    1.571    0.363
        81 -11.7751    158.4527     83.4999   3.2735211127e+01   3.3432653461e+01    0.3614349    0.2830657  65.17 0.0008675051    1.406    0.289
        82 -12.6018    161.2209     80.1031   3.1139643993e+01   3.3386578992e+01    0.5177187    0.3698637  22.47  0.001357167    1.816    0.449
        83 -13.0585     65.8758     49.2011   4.8750708492e+01   6.0389377129e+01    0.8021218    0.6211284 -34.25  0.004276864    1.216    0.178
        84 -13.8160     54.7940     66.0172   5.9526294889e+01   5.8489297905e+01     1.484127    0.9986811 -25.38  0.007143245    1.708    0.415
        85 -13.5386     72.3854     74.8258   5.5264503231e+01   5.3760290162e+01     1.250257    0.6656354  15.71  0.002357162    3.453    0.710
        86 -13.3876     87.4991     65.2062   4.6486028325e+01   5.3114137631e+01    0.8508163    0.5262585  18.98  0.002063639    2.354    0.575
        87 -12.5723     54.7076     80.8679   6.3913557760e+01   5.4981050892e+01    0.7052186    0.4208499 -45.99  0.003288733    1.564    0.360
        88 -13.6936     61.2120     75.5909   5.9837991449e+01   5.5336503801e+01    0.6849366    0.4329544 -45.32  0.001621019    1.473    0.321
        89 -12.3936    216.2740     81.2319   2.1857697402e+01   2.0517675390e+01    0.3561181    0.2271188 -48.40  0.001387479    1.549    0.354
        90 -11.8271    114.1970     79.8026   4.2817151312e+01   4.4465114092e+01    0.4425272    0.3464655 -52.78  0.001629976    1.331    0.249
        91 -11.2329     42.6872     79.3278   6.8379600354e+01   5.6829573301e+01    0.3134446    0.2044243 -83.58  0.001436741    1.906    0.475
        92 -10.7620     41.6295     75.7774   6.7926627425e+01   5.7818046598e+01    0.3871213     0.268092  71.38  0.001875985    1.985    0.496
        93 -12.2752    135.6365     79.4433   3.6851179011e+01   3.9630138674e+01    0.7107761    0.3438334  53.72  0.002365371    2.181    0.541
        94 -12.6006     28.3948    246.0160   9.0354419083e+01   2.0401920777e+01    0.3989903    0.2615681  61.40  0.002881368    1.169    0.145
        95 -14.2651      5.6012     63.3861   8.1261895860e+01   6.3684346821e+01    0.6755907      0.62239 -31.36  0.003923722    1.194    0.162
        96 -11.4567     27.1424     74.9777   7.3921602809e+01   5.9429459656e+01    0.5502197    0.2653559 -84.13  0.002137442    2.950    0.661
        97 -12.7380    199.1786     69.9598   2.1420480466e+01   2.6045732379e+01    0.5935419    0.4154861  36.66  0.002251808    1.705    0.414
        98 -10.4897    117.8086     71.3991   3.9021045756e+01   4.5355197942e+01     0.214523    0.1441847  37.37  0.000564843    1.584    0.369
        99 -12.3210     39.3297     67.8991   6.6819028026e+01   5.9975259451e+01    0.6738227    0.2610133  30.08  0.002721762    2.740    0.635
       100 -12.1905    134.9477     66.4064   3.2811747766e+01   4.2238309532e+01    0.5371636    0.3377354  44.92  0.001560487    1.619    0.383
       101 -13.8017    169.3750     77.0930   2.8595069950e+01   3.1952681753e+01     1.023207    0.5379094  44.55  0.002957098    2.053    0.513
       102 -10.9108     99.5573     64.9643   4.2327549020e+01   5.0682240615e+01    0.2487631    0.2211827  78.61  0.001277608    1.331    0.249
       103 -12.8557     78.7548     59.6833   4.7672617362e+01   5.5941396092e+01     0.718357    0.4490438 -52.64  0.003226271    1.723    0.420
       104 -10.8670     34.6117     60.5077   6.6859497573e+01   6.2225111483e+01    0.3971046    0.1732039 -50.50  0.001730364    1.921    0.479
       105 -11.9331     38.5449     59.6750   6.4768188269e+01   6.1998164541e+01    0.3558137    0.2538075  67.09   0.00177861    2.045    0.511
       106 -11.5555     24.7427     59.1052   7.1169233443e+01   6.3475161712e+01    0.4424757    0.2127592 -53.99  0.002097726    1.693    0.409
       107 -11.3065    110.9767     58.7867   3.6583098212e+01   4.9326473339e+01    0.2772241    0.2260071  18.79 0.0006385666    1.372    0.271
       108 -14.2340    119.7903     54.8765   3.2688307558e+01   4.7946261884e+01     1.016958    0.5893558  48.22  0.002281314    1.701    0.412
       109 -11.4588     17.6874     55.4165   7.3671224239e+01   6.4890130770e+01    0.3247684    0.1809882 -66.26  0.001651071    1.611    0.379
       110 -13.1940    177.7766     57.9230   2.1395133337e+01   3.3004218969e+01    0.6856708    0.5715881 -60.63   0.00206198    1.224    0.183
       111 -13.1524     91.7686     57.6006   4.2221976133e+01   5.3779694710e+01    0.5934294    0.4754179 -32.84  0.002115559    1.226    0.184
       112 -13.4502    103.3724     50.3318   3.5677680996e+01   5.2587190725e+01    0.9558745    0.6042579 -60.78  0.001272126    2.295    0.564
       113 -12.9597     97.5164     50.0036   3.7385519354e+01   5.3960041275e+01    0.6156921    0.3646947 -40.70  0.002247546    1.692    0.409
       114 -11.8374     36.4368     54.2772   6.4057718055e+01   6.3469090109e+01    0.5200764    0.2398653 -47.96  0.002325522    1.855    0.461
       115 -11.7979    136.1748     50.0039   2.6896015603e+01   4.4707379018e+01     0.350495    0.3028298  11.42  0.001082108    1.291    0.225
       116 -10.3734     23.5283     49.9444   6.9162133823e+01   6.5710890307e+01     0.191561    0.1120395 -56.80 0.0004312262    1.461    0.316
       117 -11.9913    152.6133     46.5989   2.2305049565e+01   4.1042157933e+01    0.5879111    0.2081455  49.65  0.001598584    2.823    0.646
       118 -11.9304    158.8877     42.9174   1.9937856430e+01   3.9960661861e+01    0.4573927    0.2998851  63.97  0.001618199    1.516    0.340
       119 -10.4308     38.7159     46.0016   6.0036513754e+01   6.5039957009e+01    0.1946259    0.1557129 -41.17  0.000665876    1.102    0.093
       120 -12.8008    205.2022     39.8894   1.2424362184e+01   2.8863061271e+01    0.9966028    0.4230832  89.14  0.003114148    4.669    0.786
       121 -12.5386    212.4046     43.2188   1.2495702995e+01   2.6761653839e+01    0.5369348     0.298104  61.53  0.002493744    1.892    0.471
       122 -12.9660    219.5538     41.5775   1.1295137332e+01   2.5350056508e+01    0.6292555    0.4027015 -84.51   0.00226503    1.820    0.451
       123 -13.3532      5.8285     42.9156   7.6711691608e+01   6.8508742880e+01    0.8468379     0.436651  13.52   0.00447279    2.226    0.551
       124 -12.3578      2.9177    249.5493   9.5003566181e+01   2.2213124068e+01    0.3532172    0.1866187  52.21  0.001959485    1.295    0.228
       125 -12.2696    170.5891    241.2097   6.2496803295e+01   3.1264346423e+00    0.1500907    0.1022731 -22.06 0.0009605078    1.709    0.415
       126 -12.9529    101.3545    238.5472   7.5727965015e+01   1.3064921638e+01    0.2869081    0.1789827  44.32  0.001787796    1.282    0.220
       127 -11.6673    134.9543     39.6526   2.3456638218e+01   4.6569053125e+01    0.4639378    0.3283201 -89.79  0.001756649    1.792    0.442
       128 -11.8089    109.8910     41.9492   3.0474749299e+01   5.2455350868e+01    0.4040637    0.2149648  58.57 0.0007546266    1.977    0.494
       129 -12.0509     16.2665    235.5359   9.2170512897e+01   2.3427551358e+01    0.2785258    0.1183367  63.03  0.001637614    1.920    0.479
       130 -12.6975    113.8580     37.7536   2.7732785474e+01   5.2134062447e+01    0.4197046    0.3791542  -0.75  0.001180875    1.142    0.124
       131 -12.4460    131.4812     33.4322   2.1899741979e+01   4.8315252219e+01    0.4704342    0.3842112  37.52  0.001281623    1.258    0.205
       132 -12.2435     40.5047     40.3385   5.6911301184e+01   6.6011266840e+01    0.5231652      0.30659  33.27  0.002609107    1.837    0.456
       133 -12.3513     32.8684     40.0989   6.0814183052e+01   6.6973664771e+01    0.3416343    0.2596106  -8.00 0.0007536047    1.362    0.266
       134 -12.3956     75.9857     37.0095   3.9483372648e+01   6.0763185683e+01    0.4409614    0.2907016  35.57  0.001345268    1.528    0.345
       135 -11.5699     70.6751     36.1134   4.1165686694e+01   6.1955359906e+01    0.2833531    0.2739452 -61.54 0.0008863989    1.254    0.203
       136 -12.4588    242.2645     36.2404   7.8599491816e+00   2.1124180581e+01     0.464419    0.2749812  80.41  0.001988664    1.920    0.479
       137 -11.1048    104.6796     36.5982   2.9770711136e+01   5.4517938894e+01    0.2941434    0.1829402 -34.16  0.001340627    1.624    0.384
       138 -12.6893     44.2062     33.3327   5.1976641732e+01   6.6901449742e+01    0.9587776    0.4477935  31.51  0.004291155    2.273    0.560
       139 -12.0893     42.7928     29.1995   5.0770923763e+01   6.7877998726e+01    0.2696725    0.1864363 -27.36 0.0006708053    1.351    0.260
       140 -10.9611     27.8356    235.2867   8.9983621480e+01   2.2343303944e+01    0.1862797   0.09570533  50.82  0.001182269    1.438    0.305
       141 -12.5055     23.4640    216.3525   8.9946086350e+01   2.6324167332e+01    0.6960627    0.3116963  42.19  0.004017863    1.730    0.422
       142 -12.3136    140.0560     21.5334   1.5834254339e+01   4.7557336559e+01    0.8085496    0.2888232  66.09  0.001160514    2.666    0.625
       143 -10.8752    113.1807     31.9461   2.5564539646e+01   5.3127699606e+01    0.2244799    0.1959459 -63.60 0.0005087497    1.302    0.232
       144 -13.2695     26.2744    226.1883   8.9860362501e+01   2.4169128511e+01    0.6646017    0.3624201 -55.13  0.003950341    2.512    0.602
       145 -13.2976     57.6557     26.8150   4.2304998286e+01   6.5917109464e+01     1.053659    0.3778399  40.75  0.004065836    2.816    0.645
       146 -11.4838     40.1915     24.6025   4.9888516224e+01   6.9081595411e+01    0.2506344    0.1770029 -34.54  0.001417588    1.283    0.221
       147 -11.9644     30.5342     25.4861   5.5784962439e+01   7.0178311152e+01    0.3677083    0.2452097  -4.98  0.001761577    1.654    0.395
       148 -12.5002     35.3490     23.3832   5.1960201708e+01   6.9964344019e+01    0.3176011     0.259883 -10.39 0.0007921679    1.089    0.082
       149 -13.7897     20.7358    223.9282   9.0842948768e+01   2.5136608906e+01    0.5946323    0.4796936  35.24  0.003294816    1.373    0.272
       150 -13.2948     91.6849    230.3706   7.6909977925e+01   1.5737176552e+01    0.4636419     0.398366  57.31  0.003319156    1.113    0.101
       151 -11.3004     51.2120     20.4016   4.2006623263e+01   6.8064956249e+01    0.3895838    0.2637637  64.61  0.001827401    2.673    0.626
       152 -11.4882     45.9427     20.5289   4.4711065140e+01   6.8911300308e+01    0.3244418    0.2176954  11.64  0.001026457    1.646    0.392
       153 -11.5035     71.1005     16.4473   3.1341964904e+01   6.4850311003e+01    0.2471618    0.1920412 -30.87 0.0006112652    1.336    0.251
       154 -13.7945     64.1378    213.9621   8.1246149328e+01   2.2309315519e+01    0.5790396     0.370371  54.36   0.00351363    1.330    0.248
       155 -12.6311     59.4026    212.7805   8.2170782455e+01   2.3115845611e+01    0.3375102    0.2116124 -52.03  0.001386972    2.026    0.506
       156 -11.1192      5.8344    218.9749   9.3555084577e+01   2.7444002021e+01    0.2276727    0.1191231  75.26  0.001444255    1.597    0.374
       157 -12.4778      4.5090    212.3015   9.3583346608e+01   2.8847966883e+01    0.4024755    0.2200359 -82.28  0.002585198    1.716    0.417
       158 -13.0701     65.4043    223.1568   8.1727265787e+01   2.0397537498e+01     1.032722    0.5735934  49.59  0.006052663    1.469    0.319
       159 -11.4312    248.9959    215.9794   4.4897445249e+01  -4.1302573415e+00    0.1482499    0.1378947   4.70  0.001146165    1.703    0.413
       160 -11.3597    156.5079    214.5204   6.1552713058e+01   9.0642680738e+00     0.127189    0.1057431  25.49 0.0001179918    1.006    0.005
       161 -12.7099     72.5177    207.2094   7.8806120253e+01   2.2587427997e+01    0.4188579    0.2798501 -83.52  0.002195111    1.638    0.389
       162 -12.1127     57.3030    202.8578   8.1811614142e+01   2.5363492462e+01    0.4975814    0.2322918 -88.95  0.002296243    2.700    0.630
       163 -12.9525     15.9631    198.1917   9.0620348598e+01   3.0689756326e+01    0.8199477    0.1837016 -62.60  0.003181632    4.479    0.777
       164 -10.9170    185.3244    203.6624   5.4089316673e+01   6.3312362135e+00    0.1161017    0.1003138  62.78 0.0007051211    1.720    0.419
       165 -13.4439     39.3048    195.6208   8.5298227248e+01   2.8923433923e+01    0.7341032    0.3793062  66.18  0.003873132    1.869    0.465
       166 -13.6768     29.8450    169.3065   8.5553721486e+01   3.5735321741e+01     1.130974    0.8060367  28.01  0.006789301    1.547    0.354
