#   1 NUMBER                 Running object number                                     
#   2 MAG_AUTO               Kron-like elliptical aperture magnitude                    [mag]
#   3 X_IMAGE                Object position along x                                    [pixel]
#   4 Y_IMAGE                Object position along y                                    [pixel]
#   5 X_WORLD                Barycenter position along world x axis                     [deg]
#   6 Y_WORLD                Barycenter position along world y axis                     [deg]
#   7 A_WORLD                Profile RMS along major axis (world units)                 [deg]
#   8 B_WORLD                Profile RMS along minor axis (world units)                 [deg]
#   9 THETA_WORLD            Position angle (CCW/world-x)                               [deg]
#  10 FWHM_WORLD             FWHM assuming a gaussian core                              [deg]
#  11 ELONGATION             A_IMAGE/B_IMAGE                                           
#  12 ELLIPTICITY            1 - B_IMAGE/A_IMAGE                                       
         1 -12.9061    197.3672     34.4202   6.2982158773e+01   3.2165201131e+01    0.9499632    0.6933948  51.49  0.005498879    1.544    0.352
         2 -13.8185    211.3885     18.0097   5.7814651649e+01   3.0966194966e+01     1.110138    0.8964722  35.76  0.007044724    1.856    0.461
         3 -11.1719      2.3210      4.7213   1.0611423480e+02   7.2163179401e+01    0.4352858    0.1170966 -40.73  0.002137892    3.380    0.704
         4 -10.8710    176.1351    248.8733   1.1350008804e+02  -3.7458225350e+00     0.275328    0.1693002  10.71  0.001287657    2.309    0.567
         5 -12.6330    139.2946    249.0728   1.2110015155e+02   2.3260448494e+00    0.8764726    0.2482194  39.19  0.003141131    3.056    0.673
         6 -12.1996     83.7112    244.6257   1.3198906227e+02   1.2153009168e+01    0.8398729     0.389443  82.34  0.002803256    4.809    0.792
         7 -12.9811    105.8574    244.1888   1.2739600411e+02   8.7797677170e+00    0.7013873    0.4504452  61.69  0.003717884    1.553    0.356
         8 -10.0058     62.9819    250.5105   1.3667092734e+02   1.3962039706e+01    0.1831444    0.1047219  44.51 0.0004294816    1.544    0.352
         9 -15.0572     97.9625    229.8592   1.2725778619e+02   1.3029090387e+01     5.025795    0.6653815  39.43   0.01027475    5.791    0.827
        10 -15.7303     24.1455    172.7681   1.3709942956e+02   3.6361910036e+01     8.285737      3.51696  84.59   0.03023473    3.636    0.725
        11 -14.8069     15.0684    242.6429   1.4493386498e+02   2.1529309680e+01      2.86246     1.585993  48.86    0.0179022    1.584    0.369
        12 -14.1245      9.6221    207.2018   1.4348081646e+02   2.9722778373e+01      1.78436    0.9129587 -84.68  0.008282379    1.629    0.386
        13 -14.0134     40.0572    215.0106   1.3793284729e+02   2.4636200676e+01    0.9508431    0.7681749  86.77  0.004705983    1.043    0.041
        14 -12.4396     95.0536    248.0752   1.3007437743e+02   9.7134824224e+00    0.5985342    0.4159477 -52.95  0.003423262    1.714    0.417
        15 -12.5883     32.8314    223.7382   1.4019429611e+02   2.3546555540e+01    0.3507493    0.2960554 -82.05 0.0007705399    1.222    0.182
        16 -10.6056    225.1897    199.7390   9.4969172260e+01  -3.2497815993e+00    0.3985866    0.2522683 -59.34  0.000706963    2.339    0.573
        17 -12.7438    126.4774    247.8242   1.2358496019e+02   4.6922254284e+00    0.6243359    0.4878024 -84.85  0.003649661    1.502    0.334
        18 -11.5058     60.2686    191.7129   1.3081092731e+02   2.7516069552e+01    0.4117792    0.2576918 -47.21  0.001132398    1.869    0.465
        19  -8.3052    181.5158    192.4857   1.0239911686e+02   5.9576462043e+00    0.1464584    0.1389658   0.64 -8.399934e-06    1.033    0.032
        20 -11.4979     66.2561    184.6501   1.2840781103e+02   2.8408789035e+01    0.3094903    0.2499164 -50.28 0.0004182215    1.361    0.265
        21 -10.8085     76.4138    173.0100   1.2408334775e+02   2.9806439565e+01    0.2608258    0.2321834 -71.32 0.0004400763    1.062    0.059
        22 -13.1348     63.2033    170.2528   1.2703868919e+02   3.2400486529e+01     0.558067    0.2884566 -45.39  0.001686646    2.216    0.549
        23 -11.8196     83.7307    164.4530   1.2071104183e+02   3.0809406248e+01    0.6624356    0.5695183  74.51  0.003576507    1.173    0.148
        24 -10.8824     56.2492    240.6224   1.3706853408e+02   1.6927356072e+01    0.2573434    0.1816138 -59.80 0.0004839104    1.627    0.385
        25  -9.7407     97.3049    149.3288   1.1412443179e+02   3.2313097552e+01    0.2847367     0.256706 -88.00 0.0007456577    1.123    0.109
        26 -11.7038     85.7014    148.0984   1.1706999384e+02   3.4577372043e+01    0.3117341     0.252781 -46.22 0.0005440375    1.234    0.190
        27  -8.9988    100.4110    145.4649   1.1245603745e+02   3.2716259857e+01     0.152485    0.1433942 -54.62 0.0003256185    1.049    0.047
        28 -13.0807     65.9356    142.0020   1.2143948832e+02   3.9075462695e+01     1.771446    0.9667327  86.21  0.005334208    3.906    0.744
        29  -9.2666    109.0848    135.1772   1.0776457302e+02   3.3615994957e+01    0.2537243    0.1840539  -3.00  0.001060226    2.108    0.526
        30 -10.3160     96.2747    132.1302   1.1065230373e+02   3.6700813327e+01    0.2628375    0.2334881 -14.13 0.0005212757    1.276    0.216
        31  -9.2638    106.5003    122.4985   1.0544862760e+02   3.7104063946e+01    0.1526213      0.14727 -39.81 1.492979e-05    1.028    0.027
        32 -10.1936    167.9619    112.9878   8.7507665561e+01   2.5949858122e+01    0.3952208    0.2917235 -81.33  0.001138643    1.737    0.424
        33  -9.0441    203.4837    111.5061   8.0099504119e+01   1.8173753021e+01    0.1479477    0.1382342 -61.31 3.678514e-05    1.035    0.034
        34 -10.4647      1.9018     89.3373   1.3142140393e+02   5.7492520980e+01    0.3182513    0.1243321 -61.32  0.001574809    1.942    0.485
        35 -10.9373      2.0737     80.7360   1.2969567211e+02   5.9295906844e+01    0.3184772    0.1341554 -63.08  0.001339465    1.979    0.495
        36  -9.6440      1.5090     62.0349   1.2575217255e+02   6.3064741027e+01    0.1714553   0.09065838 -55.27 0.0004428077    1.535    0.349
        37 -10.7547    248.6208    249.2236   9.9647241030e+01  -1.4474648561e+01     0.349829    0.1892626  16.17  0.001913509    1.949    0.487
        38 -10.4736    229.3476    248.8793   1.0309988748e+02  -1.1852030908e+01    0.2022354    0.1529886  32.47 0.0005130274    1.347    0.258
        39  -9.8936    189.9513     15.5068   5.9544922260e+01   3.6090900697e+01     0.192978    0.1049459  71.75 0.0007502161    1.557    0.358
