#   1 NUMBER                 Running object number                                     
#   2 MAG_AUTO               Kron-like elliptical aperture magnitude                    [mag]
#   3 X_IMAGE                Object position along x                                    [pixel]
#   4 Y_IMAGE                Object position along y                                    [pixel]
#   5 X_WORLD                Barycenter position along world x axis                     [deg]
#   6 Y_WORLD                Barycenter position along world y axis                     [deg]
#   7 A_WORLD                Profile RMS along major axis (world units)                 [deg]
#   8 B_WORLD                Profile RMS along minor axis (world units)                 [deg]
#   9 THETA_WORLD            Position angle (CCW/world-x)                               [deg]
#  10 FWHM_WORLD             FWHM assuming a gaussian core                              [deg]
#  11 ELONGATION             A_IMAGE/B_IMAGE                                           
#  12 ELLIPTICITY            1 - B_IMAGE/A_IMAGE                                       
         1 -13.2362    208.5842     41.3895   2.8840425237e+01   2.9702535234e+01    0.7929571    0.6842203  -0.43   0.00143601    1.732    0.423
         2 -12.1493    236.7696     19.4413   2.1732123870e+01   2.6829316120e+01    0.5520793     0.454992 -16.14  0.003870169    1.944    0.486
         3 -12.7518    231.1791     15.8304   2.1527507350e+01   2.8318135147e+01    0.6199271     0.553897  -9.66  0.004626805    1.767    0.434
         4 -11.3045     51.1245      6.3378   4.7178485148e+01   6.3463929206e+01    0.2331787    0.1190813  51.63  0.001412795    2.163    0.538
         5  -9.7371     71.7241    241.2689   9.7678430597e+01   1.3788263035e+01    0.2307307    0.1634443  85.33   0.00119155    1.334    0.250
         6 -10.8893    140.5237    250.4869   8.5826738969e+01   1.4259685306e+00    0.3070669    0.1573225  36.41  0.001462714    2.002    0.501
         7 -11.5500    125.5232    246.8139   8.8165336094e+01   4.5209794059e+00    0.6495624    0.2859037 -62.67  0.002724065    2.703    0.630
         8 -10.5814     75.4281    246.9805   9.7657011747e+01   1.2050417036e+01    0.5303378     0.180834 -56.38  0.002237574    2.809    0.644
         9 -16.2684     35.3432    185.6203   9.7985880163e+01   3.1402044095e+01     11.11448     5.083073  63.14   0.03137934    3.296    0.697
        10 -10.2631    142.2156    216.7315   8.0040690679e+01   8.0719118932e+00    0.2448507    0.1816775 -64.43 0.0006757471    1.386    0.278
        11 -10.2349     84.9960    201.4648   8.9583024555e+01   2.0969884397e+01     0.337694    0.2199402 -81.18 0.0008968559    1.646    0.393
        12 -10.6102     89.7534    201.1278   8.8504382017e+01   2.0325341799e+01    0.3544391    0.2653304  20.45 0.0009316132    1.871    0.466
        13 -11.1784    141.7654    200.7401   7.7236285173e+01   1.1715421309e+01    0.2566359    0.1901443  37.11  0.001285998    1.481    0.325
        14 -11.7576     47.9325    231.8686   1.0104772965e+02   1.9034506231e+01    0.3459955     0.164167 -69.02 0.0009861324    1.814    0.449
        15 -11.1851    111.5192    237.8795   8.9601094259e+01   8.5695649804e+00    0.2393464    0.2113477  49.77 0.0005337978    1.166    0.142
        16 -10.9358    151.0048    198.9927   7.4952156271e+01   1.0468446910e+01    0.3305624    0.1977217  24.69  0.001367322    2.379    0.580
        17 -12.0273    117.3179    192.6579   8.1016830096e+01   1.7868775599e+01    0.4260332    0.3300895 -10.53  0.002050309    1.910    0.476
        18 -11.3788    107.8251    196.1704   8.3735127452e+01   1.8626078402e+01    0.3094157    0.2560445 -51.02  0.001619712    1.185    0.156
        19 -10.3702     82.9920    195.4694   8.9062790326e+01   2.2720741872e+01    0.3644367    0.3366528  37.55  0.001780786    1.309    0.236
        20 -10.5734    192.9752    194.6836   6.5568650700e+01   3.9048403785e+00    0.4583356    0.2516523 -66.86   0.00159993    3.466    0.711
        21 -10.4117    163.8578    195.8182   7.1649503456e+01   8.8671732366e+00    0.2020634    0.1743175 -80.74 0.0007992525    1.307    0.235
        22 -18.0087      8.9844    236.6702   1.0838877113e+02   2.2474300886e+01     9.220819     2.763473 -71.50   0.01905474    2.601    0.616
        23  -9.9371     70.8341    227.2569   9.6141351100e+01   1.7005915710e+01    0.4491769    0.2754297 -38.59  0.002138515    2.518    0.603
        24  -9.3354    227.2240    189.1858   5.8092832960e+01  -8.1642400137e-01    0.2327348   0.09680826 -51.01 0.0008828487    2.540    0.606
        25 -11.4113    115.2377    183.2160   7.9702877118e+01   2.0496734952e+01    0.3128552    0.2611775 -28.34  0.001392576    1.422    0.297
        26 -10.5512     75.7910    182.2511   8.8484286053e+01   2.7027184622e+01    0.5696611    0.3196132  75.41  0.002183289    2.982    0.665
        27 -11.8333     73.7145    176.1730   8.7917457497e+01   2.8831828881e+01     0.446699    0.3871574  72.95  0.001423858    1.228    0.186
        28 -11.0454     99.0177    181.0083   8.2963676697e+01   2.3754236143e+01    0.3300465    0.2873029 -75.12 0.0007372219    1.069    0.064
        29 -12.5048     56.7129    177.7101   9.2082807561e+01   3.0768276674e+01    0.7775764    0.6054442 -46.27  0.002890147    1.368    0.269
        30  -9.9887     63.5018    171.4758   8.9483651945e+01   3.1417369258e+01    0.4191764    0.2351592  83.03  0.001600013    3.047    0.672
        31 -10.5149    181.0085    177.9863   6.4476549621e+01   9.6565529876e+00    0.4462137    0.2391928 -48.04  0.001717322    1.687    0.407
        32  -9.4098     86.5098    174.5159   8.4646636589e+01   2.7338435458e+01    0.2605209    0.1867332  84.13 0.0007541684    1.685    0.407
        33 -10.7717     86.1436    169.5149   8.3796687193e+01   2.8633615687e+01    0.5246807    0.2682306 -37.91  0.002018849    2.572    0.611
        34 -10.9394    111.0580    168.3642   7.7713850727e+01   2.4835365100e+01    0.7415477     0.346195 -68.00  0.002005744    3.272    0.694
        35 -12.3890    103.1824    171.6294   8.0205952619e+01   2.5373246723e+01    0.7930167    0.4765251  60.24  0.003265285    2.165    0.538
        36 -11.5151     94.0603    165.5426   8.1147336156e+01   2.8368992052e+01    0.5659524    0.5003902  56.80  0.001867432    1.258    0.205
        37  -9.8223     91.0641    160.8032   8.0914500227e+01   3.0016920561e+01    0.3128073    0.1989451 -67.19 0.0006600814    1.580    0.367
        38  -9.6445    247.3172    170.3192   5.0872045358e+01  -4.2873348592e-01    0.1364859   0.09738629 -18.06 0.0007040771    1.658    0.397
        39  -9.2834    187.4992    170.4938   6.1579394139e+01   1.0080589766e+01    0.1522831    0.1350261 -43.86 0.0008106251    1.014    0.014
        40 -12.2532     55.9766    115.2517   8.0043619785e+01   4.5857374023e+01    0.9234412    0.2440561 -46.79  0.003156541    3.102    0.678
        41 -10.8209     82.2929    153.8640   8.1641924746e+01   3.3086708442e+01    0.3209271    0.2214747 -49.08 0.0003607871    1.289    0.224
        42 -14.4434     68.4355    145.0590   8.3306422758e+01   3.7248831283e+01     2.561069     1.294164 -71.80  0.009722381    2.690    0.628
        43 -10.6662    230.1357    166.6859   5.2948198816e+01   3.1375247095e+00    0.2097881     0.181536 -83.57  0.001194892    1.432    0.302
        44 -10.1147    167.0453    224.2864   7.6352633605e+01   2.2631113469e+00    0.1857939    0.1821081   3.39 0.0005838292    1.041    0.039
        45  -8.7610     99.5392    160.4543   7.8805376520e+01   2.8725997816e+01    0.1523877    0.1331005 -64.19 0.0001839267    1.038    0.037
        46 -11.6343     69.9521    165.4127   8.6883212164e+01   3.2035309950e+01    0.5179566    0.3560881 -24.71   0.00140603    2.134    0.531
        47 -11.0653    133.6350    145.0689   6.7332680441e+01   2.6302738247e+01     1.277636    0.2699151 -52.62  0.002782736    6.094    0.836
        48 -11.8224     89.0423    148.2856   7.8797469804e+01   3.3402082679e+01    0.6181353    0.4329788 -19.81  0.001444679    2.052    0.513
        49  -8.7470    105.0186    147.9295   7.4782284400e+01   3.0846149296e+01    0.1824442    0.1587053 -55.22 0.0004321664    1.013    0.013
        50 -11.2598     54.9970    146.9206   8.7090177134e+01   3.8568649215e+01    0.5163993    0.4304888 -33.77  0.003007775    1.325    0.246
        51 -11.6671     25.7121    137.7792   9.2870680743e+01   4.3977078428e+01    0.7823707    0.4173301 -88.46  0.002594037    3.129    0.680
        52 -11.1072     40.2174    145.7135   9.0601140627e+01   4.0598488484e+01    0.5416765    0.2931091  51.78  0.002543213    2.455    0.593
        53 -10.6760     33.3706    142.9010   9.1827140766e+01   4.2003310933e+01    0.3504988    0.2686207 -67.62  0.001401901    1.110    0.099
        54 -11.0918    104.3892    132.6410   7.1399121023e+01   3.4571039172e+01    0.7851687    0.3828443 -36.39  0.002590262    2.395    0.582
        55 -11.5264     90.3290    134.4142   7.5369878181e+01   3.6514087102e+01    0.2878371    0.2546243 -37.02 0.0009075925    1.126    0.112
        56  -9.4461     80.7504    136.4088   7.8285041780e+01   3.7539629806e+01    0.1798852     0.144405  16.81 0.0006235617    1.561    0.359
        57 -10.2738    141.8906    133.9131   6.2796212736e+01   2.7250364916e+01    0.3744369    0.2531725 -68.11  0.001002745    1.802    0.445
        58  -9.7054     39.3661    134.2618   8.8666366383e+01   4.3424849329e+01    0.2994673     0.176465 -39.14  0.001507338    1.732    0.423
        59  -9.0879    151.0794    133.0119   6.0545062604e+01   2.5614647694e+01    0.2331766    0.1776397 -77.25 0.0004124074    1.601    0.376
        60 -10.3056    135.9110    130.8493   6.3405425702e+01   2.9116930603e+01    0.3989078    0.1850838 -48.50  0.001520696    1.965    0.491
        61 -11.0885     73.9618    161.2481   8.5140010996e+01   3.2497549436e+01    0.2785076    0.2165296   8.08  0.001434028    1.823    0.451
        62 -11.1300     44.5798    129.6463   8.6355350673e+01   4.3931439231e+01     0.228934    0.1766733  34.42 0.0009991718    1.584    0.369
        63  -9.6325    111.8094    127.3800   6.8279689574e+01   3.4459008708e+01    0.2758975    0.2187116  -8.03  0.001040937    1.630    0.387
        64 -11.2974    115.9154    123.0212   6.6187404830e+01   3.4684848231e+01      0.53519    0.4729636  77.45  0.002112407    1.316    0.240
        65  -9.9351     37.8347    126.2086   8.7463976904e+01   4.5469474808e+01    0.1811823    0.1311792 -41.31 0.0006176743    1.273    0.214
        66 -10.4315     28.6107    129.2209   9.0537833246e+01   4.5704694678e+01    0.2479581    0.1863357 -69.64    0.0010541    1.233    0.189
        67 -10.3970     98.9211    122.9299   7.0409207920e+01   3.7731954842e+01    0.2931468    0.2361296  -0.08 0.0009725722    1.569    0.363
        68 -10.3719     75.6443    122.0583   7.6292361750e+01   4.1636474774e+01    0.3257239    0.2753175  70.01  0.001557366    1.486    0.327
        69  -9.6256    162.3229    119.4791   5.4849972781e+01   2.6231300297e+01    0.3034967    0.2203661 -60.10 0.0008790597    1.410    0.291
        70  -9.5991    159.1334    115.3046   5.4469764350e+01   2.7760986300e+01    0.3018328    0.1955146 -58.16    0.0010814    1.626    0.385
        71  -8.8936    156.3408    111.6934   5.4141301734e+01   2.9081962348e+01    0.2967874    0.1775553 -76.04   0.00101093    3.238    0.691
        72 -11.1148     32.5552    118.3894   8.7285542706e+01   4.7797566078e+01    0.3171832    0.2144456 -50.76 0.0004861483    1.164    0.141
        73  -8.7904     66.2735    119.6179   7.8241076711e+01   4.3522685695e+01    0.1392892    0.1043311 -79.15 0.0006998167    1.706    0.414
        74  -9.2379    107.9932    117.0083   6.6617309062e+01   3.7453081861e+01    0.2172161    0.1934534 -37.28            0    1.056    0.053
        75  -8.6347    183.3498    116.3018   4.9969624525e+01   2.2501705480e+01    0.1446934    0.1184675  -0.80 0.0007039073    1.694    0.410
        76  -9.8802    205.3575    110.4221   4.4745022923e+01   1.9108791237e+01    0.2567039    0.2382282  66.40 0.0008182024    1.217    0.178
        77 -11.2614     53.1172    108.8192   7.9301409661e+01   4.7626574118e+01    0.4475691    0.1868981 -51.47  0.001933243    1.982    0.495
        78 -10.2175    134.3259    106.6370   5.7616204616e+01   3.4614212185e+01    0.6543677    0.1094305 -47.60  0.001368202    7.203    0.861
        79 -10.7889    115.4355    108.4356   6.2539921436e+01   3.7911694109e+01    0.2364688    0.2064279  58.13  0.001289313    1.297    0.229
        80  -8.5288    151.2807    105.6599   5.3661436670e+01   3.1347673340e+01    0.1507123    0.1112014 -70.59  0.000700905    1.626    0.385
        81 -11.0202     41.6214    103.8228   8.1394900861e+01   5.0042594709e+01    0.3477003    0.2465086  60.84  0.001753455    2.181    0.542
        82 -10.5933    120.3321    103.1630   5.9951368262e+01   3.8060832953e+01    0.2020701    0.1879635  10.71 0.0009686513    1.168    0.144
        83 -10.2717     34.0132    100.2904   8.2775041009e+01   5.1596443577e+01    0.1738711    0.1475379 -34.95 0.0005255389    1.096    0.087
        84 -10.9361     17.4362     93.9761   8.6245743293e+01   5.4441391169e+01    0.2147226    0.1771768  15.13  0.001475591    1.477    0.323
        85  -9.7214     33.0415     87.0117   7.9716074097e+01   5.4393005551e+01    0.1780488    0.1496724 -79.20 0.0009561356    1.656    0.396
        86  -9.3326     87.7962     73.9349   5.9882967406e+01   4.9347591813e+01    0.2209451    0.1748462  78.55 0.0008836926    1.992    0.498
        87 -11.9599    187.0214     57.8886   3.5327913375e+01   3.1938232316e+01    0.4086905    0.3717313  34.72 0.0007794207    1.357    0.263
        88 -13.3333    201.6259     47.3605   3.0966171234e+01   3.0343621319e+01    0.9463228    0.7985638  49.81  0.004417575    1.421    0.296
        89 -11.6909    102.3069    242.8896   9.2083591414e+01   8.9457295714e+00    0.7699113    0.2698927 -52.42  0.003102977    2.846    0.649
        90  -9.3566     66.7658     53.7590   5.9411161834e+01   5.5839849934e+01    0.1465947    0.1443795 -36.39 0.0005043548    1.362    0.266
        91  -9.4488     81.9732     45.7364   5.2596464951e+01   5.4517727387e+01     0.164087    0.1425418  24.35 0.0003113247    1.109    0.098
        92 -10.1455     72.0499     40.4861   5.3518476396e+01   5.6798176464e+01    0.1998704     0.163369  54.31  0.001277863    1.563    0.360
        93 -11.1843     20.6998     40.6552   6.9744015118e+01   6.3479429357e+01    0.2532079    0.1694165  41.12  0.001146745    2.174    0.540
        94 -15.5218      9.2790    207.0555   1.0570814871e+02   2.9044322993e+01     1.056154    0.7934585  -8.36   0.00578336    2.519    0.603
        95 -11.7868     10.5429     33.3331   7.0831111015e+01   6.5462880410e+01    0.2978457    0.1696006  13.68  0.001977238    1.791    0.441
        96 -11.4955    111.5019    244.8531   9.0584762218e+01   7.1188129619e+00    0.3145508    0.2837124  87.82 0.0008864174    1.024    0.023
        97 -10.9306    132.0470    245.8110   8.6761689245e+01   3.6850257522e+00    0.2507166    0.1690553 -27.86  0.001251954    2.149    0.535
        98 -10.2258     60.3626     21.1195   5.0025988607e+01   6.0760123263e+01    0.1830709    0.1269161  25.98  0.000400455    1.264    0.209
        99 -11.0100     47.8349     18.7462   5.2779325679e+01   6.2825653222e+01    0.2209926    0.1750854  22.13 0.0009847448    1.157    0.136
