#   1 NUMBER                 Running object number                                     
#   2 MAG_AUTO               Kron-like elliptical aperture magnitude                    [mag]
#   3 X_IMAGE                Object position along x                                    [pixel]
#   4 Y_IMAGE                Object position along y                                    [pixel]
#   5 X_WORLD                Barycenter position along world x axis                     [deg]
#   6 Y_WORLD                Barycenter position along world y axis                     [deg]
#   7 A_WORLD                Profile RMS along major axis (world units)                 [deg]
#   8 B_WORLD                Profile RMS along minor axis (world units)                 [deg]
#   9 THETA_WORLD            Position angle (CCW/world-x)                               [deg]
#  10 FWHM_WORLD             FWHM assuming a gaussian core                              [deg]
#  11 ELONGATION             A_IMAGE/B_IMAGE                                           
#  12 ELLIPTICITY            1 - B_IMAGE/A_IMAGE                                       
         1 -10.9800     85.0607      9.6830   3.9953874813e+01   5.7719199493e+01    0.2665352    0.1167807 -40.72  0.001356989    3.065    0.674
         2 -10.7398     54.2377     11.0886   4.8080100042e+01   6.2607151455e+01    0.2443107    0.1159223  32.37  0.001428164    1.933    0.483
         3 -11.3407    144.3067      9.6328   2.9537200328e+01   4.6438568795e+01    0.2297933    0.1882342 -39.98 0.0003446513    1.349    0.258
         4 -11.0899     78.6671      7.9388   4.0796762717e+01   5.8957169293e+01    0.1824689    0.1385485  48.70 0.0003804466    1.260    0.206
         5 -10.4466    239.9711      5.0425   1.8902619013e+01   2.7840854355e+01    0.1607219    0.1239524 -76.85 0.0003183168    1.040    0.039
         6 -10.9952     88.7982      4.9550   3.7619289747e+01   5.7422452825e+01    0.1647259    0.1158978 -49.75  0.001085838    1.989    0.497
         7 -11.4165     21.3183      4.1671   5.5614198345e+01   6.7611635239e+01    0.1495994    0.1015348  12.33  0.001163288    1.153    0.132
         8  -9.7322    150.6575    242.4846   8.2643850808e+01   1.3489188973e+00    0.1252565    0.1197896 -57.94 0.0007883905    1.053    0.051
         9 -11.0988    116.8119    250.4845   9.0344985121e+01   5.1539294574e+00    0.2932937     0.133997  52.05  0.000431995    2.321    0.569
        10 -10.9392     93.1553    249.0863   9.4620258098e+01   9.0387855705e+00    0.2289391    0.1586153 -69.02 0.0003622032    1.388    0.279
        11  -9.9021     84.8908    250.7593   9.6357487908e+01   9.9073199206e+00    0.2524308    0.1063993  35.51  0.001098639    2.782    0.640
        12 -14.6177     36.7702    194.8813   9.8895988967e+01   2.9000654563e+01     2.288389     1.705387 -16.04   0.01133257    2.311    0.567
        13 -13.2245      5.8713    248.4963   1.0980832080e+02   2.0305673296e+01    0.7688275     0.288112  31.26  0.003595207    4.126    0.758
        14 -14.9398     65.1558    244.8569   9.9300449553e+01   1.3928377351e+01     1.680092     1.002546 -76.87  0.009321891    1.561    0.359
        15 -14.7955     53.0724    225.0748   9.9315300332e+01   1.9903533420e+01     1.334548     1.094196 -85.75  0.005999019    1.035    0.034
        16 -15.5526     94.7405    194.2918   8.6286036052e+01   2.1196492900e+01     2.120855     1.339745 -72.54   0.00993727    1.630    0.386
        17 -15.8783     72.5634    209.0430   9.3348543715e+01   2.0982383536e+01     2.481927      1.32922  40.66   0.01192777    2.036    0.509
        18 -15.0857     58.6741    202.4235   9.5320166912e+01   2.4473133294e+01     1.531642     0.904368  52.89  0.007808052    1.819    0.450
        19 -17.0154     68.4633    187.9832   9.1070564952e+01   2.6656241483e+01      3.98654      3.51916 -11.82   0.02323728    1.562    0.360
        20 -10.6467    132.8860    240.1768   8.5752384930e+01   4.6814074858e+00    0.3106316     0.203605  58.13  0.001602274    1.679    0.405
        21 -12.0414    116.2004    240.1710   8.9014807394e+01   7.3505924085e+00     0.262857    0.2140952 -70.25 0.0003571571    1.196    0.164
        22 -12.0884    113.6599    231.0724   8.8181274820e+01   9.6854972605e+00    0.7046533    0.2732039 -62.15  0.001614665    2.882    0.653
        23 -11.0354     82.4091    225.9226   9.3685391972e+01   1.5641928822e+01    0.4702427    0.2476259  75.57  0.001868551    3.018    0.669
        24 -10.9455     95.1842    238.0110   9.2803321641e+01   1.1065804511e+01     0.334283    0.2523468  23.54  0.001862885    1.806    0.446
        25 -10.8053     90.5122    236.5141   9.3509544558e+01   1.2092440221e+01    0.2570313    0.2158418  67.04 0.0009834305    1.124    0.110
        26 -11.7411     88.1888    231.0711   9.3237080482e+01   1.3632881062e+01     0.493715    0.3620589  82.26  0.001699712    1.379    0.275
        27 -10.4531    109.1756    237.1614   8.9957945350e+01   9.0898365363e+00    0.3282356    0.1462498 -43.46  0.001316704    2.915    0.657
        28 -11.1831    102.3698    234.8733   9.0970902275e+01   1.0640973678e+01    0.3036095    0.2410028 -22.74  0.000378532    1.863    0.463
        29  -9.9466    128.0156    235.4522   8.5988503373e+01   6.4415515500e+00    0.1985501    0.1711296  17.26 0.0004211119    1.407    0.289
        30 -10.6127    130.7637    232.3970   8.4966960803e+01   6.6333104971e+00    0.2937589    0.1357188  34.42  0.001219462    2.489    0.598
        31 -11.1781     81.2313    234.5874   9.5054592548e+01   1.3883673857e+01     0.388649    0.2087591  49.93    0.0019438    1.845    0.458
        32 -10.9069    214.1779    233.1696   6.8947689194e+01  -6.9556826130e+00     0.189188     0.156439 -13.37  0.000333195    1.133    0.117
        33 -11.4713    181.8575    232.3118   7.4876528079e+01  -1.7531977172e+00    0.3491354    0.2060634  19.97  0.001580707    2.337    0.572
        34 -10.3752     77.8381    229.3351   9.5038262637e+01   1.5540570214e+01    0.1633039    0.1234438  33.40 0.0005425737    1.629    0.386
        35 -15.8459     22.5822    220.3402   1.0453995780e+02   2.4630134446e+01     2.561701     1.181148  63.65   0.01238136    2.438    0.590
        36 -10.5437    215.0715    226.5617   6.7570435261e+01  -5.9211226241e+00     0.209132    0.1684625 -43.79  0.000438963    1.243    0.196
        37 -11.1243    220.3272    231.2363   6.7475331742e+01  -7.5328982160e+00    0.2231011     0.206704 -25.75  0.000431444    1.151    0.131
        38 -10.8701    207.5550    238.4729   7.1118907105e+01  -6.8869085887e+00    0.1973855    0.1455211  -7.36 0.0007452402    1.488    0.328
        39 -10.0109    138.5125    226.0486   8.2383647231e+01   6.6930690499e+00    0.2145775    0.1305194 -53.61  0.001036051    1.600    0.375
        40  -9.5544    222.2944    225.6337   6.6083699861e+01  -6.8440508943e+00    0.1234385    0.1020945 -69.36 0.0005096219    1.717    0.418
        41 -11.7922    125.8281    222.2747   8.4343846442e+01   9.6212979458e+00    0.4833382    0.2834531 -64.94  0.001508341    1.829    0.453
        42 -10.8877    159.4128    221.9707   7.7465768384e+01   4.0255795359e+00    0.2457309    0.2027157  26.60 0.0008136925    1.320    0.242
        43 -10.6456    223.0863    220.3183   6.4942675195e+01  -6.0157342676e+00    0.2161198     0.176053 -59.66 0.0006076494    1.533    0.347
        44 -11.3428    173.4675    220.1308   7.4329138224e+01   2.0231778391e+00    0.2980183    0.2253364 -61.12   0.00100058    1.453    0.312
        45  -9.9111    139.8810    218.7859   8.0877046108e+01   8.0228580589e+00    0.2803404    0.1847015 -82.60  0.001242574    2.211    0.548
        46 -10.7480    116.2109    219.1802   8.5820058951e+01   1.1893972910e+01    0.1996086    0.1563046  89.06  0.001067627    1.376    0.273
        47 -14.5816     11.1527    227.6471   1.0726313186e+02   2.4212671638e+01     0.803584    0.7063501 -30.14   0.00521636    1.877    0.467
        48 -11.2433    184.1464    213.8713   7.1057728649e+01   1.4834867167e+00    0.2018975     0.187673 -72.30 0.0004311301    1.210    0.173
        49 -11.2556    138.5607    210.5404   7.9705101707e+01   1.0065106219e+01    0.2770526     0.211291  53.12 0.0005398216    1.393    0.282
        50 -11.6289    124.9752    212.7562   8.2934482645e+01   1.1885614877e+01    0.4105854    0.2338964 -45.78  0.001219199    1.781    0.439
        51 -11.1021    121.6654    209.7025   8.3108699156e+01   1.3138263668e+01    0.2729723    0.2009276   2.11  0.001266946    2.215    0.548
        52 -10.9310    103.0412    213.9741   8.7726716047e+01   1.5210505780e+01     0.204762    0.1862977 -80.94 0.0003537146    1.030    0.029
        53 -12.1111    153.9717    210.4958   7.6499411424e+01   7.3988440389e+00     0.407673    0.3242057   1.60  0.002096482    1.649    0.394
        54 -10.2702    227.5198    211.5130   6.2463547237e+01  -5.0903899412e+00    0.1347791    0.1144408 -26.90 0.0002440688    1.006    0.006
        55 -10.2710    209.6713    211.3103   6.5678881016e+01  -2.2449662565e+00    0.1298825    0.1086619 -80.39  0.000351216    1.664    0.399
        56 -11.5170    142.5950    212.3456   7.9187334467e+01   8.9681698811e+00    0.3842728    0.2476805 -34.84  0.001783066    1.824    0.452
        57 -11.7457    227.4954    207.5273   6.1694030219e+01  -4.3513984424e+00    0.3829488    0.2057585  27.70  0.001763066    2.367    0.578
        58 -11.2885    160.0550    206.4575   7.4493962740e+01   7.2108254329e+00    0.2492667    0.1881515 -73.47  0.001006113    1.589    0.371
        59 -10.1200    248.0407    206.1682   5.7878910840e+01  -7.1712576093e+00    0.1918789    0.1569888  86.79  0.001091614    2.074    0.518
        60 -11.1588    124.4340    205.6002   8.1808783246e+01   1.3612543528e+01    0.2785231    0.2526516 -22.04 0.0007794459    1.304    0.233
        61 -10.5243    169.6951    205.6823   7.2377977178e+01   5.6816047204e+00    0.1443732     0.110245 -15.47 0.0003598334    1.628    0.386
        62 -13.6941    146.8773    202.9567   7.6573214120e+01   1.0310817765e+01    0.7061729    0.5334689  63.38  0.003558165    1.546    0.353
        63 -10.3455    212.4882    200.4595   6.3024845820e+01  -5.9846240986e-01    0.2501549    0.1214316 -52.56  0.001026499    2.244    0.554
        64 -11.1286    121.4872    200.5061   8.1534936963e+01   1.5299638902e+01    0.2351445    0.2172537 -72.85 4.716489e-05    1.017    0.017
        65 -12.9679    124.2059    195.7360   8.0077589487e+01   1.5952834034e+01    0.5213091    0.4734305 -26.73  0.002896244    1.267    0.211
        66 -11.0986    225.0262    199.1775   6.0489561697e+01  -2.3896393390e+00    0.2863762    0.1792639 -50.73  0.001366496    1.596    0.374
        67 -12.3623    134.1068    198.8203   7.8510862457e+01   1.3505290335e+01    0.4076105    0.3243873   8.93 0.0008384967    1.708    0.414
        68 -14.0404      4.3241    220.9769   1.0788238847e+02   2.6377351062e+01    0.9087139    0.3418491 -69.67  0.004569961    1.998    0.500
        69 -10.1382    245.3065    197.6916   5.6684092609e+01  -5.2464641216e+00    0.1243357   0.09942118 -63.62 0.0002045732    1.612    0.379
        70 -11.3777    189.4893    194.9961   6.6312937651e+01   4.4537833515e+00    0.2806275    0.2390245 -41.88 0.0008378255    1.061    0.058
        71 -12.3408    192.6188    194.1873   6.5537570800e+01   4.0711451184e+00    0.5190394    0.2903607 -43.15  0.002338925    1.613    0.380
        72 -10.5252    212.1412    193.2288   6.1636212179e+01   8.9363630755e-01    0.2758004    0.1775785 -63.86  0.001243616    2.126    0.530
        73 -10.6338    163.3120    193.0185   7.1205440025e+01   9.5874994755e+00    0.2147271    0.1853107 -49.09  0.000494157    1.067    0.063
        74 -11.9969    148.8185    192.0771   7.4068315857e+01   1.2431901708e+01    0.3003211    0.2020961 -34.31  0.001372704    1.660    0.398
        75 -11.9515    115.3898    185.2406   8.0055848199e+01   1.9981014873e+01    0.3446888    0.2556298 -62.47  0.001716352    1.247    0.198
        76 -11.4117    111.6316    192.3568   8.2215480075e+01   1.8905596913e+01    0.3028883    0.2368521 -85.93 0.0008233994    1.382    0.276
        77 -11.5527    110.5054    188.4518   8.1749992178e+01   2.0036099769e+01    0.3371449    0.3077958  40.09 0.0008486303    1.247    0.198
        78 -10.6298    233.8146    191.9964   5.7509369191e+01  -2.4177334750e+00    0.1948275     0.147085   0.08  0.001053939    1.615    0.381
        79 -10.2269     22.0491    191.5896   1.0153550480e+02   3.1392843360e+01    0.2526757    0.1371209 -69.23  0.001121388    1.421    0.296
        80 -10.3706      8.1764    188.8438   1.0404237686e+02   3.3394076987e+01    0.3714255    0.3363976 -53.82  0.002659544    1.415    0.293
        81 -11.5325     10.3641    183.7332   1.0302358751e+02   3.4401975211e+01    0.2404284    0.1743124 -87.15 0.0003943397    1.165    0.142
        82 -11.0993    173.3854    188.9068   6.8298312562e+01   8.6615304176e+00     0.255114    0.2098812  60.64  0.001325686    1.412    0.292
        83 -11.0504    124.0123    187.7539   7.8616670404e+01   1.7880193216e+01    0.3026124    0.2343657  71.71  0.001432569    1.503    0.335
        84 -12.6314    128.4190    184.4646   7.7001655122e+01   1.7886025495e+01    0.4827486     0.309568 -42.54  0.000906357    1.565    0.361
        85 -11.2405     36.2951    181.9176   9.7274208771e+01   3.2196207306e+01    0.2991136    0.1984007  81.81 0.0009881473    1.611    0.379
        86 -10.2817     32.9621    177.6427   9.7412573295e+01   3.3606369909e+01    0.2587773    0.1768525 -37.37  0.001405471    1.880    0.468
        87 -11.1033     24.2770    185.3801   1.0031505927e+02   3.2651277358e+01    0.3362608    0.2051715 -72.70  0.001251975    1.282    0.220
        88 -12.1243     29.3210    184.0114   9.9066403869e+01   3.2451713230e+01    0.4585628    0.3835397 -69.71  0.002958427    1.137    0.121
        89 -10.4961    248.4327    185.8494   5.3820363683e+01  -3.5339295891e+00    0.2099139    0.1686912 -14.46  0.000604082    1.309    0.236
        90 -11.1690    186.1699    185.3105   6.4983667439e+01   7.1108736609e+00     0.222533    0.1860639   6.87 0.0007167993    1.434    0.303
        91 -15.5851     17.2878    238.9884   1.0717983256e+02   2.1091169699e+01     1.371774    0.7706504  54.24  0.008362171    1.704    0.413
        92 -15.9302     34.3824    237.4284   1.0407370727e+02   1.9476625954e+01     1.330848    0.9510407 -72.35   0.00707032    1.239    0.193
        93 -11.5675     23.7118    178.6169   9.9570043064e+01   3.4340024901e+01    0.4977471    0.2259819 -81.52  0.001658531    2.422    0.587
        94 -10.6802     17.4898    179.9987   1.0108289078e+02   3.4622091974e+01    0.2012832   0.09866735 -67.81 0.0006672469    1.545    0.353
        95 -11.4399    136.5121    187.0293   7.5726823109e+01   1.5828631593e+01    0.2410182     0.137816 -50.86 0.0007879655    1.599    0.375
        96 -12.1173    164.6258    177.6067   6.7759685376e+01   1.2813841735e+01     0.471199    0.2766221  61.45  0.001164985    2.441    0.590
        97 -12.1579    136.9011    177.0804   7.3632622820e+01   1.8108779853e+01    0.2944745     0.196645 -47.41 0.0009260266    1.378    0.274
        98 -13.1933    121.3137    177.0328   7.7116111216e+01   2.0932277551e+01    0.7631022    0.3500338  30.32  0.002659162    3.233    0.691
        99 -13.3784    124.6899    169.2620   7.4754371021e+01   2.2206085456e+01    0.6476206    0.3622374 -62.81  0.002042493    1.929    0.482
       100 -12.9510    131.7259    169.2848   7.3161134087e+01   2.0918104033e+01    0.4616015    0.3485056  54.85  0.002106822    1.485    0.326
       101 -11.9530     38.4209    176.4090   9.6021325634e+01   3.3302740751e+01    0.2533872    0.1924879 -65.04 0.0002972001    1.089    0.082
       102 -10.9546     27.2938    173.2693   9.8061863007e+01   3.5270324375e+01      0.42579    0.2439731  83.40  0.002050835    2.130    0.531
       103 -10.8240    197.1591    170.8265   5.9776473746e+01   8.2016860591e+00    0.2058735    0.1721306 -17.40 0.0008183374    1.338    0.253
       104 -12.9340    152.7626    168.4402   6.8323127255e+01   1.7169356365e+01    0.7159722    0.2100072 -48.85  0.002173253    3.095    0.677
       105 -12.2423     99.3643    168.2641   8.0433238366e+01   2.6834448645e+01    0.3913043    0.2299635 -53.20 0.0007834868    1.493    0.330
       106 -11.7383    172.5479    167.4663   6.3931338525e+01   1.3598980179e+01    0.4712135    0.1382471 -48.11  0.001430537    3.109    0.678
       107 -11.2185     40.2980    167.8042   9.4296679765e+01   3.5200768306e+01    0.3784615    0.1561843 -68.19  0.001563392    2.166    0.538
       108 -10.2228     33.0529    167.4547   9.5918183347e+01   3.6083313365e+01    0.3086514    0.1896106 -68.17  0.001651823    1.298    0.230
       109  -9.5557     11.6428    168.2834   1.0086550847e+02   3.7971664045e+01    0.1265911   0.08274702  77.59 0.0003408652    1.670    0.401
       110 -11.9217    137.8141    166.2552   7.1143567029e+01   2.0510507874e+01    0.3231265    0.1993883 -42.22 0.0008806014    1.567    0.362
       111 -10.2336     18.8418    166.8952   9.9075085850e+01   3.7646757712e+01    0.2016274    0.1379014 -55.65 0.0007147885    1.299    0.230
       112 -10.2804    200.3113    166.3381   5.8209684141e+01   8.5727659439e+00    0.1505039    0.1122279 -16.42 0.0007045288    1.689    0.408
       113 -11.0447    205.8009    164.8415   5.6861818376e+01   7.8697499185e+00    0.2251354    0.1891173 -26.29 0.0006633453    1.230    0.187
       114  -9.8632      3.4631    170.4265   1.0291387458e+02   3.8162411463e+01    0.3099549    0.1878058  -8.43  0.001579133    3.264    0.694
       115 -10.8715     35.8371    163.1389   9.4608958415e+01   3.6838355775e+01    0.2059157    0.1579126 -84.96 0.0005562155    1.252    0.201
       116 -11.7398    169.3402    161.6734   6.3316493712e+01   1.5524696427e+01    0.2950306    0.1969908 -56.11  0.001332979    1.457    0.314
       117 -12.1342    171.5252    159.5383   6.2388535847e+01   1.5580084611e+01    0.3873601    0.2694337  65.73   0.00120228    1.873    0.466
       118 -11.8521    112.5547    167.0923   7.7103490319e+01   2.4886310151e+01       0.2632    0.2057541  66.53 0.0003590607    1.484    0.326
       119 -12.4973     96.0335    160.7468   7.9706876127e+01   2.9230746547e+01    0.4361071    0.2431402 -58.18  0.001184067    1.617    0.382
       120 -13.3983    100.7958    156.1391   7.7596999536e+01   2.9572715130e+01    0.5841863    0.4080402  54.48  0.002048239    1.669    0.401
       121 -11.7572     29.0248    146.3037   9.3510308414e+01   4.1627298508e+01    0.2579897    0.2128803  63.63  0.001086795    1.448    0.309
       122 -12.1482     28.0261    160.4007   9.6020573157e+01   3.8322845951e+01    0.5731428    0.2833739 -59.86 0.0004005898    1.548    0.354
       123 -12.2096     24.8976    144.8421   9.4291617567e+01   4.2377600012e+01      0.52754    0.3121085 -29.12  0.001481145    2.329    0.571
       124 -13.0586     19.0188    155.0180   9.7330724905e+01   4.0489009963e+01    0.8942245    0.4520444  79.96  0.003541494    3.533    0.717
       125 -13.7602     24.2523    152.7547   9.5733517013e+01   4.0542451083e+01    0.8554999    0.5875225 -60.46  0.003745732    1.135    0.119
       126 -13.3906    112.6326    156.5880   7.4858416761e+01   2.7428181092e+01    0.4898613    0.4442419 -53.09  0.002660849    1.045    0.043
       127  -9.6031      4.3620    158.7528   1.0124957335e+02   4.0854949386e+01    0.1186039   0.08157486  76.04 0.0006944269    1.608    0.378
       128 -11.7558    127.0579    156.3630   7.1425903799e+01   2.4873360793e+01    0.2855412    0.2111662 -58.48 0.0004191615    1.265    0.209
       129 -13.1826     88.8175    153.6522   7.9991276025e+01   3.2129212647e+01    0.5609615    0.3447554 -52.15  0.002608777    1.406    0.289
       130 -11.9744     84.6727    149.5023   8.0144672055e+01   3.3789098283e+01    0.3454621    0.1830362 -56.77  0.001043022    1.657    0.397
       131 -12.2467     80.2928    148.0318   8.0929288750e+01   3.4813810630e+01     0.365579    0.2518115  68.01 0.0004894992    1.965    0.491
       132 -12.3963     81.2024    155.8304   8.2309992064e+01   3.2768531547e+01    0.3449101     0.241531  49.86  0.001580341    1.650    0.394
       133  -9.3574     44.2723    156.2783   9.1462229651e+01   3.7573607118e+01    0.1321576   0.09034768 -43.33  0.000217453    1.492    0.330
       134 -10.6035      3.7592    153.6124   1.0070023064e+02   4.2117542627e+01    0.3329856    0.1927536 -34.51  0.001798194    2.253    0.556
       135 -11.4054    212.0122    154.0363   5.3388072592e+01   8.9739302804e+00    0.2687317    0.2263759  34.14 0.0005987976    1.424    0.298
       136 -15.8757     28.8870    231.6277   1.0449467662e+02   2.1393888698e+01     1.326276    0.7018442  50.72  0.007473518    1.872    0.466
       137 -10.7821     37.5550    154.3741   9.2773687486e+01   3.8790567314e+01    0.2798551    0.1864092  16.25  0.001483022    2.158    0.537
       138 -12.2096    126.1352    151.6065   7.0573482264e+01   2.6178180689e+01    0.3506517    0.2689091  43.02 0.0004575321    1.457    0.314
       139 -13.6292    109.1215    148.0846   7.3820607687e+01   3.0096257387e+01     1.043813    0.3429621 -45.93   0.00338701    2.813    0.644
       140 -13.7320    102.8031    142.3925   7.4074983197e+01   3.2552023651e+01    0.7171215    0.5041974  60.61  0.002533577    1.781    0.439
       141  -9.7300    103.2955    151.2763   7.5941908111e+01   3.0333219192e+01    0.1450595    0.1134158 -25.93 0.0006943759    1.529    0.346
       142 -12.2489    145.6304    149.3932   6.5624846107e+01   2.2976773907e+01     0.390046     0.261298  56.65 0.0004521212    1.760    0.432
       143 -10.5260     34.0198    149.6746   9.2844971962e+01   4.0307049324e+01    0.1747558    0.1542067 -60.86 0.0003949241    1.133    0.117
       144 -11.2261    153.9058    149.1462   6.3750442933e+01   2.1408452198e+01     0.235687    0.2056474 -78.10 0.0006030417    1.231    0.188
       145 -11.9034    133.0280    148.4760   6.8262571265e+01   2.5621429812e+01    0.3152248     0.202199 -37.09  0.001370246    1.622    0.383
       146 -10.4766    224.0095    148.0384   5.0016452262e+01   7.9776844622e+00    0.2298728    0.1605583 -67.08 0.0006965506    1.688    0.407
       147 -11.8845     60.2490    150.2543   8.6410737220e+01   3.7085328536e+01    0.3730975     0.228591 -65.02     0.000913    1.464    0.317
       148 -10.7586    128.7065    147.0664   6.8936503022e+01   2.6770938572e+01    0.2178115    0.1806355 -50.70 0.0001911226    1.080    0.074
       149 -12.3601     45.2953    150.6277   9.0216195096e+01   3.8834594986e+01    0.4836697    0.2607723 -73.46  0.002181384    1.963    0.491
       150 -12.3444     53.1043    144.5650   8.7115135651e+01   3.9374353760e+01     0.500284    0.2850128  63.03  0.002130441    2.796    0.642
       151 -11.5481     46.5465    158.7629   9.1337398327e+01   3.6699592519e+01    0.4601118    0.2846272 -10.04  0.001966866    3.249    0.692
       152 -11.9260     12.4842    143.0243   9.7071749445e+01   4.3913206061e+01    0.3834714    0.3544181 -81.50  0.002705919    1.240    0.194
       153 -12.4901     78.8514    141.3761   7.9870594161e+01   3.6639093219e+01    0.4227524    0.2172682 -50.96  0.001838496    1.650    0.394
       154 -10.7118     57.8801    143.6645   8.5717857857e+01   3.8992982010e+01    0.2802005    0.1985408  79.48  0.001393355    1.893    0.472
       155 -11.4250    171.3150    150.6594   6.0422681399e+01   1.7612144741e+01    0.2524347    0.1855041 -79.36  0.001134363    1.780    0.438
       156 -10.6164    139.6886    141.3066   6.5065991078e+01   2.6002872978e+01    0.1546704    0.1188932 -81.76 0.0003450639    1.618    0.382
       157 -12.4808     31.7802    139.4291   9.1609320682e+01   4.2993224071e+01    0.4497637    0.1609278 -51.54  0.001891639    2.171    0.539
       158 -10.3342     74.8473    140.1274   8.0625187241e+01   3.7528181871e+01    0.1933828    0.1564149 -35.40 0.0003731209    1.278    0.218
       159 -10.3508    155.6322    144.3063   6.2250339783e+01   2.2167894454e+01    0.1592179    0.1194305 -84.91 0.0007035721    1.752    0.429
       160 -10.8555    159.3949    137.5681   5.9853168919e+01   2.2923950741e+01    0.2892236    0.1837702 -46.07 0.0008381806    1.416    0.294
       161 -10.2790     50.9673    138.0226   8.6373882375e+01   4.1206531959e+01    0.2065078    0.1669611 -77.60 0.0004316002    1.281    0.219
       162 -11.0501     54.1460    135.9225   8.5115261864e+01   4.1318558728e+01    0.3684538    0.2255724  56.33  0.001488774    2.257    0.557
       163 -11.8479    133.5723    131.2717   6.4046457573e+01   2.9479192191e+01    0.3323202    0.2444556  28.45 0.0009327241    1.685    0.407
       164 -12.6298    143.7977    132.3904   6.1999079221e+01   2.7212629653e+01    0.4574518    0.3200749 -23.52  0.001169956    1.834    0.455
       165 -12.0133     61.5870    134.3551   8.2829837438e+01   4.0740380787e+01    0.4759227    0.2782782  40.70  0.002142412    2.026    0.506
       166 -11.4813     19.8850    133.6652   9.3646587211e+01   4.5475511813e+01    0.3624321    0.2015183 -60.13  0.001946809    1.362    0.266
       167 -12.1048     94.6864    134.0963   7.4186180064e+01   3.5878027379e+01    0.3143207    0.1995842  36.96  0.001153367    1.816    0.449
       168 -11.2328     76.4185    132.8519   7.8606356567e+01   3.9026781667e+01     0.423567    0.1314138 -56.62  0.001355642    3.163    0.684
       169 -11.0707     70.9563    133.8632   8.0261984567e+01   3.9577103333e+01    0.2119831    0.1817641 -50.15 0.0003237581    1.029    0.028
       170 -11.2460     12.8314    133.6944   9.5469692727e+01   4.6067411584e+01    0.3127377    0.2407617  72.43  0.001335068    1.605    0.377
       171 -10.3953      2.9853    133.6870   9.7972025470e+01   4.6826900785e+01    0.1743801     0.133888 -64.01 0.0005601991    1.044    0.042
       172 -12.6634    103.9645    132.9868   7.1587854207e+01   3.4564667967e+01    0.4741131    0.2658649  40.26   0.00182777    2.017    0.504
       173 -11.7882     35.5042    131.9800   8.9240531031e+01   4.4370646480e+01    0.2703723    0.1635257 -54.59  0.001155184    1.295    0.228
       174 -12.2033     30.5675    129.9602   9.0159179334e+01   4.5342032292e+01    0.3944221    0.2489436  72.94  0.001901617    2.532    0.605
       175 -12.2660    138.8483    131.9715   6.3010560862e+01   2.8287640104e+01    0.5674595     0.385571 -73.95  0.001360913    2.004    0.501
       176 -13.4593    155.3683    128.8082   5.8597949588e+01   2.5669442139e+01    0.8109068    0.5380192  40.20  0.003702327    1.733    0.423
       177 -11.1042     91.8020    128.9031   7.3692814184e+01   3.7559017434e+01    0.2896495    0.1994195 -65.80  0.001370093    1.588    0.370
       178 -10.8738     15.3915    127.5949   9.3743493851e+01   4.7265524424e+01    0.3469301     0.179696 -61.46   0.00182509    1.473    0.321
       179 -11.7565     59.3026    127.0210   8.1835344407e+01   4.2757320141e+01    0.3342347    0.1748014 -55.22  0.001540389    1.609    0.378
       180 -10.2034     33.5157    127.4491   8.8879670143e+01   4.5630275142e+01    0.1344653    0.1067567 -55.37 5.199479e-05    1.007    0.007
       181 -10.4978     69.7216    129.9908   7.9719945360e+01   4.0660822907e+01    0.2043608    0.1605518 -50.33 0.0004387732    1.076    0.070
       182 -10.7392    100.7951    125.3967   7.0542904998e+01   3.6853986343e+01    0.1851204    0.1448879  23.53 0.0002667724    1.541    0.351
       183 -10.9305     10.5937    123.4022   9.4265959052e+01   4.8607515011e+01    0.2332784      0.22403  66.42  0.001293339    1.340    0.254
       184 -11.3828    189.9023    122.0538   5.0127743933e+01   1.9976500593e+01    0.3948759    0.2666138 -76.45    0.0017408    2.008    0.502
       185 -12.0335    101.3965    120.0391   6.9053974638e+01   3.7951674260e+01    0.4836509    0.2917675  57.89  0.002074919    2.280    0.561
       186 -11.5304     67.4966    122.4653   7.8581748008e+01   4.2708263825e+01    0.2650483    0.2155864 -36.11  0.000776516    1.172    0.147
       187 -10.2348     49.1042    122.8862   8.3688028684e+01   4.4971928491e+01    0.2025186    0.1691125 -77.77 0.0006052041    1.335    0.251
       188 -12.0898     41.9180    120.7196   8.5190116652e+01   4.6286645675e+01    0.5319107    0.3642256  -3.26  0.002183746    2.033    0.508
       189 -12.0716     54.2965    117.0254   8.0927812798e+01   4.5671432936e+01    0.4908459    0.3007309  52.11  0.002113816    2.274    0.560
       190 -10.9263     49.1951    116.1399   8.2144268257e+01   4.6488092252e+01    0.2695394    0.2474176  33.94  0.000877958    1.323    0.244
       191 -10.7028      2.1437    121.0391   9.6104572608e+01   4.9761041224e+01    0.1874722    0.1817846  59.09 0.0008847977    1.363    0.266
       192 -10.5994    201.5141    120.4069   4.7683912372e+01   1.7932886778e+01     0.146725    0.1290991 -55.49  4.22879e-05    1.017    0.017
       193 -11.5152     23.5876    117.2559   8.9544145319e+01   4.8904662408e+01     0.507834    0.2065025 -63.52  0.002215396    2.248    0.555
       194 -11.3604     31.4196    118.6006   8.7645508429e+01   4.7862687725e+01    0.2866691    0.1959931 -40.41  0.001654824    1.322    0.244
       195 -10.2630    250.2429    118.2412   3.9742431725e+01   8.9845772925e+00    0.2328593   0.08397445 -50.51 0.0008948488    2.455    0.593
       196 -11.1509    155.2793    117.5279   5.5829223494e+01   2.8097583430e+01    0.2721709    0.1510868  54.11 0.0007281108    2.045    0.511
       197 -10.9670    105.2687    114.7514   6.6720984148e+01   3.8429629763e+01    0.2235711    0.2164459  11.64 0.0006408491    1.134    0.118
       198 -11.2039    191.1446    112.9363   4.7755178486e+01   2.1550502021e+01    0.4716136    0.3140704  13.33  0.001524476    3.253    0.693
       199 -10.6820     82.5056    113.4038   7.2309901496e+01   4.2524033327e+01     0.288546    0.1255848 -48.70 0.0005796673    2.005    0.501
       200 -12.3610     53.5593    110.7101   7.9635582411e+01   4.7160557889e+01    0.3432919    0.3045233 -16.35 0.0008135172    1.206    0.171
       201 -11.7087     50.4904    107.6415   7.9763096799e+01   4.8201209254e+01    0.3429988    0.2179216 -25.03  0.001479754    1.829    0.453
       202 -10.9418    242.2835    111.1266   3.9356000863e+01   1.1746568152e+01    0.2200984    0.1879271 -89.60 0.0003210618    1.273    0.215
       203  -9.8065     74.7116    111.6513   7.3976449514e+01   4.4086804517e+01    0.1458821   0.09859849 -26.52  0.000702436    1.661    0.398
       204  -9.7133    235.2869    110.6455   4.0228733583e+01   1.3149671162e+01      0.14526   0.09214084 -64.90 0.0007023178    1.671    0.402
       205 -11.2178    153.7103    107.0276   5.3503735546e+01   3.0570210324e+01    0.2155126    0.1836631 -46.79 0.0004459769    1.081    0.075
       206 -10.1009    116.8935    103.8549   6.0964645890e+01   3.8576350538e+01    0.2209171    0.1883156 -19.27 0.0005084171    1.247    0.198
       207 -11.7240     79.2289    100.5434   6.9829410893e+01   4.5750673832e+01    0.3253264    0.2532616 -66.47  0.001755166    1.551    0.355
       208 -10.9857     59.8227     92.1242   7.3036997145e+01   5.0232800414e+01    0.2809595    0.2083621  14.66  0.001610484    1.551    0.355
       209 -12.3214     57.6501    100.0922   7.5797972296e+01   4.8904536467e+01    0.4286379    0.3219832 -24.36  0.001544369    1.340    0.254
       210 -10.4793     59.7673     95.6609   7.4012564094e+01   4.9533565073e+01    0.2758065    0.2218479  48.65  0.001301899    1.585    0.369
       211 -10.5764     22.2185     99.6974   8.6137773942e+01   5.2843239890e+01    0.3255956    0.1552865 -50.65   0.00142003    1.584    0.369
       212 -10.2745    173.5711     98.2106   4.7373558097e+01   2.8093521510e+01    0.2052023    0.1336122 -32.60 0.0008384955    1.643    0.391
       213  -9.7628    197.4792     96.4482   4.2798454852e+01   2.3366579799e+01    0.1424176    0.1259559 -59.65 4.603503e-05    1.010    0.010
       214 -10.4269     82.9883    241.7321   9.5617604562e+01   1.2079323871e+01    0.3229401     0.189325  69.41  0.001609695    1.956    0.489
       215 -10.1510    135.1978     91.8613   5.3484482085e+01   3.7307307127e+01    0.1901558    0.1647924  -6.70 0.0003676926    1.314    0.239
       216 -10.8449     54.1856     92.5731   7.4813133361e+01   5.0875791170e+01    0.2173647    0.1259934  36.89  0.001094713    2.016    0.504
       217 -10.0097     21.2988     91.4142   8.4453292988e+01   5.4631844905e+01    0.1392571    0.1164354  33.05 0.0008824577    1.541    0.351
       218 -11.0768      3.3827     89.6474   8.9547996240e+01   5.6387758584e+01    0.4245432     0.109407 -49.60  0.001175274    2.496    0.599
       219 -10.1136     95.4972     89.4509   6.2375970575e+01   4.5269590185e+01    0.1380332    0.1247011 -25.59 5.213522e-05    1.015    0.015
       220 -13.6716     53.4038     85.0106   7.2958843823e+01   5.2447262988e+01    0.8494536     0.562646  26.27  0.004826476    1.707    0.414
       221 -12.9055     50.2566     79.3918   7.2306504897e+01   5.3893057155e+01    0.6463647    0.2571821  43.50  0.002729412    3.433    0.709
       222 -10.2456     11.7179     87.4631   8.6459880288e+01   5.6217671686e+01    0.3063945   0.09785826 -60.30  0.001147261    3.303    0.697
       223 -10.3182    172.0326     81.9806   4.3604837108e+01   3.1335908800e+01    0.1695605    0.1492418 -52.20 0.0003309272    1.063    0.060
       224 -11.0289    212.7080     80.9253   3.6951321506e+01   2.2924406521e+01    0.3061224    0.2110729  38.60  0.001107299    2.065    0.516
       225 -10.6435    207.8429     79.0630   3.7221864573e+01   2.4241984318e+01    0.2256803    0.1839484 -41.23 0.0004181211    1.241    0.194
       226 -10.6817    153.0258     80.0726   4.6634047826e+01   3.5703546462e+01    0.2051564    0.1962901 -55.00 0.0003747015    1.012    0.012
       227 -12.1598     28.8021     79.8557   7.9122471927e+01   5.6195170842e+01    0.2190706    0.2005052  63.00  0.001192592    1.593    0.372
       228 -10.8061    183.2744     78.0566   4.0732114549e+01   2.9595394076e+01    0.2631714    0.2410985  37.67  0.001576372    1.298    0.230
       229 -10.4935     87.8449     79.1086   6.1409629240e+01   4.8449813602e+01    0.2002154    0.1859485 -51.36  0.001247328    1.222    0.181
       230 -11.0628    112.0994     76.0992   5.4374168872e+01   4.4633384930e+01    0.2958005     0.246963  13.26 0.0006476724    1.308    0.235
       231 -10.6977    115.5439     74.5575   5.3115177424e+01   4.4232927007e+01    0.2630287     0.218374 -18.82  0.001183323    1.228    0.186
       232 -11.2773     74.7465     75.7274   6.4010231984e+01   5.1139757345e+01    0.3126812     0.214546  22.22 0.0008547373    1.625    0.385
       233 -12.4540     32.6893     74.0271   7.6250146462e+01   5.6878990729e+01    0.3551999    0.1974898   5.84  0.001658677    2.492    0.599
       234 -10.6770     50.9782     73.9353   7.0483251745e+01   5.4785428221e+01    0.1728475    0.1550632 -80.17 0.0005437128    1.645    0.392
       235 -10.3372    219.8481     72.5607   3.4160241598e+01   2.2837209173e+01    0.2232319     0.152722 -61.51 0.0006369093    1.333    0.250
       236 -11.5547    100.8787     69.1488   5.5066988722e+01   4.7848705212e+01    0.3783516    0.1755263 -31.82  0.001647413    2.241    0.554
       237 -12.5391     25.1983     63.0042   7.5446475854e+01   5.9565652914e+01    0.4929196    0.2712468   4.87  0.002661327    2.375    0.579
       238 -11.2517    197.7635     66.5609   3.5810704766e+01   2.8363412604e+01    0.3980597    0.2945563   9.62  0.001354322    2.441    0.590
       239 -10.3661    188.5087     65.9992   3.7025930574e+01   3.0409886884e+01    0.3053615    0.1059231 -44.19  0.001152087    2.649    0.622
       240 -10.9400    177.8725     64.7874   3.8367485808e+01   3.2863005946e+01    0.2601715     0.174439 -43.32 0.0006584836    1.427    0.299
       241  -9.4331     78.7092     65.7309   5.9848190996e+01   5.2178001111e+01    0.1245562   0.09111188  -0.59 0.0002113753    1.508    0.337
       242 -10.0360    113.8194     62.8930   5.0114316301e+01   4.6398636554e+01    0.1654315    0.1519931 -74.05 0.0003430897    1.283    0.221
       243 -10.6695    208.0528     61.9138   3.3365136183e+01   2.6919681718e+01    0.1895469    0.1620415  19.34 0.0009268514    1.734    0.423
       244 -10.4381     45.7374     60.9762   6.8126733422e+01   5.7622986108e+01    0.1758846    0.1367534 -23.68 0.0007370207    1.060    0.057
       245 -10.6054      3.6967     59.3311   8.1698753594e+01   6.2030094421e+01    0.2423148    0.1534822 -13.36  0.001414627    1.569    0.363
       246 -10.2107    139.6985     59.6788   4.3732500810e+01   4.1694025997e+01    0.1305152    0.1005874  16.58 0.0004147815    1.628    0.386
       247 -12.9017     31.2816     64.7182   7.3954361422e+01   5.8658018422e+01    0.4254225    0.3147578 -46.46  0.002798043    1.374    0.272
       248 -10.6451    153.6259     57.5543   4.0580756719e+01   3.9087632944e+01    0.2167954    0.1963008 -28.73 0.0004668069    1.166    0.142
       249 -10.5450    192.7875     57.1980   3.4350987845e+01   3.0816995961e+01    0.2283444    0.1201885 -70.29  0.000950122    2.797    0.642
       250 -11.5577     51.9722     56.2584   6.4657204026e+01   5.7560938252e+01    0.4428568    0.2526236  55.26  0.002057579    3.537    0.717
       251 -10.4476     27.7165     55.1014   7.2137767629e+01   6.0604792889e+01    0.2519515    0.1399262  45.77  0.001337224    2.984    0.665
       252  -9.8116     93.6570     51.6888   5.1516933232e+01   5.1718268041e+01    0.1303758   0.08983196  12.67  0.000704582    1.701    0.412
       253 -11.2317     45.6365     49.8595   6.4529924335e+01   5.9331199570e+01    0.2043047    0.1953503 -38.90  0.000689767    1.477    0.323
       254 -10.4456     30.7090     50.6716   6.9687452029e+01   6.0971544125e+01    0.1938216    0.1320399  25.87 0.0006932153    1.579    0.367
       255 -10.3981    174.6327     50.1848   3.5296688458e+01   3.5652489948e+01    0.2503513   0.09596196  63.79  0.001026137    2.696    0.629
       256 -10.4582    225.4812     57.4798   3.0286330603e+01   2.4021014873e+01    0.1281597    0.1038462 -68.61  0.000809901    1.027    0.026
       257 -10.6262     18.6713     48.2572   7.3023218770e+01   6.2563159145e+01    0.3204928    0.1242941 -32.13  0.001156888    2.373    0.579
       258 -10.3099      1.5740     47.2822   7.8821846980e+01   6.4161664854e+01    0.1573041   0.07410786 -37.52 0.0009459066    1.589    0.371
       259 -11.0779    194.9849     44.0001   3.1048960319e+01   3.2179926199e+01    0.1886421    0.1629828 -80.25 0.0004622886    1.020    0.020
       260  -9.7453    131.3414     41.3296   4.0218986081e+01   4.5829885000e+01     0.129695   0.08989501  25.44 0.0007051415    1.743    0.426
       261 -10.1091    122.5052     41.5714   4.1996765715e+01   4.7569837657e+01    0.1200804    0.1133646  39.22  6.66148e-05    1.017    0.017
       262 -11.1749     35.3805     39.7548   6.4397044231e+01   6.1996344674e+01    0.3070377    0.1736328  19.84  0.001617342    1.851    0.460
       263 -11.5924     55.3516     37.3529   5.7232029827e+01   5.9698770630e+01    0.3924482    0.2134674  25.83  0.001250941    1.920    0.479
       264 -10.6452     60.3312     38.6685   5.6215109064e+01   5.8815876266e+01    0.1738276    0.1571622  -0.83 0.0008058167    1.192    0.161
       265  -9.6052    110.2778     37.6907   4.3360121095e+01   5.0403434038e+01    0.1125869   0.09348137 -66.94 0.0002659798    1.557    0.358
       266 -11.1949     10.1694     36.8432   7.2206763382e+01   6.5012772052e+01    0.2570552    0.1516264  -3.70  0.001086401    1.716    0.417
       267  -9.9978    169.6826     36.3454   3.2641898068e+01   3.8462981182e+01    0.1295108   0.08602308 -69.33 0.0007048674    1.722    0.419
       268 -11.7993     31.5591     32.4296   6.3060262762e+01   6.3393580403e+01    0.3309772    0.2014662 -15.50  0.002150534    1.483    0.326
       269 -10.1869    232.2457     30.9718   2.4293406709e+01   2.6300467043e+01    0.1590571    0.1241737 -64.90 0.0002050931    1.076    0.071
       270  -9.8939    169.5030     31.4446   3.1477638585e+01   3.9072934166e+01    0.1191636    0.1073697  84.05 3.240328e-05    1.008    0.008
       271 -10.3542     77.5036     30.5160   4.8715531544e+01   5.7065060961e+01    0.1138427   0.09995265  11.98  5.51638e-05    1.056    0.053
       272 -11.4068     72.2878     29.9666   4.9887617841e+01   5.7978027198e+01    0.1641282    0.1359681  -3.12 0.0005962972    1.093    0.086
       273 -10.6191     44.0559     33.1610   5.9230132035e+01   6.1754064688e+01    0.1986038    0.1117188   8.62  0.001098715    2.147    0.534
       274 -10.5375    106.3607     31.7590   4.2384496087e+01   5.1803903463e+01    0.2051983    0.1342509 -38.08  0.001218808    1.664    0.399
       275 -11.2694    119.0643     25.5425   3.7997083093e+01   5.0005702422e+01    0.2430096    0.1684742 -10.42 0.0006268693    1.671    0.401
       276 -11.5108     84.3909     23.8449   4.4787082384e+01   5.6583822906e+01    0.3498256    0.2512935 -66.48  0.002029624    2.528    0.604
       277 -10.2685    249.8969     22.1255   2.1162145347e+01   2.4037084012e+01    0.1816151     0.116076 -69.72 0.0006604193    1.276    0.216
       278  -9.9480     20.6833     22.6976   6.3205190754e+01   6.5787955853e+01     0.109258   0.06474669  -2.99 0.0007021082    1.620    0.383
       279  -9.9880     69.4532     21.4709   4.7700810031e+01   5.9305052155e+01    0.1118848   0.09226842  14.78 0.0001045934    1.004    0.004
       280  -9.9671     54.8777     21.6269   5.1763653928e+01   6.1528439141e+01    0.1369087   0.09776402  47.52 0.0003493748    1.638    0.390
       281  -9.4644    134.7107     18.3107   3.3258394439e+01   4.7596709731e+01    0.1115574   0.08477738 -70.64 0.0001875042    1.582    0.368
       282 -10.7619     30.3577     16.3952   5.7429076593e+01   6.5358251993e+01    0.1869511    0.1103803 -25.91 0.0006481427    1.544    0.352
       283 -10.7589    215.6912     15.5799   2.2823654617e+01   3.1371731634e+01    0.1821729    0.1555642 -69.71 0.0004445524    1.127    0.113
       284 -10.0482     68.3577     13.6826   4.5257235155e+01   6.0194720629e+01   0.09712243   0.08684564 -70.67 -2.358657e-05    1.754    0.430
       285 -10.4636    238.1306    248.7135   6.7459029424e+01  -1.2873883329e+01    0.1978148     0.150352 -37.43 0.0006978088    1.317    0.241
       286  -9.7468    139.5607    247.4606   8.5559212023e+01   2.1628756163e+00    0.1237149    0.1223275  56.91 0.0001121655    1.055    0.052
       287 -10.7808    213.7364     10.4292   2.1991225850e+01   3.2311299960e+01    0.2118608   0.09552974  78.14  0.001133654    2.103    0.525
       288 -11.4135    103.7599    244.6418   9.2040148188e+01   8.3578346220e+00    0.2583249     0.197738 -77.63 0.0004205467    1.280    0.219
       289 -10.4969     40.6829     10.6953   5.1902714592e+01   6.4572015706e+01    0.1097456   0.06454693  13.02    0.0004348    1.626    0.385
       290 -10.2075     83.3308    246.0295   9.6079382995e+01   1.1118312047e+01    0.1717148    0.1440069  85.82 0.0005581652    1.029    0.028
       291 -11.7147    179.6613    244.6613   7.7421681499e+01  -3.6921577193e+00    0.2275951    0.2174716   9.22  0.000359422    1.035    0.034
       292  -9.9202    198.5009    242.6072   7.3524909577e+01  -6.2385695649e+00    0.1252847    0.1137197  -2.94 0.0001175337    1.024    0.024
