#   1 NUMBER                 Running object number                                     
#   2 MAG_AUTO               Kron-like elliptical aperture magnitude                    [mag]
#   3 X_IMAGE                Object position along x                                    [pixel]
#   4 Y_IMAGE                Object position along y                                    [pixel]
#   5 X_WORLD                Barycenter position along world x axis                     [deg]
#   6 Y_WORLD                Barycenter position along world y axis                     [deg]
#   7 A_WORLD                Profile RMS along major axis (world units)                 [deg]
#   8 B_WORLD                Profile RMS along minor axis (world units)                 [deg]
#   9 THETA_WORLD            Position angle (CCW/world-x)                               [deg]
#  10 FWHM_WORLD             FWHM assuming a gaussian core                              [deg]
#  11 ELONGATION             A_IMAGE/B_IMAGE                                           
#  12 ELLIPTICITY            1 - B_IMAGE/A_IMAGE                                       
         1 -12.4111    193.1724     31.5562   6.1699189511e+01   3.3317508335e+01    0.8210396    0.7536656  63.13   0.00475535    1.276    0.216
         2 -12.3131    203.9801     18.0606   5.7532218363e+01   3.2503518071e+01    0.6956708    0.6449691  46.39  0.004932207    1.473    0.321
         3 -11.3924    114.4113    229.4086   1.2181684692e+02   9.9572285114e+00    0.6361307    0.4107699 -51.37  0.003231297    1.691    0.409
         4 -12.4434    143.9139    245.8936   1.1789680324e+02   1.7186302478e+00      1.23378    0.5310189  28.69  0.004729381    2.952    0.661
         5 -10.3006    134.0584    247.0264   1.2011478912e+02   3.1335258022e+00    0.2742241    0.2732241  -1.15  0.001575648    1.140    0.123
         6 -10.7310    128.0288    241.8175   1.2064853469e+02   5.1412959440e+00    0.2949204    0.2268251 -41.63  0.001665988    1.530    0.347
         7 -10.7684     98.0166    248.8550   1.2781177207e+02   8.5821134217e+00    0.3988915    0.3411752 -25.45 0.0009258566    1.655    0.396
         8 -17.2499      8.9703    156.9409   1.3711022955e+02   4.1216233887e+01     19.85715     2.784125 -71.94   0.04775487    7.456    0.866
         9 -11.5655    126.5466    229.4598   1.1917565895e+02   7.8978099875e+00    0.5230258    0.4061514  83.16  0.002819892    1.509    0.337
        10 -10.8356    108.9175    248.1690   1.2548932985e+02   6.9997159500e+00    0.7931349    0.3872578  22.39  0.002792607    4.174    0.760
        11 -11.5415    107.6540    228.8264   1.2320984075e+02   1.1202538987e+01    0.6304993    0.3325255  33.22  0.002824274    2.008    0.502
        12  -9.8458     70.9693    228.7628   1.3110727500e+02   1.6924363990e+01    0.2421576    0.1920852  55.66 0.0006051973    1.146    0.128
        13 -10.6577    148.9113    228.0669   1.1409500000e+02   4.3293861916e+00    0.3716043    0.1960911  41.63  0.001681582    1.750    0.429
        14  -8.9304    163.0061    225.0000   1.1055211128e+02   2.4895126275e+00    0.2377852   0.07457905  38.89 0.0008093912    2.991    0.666
        15 -11.8636    119.4175    248.9713   1.2342141063e+02   5.1535042277e+00    0.7840415    0.5942169  16.80  0.004142345    1.684    0.406
        16 -11.6693    140.4771    238.9795   1.1759918401e+02   3.6144263500e+00    0.6294324    0.2634428  46.34  0.002588003    2.285    0.562
        17 -11.0928    127.5976    248.1738   1.2161819793e+02   3.9753291934e+00    0.6241199    0.3582354  31.10  0.003055667    1.804    0.446
        18 -10.5023    196.3209    196.1492   9.8213998552e+01   2.3011097223e+00    0.6577377    0.4853697  55.70  0.003333242    1.645    0.392
        19 -10.5898     73.7993    182.2903   1.2428554181e+02   2.7498653760e+01    0.4818493    0.2971482 -40.68  0.001779292    2.028    0.507
        20 -10.2215     77.9759    176.5846   1.2232675070e+02   2.8288175372e+01    0.3588952    0.2633078 -43.18 0.0008021806    1.526    0.345
        21  -9.8050     97.1575    238.5648   1.2674221866e+02   1.0826753934e+01    0.2788647    0.1824037  78.62   0.00141403    1.794    0.443
        22  -9.2259    197.5090    175.2110   9.3746628035e+01   6.3140114057e+00    0.3215443    0.2073247 -44.47  0.001463675    1.475    0.322
        23  -9.5218     85.9580    237.8058   1.2900102114e+02   1.2726258002e+01    0.2172308    0.1777546 -76.98 0.0005341009    1.232    0.188
        24 -11.0894    134.9955    230.4946   1.1749342786e+02   6.2396205552e+00     0.649538    0.2171656 -50.21  0.002378548    3.184    0.686
        25 -10.7868     85.4900    165.6449   1.1849196918e+02   2.9846510369e+01    0.6588302    0.4156462 -88.31 0.0009346846    2.156    0.536
        26 -11.8895     73.9718    162.6489   1.2100066807e+02   3.2387306668e+01    0.6595089    0.3982636 -41.20 0.0009779553    1.909    0.476
        27 -12.4574     68.3078    144.3389   1.1917737460e+02   3.7801611007e+01     1.260567    0.7225563 -86.61  0.004770664    2.836    0.647
        28 -10.2702     58.8375    145.2595   1.2202207360e+02   3.8875499756e+01    0.3323341    0.1796476 -60.34  0.001494043    1.646    0.393
        29  -8.7133    104.0201    143.6602   1.0908817381e+02   3.2124023444e+01    0.3247152    0.1783859 -32.15  0.001046108    2.657    0.624
        30 -10.3618     92.6534    143.2156   1.1211535080e+02   3.4246115044e+01    0.2983679    0.2540341 -41.10 0.0003754486    1.196    0.164
        31 -10.2138     91.8604    159.3374   1.1561887364e+02   3.0376994174e+01    0.5577661    0.3650391 -33.08  0.001638414    1.972    0.493
        32 -10.8409     57.8749    129.7084   1.1930358977e+02   4.2825158254e+01    0.4738308    0.1812285 -55.48  0.001833939    2.247    0.555
        33 -11.2337     95.5765    227.4339   1.2565541714e+02   1.3463892279e+01    0.6175919    0.3146373  57.61  0.002685189    2.153    0.536
        34 -11.9659     46.5016    149.2858   1.2615900473e+02   3.9413213909e+01    0.8190081    0.2728096 -47.87  0.002909871    3.060    0.673
        35  -9.2065    113.6387    132.0493   1.0381589642e+02   3.3100045685e+01    0.2979717    0.2373732  28.73  0.001219218    1.391    0.281
        36  -8.1817    105.7647    130.6151   1.0563066076e+02   3.4943545428e+01    0.2160572    0.1425326  50.86 0.0009435787    1.648    0.393
        37  -9.1608    100.5495    128.6461   1.0662015211e+02   3.6375004818e+01    0.2946914    0.2416833 -14.75 0.0007709406    1.470    0.320
        38  -8.1941    109.2414    120.4624   1.0219858160e+02   3.6649134909e+01    0.1986641    0.1468643  54.12 0.0003970713    1.478    0.323
        39 -14.5647     55.0580    204.8328   1.3179994098e+02   2.4650826322e+01     4.286821     2.450256 -86.08   0.02058641    1.838    0.456
        40  -8.5216    168.0190    112.9696   8.5800389777e+01   2.5679006147e+01    0.2530309    0.1845165 -76.35 0.0009723064    1.712    0.416
        41 -10.9137    100.6260    229.7437   1.2486382908e+02   1.2150856282e+01    0.5862396    0.3595983 -35.27  0.002575502    2.564    0.610
        42 -10.6353     32.7093     48.5604   1.0680121515e+02   6.2633499192e+01     0.635195    0.1177393 -49.26  0.001771488    7.244    0.862
        43 -10.0264     32.4920     40.9866   1.0428394991e+02   6.3857532055e+01    0.2894741    0.1270381 -41.48  0.001496929    2.112    0.527
        44 -11.4063    184.0326     38.5534   6.4516123314e+01   3.4518848362e+01    0.3537853    0.3350462 -89.87  0.001274922    1.170    0.145
        45 -10.6423     82.6033    242.7876   1.3026749230e+02   1.2184806480e+01    0.4890776    0.2959561  85.94  0.002465676    1.951    0.487
        46  -8.8944     92.8640    244.1617   1.2831577241e+02   1.0335334304e+01    0.1644371    0.1585121 -36.43 0.0005839802    1.341    0.254
