#   1 NUMBER                 Running object number                                     
#   2 MAG_AUTO               Kron-like elliptical aperture magnitude                    [mag]
#   3 X_IMAGE                Object position along x                                    [pixel]
#   4 Y_IMAGE                Object position along y                                    [pixel]
#   5 X_WORLD                Barycenter position along world x axis                     [deg]
#   6 Y_WORLD                Barycenter position along world y axis                     [deg]
#   7 A_WORLD                Profile RMS along major axis (world units)                 [deg]
#   8 B_WORLD                Profile RMS along minor axis (world units)                 [deg]
#   9 THETA_WORLD            Position angle (CCW/world-x)                               [deg]
#  10 FWHM_WORLD             FWHM assuming a gaussian core                              [deg]
#  11 ELONGATION             A_IMAGE/B_IMAGE                                           
#  12 ELLIPTICITY            1 - B_IMAGE/A_IMAGE                                       
         1 -13.7909    241.7401     60.6398   6.1719346210e+00   1.8747998695e+01     1.477233     1.091776 -80.67 0.0006049011    1.393    0.282
         2 -13.1917    196.8546     48.8910   8.2888128186e+00   2.9798951199e+01     1.590805     1.030449  -6.00  0.006932757    2.967    0.663
         3 -12.6311    220.2255     52.5580   6.5375812737e+00   2.4152944478e+01      1.38726    0.5810091 -51.53   0.00620256    2.166    0.538
         4 -12.5057    221.2438     38.8566   3.3310875584e+00   2.5804267648e+01     1.036433    0.5080685 -83.30 0.0006646407    2.534    0.605
         5 -14.1667      9.8914     69.5233   7.4121067682e+01   6.3055753311e+01     2.112246      1.47254 -24.19   0.01183809    1.499    0.333
         6 -15.1207     50.2578     72.4829   5.5114585717e+01   5.8398617163e+01     3.019878     2.067896  28.30   0.01489973    1.491    0.329
         7 -11.0994     45.4398     28.2087   4.0903547992e+01   6.8342495599e+01     1.630213     1.292135 -55.16  0.009394417    1.557    0.358
         8 -11.2700     30.8635     20.2012   4.5537099890e+01   7.1900670310e+01    0.6873661    0.4568931 -47.65  0.003887902    1.639    0.390
         9 -13.3255     62.3887     44.7146   3.9845096261e+01   6.2419578732e+01    0.8823053    0.6434864 -88.55  0.001726204    2.389    0.581
        10 -13.5552     68.8857     23.8057   2.7748439626e+01   6.4618143799e+01     2.610643     1.708877  47.07   0.01353794    1.387    0.279
        11 -13.9882      3.4287     54.6252   7.4835850499e+01   6.6967268462e+01     2.647391     0.563639 -68.37   0.00929721    3.567    0.720
        12 -11.9509     76.6731      7.3252   1.6865182977e+01   6.4916299225e+01    0.6784695    0.5215198 -67.41  0.003064479    1.679    0.404
        13 -13.8461     13.8150     33.7959   6.2889038869e+01   7.1066319471e+01     1.481809     1.043341 -74.85   0.00551658    1.731    0.422
        14 -12.4974     62.8178      3.8114   1.9825336404e+01   6.8382084445e+01     1.099667    0.6081442  59.13   0.00554255    1.705    0.413
        15 -13.5439    200.7127     60.5200   1.0680300134e+01   2.7210014665e+01     1.540616    0.5717772 -36.15  0.006096686    2.515    0.602
        16 -12.5111    208.8297     47.1035   6.4778840466e+00   2.7362478123e+01     1.313299    0.7900672 -80.89   0.00603401    1.823    0.451
        17 -11.3009    101.8963     53.4265   2.8464120929e+01   5.2434507594e+01    0.7663196    0.4116573 -28.58  0.001923974    2.429    0.588
        18 -11.5407    197.4957     26.7865   2.7023274082e+00   3.2608354084e+01     1.036625    0.3991871 -25.70  0.003990753    3.420    0.708
        19 -11.2420    159.0673     26.7542   7.1707069595e+00   4.1980186651e+01    0.4260897    0.2651179 -23.72  0.002058032    1.970    0.492
        20 -12.7004    226.5046     22.9299   3.5935672223e+02   2.6701596912e+01    0.4872018    0.3173602  75.04  0.002974428    1.570    0.363
        21 -10.6810    216.4619     24.3352   4.4031760059e-01   2.8662561284e+01    0.6453639    0.4139995  18.85  0.002833891    3.928    0.745
        22 -12.1659    210.5989     21.3120   2.1615436123e-01   3.0308352152e+01    0.4955457    0.3030004  61.34  0.002453781    1.816    0.449
        23 -10.6635    204.2439     17.3845   3.5980525154e+02   3.2190981422e+01    0.5480897    0.2398642 -79.01  0.002354037    2.635    0.621
        24 -12.2481    244.2198     22.4710   3.5805557624e+02   2.3205612761e+01    0.5754594    0.3284423  85.82  0.002961686    1.766    0.434
        25 -10.0117    124.8566      9.4726   6.7046965606e+00   5.2737002001e+01    0.3794709    0.2537786 -25.39  0.001693217    1.739    0.425
        26 -10.5265    125.3653     16.5669   9.1734249422e+00   5.1859676575e+01    0.4540449    0.1464186 -36.50  0.001695239    3.029    0.670
        27 -12.5257    136.4407     19.2202   8.1961344602e+00   4.8696389650e+01    0.2758657    0.2340421  69.75 0.0003895497    1.093    0.085
        28 -11.1795    108.8545      9.6632   9.7250703061e+00   5.6820881877e+01    0.5794688    0.2608037 -28.94  0.002526783    2.439    0.590
        29 -11.4228    114.9630     12.9441   9.7857953021e+00   5.4926472358e+01    0.3281734    0.2264041 -52.40 0.0003023336    1.583    0.368
        30 -12.2912    114.2467      6.7180   7.5244253653e+00   5.5732850926e+01    0.9723021    0.4919292 -64.03  0.004014182    2.692    0.628
        31 -12.3726    221.5372      8.8899   3.5661263658e+02   2.9357357477e+01    0.6078035    0.1910189 -46.22  0.002792833    2.349    0.574
        32 -10.3430    229.7600      1.4124   3.5453194704e+02   2.8443853559e+01    0.4227476    0.1289642  87.22   0.00173896    3.580    0.721
        33 -13.5526    243.9756      8.6075   3.5526475331e+02   2.4835187639e+01     1.090847    0.4575748 -82.89  0.005552473    2.486    0.598
        34 -12.1524    228.3823     10.0166   3.5643546639e+02   2.7800330736e+01    0.5109826     0.220522 -53.90 0.0005862204    1.832    0.454
        35  -9.9764    186.8774     13.6140   3.6143296923e-01   3.6655990592e+01    0.3291403    0.1459392 -51.05  0.001525186    2.013    0.503
        36 -11.6081    148.9597     12.8230   4.2757877232e+00   4.6173466444e+01     0.441778    0.2442129 -88.65  0.002038097    1.850    0.460
        37 -12.5395    173.0106      6.5017   3.5974226405e+02   4.0775944370e+01     0.397651    0.3098229 -42.19 0.0004578482    1.332    0.249
        38 -11.9256    173.7877      2.9816   3.5870769979e+02   4.0938506989e+01    0.2443787    0.1675169 -35.24  0.000702082    1.543    0.352
        39 -10.0754     88.2191     12.0832   1.5698579838e+01   6.1688634230e+01    0.2167796    0.1634032  38.20 0.0008364662    1.318    0.241
        40 -11.0625     26.1291     10.0183   4.3101865811e+01   7.4220020326e+01     0.261849    0.1809729 -12.45 0.0009320994    1.489    0.328
        41 -10.0005    102.1973      9.6065   1.1123369481e+01   5.8507191021e+01    0.2558512    0.1475489  57.05  0.001252256    1.485    0.327
        42 -11.4592    193.8896      7.9108   3.5832331875e+02   3.5623630048e+01    0.2584516    0.2139367  68.58  0.001030724    1.351    0.260
        43 -10.9790     46.0508      2.7315   2.6551082397e+01   7.1922007401e+01    0.3067622    0.1861251  26.55  0.000348528    1.705    0.414
        44 -11.0445     47.5280      8.5085   2.9281840677e+01   7.0943589599e+01    0.3450159    0.2369744  18.14  0.001412883    1.548    0.354
        45 -10.6292     44.7423      7.0525   2.9861983054e+01   7.1645069278e+01    0.3250254    0.2176069   7.04 0.0008817884    1.754    0.430
        46  -9.8873    215.5328      8.0526   3.5681015909e+02   3.0736509491e+01    0.1662861    0.1036891 -41.24 0.0003522659    1.450    0.310
        47  -9.3364    156.3822      8.2759   1.9691450542e+00   4.4752103008e+01    0.1374313   0.08998588  50.50  0.000700135    1.711    0.416
        48  -9.3706    131.5013      8.5064   5.3096154326e+00   5.1116646488e+01    0.1385091    0.1184324  78.91 0.0008105293    1.025    0.025
        49 -10.9276     84.7451      6.8965   1.4267027842e+01   6.3060488729e+01    0.2902506    0.1833177  43.62  0.001121933    1.483    0.326
        50 -11.6004     85.1984      1.9708   1.1817271389e+01   6.3415902833e+01    0.4273043    0.2050172  44.31  0.001643202    1.977    0.494
        51  -9.5895    142.9400      7.0145   3.2075543804e+00   4.8313189352e+01    0.1555623    0.1290355  86.55 0.0003513176    1.019    0.019
        52 -10.8746      3.5681      5.8997   5.9057122368e+01   7.7281414077e+01    0.3176616    0.1768296 -10.41  0.001786118    1.825    0.452
        53  -9.6490    210.6037      6.1212   3.5669355742e+02   3.2022519908e+01    0.1441498    0.1145945 -24.56 0.0005025492    1.594    0.373
        54 -12.8105     25.6891     40.7894   5.7771267623e+01   6.8528319410e+01      2.05631    0.6913931 -47.49  0.008287084    2.621    0.618
        55 -11.1107    183.5512      3.7439   3.5808759562e+02   3.8498705042e+01    0.2228045    0.1942449 -79.73  0.001460338    1.125    0.111
        56 -11.8394    216.7245      2.3023   3.5544821325e+02   3.1091419156e+01    0.3695323    0.2027162  83.97  0.001674456    1.669    0.401
        57  -9.2722    120.0156      2.4833   4.9299884507e+00   5.4641208888e+01    0.1944808    0.1147222  68.96 0.0003876823    1.430    0.301
        58  -9.7310    203.1411      1.0000   3.5598891223e+02   3.4221101687e+01    0.1830164    0.0613698  78.54  0.000442289    2.729    0.634
        59 -10.7169     36.4180    248.7900   8.1830363989e+01   1.7262221904e+01     0.145709    0.1036939 -68.48 0.0009599208    1.733    0.423
        60 -10.7432    180.8991    243.7922   5.0803336600e+01  -4.8117725718e-01     0.186673    0.1619794  76.27  0.001247938    2.074    0.518
        61 -12.4579    188.2265     43.2806   7.9224368043e+00   3.2603381696e+01    0.8026604    0.5551029  36.93 0.0003088489    2.110    0.526
        62 -12.9404    175.0506     69.9756   1.6906463046e+01   3.1624171606e+01     1.989288      1.08461 -84.87   0.00692112    3.392    0.705
        63 -12.1009    164.7960     65.4512   1.7464454879e+01   3.4852133110e+01    0.8420795    0.4597158  50.60  0.003622015    1.923    0.480
        64  -9.6572    110.3726    241.1700   6.5141566035e+01   9.4177803596e+00    0.1531069    0.1188621 -89.62 0.0009426774    1.706    0.414
        65  -9.7344    218.5236    239.5143   4.3294023064e+01  -4.4484455912e+00    0.1122355   0.08489126   3.88 0.0001701223    1.020    0.020
        66 -12.2587    234.8509     37.8815   1.9503114876e+00   2.3141322525e+01    0.7145661    0.3883192 -86.26  0.002630734    2.031    0.508
        67 -13.5748    207.1648     67.6870   1.1575202031e+01   2.4697699233e+01    0.9557072    0.6358254  50.68  0.005040383    1.764    0.433
        68 -12.8960    211.5853     58.4921   8.8604662089e+00   2.5131095961e+01    0.9214489    0.5454772  75.73    0.0018542    1.840    0.457
        69 -12.2247    238.5457     51.4471   4.5262708430e+00   2.0621621934e+01    0.3886093    0.2137154 -59.51  0.001174711    1.676    0.403
        70 -12.5876    232.1231     46.5505   4.0519368674e+00   2.2545628572e+01    0.7164818     0.400209  46.19  0.003598247    2.703    0.630
        71 -13.7160     67.0421     83.1064   5.0968373667e+01   5.3268327748e+01     1.341829    0.9734324 -48.80  0.005662787    1.372    0.271
        72 -10.0337     15.9898    238.5033   8.5684940348e+01   2.1369128623e+01    0.1698646   0.09501904  33.37 0.0004600964    1.529    0.346
        73 -11.8682     91.9075     33.9468   2.4074670036e+01   5.7986744742e+01    0.5072822    0.3562889  32.06  0.001897911    1.591    0.372
        74  -9.8807    236.7229    145.9874   2.4271828104e+01   6.6286141289e+00     0.172735    0.1366081 -29.68 0.0003770902    1.063    0.059
        75 -10.9835    249.9941    132.0047   1.9705484915e+01   6.7651380018e+00    0.1762556    0.1434769 -31.76            0    1.005    0.005
        76 -11.2162    181.5438    118.8317   2.7904343594e+01   2.1261035483e+01    0.2824009    0.2310273 -83.82 0.0007768698    1.488    0.328
        77 -10.5832     72.9928    119.0026   5.7465283284e+01   4.3221518587e+01    0.2232247    0.2116888  74.52  0.001189506    1.017    0.017
        78  -9.6286    166.3181    118.3278   3.0892148135e+01   2.4558547835e+01    0.1509259    0.1197141   0.73 0.0007046404    1.680    0.405
        79 -12.5634     50.9511     45.2007   4.5467335004e+01   6.4291265656e+01     1.271858    0.5005102  29.85   0.00453447    2.911    0.656
        80 -12.0917    132.4820    113.4599   3.7755704359e+01   3.2956411884e+01    0.6269709    0.2195624  49.37  0.001855881    2.989    0.665
        81 -12.9349     49.8794     54.4543   4.9490360675e+01   6.2541569752e+01     1.306409    0.6404057  41.70   0.00558156    2.122    0.529
        82 -14.3067     76.9745     58.8777   3.9157720580e+01   5.6846800435e+01     1.613018    0.5889717  45.18  0.003839644    2.676    0.626
        83 -13.0788     79.3538     41.4270   3.1494157304e+01   5.9619422289e+01     1.143769     0.436754  43.29   0.00418954    2.538    0.606
        84 -12.0602     75.9809     52.0235   3.7002077332e+01   5.8399435077e+01    0.3186248    0.2592371  47.88 0.0003362254    1.203    0.169
        85 -12.9392     80.7187     48.1338   3.3670995048e+01   5.8144102875e+01     1.158511    0.4937589  53.04  0.004271068    2.523    0.604
        86  -9.1806    166.2453     95.6343   2.5290791737e+01   2.9051843884e+01    0.1542475    0.1105739 -67.60 0.0006940117    1.613    0.380
        87 -10.3903    158.0894     95.4608   2.6951915086e+01   3.0958524485e+01    0.3781504    0.1482839  51.56  0.001317693    2.570    0.611
        88 -12.3292     49.3546     94.3313   6.1085103257e+01   5.3095285364e+01    0.3918896    0.2729542  75.25 0.0005302844    1.800    0.445
        89 -11.6058     54.4507     93.8330   5.8877739489e+01   5.2536038561e+01    0.2942942    0.2269848  64.69  0.001450703    1.469    0.319
        90 -12.8073    214.6389     90.9176   1.5952797236e+01   1.9443689348e+01    0.5447312    0.3804843  86.80  0.002860105    1.825    0.452
        91  -9.6567     89.0281     92.6935   4.5425135964e+01   4.6955902612e+01    0.2147769    0.1947608  47.26 0.0003265929    1.083    0.077
        92 -12.2564    133.2104    110.1932   3.6738187822e+01   3.3523913812e+01    0.7729313    0.4091624  65.94 0.0003251042    3.192    0.687
        93 -10.5266    226.8213     92.0341   1.4563173604e+01   1.6897980916e+01      0.22338    0.1854012  84.65 0.0006421844    1.367    0.269
        94 -10.2334    167.6300     90.1390   2.3591802976e+01   2.9775785368e+01    0.3340416    0.2414944  79.63  0.001032471    1.636    0.389
        95 -10.2982    172.8359     90.8341   2.2763317267e+01   2.8450970644e+01    0.2743697    0.2138062  66.28 0.0006481068    1.334    0.250
        96 -11.9219    175.8914     85.8096   2.0905279278e+01   2.8668407288e+01    0.7055944    0.3749074  38.37  0.001949708    2.640    0.621
        97  -9.6422     79.2853     91.4609   4.8578320172e+01   4.9102849365e+01    0.2045153    0.1498142  21.28 0.0009184938    1.593    0.372
        98 -10.4131    247.2676     87.9836   1.1273369436e+01   1.3813194980e+01    0.3477686    0.2105195  31.41  0.001731918    2.946    0.661
        99 -10.8287    248.4125     83.3658   1.0207430423e+01   1.4291085377e+01    0.2882058    0.2265654 -65.26  0.001007625    1.261    0.207
       100 -10.0031    245.2392     80.5614   9.9689197381e+00   1.5258810735e+01     0.188771    0.1446789 -46.34 0.0004942061    1.052    0.050
       101 -11.1127    105.4166     86.6954   3.8263710519e+01   4.4920664650e+01    0.4981741    0.2940716 -66.30  0.001864819    2.369    0.578
       102 -10.3926    250.3346     93.8780   1.2129675181e+01   1.2420522452e+01    0.1830113    0.1326659 -47.36 0.0006265015    1.141    0.123
       103 -11.5870     51.9013     86.9883   5.8283901557e+01   5.4621402990e+01    0.3611385    0.2371342 -35.54 0.0003198964    1.714    0.417
       104 -11.4412     48.0113     85.2990   5.9534893365e+01   5.5565720145e+01    0.2862083    0.2490485  42.42 0.0006635838    1.189    0.159
       105 -13.1356    219.4921     83.6922   1.3672115023e+01   1.9636312105e+01     0.719308    0.5067441 -65.76            0    1.490    0.329
       106 -12.1848    217.6808     75.3152   1.2011579523e+01   2.1311375982e+01    0.4089588    0.3108788  51.99  0.002290196    1.549    0.354
       107 -12.0802    220.4604     69.6170   1.0381756755e+01   2.1615271570e+01    0.4328387     0.315056 -61.96  0.001291301    1.274    0.215
       108 -11.7437    162.2537     83.7385   2.2967368784e+01   3.2226489974e+01    0.5266941    0.4755936  61.71  0.002203946    1.124    0.111
       109 -11.8516    148.0000     83.5185   2.5935857957e+01   3.5663069341e+01     0.454895    0.4115734 -62.22  0.001405382    1.082    0.076
       110 -11.5255    147.4522     79.4786   2.4917811022e+01   3.6568069962e+01    0.3954011    0.3614566 -42.36  0.001537245    1.151    0.131
       111 -12.1767    236.1809     85.8729   1.2090626504e+01   1.6106587255e+01    0.5970057     0.312058  78.15  0.002231781    3.068    0.674
       112 -10.7339    174.1082    112.1662   2.7804939175e+01   2.4111105947e+01    0.4266254    0.2317604  36.53 0.0007442178    2.308    0.567
       113 -13.1079    205.7981     78.3198   1.4277694916e+01   2.3312065506e+01     1.397489    0.5245609  71.14  0.004323944    4.965    0.799
       114 -12.3964    169.0460     80.7723   2.0854297046e+01   3.1165797225e+01    0.5431075    0.3772227 -62.74  0.001102316    1.548    0.354
       115 -11.1317    168.9863     76.4736   1.9717082390e+01   3.1945178841e+01     0.461014    0.2887699  79.13  0.001598203    1.992    0.498
       116 -10.3159    209.8367    111.9790   2.1379133946e+01   1.6851411378e+01    0.4210192    0.1808422  58.10  0.001687069    2.956    0.662
       117 -11.1644    238.0688     80.9474   1.0832232983e+01   1.6499686010e+01    0.2028503    0.1685151 -32.21   0.00130728    1.236    0.191
       118 -12.4792     91.6270     66.4944   3.6422865312e+01   5.2246505348e+01     1.085962    0.7266546  75.66  0.004436853    2.258    0.557
       119 -10.9394    100.0353     80.5341   3.8130220298e+01   4.7450325034e+01     0.394908     0.289881  61.90  0.001802468    1.482    0.325
       120 -11.0085     99.4708     76.7272   3.7129009762e+01   4.8395904342e+01    0.3510925    0.2776784 -31.97  0.001193119    1.421    0.296
       121 -11.0727     96.4771     75.5488   3.7746639549e+01   4.9299827592e+01    0.4408728    0.2909518 -51.10  0.001412586    1.580    0.367
       122 -10.9151     82.2947     78.9490   4.3821878622e+01   5.1472158036e+01    0.3729743    0.2478801  29.84  0.001062601    1.656    0.396
       123 -12.0064     83.4045     73.1461   4.1580767143e+01   5.2548101559e+01    0.6893827    0.5341049  66.90  0.002253534    1.512    0.338
       124 -10.2032    103.8968     76.0163   3.5481400672e+01   4.7565985003e+01    0.2771611     0.213493 -41.65  0.001316867    1.362    0.266
       125 -10.3824    106.4587     72.4347   3.3540026609e+01   4.7728305020e+01    0.2915696    0.2272773 -69.62  0.001371747    1.488    0.328
       126 -12.2795     73.0443     74.1801   4.5890153043e+01   5.4304929561e+01    0.7373077    0.5497493  50.90  0.002538254    1.401    0.286
       127 -10.6532    225.9388     74.8810   1.0912877803e+01   1.9722306319e+01    0.1819031    0.1676325 -29.17  0.000423098    1.252    0.201
       128  -9.4984    146.3169     57.8432   1.8786315658e+01   4.0707151739e+01    0.6949129    0.4199219  19.25  0.001816802    4.134    0.758
       129 -11.2326    148.8673     65.4472   2.0541390143e+01   3.8776164078e+01    0.6594474    0.4166194 -60.71  0.002795751    1.790    0.441
       130 -11.8187    136.9799     71.7437   2.5056704611e+01   4.0574921261e+01     1.036998    0.4564236  60.74  0.003657378    2.493    0.599
       131 -11.5794    144.3433     68.1951   2.2319158279e+01   3.9411114465e+01    0.5499821    0.3871264  87.24  0.001680327    1.707    0.414
       132 -10.9931    154.8253     64.8625   1.9170048332e+01   3.7401328916e+01    0.8291999    0.3128061 -44.84  0.002942748    2.612    0.617
       133 -10.3983    152.2745     59.3299   1.8047751486e+01   3.8967536953e+01     0.268659    0.1908251  29.11 0.0009141266    2.014    0.503
       134 -10.1989    136.3901     62.1870   2.2265650631e+01   4.2452319952e+01    0.3495724    0.3149903 -60.42 0.0007683233    1.112    0.100
       135 -11.7132    138.2435     58.8226   2.0799507301e+01   4.2570309923e+01    0.5815374    0.3356402 -73.65  0.002074953    2.805    0.644
       136  -9.5201    191.4141    112.5130   2.4602169810e+01   2.0414143373e+01    0.1412322    0.1303506 -35.47 5.769682e-05    1.063    0.059
       137 -10.5623    165.3015    110.9620   2.9333500580e+01   2.6257030187e+01    0.2081876    0.1872398 -44.94 0.0003384846    1.091    0.083
       138 -10.1562    228.2411     71.2455   9.8468769461e+00   1.9815058163e+01    0.1869507    0.1278622 -60.61  0.001060232    1.373    0.272
       139 -12.5228    104.7487     66.1129   3.1993390726e+01   4.9387909010e+01    0.7965879    0.5019587  42.09            0    1.602    0.376
       140 -11.6551    123.9249     69.3197   2.7565239309e+01   4.4217572174e+01    0.5404699     0.356186 -79.69 0.0007416813    2.264    0.558
       141 -13.5530    117.5132     61.4614   2.6735927461e+01   4.7241984480e+01    0.8150674        0.785  28.91  0.001209274    1.139    0.122
       142 -11.1710    116.7431     55.1534   2.4818236429e+01   4.8556650615e+01    0.2673105    0.2304466  42.89 0.0003941809    1.197    0.165
       143  -9.9642    155.4018     76.7209   2.2434328538e+01   3.5159388512e+01    0.2735713    0.1782164  67.70 0.0009100774    1.632    0.387
       144 -10.9821     97.9814     54.6372   3.0130495188e+01   5.3126916390e+01    0.5668066    0.2369291 -40.19  0.002083631    2.532    0.605
       145  -9.5779    248.8152    108.4169   1.5223308072e+01   1.0504163739e+01    0.2404405     0.073966 -39.90 0.0009913101    2.565    0.610
       146 -11.4420    173.4991     56.4897   1.3519240592e+01   3.4184247589e+01    0.3957434    0.2843744  74.39 0.0009092774    1.372    0.271
       147 -10.2807    108.6957     56.0675   2.7372543216e+01   5.0347886212e+01    0.3614788    0.2041636 -42.66  0.001530421    1.853    0.460
       148  -9.7023    149.5168     48.5490   1.5327951658e+01   4.1384274096e+01    0.2713141    0.1968133  22.05  0.001086213    2.102    0.524
       149 -10.5458    142.5862     54.4833   1.8518504413e+01   4.2200206679e+01    0.3372145    0.2103939 -46.77 0.0006000919    1.619    0.382
       150 -10.7420    145.8801     52.1790   1.7139646100e+01   4.1738522794e+01    0.3319913    0.2379867  38.23 0.0003410205    1.706    0.414
       151 -10.1857    155.8490     54.8001   1.6036174595e+01   3.8809624968e+01     0.424163    0.1576338  57.13  0.001536089    2.523    0.604
       152 -10.0919    137.3732     52.8945   1.9117880906e+01   4.3777072751e+01      0.26583    0.1950128  74.26 0.0004838741    1.359    0.264
       153 -10.7104    131.7621     52.4511   2.0214926429e+01   4.5267552569e+01    0.2989047    0.1437349  63.87  0.001143719    2.121    0.528
       154 -10.3306    161.1851     49.4214   1.3528629913e+01   3.8309810938e+01    0.3355984    0.2345942   7.67  0.001446986    2.572    0.611
       155 -10.8184    131.6525     33.5550   1.3926709070e+01   4.8136856644e+01     0.405821    0.2221158 -43.04 0.0004219785    1.884    0.469
       156 -11.0218    133.1266     46.2306   1.7872081145e+01   4.5913411581e+01    0.4540636    0.2897595 -58.58  0.001337816    1.758    0.431
       157 -10.4061    135.9688     43.4737   1.6368035958e+01   4.5608347631e+01    0.3443158    0.2080439  77.46  0.001314138    1.816    0.449
       158 -11.0305    133.2368     40.1672   1.5836210485e+01   4.6796829332e+01     0.396349    0.2597393  71.29  0.001320088    1.476    0.322
       159  -9.3327    241.2553     47.6856   3.4965193107e+00   2.0605525986e+01    0.1264071   0.07145745 -57.44 0.0003820712    1.529    0.346
       160  -9.9523    233.4233    109.0345   1.7309965738e+01   1.3006515162e+01    0.1705002    0.1617439 -43.46 0.0001212558    1.122    0.109
       161 -11.5439    143.0416     45.9994   1.5767193017e+01   4.3420669494e+01    0.4891005    0.2948132  33.68  0.001939406    2.480    0.597
       162 -11.0181    163.4465     31.1312   7.8502663793e+00   4.0315665545e+01    0.3791206    0.2308113 -74.02 0.0008752397    1.772    0.436
       163 -11.0919    148.6536     40.7405   1.3077872203e+01   4.2763980963e+01    0.7256272     0.465241  80.52  0.003401769    1.604    0.377
       164 -11.8753    173.4551     43.9827   1.0084075695e+01   3.6066925795e+01    0.8262032    0.4002749  61.32  0.002892488    1.980    0.495
       165 -12.4607    178.4119     38.4412   7.8883977629e+00   3.5629435816e+01    0.7996998    0.5173318  38.70  0.003490992    2.223    0.550
       166 -12.3178    186.8613     36.7413   6.3855744717e+00   3.3823466465e+01    0.6624131    0.4556034  70.29  0.001290856    1.413    0.292
       167 -11.7447    189.9630     30.9742   4.5367530688e+00   3.3842836013e+01    0.3229994    0.2445054 -53.55  0.001874006    1.185    0.156
       168 -11.3795    155.3602     42.7099   1.2523800462e+01   4.0772772429e+01     0.461466    0.3560762  12.83  0.002274528    1.950    0.487
       169 -12.4049    160.4186     39.3682   1.0711733954e+01   3.9968841638e+01    0.7567558    0.5025222  88.70  0.003582924    1.550    0.355
       170 -11.0116    161.5667     35.2398   9.3232129368e+00   4.0246243529e+01    0.3221791    0.2038242 -42.42 0.0009259678    1.554    0.356
       171 -11.2125    127.5713     58.6169   2.3210545130e+01   4.5274618769e+01    0.4759884    0.2788973  43.92  0.001372111    1.831    0.454
       172  -9.6791    120.7132     44.3928   2.0083452152e+01   4.9344709392e+01    0.4413272      0.25605 -78.08  0.001591985    3.014    0.668
       173 -10.9859    163.1699     57.2234   1.5433536147e+01   3.6600295356e+01    0.4107667    0.3648818  43.37  0.001986952    1.314    0.239
       174 -10.4161    166.7698     51.8725   1.3311021273e+01   3.6547052437e+01    0.3628327    0.1914492  44.63  0.001484016    2.395    0.582
       175 -10.6115     94.0787     42.4519   2.6795240985e+01   5.6145543356e+01    0.3861282    0.2501028  21.22  0.001624469    2.303    0.566
       176  -9.3622    250.6388     39.2489   1.0207934849e+00   1.9932791181e+01    0.1220408   0.06887342 -64.40 0.0003010643    1.610    0.379
       177  -9.3189    100.3458     41.3203   2.4422868969e+01   5.4847173813e+01    0.1531536    0.1104487  25.87  0.000704946    1.731    0.422
       178 -10.5612    172.8545     33.1029   7.1439330160e+00   3.7709125029e+01    0.4117643    0.2003989  77.18  0.001551877    2.091    0.522
       179 -10.4263    121.9464     32.8240   1.5701739495e+01   5.0726740204e+01    0.2190297    0.2034546 -41.48 0.0004896399    1.187    0.157
       180 -10.5519    111.9401     32.8421   1.8041142537e+01   5.3260549230e+01    0.3046019    0.1958812  57.44 0.0007445769    1.403    0.287
       181 -10.2228    237.8284     30.8462   2.2721295502e-01   2.3439283139e+01    0.2038529    0.1525068 -83.07  0.001054992    1.256    0.204
       182  -9.4714    241.8245     30.0479   3.5977303331e+02   2.2755133821e+01    0.2497348    0.1663167 -59.07 0.0008811093    1.182    0.154
       183 -10.4375    227.9128     30.3382   8.7152563198e-01   2.5504120893e+01     0.345338    0.2458869  50.23  0.002074708    1.923    0.480
       184 -10.9208    196.6992    108.0795   2.2656783306e+01   2.0136645815e+01    0.4219204    0.2979808 -69.64  0.002070232    1.774    0.436
       185 -10.2357    152.1167     29.6489   9.0686291937e+00   4.3386419389e+01    0.1881302    0.1546021  74.65 0.0003505287    1.113    0.102
       186 -10.1690    219.0209     28.5420   1.1889402204e+00   2.7595577908e+01    0.2593554    0.1826463 -15.77  0.001449586    2.049    0.512
       187 -11.0387    191.5739    102.1092   2.2142955999e+01   2.2270613271e+01    0.4519261    0.2185595 -47.65  0.001886042    1.992    0.498
       188  -9.1252    212.1204     15.3416   3.5871102604e+02   3.0669293996e+01    0.2257686    0.1112768 -55.82 0.0005771869    1.714    0.417
       189 -13.0654    147.2361    104.1569   3.1679487153e+01   3.1680739011e+01     1.058127    0.6524469  76.77  0.003896678    2.657    0.624
       190 -11.1470    141.4879     96.1501   3.0944994381e+01   3.4666148547e+01     0.431381    0.4066201  66.92  0.002282578    1.042    0.040
       191 -11.1460    202.0672     20.6762   7.8180294302e-01   3.2299542984e+01    0.3209017    0.2165137 -53.36  0.001041675    1.264    0.209
       192 -12.4238    118.3745     93.0604   3.6211761599e+01   4.0631818856e+01     0.552818    0.4389861  27.53  0.001576762    1.471    0.320
       193 -10.6188     97.5562     21.6699   1.7317235670e+01   5.8306625773e+01    0.2516635    0.2430948  50.65 0.0007508354    1.088    0.081
       194 -10.1933    102.4920     22.5362   1.6382237935e+01   5.6981378533e+01    0.2540088    0.1942763 -37.57 0.0006906355    1.436    0.304
       195  -9.6083    102.4697     19.5482   1.5169557719e+01   5.7349529111e+01    0.2437639    0.2194879  44.67 0.0009436389    1.123    0.110
       196  -8.7441    103.4605     29.4894   1.8920301281e+01   5.5835783291e+01     0.277119    0.2015817  34.47  0.001167578    1.534    0.348
       197 -10.5797    102.3030     26.6748   1.8103955051e+01   5.6498928164e+01    0.2437072    0.2116985  80.72 0.0006033423    1.155    0.134
       198  -9.8795    114.7143     28.1818   1.5628108941e+01   5.3190688920e+01    0.2535009    0.1692821  51.88 0.0003648378    1.402    0.287
       199 -10.9993    112.7347     23.5154   1.4311052983e+01   5.4286759311e+01    0.4669284    0.3242558  12.84  0.002219052    2.089    0.521
       200 -10.9441    134.8554     26.4014   1.0892252392e+01   4.8245709625e+01     0.286099    0.2500998  20.20 0.0008557005    1.439    0.305
       201  -9.9931    234.8820     23.6459   3.5891672395e+02   2.4903793233e+01    0.3017254    0.2804614  80.36    0.0022085    1.382    0.277
       202 -13.6945    122.0621     98.9696   3.6804176608e+01   3.8497999529e+01     1.236253    0.6289663 -35.82  0.004019014    2.461    0.594
       203 -10.2598    154.3824     25.3413   7.4081261342e+00   4.3348407101e+01    0.2614896    0.2266685  50.01  0.001510996    1.319    0.242
       204 -10.4262    147.6711     25.4090   8.4309226434e+00   4.5061123020e+01    0.3014738    0.2190686  44.29  0.001560976    1.598    0.374
       205 -10.2064     21.5333     25.6959   5.4421150257e+01   7.2015188888e+01    0.3979945    0.2523292  34.65  0.002222903    1.689    0.408
       206  -9.9451     19.6784     19.6073   5.2903085389e+01   7.3357076165e+01    0.2674302    0.1724557 -67.05  0.001219446    2.281    0.562
       207 -12.0294    176.3100     23.4480   4.0549928935e+00   3.8074707992e+01    0.3291922    0.2889851  45.20  0.001988861    1.436    0.304
       208  -9.7797    119.6073     21.8224   1.2195879785e+01   5.2737838562e+01    0.2474925    0.1630937 -76.59 0.0008230675    1.801    0.445
       209 -13.4227    131.3167     95.3774   3.3306860660e+01   3.7178809302e+01     1.047959    0.6964141  38.83  0.004543291    1.629    0.386
       210 -11.6796    123.5930     23.5025   1.2006045800e+01   5.1510704167e+01     0.360085    0.2635114 -17.63  0.001261576    1.697    0.411
       211 -11.9060    132.7140     87.2515   3.0664798278e+01   3.8555780925e+01    0.9700729    0.3131835  50.28  0.002995494    3.047    0.672
       212  -9.8486    185.4839     22.9587   2.9299437214e+00   3.5906902915e+01    0.2109556    0.1568029  85.55 0.0006404222    1.213    0.175
       213 -11.1851    163.0315     21.0153   4.9510165351e+00   4.1671799204e+01    0.2046952    0.1733163 -84.97  0.000336659    1.007    0.007
       214 -11.3696    127.1329     89.3870   3.2737075188e+01   3.9417082005e+01    0.3948879    0.3791993  66.65 0.0006503737    1.031    0.030
       215 -10.0247    130.8685     19.4392   9.2120750027e+00   5.0113114133e+01    0.2101917    0.1235783  68.03 0.0004798721    1.502    0.334
       216 -10.0875    194.1669     17.8705   7.8744861149e-01   3.4451722053e+01    0.2025617    0.1436296 -67.42 0.0005009486    1.200    0.167
       217  -9.9834    151.1696     20.0384   6.2307971281e+00   4.4804329681e+01    0.1844864    0.1692519  67.51  0.001108171    1.179    0.152
       218 -13.3786     36.6691     56.1148   5.6776890184e+01   6.3957573496e+01     1.302851     0.767332  22.89  0.005670652    1.756    0.430
       219  -9.8986    121.0177     16.5215   9.9612496496e+00   5.2985660635e+01    0.2942877    0.1601856  88.89   0.00123006    2.244    0.554
       220 -10.7164    132.4333     82.7962   2.9450846524e+01   3.9528360353e+01    0.2721674    0.2321858 -42.74 0.0003539569    1.217    0.179
       221 -12.3967    136.6903     80.9009   2.7838207123e+01   3.8887568709e+01     1.156644    0.6245123  65.37  0.001839282    2.267    0.559
       222 -11.8408    122.0068     87.0092   3.3451034334e+01   4.1107886232e+01    0.5415482    0.3847635 -53.37  0.002148418    1.457    0.314
       223 -10.3240    172.2746     15.9411   2.4284299715e+00   3.9945123575e+01    0.2122189    0.1500178 -65.18 0.0005668866    1.276    0.216
       224 -10.1013     94.1109     15.7470   1.5716850568e+01   5.9853538144e+01     0.273694    0.1160242  47.40  0.001057193    2.199    0.545
       225 -11.9120    126.0084     85.0158   3.1777116309e+01   4.0593538844e+01     0.576609    0.3495528 -34.47  0.001557385    1.917    0.478
       226 -11.8921    161.1590    105.7236   2.8923326452e+01   2.8222019364e+01    0.4106308    0.2588848 -62.16  0.001543737    1.932    0.482
       227 -10.8241     26.5459    107.0714   7.2722186741e+01   5.2219514475e+01    0.2282089    0.1846692 -36.78  0.000651266    1.332    0.249
       228 -11.0957     16.0254    105.9803   7.6733700989e+01   5.3335123135e+01    0.3589689     0.223055 -41.78  0.001786234    1.709    0.415
       229 -10.3246    210.6200    105.3354   1.9782033523e+01   1.7835109390e+01    0.2784605    0.2453085  55.77  0.001393616    1.266    0.210
       230  -8.8783    128.2786     15.3262   8.2189182853e+00   5.1243020043e+01    0.1370739   0.09952217  39.51  0.000170016    1.592    0.372
       231 -10.1883    167.2007     14.0250   2.4409537991e+00   4.1419521108e+01    0.2646614    0.1705109  90.00  0.001065511    1.410    0.291
       232 -11.3427    110.6047    103.8112   4.1446100627e+01   3.9899562366e+01    0.3828095    0.2520865  15.39  0.001428097    2.517    0.603
       233  -9.3171    102.2299     14.5949   1.3188870429e+01   5.7974690550e+01    0.1378722   0.09693233 -60.08 0.0006891417    1.668    0.400
       234  -9.6086    160.2474     13.5805   3.1037243027e+00   4.3215923107e+01    0.1767523    0.1109264  63.43 0.0002715945    1.503    0.335
       235 -11.1923    215.8875    100.5360   1.7927748196e+01   1.7615948383e+01    0.3852671    0.2008014 -33.63  0.001448813    1.865    0.464
       236 -11.0073    170.0012     98.0272   2.5145988570e+01   2.7742155915e+01    0.4761931    0.3658804 -18.42  0.002296346    1.651    0.394
       237 -10.8614    160.7574    100.4436   2.7670229450e+01   2.9364477264e+01    0.2960565    0.2079189 -44.94  0.001385712    1.393    0.282
       238 -11.7060    152.2289     98.0081   2.8916098541e+01   3.1802699329e+01    0.6311826    0.4180605 -70.12  0.002358598    2.000    0.500
       239 -12.5862    111.1177     93.5843   3.8496270708e+01   4.2131232690e+01    0.5428258    0.3985364  47.73  0.001779506    1.330    0.248
       240 -12.6570    102.4059     96.7342   4.2082496711e+01   4.3282745146e+01    0.6878943    0.5583757 -80.12  0.001904274    1.413    0.292
       241 -12.3333     95.4819     90.6147   4.2631261004e+01   4.6144680107e+01    0.5249483    0.4848013 -90.00  0.001426827    1.122    0.108
       242 -10.8473    110.4740     87.0133   3.6798098684e+01   4.3731741878e+01     0.433475     0.274545 -55.91  0.001826067    1.708    0.414
       243 -13.0367    114.2391     81.0993   3.3910586793e+01   4.4147163045e+01     1.064919    0.5472519 -44.74  0.004146862    2.000    0.500
       244 -12.7273     85.5546     98.6107   4.8243897096e+01   4.6198265933e+01    0.6811942    0.4837248  26.62  0.003054417    1.580    0.367
       245 -10.3695    244.3929     98.2139   1.3691942759e+01   1.2781190429e+01    0.3582033    0.1358716 -33.64  0.001539174    2.468    0.595
       246 -11.7068    199.6816     96.7050   1.9522260104e+01   2.1523987292e+01    0.4008987     0.289049 -46.53  0.001054363    1.261    0.207
       247 -12.2607     57.3661     99.1074   5.8927084113e+01   5.0771621190e+01    0.6040319    0.2090597  28.76  0.001992758    3.077    0.675
       248 -11.7630     11.5032     98.2335   7.7607040271e+01   5.5658829504e+01    0.3198033    0.2277445 -55.66 0.0007952184    1.301    0.232
       249 -11.4529     74.4027     97.6445   5.2026334993e+01   4.8451030606e+01    0.3615943    0.2845008  37.02  0.001589264    1.271    0.213
       250 -12.4228    232.7016     73.5501   9.8501536916e+00   1.8607636818e+01    0.7597143    0.3851475 -22.76  0.003216525    3.003    0.667
       251 -12.1066    248.3737     44.1431   2.1845511534e+00   1.9725898551e+01    0.7552075    0.1726759 -45.24  0.003043128    3.013    0.668
       252 -14.0934    193.1413     87.0577   1.8268669869e+01   2.4584502136e+01     1.618888     1.347042  10.43  0.005111144    1.643    0.391
       253 -11.4674    245.1606     50.2483   3.6997919907e+00   1.9523320125e+01    0.2722379    0.1583362 -39.30 0.0002698716    1.446    0.308
       254 -13.3028    185.8491     60.2834   1.2658302551e+01   3.0646400619e+01      1.22648    0.8458426  55.89 0.0008107299    1.546    0.353
       255 -12.8511    195.1208     67.8837   1.3252888752e+01   2.7320811950e+01     1.010383    0.5210322  58.60  0.001798629    2.014    0.504
