#   1 NUMBER                 Running object number                                     
#   2 MAG_AUTO               Kron-like elliptical aperture magnitude                    [mag]
#   3 X_IMAGE                Object position along x                                    [pixel]
#   4 Y_IMAGE                Object position along y                                    [pixel]
#   5 X_WORLD                Barycenter position along world x axis                     [deg]
#   6 Y_WORLD                Barycenter position along world y axis                     [deg]
#   7 A_WORLD                Profile RMS along major axis (world units)                 [deg]
#   8 B_WORLD                Profile RMS along minor axis (world units)                 [deg]
#   9 THETA_WORLD            Position angle (CCW/world-x)                               [deg]
#  10 FWHM_WORLD             FWHM assuming a gaussian core                              [deg]
#  11 ELONGATION             A_IMAGE/B_IMAGE                                           
#  12 ELLIPTICITY            1 - B_IMAGE/A_IMAGE                                       
         1 -15.2048    244.1591    139.5398   1.9580543893e+01   8.7488584559e+00     1.831041    0.8730891 -22.57  0.009048385    2.200    0.546
         2 -12.0162     39.6040     50.3947   4.7958102156e+01   6.4874545138e+01    0.6187886    0.1827307 -46.91  0.002087861    3.118    0.679
         3 -12.2854    249.6052     19.7936   3.5381274005e+02   2.3459872239e+01    0.3249332    0.1098252 -22.23   0.00127091    4.035    0.752
         4 -13.9701    214.4609     15.1630   3.5481446003e+02   3.0743287297e+01    0.7206189    0.3546644 -83.32  0.003654922    2.228    0.551
         5 -11.7190     65.2965     11.6953   1.6681243737e+01   6.6919322083e+01     0.225179    0.1991548  32.54 0.0003129615    1.060    0.057
         6 -13.2855    244.3615      3.0755   3.5050793472e+02   2.6115627087e+01    0.4217084    0.2571443 -81.60  0.002786353    1.622    0.384
         7 -12.2362      3.3510     10.7634   5.4941700189e+01   7.7275537296e+01    0.2240562     0.132538 -43.68 0.0007961579    1.449    0.310
         8 -10.1594     77.0480      9.7860   1.1823316805e+01   6.4420248641e+01    0.1796386    0.1042494  62.38 0.0004088564    1.640    0.390
         9 -12.5743    241.8111      8.9400   3.5187728872e+02   2.6006910602e+01    0.1621787    0.1412655 -39.80 0.0006216232    1.247    0.198
        10 -10.2419     82.0412      6.9549   8.9742057853e+00   6.3511632348e+01     0.153787    0.1455057  49.49 0.0009436207    1.022    0.022
        11 -13.7105    189.2104      7.1189   3.5445446334e+02   3.7047343575e+01    0.6467735    0.2902384 -58.61  0.003047163    2.090    0.522
        12 -11.9471    178.8484      3.8486   3.5429080168e+02   3.9740165144e+01    0.2111515    0.1815939 -64.45 0.0002965199    1.027    0.027
        13 -10.2871     16.6788      1.6724   3.6672969502e+01   7.7414134881e+01     0.129357    0.0858132  -3.76 0.0007048072    1.688    0.407
        14 -11.8867    115.7112    238.3857   5.9651708248e+01   1.0819852253e+01    0.6672252    0.1214095  33.05  0.002349463    3.936    0.746
        15 -13.1554     91.4170    247.6981   6.5583172054e+01   1.2174873731e+01      1.27283    0.1878319  32.03  0.004382108    4.300    0.767
        16 -12.6538    136.4503    235.5727   5.5078895369e+01   8.7190492722e+00     2.585108    0.6586523  26.12  0.008256437    5.103    0.804
        17 -13.9379    190.1189    247.3355   4.6427312734e+01   7.8818303527e-01     1.905719    0.6660557  33.40   0.00992679    2.479    0.597
        18 -12.1914    125.3883    239.5490   5.7787623005e+01   9.4542706699e+00    0.6059745    0.1982903  37.09  0.002761934    2.468    0.595
        19 -12.2467    113.4678    242.8873   6.0586209007e+01   1.0364834832e+01     1.124135    0.1313752  33.63  0.003552915    5.008    0.800
        20 -12.4010    148.3473    237.2546   5.2908817617e+01   7.0023042899e+00     0.774682    0.3374304  22.08  0.003778618    2.303    0.566
        21 -13.7735    114.0942    247.4046   6.0916302782e+01   9.5766718287e+00     2.524163    0.4524926  29.13  0.007979607    5.213    0.808
        22 -12.9154    161.6705    235.6844   5.0118085666e+01   5.6140060488e+00    0.9943616    0.4021851  18.00  0.004142041    3.405    0.706
        23 -13.9451    142.4542    248.1377   5.5359038936e+01   6.1169046158e+00     1.386845    0.4932109  34.58  0.006892516    2.243    0.554
        24 -14.6821    158.4551    245.9606   5.2030125587e+01   4.5491028946e+00     2.408732    0.9766273  19.75   0.01119738    2.784    0.641
        25 -11.1074     68.6906    245.7757   7.0147190855e+01   1.5055160655e+01    0.3215531    0.1096751  35.15   0.00136058    2.113    0.527
        26 -12.1532     75.6777    250.0911   6.9016273553e+01   1.3553016755e+01    0.5449146    0.1179103  37.10  0.002292984    2.936    0.659
        27 -13.0038     64.5352    249.4081   7.1259745456e+01   1.4883186851e+01    0.7803295    0.1983425  32.98  0.003454039    2.686    0.628
        28 -12.4615     37.0086    247.8307   7.6814734095e+01   1.7987649539e+01     1.012107     0.270338  23.45  0.003866719    4.242    0.764
        29 -12.4841     52.1714    249.8770   7.3826376961e+01   1.6105686634e+01    0.5150325    0.1267557  37.31  0.002356234    2.557    0.609
        30 -13.7421     41.1547    244.2055   7.5781290908e+01   1.8223189203e+01       1.6545    0.4892637  30.88  0.007772247    2.502    0.600
        31 -11.9111      2.5228    236.3190   8.3421944376e+01   2.3201788897e+01    0.2577174     0.200998 -84.21  0.001945382    1.437    0.304
        32 -11.9369     94.9148    235.7471   6.3764928450e+01   1.3780138625e+01     0.489512    0.1677546  38.57  0.002257223    2.280    0.561
        33 -10.3573     85.9321    237.4622   6.5841396342e+01   1.4545551696e+01    0.1877009   0.09468841  32.48  0.000740843    1.582    0.368
        34 -12.0164     42.6932    236.2171   7.5023662672e+01   1.9527194666e+01    0.6548764    0.1159499  36.37  0.002658571    3.104    0.678
        35 -11.8590     63.7637    234.0462   7.0341424145e+01   1.7690224723e+01    0.3980414    0.1569526  42.36   0.00158641    1.982    0.495
        36 -12.7768    195.4674    230.2168   4.3134028067e+01   2.3656649204e+00    0.4403614    0.2034179  16.04  0.002255335    2.418    0.586
        37 -10.8743    189.8052    230.4047   4.4167798323e+01   2.9968078158e+00    0.2708257     0.130248  18.69  0.001457828    2.067    0.516
        38 -11.1084    109.5171    233.4825   6.0427500074e+01   1.2392482161e+01    0.2560068   0.09763802  31.44  0.001197555    2.127    0.530
        39 -10.5068     34.0401    233.4766   7.6727315703e+01   2.0904473198e+01    0.1767348   0.09346485  31.66  0.001024186    1.568    0.362
        40 -11.8230     80.3480    231.5732   6.6528480152e+01   1.6249824817e+01    0.3228196    0.1950047  31.71  0.001520387    1.370    0.270
        41 -10.9571     73.0525    232.4923   6.8198847367e+01   1.6928408238e+01    0.3031723    0.0959644  30.37  0.001236679    2.542    0.607
        42 -10.2992     68.6869    230.3267   6.8980032896e+01   1.7826624713e+01    0.1821487   0.09132492  42.94 0.0009454235    1.624    0.384
        43 -11.1123     55.4751    232.5135   7.2035010137e+01   1.8881015201e+01    0.2455204   0.09373611  30.86  0.001186195    2.101    0.524
        44 -11.6280    125.1990    231.1946   5.6871450594e+01   1.0821191909e+01    0.3974442    0.1474081  29.76  0.001814511    2.295    0.564
        45 -11.9183    116.4201    230.2183   5.8605693387e+01   1.2086084191e+01     0.432782    0.2547621  32.00  0.002507176    1.401    0.286
        46 -11.6768    102.1959    230.2893   6.1657259212e+01   1.3844928689e+01    0.3879701    0.1758624  26.48  0.001904542    1.998    0.499
        47 -11.2220     87.3784    231.1177   6.4953617918e+01   1.5499283926e+01    0.2964992     0.151683  25.78  0.001518007    1.777    0.437
        48 -11.8838    146.6565    229.6561   5.2283729499e+01   8.3652854987e+00    0.4142725    0.1910448  27.49  0.001980807    1.887    0.470
        49 -10.8880    152.7325    227.8875   5.0837408801e+01   7.8730237729e+00    0.2360181    0.1405714  16.35 0.0009860168    1.625    0.384
        50 -11.3230    134.5489    230.0666   5.4798245934e+01   9.8267263710e+00    0.3350804    0.1517305  29.36  0.001515488    1.871    0.466
        51 -11.1110     46.8434    229.9623   7.3754173924e+01   2.0279411658e+01    0.2894919    0.1208249  37.54  0.001131206    1.808    0.447
        52 -10.7097    209.4670    229.5122   4.0615916185e+01   8.7491035373e-01    0.1947329   0.08584775  20.02  0.001032557    2.280    0.561
        53 -11.5790     98.9537    242.6731   6.3568850384e+01   1.2126563097e+01    0.3138061    0.1721022  33.89  0.001571223    1.437    0.304
        54 -11.5761    176.9389    227.9274   4.6172033316e+01   4.8681979413e+00    0.3952397    0.1453405  28.56  0.001877487    2.451    0.592
        55 -11.2877     94.4827    228.2724   6.3127253155e+01   1.5150984044e+01    0.3688368    0.1339961  32.61  0.001678533    2.201    0.546
        56 -10.7492    140.0596    227.1381   5.3299198353e+01   9.5972657806e+00    0.1900826     0.140231   8.57 0.0009072426    1.302    0.232
        57 -11.0421    109.9454    227.1985   5.9652212885e+01   1.3418412259e+01    0.2961412    0.1476333  30.62  0.001411637    1.679    0.404
        58 -10.6299     58.5782    227.2386   7.0978738661e+01   1.9541696013e+01    0.2289099     0.104958  38.30 0.0009335222    1.699    0.411
        59 -10.7017    214.1236    226.1206   3.9334708817e+01   7.8263706447e-01    0.1774059    0.1177153   0.42  0.001092912    1.262    0.208
        60 -10.5737    185.4616    226.5082   4.4395925563e+01   4.0383540214e+00    0.2008473   0.09266265  20.72  0.001025759    2.176    0.540
        61 -11.3596     75.1338    225.0134   6.7104379603e+01   1.8079060493e+01    0.3262313    0.1832949  41.77   0.00145917    1.472    0.321
        62 -10.4137    191.7922    225.3331   4.3080112716e+01   3.4446020238e+00    0.1657376   0.08724332  20.56 0.0009425326    1.745    0.427
        63 -10.9452    168.8694    225.2436   4.7321822541e+01   6.2466588351e+00    0.2603559    0.1318079  23.43 0.0009910398    1.807    0.447
        64 -11.2535    128.9868    225.0810   5.5340710376e+01   1.1352475091e+01    0.2993051    0.1496447  30.24  0.001565121    1.694    0.410
        65 -10.8859    121.4711    224.8632   5.6907676560e+01   1.2355208734e+01    0.2410044    0.1365263  39.25  0.001197528    1.564    0.361
        66 -10.9150     67.4644    225.6109   6.8870978956e+01   1.8854993168e+01    0.2399333   0.08703918  34.71  0.001106761    2.120    0.528
        67 -11.2859     32.8837    224.7182   7.6524686973e+01   2.2710719824e+01    0.2665273    0.1135395  35.50  0.001056707    1.810    0.447
        68 -11.3770    201.7150    223.9453   4.1123033876e+01   2.4664440403e+00    0.2957098    0.1303804  25.97  0.001600181    2.083    0.520
        69 -10.6182    163.0257    224.4594   4.8342661657e+01   7.0955930473e+00     0.181782     0.099525  28.57 0.0009355703    1.570    0.363
        70 -11.3852     86.9112    224.4451   6.4421023124e+01   1.6775614153e+01    0.3580902    0.1236055  29.14  0.001524494    2.521    0.603
        71 -10.6499     80.7421    223.4341   6.5704341797e+01   1.7711233045e+01    0.2333969   0.09237152  35.43  0.001046792    1.996    0.499
        72 -11.8548     53.2085    222.6904   7.1852228351e+01   2.1011606480e+01    0.3821266     0.186284  30.81  0.001573245    1.735    0.424
        73 -10.9893     20.4776    222.9346   7.9174142732e+01   2.4236644767e+01    0.2328079    0.1129109  41.91 0.0009148782    1.569    0.363
        74 -10.8938    135.9665    222.6112   5.3564095977e+01   1.0861044028e+01    0.2746119    0.1012153  31.40  0.001222804    2.321    0.569
        75 -11.4222     43.0570    221.3522   7.4054694556e+01   2.2353835868e+01    0.3569074    0.1745887  35.14  0.001772305    1.642    0.391
        76 -11.0200    116.0663    220.6907   5.7573202771e+01   1.3778527922e+01    0.2988852    0.1282401  26.94  0.001367473    2.175    0.540
        77 -11.9663     99.0361    220.5038   6.1309656947e+01   1.5999139737e+01    0.4703049    0.2489209  26.61   0.00217083    1.719    0.418
        78 -11.0890    107.3565    217.6761   5.9135361347e+01   1.5452471989e+01    0.5925189    0.2185308  40.82  0.002586535    2.380    0.580
        79 -11.1955     62.3304    220.9673   6.9654038959e+01   2.0338268309e+01    0.3485383    0.1108944  38.88  0.001527608    2.353    0.575
        80 -11.1171     14.1746    221.4259   8.0495404605e+01   2.5100641311e+01    0.2075058    0.1084049  37.83  0.001064228    1.510    0.338
        81 -10.9905      1.7425    220.1379   8.3155957321e+01   2.6400555917e+01     0.231818    0.1420824  83.55  0.001488994    1.519    0.342
        82 -11.1762    184.7510    219.5340   4.3505400406e+01   5.1010567987e+00    0.2759496    0.1539149  10.32  0.001314204    1.965    0.491
        83 -11.0410    175.2902    219.7373   4.5306303244e+01   6.2515660904e+00     0.243065     0.137049  19.91  0.001257942    1.658    0.397
        84 -11.5011    150.7940    219.5521   5.0097329651e+01   9.4272144175e+00    0.3985549    0.1935947  19.57  0.001898973    2.269    0.559
        85 -10.4780    142.0407    219.9129   5.1943873920e+01   1.0513721312e+01    0.2235022     0.144024  22.37  0.001301932    1.385    0.278
        86 -10.5338     69.7438    220.5985   6.7935948964e+01   1.9557992074e+01    0.1742372    0.0933999  39.08 0.0008908009    1.519    0.342
        87 -10.5398    125.0253    219.8140   5.5526193652e+01   1.2763206176e+01    0.1757969   0.08198012  31.47 0.0008550187    1.827    0.453
        88 -10.8995    194.8317    218.3261   4.1492932055e+01   4.0378991552e+00    0.2686372    0.1166672  40.93  0.001325681    2.727    0.633
        89 -11.5215    162.1917    217.3650   4.7501235335e+01   8.2871369412e+00    0.3927631    0.1731563  26.76  0.001904944    2.126    0.530
        90 -11.3377     86.3542    215.9626   6.3698478200e+01   1.8453510466e+01    0.4397483    0.1985733  36.55  0.002142933    1.817    0.450
        91 -10.9601     75.9087    216.9242   6.6193599201e+01   1.9545979538e+01    0.3329207    0.1092501  40.29  0.001415401    2.422    0.587
        92 -11.2968     23.7980    216.7527   7.8152432066e+01   2.5179186072e+01    0.2473537    0.1492678  37.70 0.0009452447    1.365    0.267
        93 -11.2488      8.2115    217.0113   8.1647174148e+01   2.6502649765e+01    0.2244516    0.1627533  13.51  0.001304858    1.664    0.399
        94 -10.8098    137.4352    215.7025   5.2340529046e+01   1.1826929346e+01    0.2601859    0.1329332  19.81  0.001241271    2.129    0.530
        95 -11.9081     31.8524    214.8826   7.6219607045e+01   2.4795098304e+01    0.3643824    0.1805656  32.01   0.00150025    1.709    0.415
        96  -9.9248    213.0165    216.0000   3.7981824849e+01   2.1969985077e+00    0.1754943   0.05598341  32.74 0.0008069647    2.974    0.664
        97 -10.8052    120.1741    215.2732   5.6007113691e+01   1.4203899600e+01    0.2981431    0.1238374  33.92  0.001373629    2.035    0.509
        98 -11.1139     55.2795    213.7673   7.0709933809e+01   2.2572803794e+01    0.3329513    0.1461386  51.13  0.001414966    2.110    0.526
        99 -10.3823     18.6364    215.2439   7.9249148974e+01   2.5960603725e+01    0.1282334    0.0631767  50.02 0.0004495858    1.606    0.377
       100 -10.1944     14.0185    216.0000   8.0318987180e+01   2.6213712119e+01     0.179093   0.05801639  25.15 0.0007849038    2.822    0.646
       101 -11.4498     65.1959    213.3663   6.8357721556e+01   2.1524840787e+01    0.3397655    0.1621059  41.18  0.001398547    1.726    0.421
       102 -10.8661    144.8257    213.1638   5.0434876582e+01   1.1265557676e+01    0.2671692    0.1409405  39.04  0.001384273    1.784    0.440
       103 -10.7831    113.5334    213.5163   5.7257222843e+01   1.5405637874e+01    0.2632197    0.1099372  31.03  0.001187171    2.086    0.521
       104 -10.3760    200.2038    212.6298   3.9662400589e+01   4.1716488581e+00    0.1636206   0.09219372  19.47 0.0009455261    1.674    0.403
       105 -10.7765    171.1332    212.5811   4.5041496070e+01   7.8609269673e+00    0.2224018    0.1020162  34.66  0.001120118    1.993    0.498
       106 -11.2877    155.7321    212.1424   4.8038721200e+01   9.9699857782e+00    0.2796839    0.1523139  26.00  0.001384447    1.678    0.404
       107 -10.7704    101.3046    211.9603   5.9832730621e+01   1.7311671863e+01    0.2984747    0.1385088  37.78  0.001433101    1.828    0.453
       108 -10.4421     70.2909    211.9921   6.7039890514e+01   2.1202449555e+01    0.1767478    0.1426836  45.52 0.0007052239    1.061    0.057
       109 -11.2597     44.9293    212.1411   7.3012029399e+01   2.4031365619e+01    0.3101086    0.1175593  38.82  0.001450189    2.036    0.509
       110 -10.6247      3.6211    212.1351   8.2507100936e+01   2.7881005083e+01    0.2071913    0.1186917  38.56  0.001186315    1.426    0.299
       111 -10.4026    187.1723    211.6292   4.1857569354e+01   5.9357844156e+00    0.1713232   0.09556574  20.31 0.0009490486    1.715    0.417
       112 -10.8084    126.4014    211.5391   5.4156053002e+01   1.4037636004e+01      0.26096    0.1094806  31.95  0.001182377    2.079    0.519
       113 -10.7537     10.2272    209.9434   8.0940075362e+01   2.7794719144e+01    0.2617956    0.1168565  34.67  0.001253567    1.807    0.447
       114 -12.3381    226.6993    205.1031   3.4005831923e+01   2.0292738747e+00     0.643132    0.2851387  18.81  0.003221854    2.737    0.635
       115 -10.9221    133.3725    208.7591   5.2256849605e+01   1.3582963980e+01    0.2662038    0.1547029  21.08  0.001321715    1.726    0.421
       116 -10.7116    108.3284    209.4157   5.7922708090e+01   1.6866409385e+01    0.2475869    0.1149913  25.55  0.001112876    2.137    0.532
       117 -10.8766     94.5882    209.2215   6.1064317452e+01   1.8718994986e+01    0.2536682    0.1557152  31.18  0.001246992    1.429    0.300
       118 -11.2106     80.2879    207.7516   6.4263237319e+01   2.0840185690e+01      0.33872    0.1759406  53.16  0.001631364    2.025    0.506
       119 -10.7566     58.6531    209.2368   6.9547382027e+01   2.3126439054e+01    0.2510171    0.1095734  39.15  0.001203104    1.854    0.461
       120 -10.6562     26.5769    209.2520   7.7131869798e+01   2.6477903919e+01     0.219605    0.1077595  40.04  0.000727326    1.625    0.385
       121 -11.0297     21.0789    209.2235   7.8411297285e+01   2.6994775310e+01    0.1709991    0.1480726  40.50 0.0007691834    1.174    0.148
       122 -10.7827    163.4357    208.4869   4.5939431207e+01   9.5261158267e+00    0.2527634    0.1087818  30.08  0.001187886    2.141    0.533
       123 -11.1784     34.7931    206.9390   7.5060178462e+01   2.6168987997e+01    0.2649071    0.1416454  36.98  0.001026978    1.551    0.355
       124  -9.9684    193.9762    207.0000   3.9885702167e+01   5.7432219289e+00    0.1858986   0.06021793  33.75 0.0007989903    2.919    0.657
       125 -10.9266    178.5704    206.4814   4.2668675137e+01   7.8195260404e+00     0.240551    0.1068754  31.31  0.001109123    2.081    0.519
       126 -10.9605    149.8687    205.5904   4.8279661422e+01   1.1858881278e+01    0.2754737    0.1375389  22.62  0.001294875    2.109    0.526
       127 -11.1273    118.2662    205.7655   5.5195808747e+01   1.6207467048e+01      0.36459    0.1697073  21.43  0.001545984    2.524    0.604
       128 -10.7973     16.4375    205.8773   7.9336338510e+01   2.8121518449e+01    0.2070748     0.128018  42.52 0.0007436479    1.326    0.246
       129 -11.6865    237.8518    196.4612   3.0843163627e+01   1.8564253928e+00    0.2959208    0.1496045 -23.55  0.001394831    1.734    0.423
       130 -12.4355    238.2423    202.0013   3.1698936350e+01   1.1134372498e+00    0.3950842    0.2038085 -20.99  0.002372889    1.730    0.422
       131 -11.0737     50.4884    205.9124   7.1230532114e+01   2.4739522317e+01    0.2968685    0.1446754  34.61  0.001496281    1.719    0.418
       132 -10.7208     88.1981    205.1031   6.2098481794e+01   2.0369875823e+01    0.3032306    0.1517519  35.25  0.001479194    1.704    0.413
       133 -10.6238     73.1219    205.1571   6.5709623288e+01   2.2261673824e+01     0.193274    0.1224871  46.70 0.0009852113    1.407    0.289
       134 -10.1771     40.6814    205.2994   7.3544297084e+01   2.5918950866e+01    0.1347253   0.07468608  55.19 0.0004042127    1.618    0.382
       135 -10.3713    207.9120    204.7743   3.7068094710e+01   4.3133616162e+00    0.1498319   0.08447732  27.07 0.0008766842    1.672    0.402
       136 -10.3722    140.7982    204.3780   5.0024905101e+01   1.3330370448e+01    0.1878352    0.1087324  21.27 0.0009472827    1.745    0.427
       137 -12.1213      9.4307    202.6942   8.0843459921e+01   2.9404191518e+01    0.4409618    0.2071128  17.60  0.001938375    2.440    0.590
       138 -11.2585     60.0034    201.3617   6.8533813721e+01   2.4634222074e+01    0.4017157    0.1458438  39.03  0.001523691    2.214    0.548
       139 -11.0350     28.2670    200.9238   7.6259657466e+01   2.8106426337e+01    0.2754024    0.1314283  37.59  0.001316807    1.718    0.418
       140 -10.5675     36.2514    200.3654   7.4280066896e+01   2.7441653794e+01    0.1822584   0.09223206  39.31 0.0009342003    1.633    0.388
       141 -10.9786    231.0046    198.9756   3.2318687952e+01   2.3229153784e+00    0.2484071    0.1268201   9.53  0.001297218    2.483    0.597
       142 -10.5223    133.2056    199.5847   5.0978077971e+01   1.5266214174e+01     0.251928    0.1103331  36.01  0.001130088    2.040    0.510
       143 -10.6978    101.8259    199.7114   5.8212178469e+01   1.9643711344e+01    0.2657553    0.1131304  24.50  0.001067601    2.589    0.614
       144  -9.7823     75.6546    199.3216   6.4491454864e+01   2.3172092757e+01    0.1418535   0.08565446  57.03  0.000271737    1.733    0.423
       145 -10.9175     44.1416    199.0380   7.2244898084e+01   2.6911593435e+01    0.2746018    0.1485507  37.21  0.001072078    1.567    0.362
       146 -11.1806     20.6317    199.0948   7.8007638016e+01   2.9218359293e+01     0.226748    0.1676594  24.19 0.0009945527    1.426    0.298
       147 -12.6159    245.3129    196.4875   2.9730775733e+01   1.0129781754e+00    0.3862497    0.2509426  26.08  0.002707332    1.593    0.372
       148 -10.7156    165.5577    198.4764   4.3948747946e+01   1.0868806598e+01    0.2303264    0.1091803  22.42  0.001025158    2.397    0.583
       149 -10.7038     51.7852    198.3867   7.0299943853e+01   2.6218367555e+01    0.2531998   0.09780917  33.95  0.001116266    2.137    0.532
       150 -10.4487     63.1664    195.7204   6.7218348491e+01   2.5483637685e+01    0.2189181    0.1305503  46.45 0.0007835593    1.492    0.330
       151 -10.3489    178.7757    195.3945   4.0835811066e+01   9.5268994311e+00     0.179724    0.1051186  20.69 0.0009486843    1.727    0.421
       152 -11.8005      4.0443    193.9250   8.1790754819e+01   3.1758527018e+01    0.3512281     0.186261  24.20  0.001579021    1.891    0.471
       153 -10.5728     32.0190    193.2480   7.4849158702e+01   2.9444893311e+01    0.1822564     0.140478  43.56 0.0008141866    1.146    0.127
       154  -9.8643    125.9410    193.0000   5.1637935266e+01   1.7556739820e+01    0.2228683   0.06918143  33.40 0.0008019318    2.939    0.660
       155 -10.8254     38.6540    192.3073   7.3107860596e+01   2.8986894473e+01    0.2423683    0.1173036  38.99 0.0009573227    1.735    0.424
       156 -11.4829     16.5241    191.6817   7.8632872888e+01   3.1234580413e+01    0.2413988    0.2007143  52.81 0.0009158303    1.069    0.064
       157 -10.5884     69.2729    188.5437   6.4924449887e+01   2.6322748445e+01    0.2595624    0.1123167  34.14 0.0009554395    2.011    0.503
       158  -9.8377     29.6080    187.2909   7.5059732378e+01   3.1036834661e+01    0.1453876    0.0733544  53.96 0.0007006876    1.775    0.437
       159 -11.0753      9.4564    187.3989   8.0192693501e+01   3.2799728396e+01    0.2355694     0.127513  30.51  0.001183692    1.709    0.415
       160 -10.8995      2.3768    187.2855   8.1953453656e+01   3.3378022231e+01    0.2113763    0.1496723  27.61 0.0009635068    1.447    0.309
       161 -10.7994     22.8216    185.8291   7.6712134526e+01   3.2011695142e+01     0.235647    0.1441657  37.81  0.001195191    1.446    0.308
       162 -11.6988     59.6720    181.8246   6.6703480558e+01   2.9035553780e+01    0.6013845    0.2643003  54.54  0.002459855    2.500    0.600
       163  -9.9439     88.9739    185.0000   5.9456801878e+01   2.4506075207e+01    0.2292234   0.07186862  31.19 0.0008031761    2.948    0.661
       164 -11.2556    166.0575    182.7755   4.1212962948e+01   1.3469959181e+01    0.3616404    0.1664634  31.06  0.001630069    2.171    0.539
       165 -11.2309    159.5846    182.2985   4.2473004931e+01   1.4529883961e+01     0.347704    0.2095868  15.39  0.001681227    1.973    0.493
       166 -10.6800     37.3198    181.6066   7.2622336929e+01   3.1589470081e+01    0.2560497    0.1034886  32.63  0.001125379    2.145    0.534
       167 -11.3742     14.2852    180.7311   7.8630662860e+01   3.3945474080e+01    0.3041531    0.1500671  31.46  0.001325253    1.840    0.456
       168 -12.3671    244.5825    178.3420   2.6736085890e+01   3.4101059603e+00    0.2573477    0.1364365 -14.66  0.001433932    1.974    0.493
       169 -10.5848     22.1053    178.7038   7.6454144501e+01   3.3744133525e+01    0.2129261    0.1289638  45.77 0.0009212442    1.435    0.303
       170 -11.0037      1.8641    178.0940   8.1731033641e+01   3.5535399284e+01    0.2039288    0.1346324  58.56 0.0007064909    1.262    0.207
       171 -10.9340     29.8436    176.7789   7.4248026494e+01   3.3479773717e+01    0.2953385    0.1438594  34.67  0.001374041    1.821    0.451
       172 -10.5037     47.2517    176.5405   6.9505192141e+01   3.1722477254e+01    0.2564602    0.1135559  32.90  0.001130483    2.017    0.504
       173 -10.9208     52.3847    173.0552   6.7746910534e+01   3.1970304768e+01    0.2815202    0.1779071  38.92  0.001443885    1.444    0.307
       174 -11.6909     16.9064    170.6317   7.7347670510e+01   3.6132888703e+01    0.3988905    0.2118764  42.73   0.00184704    1.649    0.393
       175 -13.9248    249.3704    116.7812   1.4379668202e+01   1.1180489593e+01    0.9668738    0.2477866 -31.42  0.003506562    3.664    0.727
       176 -14.4353    248.8501    152.6617   2.1463148467e+01   6.3057427135e+00     1.119796    0.3638565 -31.97  0.005035086    2.578    0.612
       177 -11.4744    105.1136    237.4732   6.1771833053e+01   1.2257715294e+01     0.433667    0.2226772  32.93  0.002132125    1.558    0.358
       178 -12.9580     16.8058    160.6897   7.6729239619e+01   3.8586124337e+01    0.5362264    0.2549143 -57.46  0.001927688    2.198    0.545
       179 -12.8106     42.5733    157.5507   6.8897789094e+01   3.6903390999e+01    0.5982861    0.3156734  35.16  0.001702176    1.770    0.435
       180 -11.8132     56.1742    163.1559   6.5563025004e+01   3.3929290997e+01    0.2798335    0.1907747  41.38 0.0008361899    1.369    0.270
       181 -12.8253     50.4591    159.3931   6.6777271362e+01   3.5547436513e+01    0.5918132    0.3294294  52.48  0.001669648    1.782    0.439
       182 -10.9757     22.4631    161.9939   7.5194067413e+01   3.7775534673e+01    0.2753844    0.1470348  43.97  0.001094838    1.684    0.406
       183 -10.4122    117.6551    158.7848   4.7966825729e+01   2.5945675385e+01    0.2010982    0.1357919 -62.84 0.0009489866    1.682    0.405
       184 -12.8247     25.7731    154.5184   7.3618884119e+01   3.9360095264e+01    0.3978082    0.2305211  39.56  0.001310989    1.608    0.378
       185 -13.3826     12.0941    152.3823   7.7550546516e+01   4.1051526328e+01    0.3812158    0.3175209  41.71    0.0018306    1.207    0.171
       186 -11.4521     34.5359    154.8547   7.1019280772e+01   3.8431849798e+01    0.2987103    0.1432002  44.13  0.001330288    1.926    0.481
       187 -12.8951      6.8376    145.8885   7.8721294050e+01   4.3089705375e+01    0.3764876    0.1976731  70.17  0.001809464    1.797    0.444
       188 -10.3404    208.0212    136.0298   2.4219725994e+01   1.4765277338e+01    0.1547707    0.1318285 -22.46 0.0003424847    1.007    0.007
       189 -11.6153     36.1691    130.8623   6.7771749513e+01   4.4523855167e+01    0.2217445    0.1788226  71.36 0.0006952658    1.200    0.167
       190 -13.6564      5.3310    128.7599   7.8054053379e+01   4.7637660765e+01    0.6397747    0.2576292 -72.71 0.0006121412    2.118    0.528
       191 -11.5692     24.5069    126.4837   7.1255299035e+01   4.6806048721e+01     0.140836    0.1251185  86.31 -4.640322e-05    1.011    0.011
       192 -10.9719     29.5311    127.4684   6.9624041291e+01   4.6085701241e+01    0.1409593    0.1276306 -86.44 -5.877437e-05    1.023    0.023
       193  -9.8883     61.2996    121.3340   5.7611443656e+01   4.4003062304e+01    0.1537554    0.1109553 -33.41 0.0005921951    1.652    0.395
       194 -10.6729     35.4533    121.4721   6.6742072678e+01   4.7107174701e+01    0.1436345    0.1304266 -87.87  7.64288e-05    1.005    0.005
       195 -11.9959      5.6084    166.8969   8.0240248763e+01   3.7931774932e+01    0.4014144    0.2117392  21.93  0.001534771    2.002    0.500
       196 -12.3332      9.3061    110.4025   7.5061123987e+01   5.2268121809e+01    0.5156485    0.1691013  65.75  0.001505108    4.845    0.794
       197 -12.4882      6.2886    161.7651   7.9791150069e+01   3.9137653749e+01    0.7533813    0.2385728  65.05  0.002737552    3.387    0.705
       198 -11.4781      2.5401     96.2803   7.6324354368e+01   5.6429148089e+01    0.2579423    0.1191353 -84.42 0.0007298393    1.971    0.493
       199 -10.3711     57.2247     91.2371   5.2530059515e+01   5.2434942263e+01    0.1976744    0.1688525  78.91 0.0003679377    1.284    0.221
       200 -11.3630      5.0000     75.9841   7.2742554675e+01   6.1682484401e+01    0.2341019    0.0682597 -75.06 0.0008091699    2.989    0.665
       201 -12.5619    122.7561     63.6876   2.2115812365e+01   4.5449617209e+01    0.2986547    0.2534228 -34.69 0.0004157816    1.191    0.161
       202 -13.6249    233.8617     58.2504   3.4278738634e+00   2.1782223190e+01    0.8594493     0.438895 -55.62  0.004419811    1.979    0.495
       203 -11.9147     29.1177     60.5053   5.6953488401e+01   6.3775333355e+01    0.5842663    0.2769889  12.16  0.002146062    2.828    0.646
       204 -10.5601    115.2428     54.9424   2.0962739630e+01   4.8790388611e+01    0.1995694    0.1878106 -43.84 0.0003074988    1.059    0.056
       205  -9.6936     59.6840     54.6674   3.9879840087e+01   6.0756120838e+01    0.1507988    0.1122653 -12.42 0.0007046894    1.687    0.407
       206 -12.6089     20.1609    240.3674   7.9944102070e+01   2.0924832693e+01    0.9858438    0.5670505  25.76  0.006207517    1.636    0.389
       207 -12.6360    149.5342     51.0480   1.2304315282e+01   4.1098284187e+01    0.2853053    0.2443384 -50.55 0.0004118928    1.102    0.092
       208 -11.9987     10.7533     43.4651   6.2564082449e+01   6.9540584506e+01    0.2403913     0.178039 -28.97 0.0007126106    1.309    0.236
       209 -12.1490     12.6729     47.9516   6.2672481125e+01   6.8326130242e+01    0.2263408    0.2088716 -49.01 0.0002445373    1.057    0.054
       210 -10.3092     89.0606     41.4726   2.3178481846e+01   5.7243222753e+01    0.2039112     0.141536  53.30 6.046207e-05    1.426    0.299
       211 -11.6154      2.8720     52.8731   6.9854367603e+01   6.7709576032e+01    0.2189823    0.1550702 -44.70  0.001170999    1.268    0.211
       212  -9.7793     57.3175     30.3074   3.0062980744e+01   6.5908188509e+01    0.1422592    0.1055285   7.49 0.0005386096    1.633    0.388
       213 -11.8996      9.0104     24.9861   5.7105466020e+01   7.3872493758e+01     0.261685    0.1612127 -47.64 0.0004256363    1.400    0.286
       214 -10.7830    231.4809     26.4486   3.5635609342e+02   2.6101124980e+01    0.1208051   0.09523355 -49.91 8.688614e-05    1.017    0.017
       215 -10.5429     54.9966     24.8304   2.8261311888e+01   6.7266859042e+01     0.177535    0.1662171  13.36  0.001069223    1.016    0.016
       216 -11.0510     10.2940    225.8653   8.1494847149e+01   2.4555645394e+01    0.2624996    0.1168012  44.98  0.001111803    1.651    0.394
       217 -10.8850     28.8567     20.1315   4.0126631473e+01   7.2580196841e+01    0.1779083    0.1731347 -19.18 0.0003080802    1.200    0.167
       218 -10.6219     42.1991     19.2097   3.1519830940e+01   7.0570553447e+01    0.3031172   0.09409537  38.41  0.001040978    3.505    0.715
       219 -11.0653     14.7540     18.2342   4.9272332489e+01   7.4728118430e+01    0.1833586    0.1311615 -21.18  0.001059321    1.355    0.262
       220 -11.9132      5.1201    227.1289   8.2634423089e+01   2.4743479891e+01     0.464082    0.2645559  65.93  0.002954871    1.468    0.319
       221 -12.1270     10.5218     16.8130   5.1926353121e+01   7.5439718986e+01    0.1887606    0.1705028  36.69  0.000707946    1.344    0.256
       222 -11.8084     27.1210    233.1358   7.8188579110e+01   2.1634079965e+01     0.344515    0.2368352  52.37  0.001857981    1.144    0.126
       223 -13.3320     19.3179    230.6086   7.9742660778e+01   2.2839056091e+01      1.11687    0.4601291  14.82  0.004960917    3.489    0.713
       224 -10.2262     72.3412    243.2881   6.9199902273e+01   1.5082497908e+01    0.1086207   0.08399494  -1.86 0.0004466499    1.643    0.392
       225 -11.3255     69.3217    239.7302   6.9570636928e+01   1.6044203098e+01    0.3156154    0.1599796  40.98  0.001324691    1.548    0.354
       226 -11.5985     62.1974    241.7442   7.1226242461e+01   1.6469490251e+01    0.4354226    0.1040389  38.99  0.001867901    2.751    0.636
       227 -11.0759     90.6085    240.8586   6.5151282224e+01   1.3412329554e+01    0.2495003    0.1087058  42.17  0.001238477    1.913    0.477
       228 -12.0927     81.7761    240.3759   6.6976185494e+01   1.4520164896e+01    0.5252684    0.1542533  38.12  0.002348224    2.475    0.596
       229 -11.8208     53.3534    239.9018   7.2975987814e+01   1.7746401902e+01    0.3901255    0.1408978  40.64  0.001649192    2.019    0.505
