#   1 NUMBER                 Running object number                                     
#   2 MAG_AUTO               Kron-like elliptical aperture magnitude                    [mag]
#   3 X_IMAGE                Object position along x                                    [pixel]
#   4 Y_IMAGE                Object position along y                                    [pixel]
#   5 X_WORLD                Barycenter position along world x axis                     [deg]
#   6 Y_WORLD                Barycenter position along world y axis                     [deg]
#   7 A_WORLD                Profile RMS along major axis (world units)                 [deg]
#   8 B_WORLD                Profile RMS along minor axis (world units)                 [deg]
#   9 THETA_WORLD            Position angle (CCW/world-x)                               [deg]
#  10 FWHM_WORLD             FWHM assuming a gaussian core                              [deg]
#  11 ELONGATION             A_IMAGE/B_IMAGE                                           
#  12 ELLIPTICITY            1 - B_IMAGE/A_IMAGE                                       
         1 -14.1143    195.9488     36.1040   5.0831449571e+01   3.1551656143e+01     1.280864     1.185771  26.65  0.004095115    1.229    0.186
         2 -14.6019    206.2712     24.5702   4.6296452789e+01   3.0383970785e+01     1.760812      1.19971   0.86  0.003051471    2.122    0.529
         3 -12.2824     33.9559     15.2384   8.6588828039e+01   6.8986194185e+01    0.2435442    0.2358743  33.44  0.001792189    1.609    0.378
         4 -11.0296     64.2078      9.1005   7.0806514833e+01   6.5437289025e+01    0.2037967    0.1718931  79.71 0.0008578728    2.058    0.514
         5 -12.3542     31.9177      3.6607   8.1750608022e+01   7.0871593908e+01    0.3187158    0.2526173 -20.75  0.002273735    1.217    0.178
         6 -11.9834     61.4060      2.9943   6.8790337562e+01   6.6598473718e+01    0.3731005    0.2067505  17.54  0.001919739    1.973    0.493
         7 -12.1846     48.5554      2.5830   7.3636366705e+01   6.8722193195e+01    0.4087586    0.1857785  26.19  0.001950284    2.478    0.597
         8 -12.1494    229.9571      2.0508   3.8273330985e+01   2.7120529603e+01    0.6915857    0.2236162  74.45   0.00249075    2.922    0.658
         9 -12.2187    193.5366    195.0722   9.0576379311e+01   4.5916632536e+00    0.8910279    0.4788963 -61.08  0.003245692    4.263    0.765
        10 -14.7630     86.7964    227.9947   1.1636614129e+02   1.6813270011e+01     2.018641     1.013151  47.35  0.003827363    1.621    0.383
        11 -16.3600     53.4801    200.6727   1.2022139850e+02   2.6607632848e+01     4.132182      2.73011 -65.94   0.01945573    1.555    0.357
        12 -10.9144    149.6641    188.7171   9.8419944695e+01   1.3850077281e+01    0.3794178    0.2530872 -72.24   0.00165737    2.116    0.528
        13 -15.2244     10.2732    206.5685   1.2876741575e+02   3.0120510267e+01    0.5917333    0.5169488 -69.05  0.002515307    1.558    0.358
        14 -10.1741     99.3809    180.8230   1.0817640295e+02   2.4278072574e+01    0.2346171    0.2074687  52.01 0.0005981216    1.135    0.119
        15 -12.0978     72.1171    177.6335   1.1384296799e+02   2.9075156190e+01    0.3880216    0.2701714 -38.74  0.001729688    2.092    0.522
        16 -12.0427     76.1523    172.4978   1.1227045811e+02   2.9647781508e+01    0.2981557    0.2608841 -43.83 0.0009254286    1.443    0.307
        17 -16.5985     65.9277    248.2852   1.2178340706e+02   1.6104278732e+01     8.225032     2.434983  33.20   0.02502664    6.240    0.840
        18 -13.1977     51.5487    146.9985   1.1471084180e+02   3.8742867746e+01     1.160003    0.4826579  27.81  0.004919341    3.111    0.679
        19 -14.2934     58.2893    129.8846   1.1037657997e+02   4.1991295741e+01     2.435794    0.8376824 -72.08  0.007834501    3.943    0.746
        20 -13.3260     84.4052    163.1318   1.0901334486e+02   3.0551113761e+01     1.738055    0.5251911  53.38 0.0004144509    5.329    0.812
        21 -13.8087     72.7551    158.4078   1.1110791930e+02   3.3336869622e+01    0.5677377    0.4850634 -41.51  0.001496786    1.444    0.307
        22 -14.8956     68.4125    144.3304   1.1005289963e+02   3.7233537648e+01     4.642937     1.838056  59.08  0.003480833    4.534    0.779
        23 -10.9193    137.6494    170.8417   9.7890965249e+01   1.9667664376e+01     0.250443    0.1944042  35.08 0.0008866092    1.310    0.237
        24  -9.6858    163.1515    168.5317   9.1789532975e+01   1.5168475420e+01    0.2308158    0.1990762 -88.17  0.001230877    1.403    0.287
        25  -9.8487    205.2409    166.7134   8.2713277230e+01   7.1219993620e+00    0.3444424    0.1625837 -44.34  0.001415249    2.307    0.566
        26 -10.3752     96.9219    190.9828   1.1012537254e+02   2.2517416454e+01    0.2553092    0.2416355 -45.55  0.001329163    1.335    0.251
        27 -10.3915    193.1667    165.5725   8.4873703676e+01   9.7111892502e+00    0.2705858    0.2577975 -55.21  0.001004713    1.210    0.173
        28 -12.2825     90.8800    155.9406   1.0630850144e+02   3.1198173027e+01    0.5711915     0.421485 -29.58  0.002848175    1.932    0.482
        29 -10.4977    189.5446    154.8834   8.3323970571e+01   1.2404065082e+01    0.3033627    0.1969831  60.24  0.001333897    1.950    0.487
        30 -11.1454     47.4225    172.5621   1.1874698285e+02   3.3365175434e+01    0.2951038      0.20188 -62.50  0.000938178    1.458    0.314
        31 -11.2359    134.0000    143.9892   9.3415892500e+01   2.6157062306e+01    0.9675032    0.2758759 -55.92  0.002402672    5.432    0.816
        32 -10.2338    174.9133    149.1421   8.5144792035e+01   1.6573115164e+01    0.2286042    0.2092851  79.83 0.0005917549    1.248    0.199
        33  -8.9856    109.4334    147.4806   1.0018950708e+02   3.0022089456e+01    0.1467841    0.1338061  86.76  0.000134623    1.058    0.055
        34 -10.4374     87.4216    146.2251   1.0551347914e+02   3.4004825378e+01    0.2575446    0.1972228  64.95 0.0007988465    1.341    0.254
        35 -11.1549    104.5632    139.9603   9.9943832326e+01   3.2622727114e+01    0.6194525    0.3378588 -35.09  0.002380138    2.692    0.628
        36 -12.4983     91.7456    140.8070   1.0341939013e+02   3.4590049229e+01    0.2755412    0.2465395 -52.64 0.0005219817    1.164    0.141
        37  -9.2242    175.3137    139.6298   8.2889582125e+01   1.8374396301e+01    0.1570773    0.1224896 -81.52  0.000703541    1.778    0.438
        38 -10.2691     53.0774    172.6496   1.1750186655e+02   3.2670127350e+01    0.2387022    0.1712332  83.45 0.0007390389    1.235    0.190
        39  -9.3980     38.6987    137.7270   1.1672261739e+02   4.2343340270e+01    0.1196654   0.08856867 -46.42 0.0001538101    1.534    0.348
        40 -10.4302    105.9907    130.7585   9.7660351147e+01   3.4513855920e+01    0.3361914    0.2830167 -68.65  0.001286097    1.169    0.144
        41 -11.1927    143.7291    171.4520   9.6637768551e+01   1.8383505338e+01    0.3772047    0.2613591  -9.70  0.001619128    2.489    0.598
        42 -10.4115    112.8180    130.7515   9.5865183675e+01   3.3263324460e+01    0.3189445    0.2538823  13.67   0.00115306    1.635    0.388
        43 -11.6514    118.7618    126.2148   9.3286544060e+01   3.3173371305e+01    0.8688704    0.4049827 -43.66  0.003282088    2.220    0.550
        44  -9.2166     99.5564    187.5239   1.0908573973e+02   2.2824439005e+01    0.1339814    0.1158044  71.08  5.61498e-05    1.019    0.018
        45 -11.1940     99.9623    127.1794   9.8496782131e+01   3.6419032086e+01    0.3617014    0.2586331 -29.39  0.001046131    1.800    0.444
        46 -10.5549    135.6002    124.6795   8.8609744525e+01   3.0111856209e+01    0.3101475    0.1453514 -42.24  0.001138323    2.193    0.544
        47 -11.9425     23.5357    120.2059   1.1842728205e+02   4.7874662219e+01    0.3227732    0.1734697  41.86  0.001411701    2.072    0.517
        48 -10.0669    108.8507    119.6220   9.4383230739e+01   3.6579935380e+01     0.224587    0.1978562 -41.23 0.0004326528    1.155    0.134
        49 -12.4111     45.5858    116.3514   1.1164550616e+02   4.6697697124e+01    0.3581295    0.2465021  82.11  0.001635338    1.634    0.388
        50 -10.1646    108.3794    114.2924   9.3232363743e+01   3.7898397168e+01    0.3166027    0.2287795  69.88 0.0002077265    1.766    0.434
        51  -9.9155    167.5771    112.3807   7.7851258407e+01   2.5615392412e+01    0.3400958    0.2431108 -73.12  0.001417334    1.978    0.495
        52 -11.9995     19.8009    111.1755   1.1824631397e+02   5.0285972449e+01    0.3314243    0.1760777  38.77  0.001356841    2.153    0.536
        53 -12.6842     40.6838    108.1044   1.1164878688e+02   4.9168122520e+01    0.3538866    0.3128967  22.79  0.001782727    1.381    0.276
        54 -11.6816    119.1691    109.7550   8.9146006291e+01   3.6831584451e+01     0.466794    0.3662193 -86.87  0.001834249    1.622    0.383
        55  -9.2289     98.9283    108.0178   9.4336778848e+01   4.1075510594e+01    0.1733093    0.1617057 -56.83            0    1.009    0.009
        56  -9.8717    205.5098    110.1862   6.9491107215e+01   1.7211212710e+01    0.2611434    0.2146358  47.32 0.0006010099    1.263    0.208
        57  -9.3132     60.5178     97.5101   1.0339359989e+02   4.9416107439e+01    0.1379055    0.1212143 -61.77 1.579906e-05    1.039    0.038
        58 -11.2871     53.2096     91.1526   1.0427633321e+02   5.1788174356e+01    0.3748022    0.1798207 -60.77  0.001682857    1.879    0.468
        59 -11.3135     41.8562     91.7979   1.0812385435e+02   5.2878865880e+01    0.2301695     0.206137 -65.73 0.0005293277    1.082    0.076
        60 -10.2994     61.3043     68.6592   9.5534567168e+01   5.5784357705e+01    0.2545971    0.2128158  83.46 0.0008092967    1.647    0.393
        61 -10.9819    152.9312     55.9393   6.4523360146e+01   3.9699717631e+01    0.3912477    0.2834578 -75.12  0.001731977    1.863    0.463
        62 -13.5907    186.2888     43.6177   5.4455341532e+01   3.3010421113e+01     1.036152    0.7975097  11.08 0.0009611493    1.674    0.403
        63 -11.5836    172.0936    240.6562   1.0192535680e+02   1.3585649093e+00    0.4915571    0.2516963 -60.47  0.002282606    3.667    0.727
        64 -17.8522      6.0658    239.6246   1.3102068267e+02   2.4404099265e+01     11.67424     1.362861 -77.00   0.04221306    6.755    0.852
        65 -10.8407    155.2737     49.9373   6.2077016167e+01   4.0050245039e+01    0.3437292    0.2713354 -82.20 0.0009016299    1.539    0.350
        66 -12.1964     18.9220     33.7427   1.0129713683e+02   6.7254671695e+01    0.3886723    0.1757078  32.87  0.002047474    2.725    0.633
        67  -8.9564    145.4590     19.5066   5.3744445354e+01   4.6543128814e+01    0.1397378    0.1325158  71.83  0.000405327    1.066    0.062
        68 -10.4921     96.7107    200.7843   1.1142755327e+02   2.0543031664e+01     0.276587    0.2465822  -9.53  0.001099535    1.646    0.392
        69  -9.7951    189.7119     14.9767   4.5624785572e+01   3.5675632572e+01    0.1914214    0.1763669 -54.94 0.0005774383    1.107    0.096
        70 -10.7937    198.5556    222.7523   9.4368704366e+01  -4.6570732092e-01    0.2265535    0.1460781  36.76 0.0005498074    1.305    0.234
        71 -10.5659    114.3144    200.6329   1.0773826917e+02   1.7752655892e+01    0.2203711    0.1540954 -77.82  0.001080175    1.626    0.385
        72 -11.1584    209.6155    199.1754   8.8243118986e+01   1.0758976977e+00     0.350916    0.2468995 -61.75  0.001317247    2.437    0.590
        73  -9.4462    107.2749    210.6229   1.1048201026e+02   1.6958695115e+01    0.1321474   0.08660914  73.44 0.0007002493    1.697    0.411
