#   1 NUMBER                 Running object number                                     
#   2 MAG_AUTO               Kron-like elliptical aperture magnitude                    [mag]
#   3 X_IMAGE                Object position along x                                    [pixel]
#   4 Y_IMAGE                Object position along y                                    [pixel]
#   5 X_WORLD                Barycenter position along world x axis                     [deg]
#   6 Y_WORLD                Barycenter position along world y axis                     [deg]
#   7 A_WORLD                Profile RMS along major axis (world units)                 [deg]
#   8 B_WORLD                Profile RMS along minor axis (world units)                 [deg]
#   9 THETA_WORLD            Position angle (CCW/world-x)                               [deg]
#  10 FWHM_WORLD             FWHM assuming a gaussian core                              [deg]
#  11 ELONGATION             A_IMAGE/B_IMAGE                                           
#  12 ELLIPTICITY            1 - B_IMAGE/A_IMAGE                                       
         1 -11.5554    215.4724     36.3096   3.8199903167e+01   2.7982513851e+01    0.7371522    0.4808775 -52.13  0.003643805    1.398    0.285
         2 -11.6571    222.7342     29.8357   3.6028869154e+01   2.7225525779e+01    0.7411035      0.70086  68.35  0.002398327    1.272    0.214
         3 -10.5523      2.1745     23.9383   9.4125318791e+01   7.0567160780e+01    0.5815342    0.1268814 -52.39  0.002275173    3.901    0.744
         4  -9.2570      2.0000      3.9320   8.5375607622e+01   7.3717441644e+01    0.3222953   0.07797435 -42.88  0.001403278    3.517    0.716
         5  -9.8524      2.0000     14.4540   9.0328348938e+01   7.2142630635e+01    0.2664568    0.1233912 -41.32  0.001550789    1.745    0.427
         6 -11.6226    236.8432     17.2545   3.2182176366e+01   2.5775814209e+01    0.6428382    0.4993434 -68.17  0.002720258    1.046    0.044
         7 -10.3078     11.2731      7.3705   8.1598639263e+01   7.2402293768e+01    0.2331032    0.1983724 -38.57  0.001717415    1.702    0.413
         8 -10.5218     69.8848    246.5859   1.1197695279e+02   1.4024918572e+01    0.4871301    0.3145545  23.09  0.001863665    1.844    0.458
         9  -9.6773     67.5006    240.6828   1.1192402430e+02   1.5468162865e+01    0.2742238    0.1900572  80.00 0.0008335242    1.496    0.332
        10  -8.9935     28.3518    244.4466   1.1986994608e+02   1.9257324354e+01    0.2837587    0.1423066 -80.62 0.0006522359    1.932    0.482
        11  -9.7730     52.1117    244.9870   1.1535921873e+02   1.6506237099e+01    0.4365624    0.3641963  84.70  0.002279193    1.155    0.134
        12 -11.5667     82.4574    242.9726   1.0908570359e+02   1.3084582042e+01    0.7119201    0.4028019  22.65  0.003622241    2.182    0.542
        13 -10.8463     58.3899    242.7916   1.1394237178e+02   1.6182705473e+01    0.6276993    0.2946642  57.22 0.0007589489    2.099    0.523
        14 -12.2674      2.2648    165.1866   1.1981155748e+02   3.8928701825e+01     4.033454    0.3345088 -76.04  0.007380419   13.932    0.928
        15 -13.0396      2.6498    128.7284   1.1624217528e+02   4.7672054573e+01     5.552314     1.506738 -84.35   0.01393678    7.471    0.866
        16 -11.5990      2.7604    244.4896   1.2451512075e+02   2.1750353913e+01     1.697839    0.3585757 -77.83  0.007012577    4.260    0.765
        17 -10.5277      9.8035    244.3789   1.2326106842e+02   2.1119172879e+01    0.4576809    0.2708353  87.10  0.001603412    1.466    0.318
        18 -11.3650     24.9446    205.3428   1.1782963742e+02   2.7751975258e+01     0.407127    0.3448918 -54.53 0.0008681482    1.402    0.287
        19 -13.5387     35.6459    194.8325   1.1454277131e+02   2.9047377528e+01     3.148077     1.436105  72.34   0.01296971    2.914    0.657
        20  -7.9603     32.4700    222.4967   1.1756414343e+02   2.3268220448e+01    0.1186497   0.09873338  73.93 0.0001482842    1.024    0.024
        21 -11.1315    115.3648    232.1252   1.0088143207e+02   1.0540861996e+01    0.5602714    0.3666647 -41.09  0.003031297    1.815    0.449
        22 -10.8560    127.3739    230.6033   9.8079097512e+01   9.0321387028e+00    0.4203136    0.2472558  46.43  0.002140688    1.648    0.393
        23  -9.5130     43.1979    218.1974   1.1498049816e+02   2.3015292306e+01    0.3778006    0.2166023  79.18   0.00137621    1.834    0.455
        24  -8.1856    183.6715    216.0035   8.3738544317e+01   2.9183155636e+00     0.196995     0.113336 -64.93 0.0007051712    4.349    0.770
        25  -8.4416     58.8184    229.5508   1.1269662748e+02   1.8786758850e+01    0.2132208    0.1597224 -81.26 0.0008130681    1.324    0.245
        26 -10.1120     21.1047    195.1786   1.1786314610e+02   3.0405185126e+01    0.2646946    0.1679678  86.92 0.0008247878    1.420    0.296
        27  -8.0115     56.3428    193.0096   1.0949260811e+02   2.7133824003e+01    0.1862615    0.1544474  88.49 0.0006594176    1.121    0.108
        28 -10.2081     55.0141    178.3234   1.0803749750e+02   3.0781338361e+01    0.4284336    0.2740787 -33.63  0.001873638    2.124    0.529
        29 -10.2155     60.9809    172.7032   1.0575533199e+02   3.1414511422e+01    0.3388081     0.257958 -40.50 0.0008536674    1.481    0.325
        30  -8.2525    147.3342    228.9933   9.3543208200e+01   6.2743027847e+00    0.2114114   0.09224591 -30.49  0.000705173    4.366    0.771
        31  -8.2627     77.2887    226.0597   1.0841648003e+02   1.7147096218e+01    0.1745661     0.149269  79.12 0.0004274605    1.133    0.117
        32  -7.7061    101.3062    171.3375   9.4973549851e+01   2.5944510841e+01    0.1505164    0.1127898 -22.75 0.0007041116    1.675    0.403
        33  -9.9825     71.8214    163.0638   1.0142170213e+02   3.2364122612e+01    0.3074677    0.2814861 -61.12 0.0004215471    1.059    0.056
        34 -11.6115     58.3038    159.2606   1.0451850929e+02   3.5061121866e+01    0.5282236    0.2982366 -41.20   0.00131903    2.041    0.510
        35  -9.4572     32.6266    157.3556   1.1124836562e+02   3.8337361345e+01    0.2532488    0.2109357 -78.59 0.0005209867    1.047    0.045
        36 -11.6203     78.7824    156.2207   9.8351236991e+01   3.3078626485e+01      1.42116     0.810393  56.87  0.005040567    2.231    0.552
        37 -10.2778     70.1965    145.5985   9.8880538784e+01   3.6930116678e+01    0.4900215    0.3445489  11.77  0.001366293    1.789    0.441
        38 -10.6603     67.7743    142.5926   9.9036451397e+01   3.8009533123e+01    0.5337449    0.3530109  38.57  0.001547503    1.597    0.374
        39 -10.4616     85.7293    222.3025   1.0614833644e+02   1.6781120592e+01    0.4344631     0.332682 -82.46 0.0005687106    1.400    0.286
        40  -9.1181     22.5504    223.5263   1.1964136593e+02   2.4067680373e+01    0.2504669    0.1492475  64.58  0.001173278    1.476    0.322
        41  -9.3936     96.2194    141.5695   9.0572872617e+01   3.3981725620e+01    0.6202608    0.3721378 -19.48  0.002265987    2.878    0.653
        42 -10.4547     82.8075    141.0646   9.4338604080e+01   3.6237991179e+01    0.3280521     0.278992 -50.72 0.0004544086    1.113    0.102
        43 -10.2495     59.0579    134.1189   1.0007131593e+02   4.1257383379e+01    0.5022882     0.271178 -73.00  0.002097884    2.132    0.531
        44 -10.3418     68.3136    129.4388   9.6320186242e+01   4.1213813306e+01    0.7066359    0.4008653  69.34  0.002417977    3.467    0.712
        45 -12.9765      9.2509    207.9191   1.2131160202e+02   2.8640226993e+01     1.384501    0.8797806 -73.31  0.005724647    1.423    0.297
        46  -9.3952     94.3343    127.6339   8.8030048815e+01   3.7674822376e+01    0.2864739    0.2409538 -24.70 0.0004317882    1.254    0.203
        47  -9.0671    107.0801    131.2569   8.5169428250e+01   3.4584762549e+01    0.3643008    0.2962682  34.39  0.001267252    1.270    0.212
        48  -7.9979    114.3630    125.3076   8.1680589681e+01   3.4634866213e+01    0.1623753    0.1210006  -7.67 0.0007039108    1.742    0.426
        49 -11.8340     11.2714    232.3609   1.2236141363e+02   2.3343409579e+01     0.933665    0.4041074  87.95  0.003617905    2.242    0.554
        50  -7.9786    105.1972    119.8082   8.2941968976e+01   3.7617970930e+01    0.2057033    0.1746433 -10.20 0.0003430219    1.291    0.226
        51  -9.0696     53.2017    116.2008   9.8388436658e+01   4.6409594792e+01    0.1971203    0.1680904  80.80  0.001089201    1.376    0.273
        52  -8.3302    205.1037    110.5450   5.7197435801e+01   1.8758685298e+01    0.2970445    0.1949134  18.96  0.001114194    2.393    0.582
        53  -7.8444     41.5070     92.4563   9.7139763858e+01   5.3385388915e+01    0.2073525    0.1068046 -47.00 3.503758e-05    1.657    0.397
        54  -8.2335     44.4387     90.4687   9.5577746375e+01   5.3529022061e+01    0.2081156    0.1819229  23.60 0.0005895377    1.275    0.216
        55 -10.3966      1.9370     85.9774   1.1050025184e+02   5.7875382362e+01    0.7613229    0.1188287 -69.15  0.002067144    6.157    0.838
        56  -9.3835      2.3798     76.4033   1.0856683339e+02   6.0026677885e+01    0.3728194    0.1340648 -57.53  0.001754846    1.975    0.494
        57  -8.5313     57.0379     76.5025   8.7035630481e+01   5.5075206946e+01    0.1980269    0.1338616  28.29 0.0005771391    1.554    0.357
        58  -9.8342      2.1315     59.7864   1.0507965947e+02   6.3658128222e+01    0.4655564    0.1294916 -68.16  0.001569854    4.617    0.783
        59  -9.2485     13.2838     60.3365   1.0031783102e+02   6.2894335628e+01    0.2276933    0.1716157 -50.14  0.000619832    1.165    0.142
        60  -8.5434     33.0000     48.0254   8.7658174170e+01   6.3622302987e+01    0.2058093   0.06393112 -48.75 0.0008010273    2.933    0.659
        61 -11.8353    207.8733     41.1708   4.0169981320e+01   2.9021685555e+01    0.6429238    0.5496066 -21.25  0.003340311    1.398    0.285
        62  -9.4278     23.3776    244.7628   1.2081344473e+02   1.9710679677e+01    0.1801366    0.1383418  54.03 0.0007423536    1.143    0.125
        63 -11.0889     33.2554    249.5197   1.1927466929e+02   1.7761637404e+01     1.228755    0.4116381  27.39   0.00523155    3.839    0.740
        64 -10.4124      1.8450     35.5441   9.8424966083e+01   6.8508098707e+01    0.6113276    0.1321313 -58.53  0.002114324    4.797    0.792
        65  -8.4757    128.0495     35.7810   5.1387013222e+01   4.8227218603e+01    0.2849898    0.2018983 -82.28 0.0009057355    1.999    0.500
        66 -11.2116    108.7809    228.6313   1.0185984596e+02   1.2193473377e+01    0.5607798    0.4184773 -51.40  0.003277855    1.488    0.328
        67 -11.1768     53.3309    249.6217   1.1548111423e+02   1.5473569262e+01     1.469096    0.4142371  26.72  0.004487393    6.701    0.851
        68 -10.4152     15.1124    249.0743   1.2255165684e+02   1.9712316143e+01    0.3443708    0.2546144  49.59  0.001001087    1.221    0.181
        69  -9.7245     77.1242    221.4724   1.0795063371e+02   1.8127484409e+01    0.2166486    0.1631435  70.22  0.001273868    1.331    0.249
        70  -8.7335     33.2341     14.0041   7.3370548017e+01   6.8976075728e+01    0.1555835   0.08718935 -29.62 0.0008925982    1.674    0.403
