#   1 NUMBER                 Running object number                                     
#   2 MAG_AUTO               Kron-like elliptical aperture magnitude                    [mag]
#   3 X_IMAGE                Object position along x                                    [pixel]
#   4 Y_IMAGE                Object position along y                                    [pixel]
#   5 X_WORLD                Barycenter position along world x axis                     [deg]
#   6 Y_WORLD                Barycenter position along world y axis                     [deg]
#   7 A_WORLD                Profile RMS along major axis (world units)                 [deg]
#   8 B_WORLD                Profile RMS along minor axis (world units)                 [deg]
#   9 THETA_WORLD            Position angle (CCW/world-x)                               [deg]
#  10 FWHM_WORLD             FWHM assuming a gaussian core                              [deg]
#  11 ELONGATION             A_IMAGE/B_IMAGE                                           
#  12 ELLIPTICITY            1 - B_IMAGE/A_IMAGE                                       
         1 -12.5146     74.7163     50.8732   8.9800525134e+01   5.7319554641e+01     1.304372    0.7848442 -53.04  0.006269256    1.738    0.425
         2 -11.4032    118.9828     58.2429   7.8596515471e+01   4.7270409717e+01     1.813363     1.266086 -68.52  0.007918932    2.066    0.516
         3 -12.0432    124.7292     27.7995   6.5827083645e+01   5.0759150098e+01    0.8407432    0.6352862  27.92  0.001776365    1.388    0.279
         4 -13.0007    120.1906     38.6475   7.1161689718e+01   5.0282331196e+01    0.8265773    0.5830284 -61.47  0.001016787    1.891    0.471
         5 -10.6567     60.0139     24.5639   8.4856429415e+01   6.4448990066e+01    0.6181349    0.2512589 -32.55  0.002029997    2.512    0.602
         6 -12.2378     60.6177     45.2424   9.2972263592e+01   6.0594060669e+01     1.018993    0.4539472 -45.22  0.004545307    1.985    0.496
         7 -11.1671    178.5710     21.1403   5.3382550364e+01   3.7556267304e+01    0.6677279    0.3536548  43.20  0.002174085    2.057    0.514
         8 -11.6544    182.6529     25.2358   5.4109840889e+01   3.5994780778e+01    0.6776138    0.5430424  31.17  0.002874812    1.378    0.274
         9 -11.2370      3.2594      1.7669   1.0287607015e+02   7.4654445000e+01    0.3657938    0.1789784   6.90  0.002106626    2.518    0.603
        10  -8.2645      6.1642     16.0282   1.0713670926e+02   7.1848165255e+01    0.2954412    0.2065132  18.99   0.00040749    1.720    0.418
        11 -10.4918      5.2087      9.3548   1.0505762144e+02   7.3161508038e+01    0.5518508    0.3975372 -48.22  0.002565343    1.140    0.123
        12 -12.0507     19.0113     22.5612   1.0283261486e+02   6.9681541336e+01    0.7909304    0.6703332  12.90  0.005744832    1.374    0.272
        13 -11.5211     26.4274     27.8528   1.0118952854e+02   6.8019153765e+01    0.4982926    0.2997971 -56.91  0.001822344    1.567    0.362
        14 -12.3966     16.8454     13.5123   1.0028272641e+02   7.1548851737e+01    0.5231146    0.3788153 -44.85 0.0005789048    1.160    0.138
        15 -12.0016     22.5103     11.4205   9.6277804366e+01   7.1414831354e+01    0.6734192    0.3837556 -40.23  0.004029337    1.403    0.287
        16 -12.3398    104.7675     12.9272   6.4600081981e+01   5.7353880003e+01    0.6331593    0.4446537 -32.85  0.003301672    1.468    0.319
        17 -12.6651    112.9678     25.1146   6.7674141031e+01   5.3926239726e+01    0.8864177    0.4560775  52.97  0.002794192    1.878    0.468
        18 -11.9876    164.1991     27.8116   5.7851616583e+01   4.0604967852e+01    0.6073527    0.3888567   3.66 0.0003258148    2.080    0.519
        19 -12.0742    131.6776     14.6013   5.9069984081e+01   5.0642601411e+01     1.456211    0.6691669  77.39   0.00343556    3.310    0.698
        20 -11.0941    138.4032     21.7186   6.0459483780e+01   4.8106432645e+01     1.212623    0.2937474  48.99  0.003588085    3.716    0.731
        21 -10.1020    146.8998     15.9665   5.6674836833e+01   4.6561153808e+01    0.6238945    0.3013599  50.94  0.002222126    1.913    0.477
        22  -8.4192     87.8061      7.5998   6.6886584134e+01   6.1704237788e+01    0.6312562    0.3438705  52.86  0.002849668    1.816    0.449
        23 -10.7302     91.0576     21.6300   7.2422306885e+01   5.9237452277e+01    0.6102071    0.3977006 -22.62  0.002548554    1.513    0.339
        24 -11.5365     85.6567     14.0341   7.0634604595e+01   6.1368615285e+01    0.6341436    0.4227886 -26.16  0.002055874    1.443    0.307
        25  -9.4384     49.7716      6.4454   8.0274625627e+01   6.8810203918e+01    0.3598875    0.1162092  41.04  0.001478265    3.249    0.692
        26 -10.4830     32.7223     12.5801   9.1530977586e+01   7.0141593595e+01    0.2221653    0.1995098  57.49 0.0006028267    1.684    0.406
        27 -11.6337     36.0387     17.7815   9.2359889014e+01   6.8871077037e+01    0.6549529    0.2871274 -32.25  0.002130023    2.328    0.570
        28 -12.2080     48.7804     12.9269   8.4090696430e+01   6.8000975585e+01    0.6368512    0.3562623  36.28  0.003442825    1.914    0.477
        29 -12.1793    239.1764     15.9170   4.5114960159e+01   2.2630435486e+01    0.8428407    0.5171706  68.83  0.004361009    1.659    0.397
        30 -11.8249    244.8350      6.9940   4.2421232828e+01   2.2227221482e+01     0.785051    0.4362462 -47.16   0.00335758    1.602    0.376
        31 -11.5822    233.8636      6.9614   4.3262535452e+01   2.4826973270e+01    0.6988187    0.3365382  69.57  0.002766913    2.036    0.509
        32 -11.2075    224.6533      2.2265   4.2770655084e+01   2.7538715893e+01    0.6532752    0.3047651 -89.79  0.002591624    2.428    0.588
        33 -10.3121     65.1414     10.4257   7.6033088136e+01   6.5742659626e+01    0.6604467    0.2689772  38.42  0.002855265    2.571    0.611
        34 -10.1063     63.2194      6.3525   7.4659628168e+01   6.6618324060e+01    0.3269515    0.2402616  -8.05  0.001341245    1.261    0.207
        35 -11.9488     68.6327     18.3010   7.8583157117e+01   6.4011078138e+01     0.552768    0.4916989  23.73  0.003172023    1.164    0.141
        36 -10.2186    120.1725     19.2659   6.3480211259e+01   5.2961201043e+01    0.5086338    0.1902501 -25.43  0.001849719    2.742    0.635
        37 -11.2787    165.1776     17.6446   5.4217973715e+01   4.1529006622e+01    0.4927635    0.3090654  32.84   0.00143159    1.845    0.458
        38 -10.5778    193.3445     17.6152   5.0310593107e+01   3.4015510892e+01    0.5398833    0.3486434 -76.05   0.00106203    1.784    0.439
        39 -10.5572    186.4751     15.1866   5.0418745317e+01   3.6098081272e+01    0.3188642    0.2758831  61.88 0.0005990592    1.124    0.111
        40 -11.5875    192.5235      7.2375   4.7246325968e+01   3.5299855744e+01     0.792668    0.4994959  15.97  0.003582037    2.153    0.536
        41 -10.1153    225.9875     15.5328   4.6199786717e+01   2.5863537560e+01    0.3871583    0.1787523 -31.05  0.001154357    1.979    0.495
        42 -10.9543    218.7277      3.1293   4.3507069615e+01   2.8928080985e+01    0.3393508    0.3302607 -52.79  0.001210762    1.106    0.096
        43 -11.3118    211.8364      9.7045   4.5957109151e+01   3.0027438114e+01    0.5285185     0.329835  10.54  0.001636441    2.290    0.563
        44  -9.9634    168.8695     10.1881   5.1138702196e+01   4.1321189975e+01    0.3248108    0.2241433  41.28  0.001210123    1.507    0.336
        45  -9.0253    163.2221      9.9939   5.1880688345e+01   4.2852539233e+01    0.1967055    0.1869356 -23.27 0.0005843017    1.110    0.099
        46  -9.6783    162.8858      5.9812   5.0540919870e+01   4.3330759238e+01    0.2301241    0.2028846 -22.44 0.0004351584    1.203    0.169
        47  -9.7326    141.5904     12.2572   5.6244670255e+01   4.8345325630e+01     0.238799    0.1893404  10.39 0.0005710067    1.369    0.270
        48  -9.7259    185.0273      7.2379   4.8102978916e+01   3.7288663295e+01    0.2636507    0.2012442 -38.89 0.0006678033    1.321    0.243
        49  -9.7083      1.3006      7.2921   1.0651084261e+02   7.3776996745e+01    0.1865986   0.07456674 -53.55 0.0002445969    1.859    0.462
        50 -10.7877     82.1104      1.3310   6.5500123333e+01   6.3580971738e+01    0.2395136    0.1167591  55.15 0.0003551836    2.066    0.516
        51 -10.5022     72.9746      2.7580   6.9204703490e+01   6.5254684174e+01    0.4132858    0.2449018  22.42  0.002076044    1.841    0.457
        52  -9.2696     78.4763      7.4824   6.9775543275e+01   6.3626746346e+01    0.2288951    0.1840047  43.12 0.0009547084    1.265    0.209
        53 -10.3978     76.5240      3.9587   6.8631867016e+01   6.4424614918e+01    0.3950604    0.2439006  -4.49  0.001623111    1.742    0.426
        54 -10.7023     41.3166      4.6530   8.3184364354e+01   7.0294817019e+01    0.4166288     0.216704 -16.34  0.001846623    2.380    0.580
        55 -10.1906    175.5361      5.1751   4.8593114434e+01   4.0019568059e+01    0.4562925    0.2721552  86.31  0.002054093    1.801    0.445
        56  -9.3268    169.8318      3.2546   4.8679270837e+01   4.1723551125e+01    0.2514999    0.1225021 -60.95 0.0009403718    2.729    0.634
        57 -11.2684    205.0405      2.6533   4.4608261670e+01   3.2463034555e+01    0.4665325    0.3478877  76.47  0.001183894    1.277    0.217
        58  -9.7483    116.5489      2.7568   5.7333731384e+01   5.5620369179e+01    0.3435011    0.2825648  57.16   0.00139771    1.169    0.144
        59 -10.8304    106.6308      1.8747   5.9164556326e+01   5.8084880869e+01    0.7231974    0.2964387  64.12  0.002535186    2.532    0.605
        60 -10.7005    142.5607      2.8362   5.2490017390e+01   4.9006372270e+01    0.3613634    0.3144344  43.61  0.001336358    1.089    0.082
        61 -11.8170    133.2860      2.6388   5.4006421116e+01   5.1429319408e+01    0.4729565    0.2678508  60.22  0.001122312    1.598    0.374
        62  -8.9230     55.1433      4.1149   7.6700369442e+01   6.8277910572e+01    0.1531958    0.1371509 -24.81 0.0004261379    1.267    0.211
        63 -10.1270    151.7866      7.6561   5.2794758769e+01   4.6127714922e+01    0.5059456    0.2230598  62.55 0.0008818987    2.026    0.506
        64  -9.2349    157.5180      2.4958   5.0079505351e+01   4.5082789130e+01    0.2164239    0.1887315  58.71    0.0012104    1.069    0.065
        65  -8.9119    161.4595      1.0000   4.9009687376e+01   4.4163170967e+01    0.4442881    0.1234714  67.95  0.001350207    3.134    0.681
        66 -10.3119     12.9045      2.0728   9.7118222169e+01   7.3880296329e+01    0.2337538    0.1797801  -5.19  0.001044038    1.274    0.215
        67  -9.4410    122.6415      1.3213   5.5471636192e+01   5.4244974547e+01    0.3992185    0.1177303  64.00  0.001354216    3.102    0.678
        68  -9.8236    239.8371    146.8330   7.7088039796e+01   5.1623862132e+00    0.2040341    0.1602752  11.53 0.0006434965    1.176    0.150
        69 -10.7751    249.5878    142.9764   7.4715031277e+01   3.8745890921e+00    0.5984346    0.2238273 -29.40  0.002506681    2.543    0.607
        70  -9.9951    214.6426    150.9019   8.2259112862e+01   9.4136577515e+00    0.3102272    0.2295899 -34.73  0.001144195    1.426    0.299
        71 -10.6538     33.1153    144.2030   1.2162062619e+02   4.1763790258e+01    0.2655031    0.1981747  71.43  0.000756169    1.165    0.141
        72  -8.9685    104.5855    142.2267   1.0395884298e+02   3.2555168399e+01    0.1766779    0.1271695 -49.18 0.0004074768    1.496    0.331
        73 -10.1561    133.6241    140.2163   9.6691292814e+01   2.7666245726e+01    0.3278709    0.2790195   7.40   0.00114925    1.472    0.321
        74 -11.9101     29.8246    132.8016   1.2125601244e+02   4.4582552853e+01    0.5232381     0.325104  87.71 0.0003950368    1.441    0.306
        75 -10.0613     26.7316    139.6877   1.2270645310e+02   4.3359380032e+01    0.1690125    0.1411554  87.80 0.0004037952    1.077    0.072
        76 -11.9037     23.4161    136.1191   1.2316967687e+02   4.4439342023e+01    0.5685394    0.3550343  55.72  0.001384082    1.521    0.343
        77  -8.7678    186.4917    139.4949   8.5121119619e+01   1.6949601874e+01    0.1427671    0.1332559  26.81 0.0008105665    1.016    0.015
        78 -10.4607     80.4142    136.3269   1.0892809905e+02   3.7687333530e+01    0.4174423    0.3448658  -4.26  0.001463216    1.796    0.443
        79 -10.3149     47.4131    135.4135   1.1714054064e+02   4.2183873635e+01    0.4170559    0.1324007 -61.99  0.001488524    2.672    0.626
        80  -9.4290     44.1540    133.1381   1.1768100381e+02   4.3052113452e+01    0.2335407    0.1266124  60.15 0.0007577512    1.926    0.481
        81  -8.9571     40.6676    138.3064   1.1916741789e+02   4.2279401747e+01    0.1289269    0.0771379  68.93  0.000703947    1.664    0.399
        82  -8.6104     37.6235    138.2963   1.1991568228e+02   4.2599602434e+01     0.130398   0.07462755  66.29 0.0007024675    1.748    0.428
        83  -8.7223    216.7462    134.9984   7.8429973469e+01   1.1362430629e+01    0.1743438    0.1156621 -29.84 0.0004645312    1.500    0.333
        84  -9.6785    107.4006    146.0839   1.0396237899e+02   3.1259332928e+01    0.2229465    0.1838145  37.55 0.0007962652    1.281    0.219
        85 -10.1134     73.4985    132.9731   1.1014673299e+02   3.9429459909e+01    0.2648996      0.19865  45.40  0.001530709    1.351    0.260
        86 -10.1916     62.4584    131.4592   1.1275666527e+02   4.1255305325e+01    0.3339859    0.2272757 -42.68  0.001211477    1.830    0.454
        87 -10.6423     93.1160    129.6177   1.0452711806e+02   3.7199658051e+01    0.3510076    0.2536723 -88.22  0.001820741    1.565    0.361
        88  -8.6837    103.6736    130.6974   1.0204775830e+02   3.5189999267e+01    0.1340138    0.1123364 -11.69 0.0002378919    1.642    0.391
        89  -8.9993    223.6528    126.8018   7.5367152922e+01   1.1166754782e+01    0.1952012    0.1205769 -39.55 0.0003635153    1.679    0.404
        90 -10.7192     18.5552    124.4958   1.2325962218e+02   4.7413745688e+01    0.3652658     0.152694 -67.84  0.001693116    1.929    0.482
        91  -9.2691     50.1750    122.6150   1.1469171103e+02   4.4749429709e+01    0.2682873    0.2006059  10.86   0.00123049    1.931    0.482
        92 -10.3995     45.7548    120.3053   1.1555263960e+02   4.5770171111e+01    0.3222396    0.2269106  73.38  0.001165662    1.425    0.298
        93  -9.6147     53.2273    124.9602   1.1421774465e+02   4.3861733887e+01    0.2933882    0.1485796 -66.84  0.001245708    1.757    0.431
        94 -10.2772     56.8296    122.6861   1.1291139587e+02   4.3944108600e+01    0.3313334    0.2237256  54.98  0.001201937    1.506    0.336
        95  -9.6725      2.2007    125.6075   1.2747434019e+02   4.8379559264e+01    0.2679324     0.121632 -75.67  0.001517751    1.712    0.416
        96 -10.2927      4.4698    120.3729   1.2649000654e+02   4.9367636279e+01    0.3792197    0.1891594 -62.30  0.001665782    1.768    0.434
        97  -9.8745      6.9903    114.7339   1.2534121464e+02   5.0438695481e+01    0.2181561    0.1782658  76.77 0.0009750091    1.147    0.128
        98 -11.2999      2.4696    112.0795   1.2630330128e+02   5.1319035396e+01    0.2996042    0.2041592 -87.95 0.0007773119    1.150    0.130
        99 -12.0543      3.7753    105.6572   1.2535801941e+02   5.2658347441e+01    0.4213957    0.2953922 -89.82 0.0009437135    1.156    0.135
       100 -10.3146     82.9875    124.1932   1.0616507559e+02   4.0004083181e+01    0.4386918    0.3243672   8.57  0.002219602    2.096    0.523
       101 -11.6554    104.7258    121.7680   9.9982396081e+01   3.6951470715e+01     0.486064     0.433513  71.12  0.001495321    1.101    0.091
       102  -9.8246     68.8795    123.6422   1.0982785013e+02   4.2167767905e+01    0.3689254    0.2409418   8.25  0.001703424    2.780    0.640
       103  -9.2127     72.4013    119.8733   1.0822349228e+02   4.2533728988e+01    0.2124762    0.1670122 -25.02 0.0006881673    1.762    0.433
       104  -9.2282    137.9493    122.9879   9.1976850841e+01   3.0287607061e+01    0.2296805    0.1826155   6.31 0.0008915155    1.677    0.404
       105 -11.0705     33.3796    119.5697   1.1880260574e+02   4.7206797473e+01    0.3561567    0.2520619 -53.75 0.0003615414    1.470    0.320
       106 -11.6165      9.8539     97.3172   1.2272784653e+02   5.4135535708e+01    0.6743613    0.4341916  87.18  0.004005046    1.398    0.285
       107 -10.5433     17.7728    100.9442   1.2083603145e+02   5.2761021622e+01    0.2479326    0.2042268 -63.76 0.0008265239    1.173    0.148
       108 -11.3422     35.8992     92.5559   1.1406154298e+02   5.3136515132e+01     1.204042    0.6922032  69.60  0.002562031    2.272    0.560
       109 -12.1000      7.7491     88.7799   1.2233068199e+02   5.6187179019e+01    0.5955535     0.418445  40.66  0.001828137    1.654    0.395
       110 -13.5213     24.6411    109.0649   1.1988613687e+02   5.0373549118e+01     1.893723     1.052538 -62.25   0.01085493    1.529    0.346
       111 -11.8025     18.8570    106.1146   1.2116245819e+02   5.1508877195e+01    0.2216966    0.1650629 -74.70  0.001476444    1.090    0.083
       112 -11.8467     21.9849     95.1821   1.1879788745e+02   5.3745723925e+01    0.5590082    0.3524826   6.46  0.002682509    2.324    0.570
       113 -12.2654     18.3752     90.2227   1.1920287495e+02   5.5147222440e+01    0.4130371    0.2398621 -60.62 0.0004528641    1.419    0.295
       114 -10.8794     37.3081     85.8291   1.1238434774e+02   5.4540033488e+01    0.3405199    0.2666237  62.08  0.001883031    1.425    0.298
       115 -11.9923     43.1294     85.2643   1.1036517599e+02   5.4080464130e+01      0.72571    0.3966233  34.07  0.003789623    2.064    0.516
       116  -9.2472     41.5970    126.7244   1.1753095070e+02   4.4764515492e+01    0.1744179    0.1027701 -82.76 0.0009436259    1.579    0.367
       117  -9.4391    148.0760    119.9318   8.8888299495e+01   2.8771133965e+01    0.2352365    0.1847122   5.15 0.0006690046    1.682    0.405
       118  -9.7104    185.1848    118.8464   8.0606318041e+01   2.0782314258e+01    0.2136133    0.1757053  10.70  0.001085718    1.343    0.256
       119  -9.2123     81.6572    117.3068   1.0522272467e+02   4.1756940760e+01    0.1770024    0.1590509  80.91 0.0006824233    1.067    0.063
       120 -10.0687    113.2739    115.9683   9.6506375082e+01   3.6647649998e+01    0.2488823    0.2089889  36.38 0.0002423923    1.263    0.208
       121 -10.6569    107.5808    112.1491   9.7131293612e+01   3.8537509425e+01    0.7148964    0.3765978 -66.66  0.002520055    2.613    0.617
       122 -10.7485    102.0010    109.6836   9.8064563710e+01   4.0090760840e+01    0.4265732    0.3607527  32.62  0.002157287    1.303    0.232
       123  -9.9094    103.1325    106.0944   9.6923304514e+01   4.0676103187e+01     0.273473     0.216546  43.48 0.0003789679    1.299    0.230
       124 -10.1958     67.1252    112.1639   1.0828328687e+02   4.5018970940e+01    0.5156506    0.2852054 -72.42  0.002428532    1.896    0.473
       125  -9.5416     82.0629    102.6959   1.0207396685e+02   4.4997816724e+01    0.2166187    0.1914231 -53.55 0.0004612017    1.109    0.099
       126 -10.7104     90.4249    103.5707   9.9875009984e+01   4.3450093119e+01    0.4262268    0.3401071 -68.22  0.001339003    1.239    0.193
       127 -11.3704     79.7595    108.3719   1.0395536436e+02   4.4068130237e+01    0.8272017     0.587022  72.11  0.004245095    1.670    0.401
       128 -10.1543     85.7706    104.3785   1.0138278019e+02   4.4030937755e+01    0.3641142    0.2717539 -43.63  0.001386391    1.395    0.283
       129  -8.8528    126.6694    113.6948   9.2563509987e+01   3.4511445340e+01    0.1469417    0.1187853   1.63   0.00070374    1.657    0.397
       130 -11.2642    171.0498    109.9741   8.1321529632e+01   2.5567054125e+01    0.6955432    0.4522234  30.43  0.002853684    1.807    0.447
       131  -9.7246     94.0921    111.6340   1.0065381848e+02   4.1033414775e+01    0.2861835    0.2424846 -70.96  0.001603667    1.147    0.128
       132  -9.6347     49.0162    112.0639   1.1340028338e+02   4.7289471497e+01    0.2271601    0.1772332  44.69 0.0009647647    1.382    0.277
       133 -10.0101    130.0159    109.9760   9.0825736390e+01   3.4601690548e+01    0.2399044    0.1899512   2.80  0.001143807    1.716    0.417
       134  -9.7603    120.1243    109.1342   9.3134010355e+01   3.6785797405e+01    0.2227689    0.2014188 -10.90 0.0006737969    1.286    0.223
       135  -9.6756     58.4706    108.4561   1.1007848889e+02   4.6994159126e+01    0.2332055     0.117881 -75.59  0.000792633    2.224    0.550
       136 -11.0247    158.3804    106.0448   8.3084216451e+01   2.9192719583e+01    0.6131871    0.3589619  30.20  0.002410378    2.239    0.553
       137  -9.3203    140.3138     96.3395   8.4739193756e+01   3.5160632571e+01    0.3178301    0.2037633  30.24 0.0009962901    1.930    0.482
       138 -10.1158    139.1208     93.0146   8.4117536419e+01   3.6086574588e+01    0.3095719    0.2674083  51.34  0.000843487    1.159    0.138
       139 -11.0753    143.1543    106.1426   8.6644403327e+01   3.2579046706e+01    0.4073194    0.3296626  56.31  0.001270636    1.256    0.204
       140 -11.9273    145.8192    100.3622   8.4495758698e+01   3.3133840747e+01    0.6202949    0.5386503 -24.74  0.003206929    1.230    0.187
       141 -10.6405     57.4561     96.9038   1.0817942695e+02   4.9772367401e+01     0.792408    0.4826745  65.44    0.0038494    2.139    0.532
       142 -10.4606     57.8611    102.5359   1.0916028146e+02   4.8429422775e+01    0.4169328     0.293409  28.78  0.002242212    1.681    0.405
       143 -10.8490     48.2010    103.2573   1.1216548200e+02   4.9403257594e+01     0.431474    0.2775393 -22.27  0.000349025    2.553    0.608
       144 -11.0323     52.4545     96.2930   1.0959437957e+02   5.0516729265e+01    0.8165041    0.4287046 -85.80  0.003393941    2.834    0.647
       145 -10.3391     64.4417     99.4338   1.0657582242e+02   4.8293249310e+01    0.2778962    0.2413939 -36.78 0.0006366344    1.290    0.225
       146 -10.6233     68.4174     95.6170   1.0455862600e+02   4.8622538793e+01    0.4465909     0.354567 -32.09  0.001738616    1.471    0.320
       147  -9.6571    120.9507    101.0245   9.0891971264e+01   3.8335802684e+01    0.2372414    0.1881903  -3.98  0.001134822    1.706    0.414
       148 -11.0574     89.8076     89.4208   9.6599044633e+01   4.6697152997e+01    0.6954007    0.4034066 -32.21  0.002929446    2.298    0.565
       149 -11.9380     78.1078     97.2379   1.0200338002e+02   4.6841201844e+01      0.40769    0.2569375 -63.49            0    1.558    0.358
       150 -11.1950     81.3865     92.7973   9.9973240361e+01   4.7331537080e+01    0.6305262    0.4120338  56.29  0.003082714    1.778    0.438
       151  -9.1419    134.1456    100.6705   8.7423040166e+01   3.5642391696e+01     0.306344    0.1361004  54.18  0.001082052    2.557    0.609
       152  -9.9542    210.6983     97.6462   7.0501995177e+01   1.8474424762e+01    0.3832304    0.2867878  24.49  0.001884525    1.489    0.328
       153 -11.1372    120.6779     85.2077   8.6650362795e+01   4.1677657178e+01    0.4172945    0.2814189  40.44  0.001865904    1.545    0.353
       154 -10.2774    117.4666     93.0410   8.9706743167e+01   4.0722749170e+01     0.433036    0.3118931  30.07  0.001486326    1.611    0.379
       155 -10.8434    121.0855     89.1691   8.7667578383e+01   4.0779864817e+01    0.4295653    0.3333819  28.56  0.001622699    1.465    0.317
       156 -10.4729    126.0528     93.2913   8.7501640628e+01   3.8884272835e+01    0.3670518    0.3424575 -47.28  0.001152175    1.063    0.059
       157 -10.4646    122.4882     93.5230   8.8499060728e+01   3.9586933371e+01    0.2909134    0.2861901  60.72 0.0008235425    1.026    0.025
       158  -9.4973    160.5564     93.5219   7.9242526749e+01   3.1045876353e+01    0.3752683    0.2267033  62.18  0.001534192    1.932    0.482
       159 -10.7019    152.9600     91.8117   8.0485274423e+01   3.3150416944e+01    0.6386566    0.3653509  53.93  0.002640637    1.792    0.442
       160 -12.6580    101.8330     90.0308   9.3240949264e+01   4.4415725574e+01    0.4308106    0.4178423 -21.58 0.0005452895    1.088    0.081
       161  -9.7354     67.0515     88.3638   1.0333222548e+02   5.0458605538e+01    0.2817709    0.2068325 -24.90  0.001336045    1.756    0.430
       162  -9.1906    211.8119     88.1657   6.7846189040e+01   1.9689728464e+01    0.2066736    0.1706413  12.71 0.0005840751    1.322    0.244
       163  -8.7590    200.3050     88.3116   6.9868956171e+01   2.2400250921e+01    0.1539665    0.1146575  16.86 0.0007021336    1.615    0.381
       164 -10.3481    183.6003     85.8161   7.2293534561e+01   2.6858978745e+01    0.6742088    0.2653913 -40.37  0.002355028    2.509    0.601
       165  -9.4391    102.6608     80.6933   9.0394384281e+01   4.6247348116e+01    0.3137716    0.1645352 -35.99 0.0007932773    2.147    0.534
       166  -9.6111    103.5870     76.1714   8.8786079409e+01   4.7009807047e+01    0.3430476    0.3000988  -2.69  0.000812865    1.301    0.231
       167 -11.2228    113.6697     84.0750   8.8237870385e+01   4.3364374794e+01    0.6735628    0.3908587 -33.93  0.002228191    1.943    0.485
       168 -11.3434    109.3631     80.5714   8.8427594118e+01   4.4959075945e+01    0.5071065     0.448977 -77.58  0.001658881    1.251    0.201
       169 -12.6482     52.6939     73.9196   1.0457266108e+02   5.5568161821e+01    0.5497286    0.2913576 -62.56 0.0009089717    1.774    0.436
       170 -10.4543     58.6445     78.3567   1.0365073273e+02   5.3835733908e+01    0.3492512    0.2879917 -79.96  0.001008817    1.275    0.216
       171 -10.9046     46.9497     74.4012   1.0668312167e+02   5.6126722526e+01    0.3420244    0.1867019 -62.83  0.001714739    1.647    0.393
       172  -9.9909     60.3367     83.5450   1.0434826866e+02   5.2450241501e+01    0.2611518    0.2259688  48.42 0.0007991832    1.278    0.218
       173  -9.5715     66.7380     74.5479   9.9947816270e+01   5.3587817695e+01    0.2956023    0.2173709  73.04  0.001191986    1.829    0.453
       174 -10.9487     66.8129     81.8465   1.0182580498e+02   5.1957887584e+01    0.4452557    0.3398784  23.89  0.002480058    1.556    0.357
       175 -10.6272     80.5156     83.3627   9.7847914821e+01   4.9567373530e+01    0.5735619    0.4847263 -84.53  0.003144637    1.315    0.240
       176 -11.2922     73.2875     77.9854   9.8714594776e+01   5.1873659275e+01    0.6042177    0.5195304 -12.54   0.00313272    1.356    0.263
       177 -10.4015    165.7085     83.4072   7.5258202293e+01   3.1649227220e+01    0.4365444    0.3545533 -58.39  0.001657557    1.369    0.270
       178 -10.5775    127.3636     83.2399   8.4306182805e+01   4.0636373456e+01    0.3278694    0.2948906 -26.22  0.001333555    1.148    0.129
       179  -9.3386     19.9986     71.8010   1.1563467083e+02   5.9192531804e+01    0.1890177     0.115933 -30.80  0.001066902    1.978    0.494
       180 -11.7318     14.1094     74.8551   1.1823337572e+02   5.8915673066e+01    0.5725181    0.3121995 -68.03   0.00251319    1.441    0.306
       181 -11.4455    142.6850     84.0949   8.0703563183e+01   3.7012045696e+01    0.6175062     0.374827  41.56  0.001326314    1.712    0.416
       182 -10.4233    232.8084     77.3813   6.1798990343e+01   1.6409956149e+01    0.4524361    0.2460908 -37.36  0.002032953    1.703    0.413
       183  -9.5032    170.3575     77.4545   7.2548058928e+01   3.1546305867e+01    0.2754526    0.2489099 -23.43 0.0009801673    1.120    0.107
       184 -10.0679    142.9788    249.5140   1.1066189763e+02   7.9254495553e+00    0.1766735   0.08111301  42.25  0.001033701    1.593    0.372
       185 -10.3275     93.7667     76.5079   9.1827312726e+01   4.8788458068e+01    0.5020899    0.3121189  27.01  0.001753958    2.065    0.516
       186 -11.7188     85.6949     73.4467   9.3436931256e+01   5.0859429668e+01    0.6731436    0.5756304  53.16   0.00361265    1.282    0.220
       187 -10.8805     79.1190     67.4945   9.3776810094e+01   5.3217917380e+01    0.5209135      0.44185  65.80  0.002670282    1.401    0.286
       188  -9.7230     33.1913     77.7491   1.1218111399e+02   5.6765954133e+01    0.2314008    0.1505156 -63.02  0.001342784    1.272    0.214
       189 -11.6425     40.7886     70.3546   1.0789505547e+02   5.7693064971e+01    0.5206289    0.2502552 -59.68  0.001548857    1.750    0.429
       190 -11.4453     32.4880     71.9790   1.1122700238e+02   5.8131570740e+01    0.5181785     0.284247  29.22  0.002530843    2.136    0.532
       191 -10.7427     53.0823     49.3748   9.7323431764e+01   6.0791868805e+01    0.9539549    0.5951672  83.33  0.003430458    4.859    0.794
       192 -11.2985     21.1056     47.3076   1.0974962922e+02   6.4488811019e+01    0.5946708    0.2834976 -39.70  0.002281705    2.017    0.504
       193 -10.9817     58.1465     62.0013   9.9389638210e+01   5.7488518400e+01    0.7191281    0.4707105  73.90  0.003277842    2.723    0.633
       194 -11.0991     33.8749     43.2477   1.0314597676e+02   6.4230618297e+01    0.5371383    0.4115536 -51.87  0.003432793    1.118    0.106
       195 -11.0486     33.1930     58.6653   1.0783627214e+02   6.1017901403e+01    0.3963487    0.2183183 -28.63 0.0008517568    2.338    0.572
       196 -11.7794     25.3984     55.6609   1.1013319460e+02   6.2352036093e+01    0.8175938    0.6580129  -3.81  0.005463411    1.490    0.329
       197 -11.4658     40.1793     56.1843   1.0445593880e+02   6.0865066255e+01    0.6145583    0.4285157  74.75  0.002854906    2.169    0.539
       198 -11.7985      1.9655     71.4816   1.2191661052e+02   6.0374139961e+01    0.6009237    0.1508452 -70.49  0.002528332    2.862    0.651
       199 -12.5220      6.5398     62.2361   1.1880838854e+02   6.2180614701e+01    0.7633126    0.4403002 -36.02  0.003178532    1.879    0.468
       200 -11.9687     50.7703     61.1396   1.0184218045e+02   5.8605563840e+01    0.3028192    0.2791429  84.43 0.0004985217    1.254    0.202
       201 -11.5307     46.1205     58.1880   1.0274114866e+02   5.9785468981e+01    0.6402342    0.3057385 -60.06  0.002514955    1.985    0.496
       202 -11.5293     46.8533     49.1349   9.9696391283e+01   6.1610007459e+01    0.4371475    0.3976813   1.38  0.001715982    1.206    0.171
       203 -11.7680     41.8764     45.3447   1.0047586049e+02   6.2961259608e+01    0.3703263       0.3319 -55.64 0.0003971481    1.153    0.133
       204  -9.9971    135.0852     77.5970   8.0639093198e+01   4.0006847413e+01    0.4196465    0.1511704  56.87   0.00124448    3.615    0.723
       205  -9.6756    126.9516     76.9432   8.2527773187e+01   4.1968762470e+01    0.2270193    0.2230845  -4.44 0.0003119033    1.021    0.021
       206 -10.2076     14.3501     67.0101   1.1678022704e+02   6.0654577738e+01    0.3435017    0.2900937 -31.31  0.002211704    1.336    0.251
       207 -12.0939    186.6373     70.4685   6.7338993559e+01   2.8621940560e+01    0.9287458    0.6439705 -36.31  0.003159677    1.417    0.294
       208  -9.5142    184.3017     61.0488   6.4973909185e+01   3.0684305985e+01    0.2948976    0.2496765  32.27  0.000978001    1.253    0.202
       209 -10.6377     22.6778     36.8715   1.0603995746e+02   6.6546406449e+01    0.4291082       0.2913  59.77   0.00168913    2.282    0.562
       210  -9.4872    151.9321     73.3288   7.5296956267e+01   3.6806535889e+01    0.4227073    0.1541757  41.37  0.001272961    3.367    0.703
       211  -9.8185    128.5166     63.9777   7.7998050622e+01   4.4064312287e+01    0.6095446    0.3092285 -33.76  0.001950782    2.033    0.508
       212 -10.2157    123.3284     72.9389   8.2247994515e+01   4.3548425533e+01    0.3687397    0.3127819  87.21 0.0003860776    1.422    0.297
       213 -11.2176    123.7631     68.5798   8.0747154897e+01   4.4287059720e+01    0.4262783    0.3815003 -66.41  0.001123312    1.227    0.185
       214 -10.7436    120.2953     68.6762   8.1711642877e+01   4.5035990930e+01    0.3282991    0.2712338  73.75 0.0006536428    1.435    0.303
       215 -10.8243     27.7604     47.1167   1.0689808478e+02   6.3987671873e+01     0.920027    0.4407192 -14.06  0.001302033    4.530    0.779
       216  -9.8954    162.1383     70.6328   7.2222983237e+01   3.4760678234e+01    0.3400908    0.2608615 -81.53  0.001068771    1.700    0.412
       217 -10.6976    171.5430     66.8360   6.9129820424e+01   3.3028184154e+01    0.6858035     0.353348 -39.16  0.002714342    1.915    0.478
       218  -9.1010    115.1800     69.3766   8.3346219104e+01   4.6006829453e+01    0.2109363    0.1420193  58.47 0.0008160698    1.691    0.409
       219 -11.3760    219.7480     66.4508   6.0797292010e+01   2.1018868383e+01    0.7125264    0.3654214  54.09  0.002552265    1.974    0.493
       220  -8.6446    111.5899     67.2664   8.3678887330e+01   4.7176601782e+01    0.1505235    0.1174951  86.65 0.0006470007    1.757    0.431
       221  -9.1093     70.2502     66.9910   9.6610457202e+01   5.4714508257e+01    0.1762474     0.107557 -50.81 0.0005849308    1.486    0.327
       222  -9.3512     53.6853     66.1329   1.0217998679e+02   5.7166223903e+01    0.2751512    0.1859068  63.99  0.001373893    2.097    0.523
       223 -10.1365     21.2953     65.2474   1.1387810427e+02   6.0561115580e+01    0.3041743    0.1944991  73.20  0.001131108    2.061    0.515
       224  -9.6574     25.9410     65.2428   1.1215028245e+02   6.0199651119e+01    0.1883018    0.1577282 -39.09 0.0002706024    1.220    0.180
       225  -9.6668    192.5957     65.7665   6.4912117109e+01   2.7848985291e+01    0.2849552     0.240425 -84.80 0.0007484501    1.352    0.260
       226 -10.4511    106.2356     63.6819   8.4051489169e+01   4.8982499899e+01     0.397864    0.3256142  -3.35  0.001894037    1.427    0.299
       227 -10.2349     98.9315     61.7838   8.5608554106e+01   5.0815043362e+01    0.4878542    0.3091195 -11.32  0.001747834    2.623    0.619
       228 -11.4441     91.3457     62.9865   8.8373281189e+01   5.2018445827e+01    0.8491211    0.4678201  48.76 0.0009835976    2.010    0.502
       229 -10.6663     91.5005     57.5168   8.6483904052e+01   5.3070487172e+01    0.3203181    0.2771484  38.39 0.0009539681    1.216    0.178
       230 -10.8428     87.6054     56.7881   8.7492205220e+01   5.3931140015e+01    0.5328369    0.2461213 -40.81  0.001700786    2.057    0.514
       231  -9.5335    197.7986     62.8333   6.3185345246e+01   2.6974578651e+01    0.2879174    0.1972194 -77.94 0.0009238151    2.001    0.500
       232 -10.6566    159.3415     61.7521   7.0045888760e+01   3.6954258335e+01    0.5193458     0.345059  34.51  0.002251287    1.711    0.416
       233 -11.1305    157.5995     54.9945   6.8232917155e+01   3.8488514856e+01    0.5525572    0.5370011 -69.00  0.003000794    1.067    0.063
       234 -11.0052    155.1438     49.5651   6.6948853119e+01   3.9963377612e+01    0.4950306    0.3143164 -11.77 0.0005370195    1.998    0.499
       235  -9.0162    206.0298     61.7437   6.1558318411e+01   2.5063821718e+01     0.200966    0.1908047  69.13 0.0004053118    1.085    0.078
       236  -9.6827    174.9151    246.8230   1.0502323305e+02   3.4804950587e+00    0.2297544    0.1246022  37.01  0.001033384    1.400    0.286
       237  -9.4725    199.2471    244.6297   1.0073101885e+02   7.0824100237e-02      0.16379   0.07694372  34.94  0.000948109    1.643    0.392
       238 -12.7215    116.0594     41.6778   7.3406766977e+01   5.0763557411e+01    0.9829357    0.7210555 -80.99  0.004457917    2.084    0.520
       239 -10.9846    127.9194    242.7709   1.1252888545e+02   1.1034373182e+01    0.3017855    0.1660235 -64.14  0.001879266    2.505    0.601
       240 -10.8599    140.2763     43.4188   6.8053285511e+01   4.4673140927e+01    0.6172044    0.4225577  17.06  0.001397021    1.896    0.473
       241 -10.8837    138.7191     32.9859   6.4617501702e+01   4.6574167514e+01    0.6329373    0.5171005 -50.89  0.002379093    1.340    0.254
       242 -10.7591    136.5788     56.3377   7.3416671436e+01   4.3505346325e+01    0.6280813    0.4223478   2.66  0.001896833    2.188    0.543
       243 -11.6066    145.6800     47.6045   6.8311250370e+01   4.2673553757e+01     1.188351    0.4719318 -27.07  0.004006795    2.831    0.647
       244 -10.5283    133.6176     49.6357   7.1816952953e+01   4.5336767375e+01    0.4856929    0.2965279 -58.00 0.0008836607    2.234    0.552
       245  -8.4007    200.3241    241.3298   1.0012195173e+02   2.6100783436e-01    0.1139592   0.06976321  19.35 0.0006313352    1.700    0.412
       246 -10.4986    149.5853    237.7206   1.0826363556e+02   8.4619777427e+00    0.2766961    0.1448702  34.71  0.001605637    1.712    0.416
       247 -11.3497     48.3070     30.6841   9.2374032703e+01   6.5049171747e+01    0.6689214    0.2863049  28.56  0.002426941    2.872    0.652
       248 -11.2003     60.8117     36.3580   8.9528074717e+01   6.2256778459e+01    0.3873813    0.2099979 -36.86   0.00132467    1.694    0.410
       249 -11.7437     57.0661     31.6258   8.9103970311e+01   6.3669618167e+01    0.3478071    0.3278715 -32.36  0.002090353    1.179    0.152
       250  -9.3684      2.0518     56.2813   1.1947079098e+02   6.3717429719e+01    0.1894259    0.1198538 -59.73 0.0005318924    1.209    0.173
       251 -10.0061     66.9904     54.8107   9.3918729704e+01   5.7746127628e+01    0.2803116     0.188701 -57.50 0.0007149273    1.548    0.354
       252  -9.2078    237.8969     54.4430   5.5201654127e+01   1.8350306101e+01    0.2803217    0.1951084 -63.17 0.0006824838    1.640    0.390
       253 -10.9748    244.6987     50.9612   5.3513635899e+01   1.7233010190e+01    0.6349074    0.3391976 -87.40  0.002519705    3.049    0.672
       254 -10.9718    240.1830     50.2879   5.3857744412e+01   1.8354738521e+01    0.3574026    0.3251446 -34.24 0.0005936814    1.028    0.027
       255  -9.6623    187.9947     55.1685   6.2562808854e+01   3.0613685017e+01    0.3123264    0.1914411  55.57  0.001365539    1.607    0.378
       256  -9.8942    210.4850     52.9905   5.8418903965e+01   2.5181347303e+01    0.2771038    0.1963828  43.57 0.0007078587    1.512    0.339
       257 -11.1150    202.0092     47.2340   5.7995742729e+01   2.8118344388e+01    0.7365543    0.4767475 -52.13  0.003352416    1.655    0.396
       258 -10.9329    173.9470     48.0890   6.2823715529e+01   3.5301696932e+01    0.6127051    0.4346898  72.80  0.002420681    1.532    0.347
       259 -10.0659    176.2838     43.3808   6.0910861336e+01   3.5356465007e+01    0.3567348    0.2946458  88.98  0.001475294    1.327    0.246
       260 -10.5763    104.3622     58.0381   8.2692968195e+01   5.0445016919e+01    0.5811669    0.4428984 -35.42  0.002965796    1.270    0.213
       261 -10.2667     90.8919     47.7834   8.3194839146e+01   5.5023120632e+01    0.3159841    0.2278198 -44.97 0.0009867877    1.375    0.273
       262  -9.3046      2.1944     48.6772   1.1798502658e+02   6.5359218759e+01    0.2316639    0.2063582 -66.45  0.001781313    1.159    0.137
       263  -9.2235      3.1290     44.6000   1.1674625730e+02   6.6188097112e+01    0.2281301    0.1334255  -8.48  0.001180643    2.218    0.549
       264  -9.8256      6.6260     43.3355   1.1495618378e+02   6.6276806914e+01    0.4554371    0.2277521  88.26  0.002063066    3.340    0.701
       265 -10.0006    162.4842     45.0384   6.3968258214e+01   3.8740279734e+01    0.5023392    0.2818812 -15.78  0.001959553    2.231    0.552
       266  -9.9663     13.6462     46.9445   1.1280833561e+02   6.5090181355e+01    0.3505477    0.1730242 -25.90  0.001771713    2.633    0.620
       267 -10.1943     17.5769     41.8449   1.0978875944e+02   6.5904683955e+01    0.4645127    0.1954146 -36.06  0.002200226    2.569    0.611
       268  -9.3531    209.5330     47.4265   5.6975644182e+01   2.6174769741e+01    0.2892945    0.1414115  63.33   0.00117052    2.074    0.518
       269  -9.8341    194.9959     46.7957   5.8919259701e+01   2.9987529358e+01    0.5396621    0.2570376  86.25  0.001579248    4.366    0.771
       270  -9.9467    234.4114     45.5309   5.3289206457e+01   2.0310048593e+01    0.3172522    0.1943178 -64.26  0.000984655    1.969    0.492
       271  -8.3334    219.6784     57.2849   5.8316290629e+01   2.2315095723e+01    0.1486314    0.1068207 -63.03 0.0004192317    1.595    0.373
       272  -9.5502    101.4856     44.5023   7.8645892454e+01   5.3484208323e+01    0.2487276    0.2164073  83.60 0.0009582014    1.458    0.314
       273 -11.0998     94.8846     41.3217   7.9454724314e+01   5.5382673224e+01    0.7079893    0.3320067  49.20  0.002926138    2.253    0.556
       274 -10.7888    153.2134     36.1779   6.2760101698e+01   4.2409646510e+01    0.3093229    0.2787932  68.79  0.000449352    1.123    0.110
       275 -10.8027    189.1061     41.4010   5.8195312916e+01   3.2253919147e+01    0.5295145    0.2353713 -24.37 0.0009691906    2.399    0.583
       276  -9.5986     87.4850     27.4900   7.6141251229e+01   5.9104218198e+01    0.4923631    0.1818835 -24.82  0.001578827    3.857    0.741
       277 -10.8631     80.9008     39.7888   8.3470168488e+01   5.8320982711e+01    0.5780681    0.3771373  49.63  0.002904271    1.741    0.426
       278 -10.7514     77.5809     34.3276   8.2422524473e+01   5.9866741145e+01    0.4371877    0.2871837  41.78 0.0009693526    1.608    0.378
       279 -10.4389     82.0173     31.5190   7.9698874450e+01   5.9523085115e+01    0.4458449     0.354955  63.51    0.0024417    1.638    0.390
       280 -10.4764    230.7708     38.7956   5.1924967214e+01   2.2019799506e+01    0.5211251    0.2804489 -66.57  0.001521816    2.503    0.601
       281  -9.1274    217.8250     38.8690   5.3475253638e+01   2.5193897308e+01    0.2079461    0.1586221 -56.62 0.0006265184    1.329    0.247
       282 -11.2314    176.0241     36.1324   5.8627909005e+01   3.6404143891e+01    0.7184698    0.5525463 -78.48   0.00253623    1.496    0.331
       283 -10.6265    197.4721    232.0089   9.9337852099e+01   1.7260340194e+00    0.2784021    0.1229284  35.68  0.001499289    1.819    0.450
       284 -10.6480    176.4713     29.9306   5.6548021119e+01   3.7075634297e+01    0.4653637    0.2640133  48.39  0.001286655    1.766    0.434
       285  -9.7067     15.0364    233.8605   1.3074301188e+02   2.6515610117e+01    0.1654449    0.1050285  78.05 0.0009015446    1.227    0.185
       286  -9.8936    206.9103     37.2930   5.4422661591e+01   2.8159250471e+01    0.2696567    0.2240198 -50.58 0.0006042253    1.183    0.155
       287  -9.5858    133.1924     36.9027   6.7311534508e+01   4.7405042999e+01    0.4265254    0.2770887 -68.29  0.001742592    2.361    0.576
       288 -11.4895    156.0029     41.9611   6.4203197075e+01   4.0871745582e+01     0.464248    0.3875306 -27.11  0.001039425    1.217    0.179
       289  -9.9919      5.0209     35.7908   1.1382852127e+02   6.7950595239e+01    0.3207248    0.1947453  21.58  0.002051295    2.034    0.508
       290 -10.0987      8.0857     29.8518   1.1073404865e+02   6.9002385971e+01    0.5811722    0.2232077 -27.82  0.002514362    3.639    0.725
       291  -9.0137    163.5278    243.5232   1.0654581422e+02   5.5955101391e+00     0.113199   0.08375978  42.33 0.0001132971    1.038    0.037
       292  -9.5521     23.5393    231.7570   1.2930325243e+02   2.6008505952e+01    0.1555406    0.0841815  52.09  0.001027687    1.341    0.254
       293  -9.9246    247.3087    231.1812   9.1139384140e+01  -5.6188008518e+00    0.1642706     0.108736   4.71 0.0007269219    1.378    0.274
       294 -10.0261    243.2114    231.3941   9.1809047934e+01  -5.0577466294e+00     0.153648   0.08539183  42.96 0.0009592046    1.722    0.419
       295 -10.0057    234.2491    222.7888   9.1915516288e+01  -2.9100387133e+00    0.1609764    0.1035075  19.11  0.001055587    1.327    0.246
       296 -10.7378     31.1792     27.9268   9.8968486076e+01   6.7546698432e+01    0.3123945    0.2021367 -47.50  0.001444496    1.297    0.229
       297  -9.4146      9.9936    218.0004   1.3093911662e+02   2.9629213112e+01    0.1240637   0.08390119  69.89 0.0006954001    1.025    0.025
       298 -10.1091    165.5076    212.6723   1.0226099139e+02   9.3477473597e+00    0.2405816    0.1532197  58.39 0.0008709725    1.778    0.438
       299 -10.9987    240.4923     31.9037   4.9088695941e+01   2.0530616539e+01    0.5692987    0.4686388  -8.58  0.003262683    1.349    0.259
       300  -8.8432    160.6558    208.7462   1.0260422002e+02   1.0724230165e+01    0.1206478   0.08383619  23.98 0.0005638825    1.584    0.369
       301 -12.3200    105.9431     20.1467   6.7444857304e+01   5.6198992999e+01    0.3173282    0.2567138 -20.89 0.0003519009    1.219    0.180
       302 -12.2081    105.7844     32.9107   7.2825507813e+01   5.4439870014e+01    0.5831105    0.3611998  16.17   0.00162236    2.282    0.562
       303  -9.5409    152.9344    207.6966   1.0389962114e+02   1.2175041242e+01    0.1813282    0.1339584  44.23  0.001144426    1.101    0.092
       304  -9.6539    248.7244     33.2139   4.8617308009e+01   1.8473648842e+01    0.2514131    0.1514728 -32.67  0.001274198    1.479    0.324
       305  -9.0652    161.5251     23.4843   5.6819555642e+01   4.1838292742e+01    0.2180397    0.2147155   3.19 -1.839028e-05    1.048    0.046
       306 -10.9603    160.2836     29.3642   5.9066560477e+01   4.1449705579e+01    0.5265008     0.266518 -13.79  0.001977633    2.528    0.604
       307  -9.0750     61.0218    207.0210   1.2129674716e+02   2.6021799842e+01    0.1783447   0.09948608  64.30 0.0004941871    1.548    0.354
       308  -9.3156    216.3733     32.2832   5.1812773162e+01   2.6367544249e+01    0.2596463    0.1788026   0.59 0.0008953116    1.860    0.462
       309 -10.6498    197.7388     29.3873   5.3308423220e+01   3.1512227753e+01    0.4380933    0.4206096 -65.11  0.002151794    1.014    0.014
       310 -10.5902    189.2778     28.8304   5.4294654724e+01   3.3807357508e+01    0.6167851    0.3304733 -19.11  0.002552174    2.080    0.519
       311  -9.3862    148.1706     31.8513   6.2230728702e+01   4.4303899388e+01    0.2196336     0.202894 -77.95 0.0006768647    1.170    0.146
       312  -9.2802    210.8294     30.0909   5.1856479577e+01   2.8038107972e+01    0.2715826    0.1546911 -36.94  0.001049658    1.652    0.395
       313  -9.2342     35.8302     31.1099   9.8048487171e+01   6.6452550504e+01    0.1776439    0.1599572 -67.08  0.001046221    1.359    0.264
       314  -9.6270    221.2608     29.4560   5.0466643690e+01   2.5478037230e+01    0.2493802    0.1882679 -30.75 0.0005895305    1.281    0.219
       315 -10.1616    199.4683     26.0259   5.2079255000e+01   3.1457600155e+01    0.3254434    0.2654814  -7.64   0.00100409    1.369    0.269
       316 -11.3204     98.5852     27.3311   7.2610246716e+01   5.6835926706e+01    0.4062597    0.2855102 -43.89 0.0005986671    1.554    0.356
       317 -10.0637    230.9169     27.8054   4.8987440798e+01   2.3293654083e+01    0.3884904    0.2360509 -46.18  0.001717154    1.547    0.354
       318 -10.9260      4.7972    203.4289   1.3123521844e+02   3.2648372835e+01    0.4084972    0.1063595 -70.25  0.002089166    3.444    0.710
       319 -10.5318    144.4163     25.3726   6.0621664390e+01   4.6109650188e+01    0.6930013    0.3743278  77.39  0.002674672    2.437    0.590
       320 -10.4694    238.1946    203.9064   8.8221714884e+01  -1.5246492889e+00    0.3133112    0.1852414  44.76  0.001854389    1.701    0.412
       321  -9.1102    222.0152    206.0000   9.1251397687e+01   8.1935839817e-01    0.2009893   0.05682581  42.88 0.0008074452    2.977    0.664
       322 -10.9444    155.0469     25.2070   5.8552631853e+01   4.3348599813e+01    0.7587312     0.385251  50.63  0.003128137    1.865    0.464
       323 -10.0562    157.4990     20.5883   5.6490353887e+01   4.3245087133e+01    0.5859321    0.2289694  57.93  0.002001669    2.274    0.560
       324  -9.8069    250.5635     26.6128   4.6806402739e+01   1.8812308077e+01    0.2707718    0.1173548 -27.96 0.0006622955    2.092    0.522
       325  -8.8707     41.7338     27.1279   9.3793158233e+01   6.6527646086e+01    0.1604327    0.1190436 -21.78 0.0004507556    1.274    0.215
       326 -10.5758    214.2757     23.7698   4.9663366897e+01   2.7894840168e+01    0.3933953     0.337715 -15.78  0.001683009    1.248    0.199
       327 -10.4319    211.3111     18.7663   4.8574082348e+01   2.9208975238e+01    0.2739444     0.226743  62.45 0.0002776598    1.219    0.179
       328  -9.7392    206.2436     18.3393   4.9010230278e+01   3.0560608921e+01    0.4487143    0.1983957 -64.28  0.001521131    3.398    0.706
       329 -10.3425     68.7108     32.8332   8.5044284293e+01   6.1648318572e+01    0.4032806    0.2965197  45.95  0.002252769    1.561    0.359
       330  -9.6816     80.4961     19.3124   7.4807530628e+01   6.1679226388e+01    0.2604817    0.1949761  30.68 0.0007572102    1.319    0.242
       331  -9.5138     16.6622    204.6822   1.2921947233e+02   3.1329355293e+01   0.08737586   0.07522604 -61.70 0.0007048928    1.704    0.413
       332  -9.8587     86.1091     22.9170   7.4577496294e+01   6.0059648969e+01    0.4089465    0.1815506 -30.57   0.00113966    2.190    0.543
       333 -10.6178    245.4831    200.9936   8.6549321427e+01  -2.3454248684e+00     0.183288    0.1311439  27.53 0.0005643194    1.146    0.127
       334  -8.4474    207.3339    201.3106   9.3002201508e+01   3.8156274529e+00     0.127804   0.08176721  17.08 0.0007043594    1.677    0.404
       335  -8.6142      1.3112    200.3004   1.3171541569e+02   3.3513670527e+01   0.08475937   0.07007818 -70.52 0.0003960084    1.605    0.377
       336 -10.5228     47.1732     19.0641   8.7786873184e+01   6.7241401631e+01    0.3198212    0.2527655  -6.39  0.001322081    1.209    0.173
       337  -9.9284    233.7529    197.3097   8.7821816076e+01  -7.9250806335e-02    0.2602994    0.1781873 -20.14  0.001272305    1.510    0.338
       338 -10.0474     38.6993     21.8426   9.2923325440e+01   6.7844954983e+01    0.3145273    0.1697704 -36.50   0.00130295    1.604    0.376
       339 -12.2317      4.6678    184.6139   1.3044349478e+02   3.6126845357e+01    0.6778987    0.3717932  78.33  0.004681821    1.406    0.289
       340  -8.6121     83.7416    195.9823   1.1591727341e+02   2.5021805464e+01    0.1371076   0.09611305 -74.07 0.0007132855    1.491    0.330
       341 -10.1145    242.1104     22.1777   4.6450187333e+01   2.1258186550e+01    0.4187975     0.160646  63.50  0.001736175    2.570    0.611
       342 -10.0746    169.7543    191.5162   9.8293746960e+01   1.1732669552e+01     0.326338    0.1779244  32.97 0.0009688632    1.809    0.447
       343  -9.6470    239.9527    184.5030   8.4515586297e+01   3.9401688224e-01    0.1831589    0.1458174  -4.27 0.0005475478    1.162    0.139
       344  -9.9783    212.9883    181.4945   8.8562387219e+01   5.4149504401e+00    0.2635494     0.143167   5.46  0.001038137    3.494    0.714
       345  -9.3485    249.8676    180.5345   8.2179184132e+01  -7.7176360678e-01    0.2009832    0.1332423 -25.76   0.00122428    1.519    0.342
       346  -9.2862    223.3062     22.1564   4.8251286462e+01   2.5805445534e+01    0.2311663    0.1779593  62.69 0.0006250289    1.328    0.247
       347  -9.9825     52.0749    173.8009   1.2022179414e+02   3.3457867095e+01    0.3756842    0.1648018  88.46   0.00169377    2.904    0.656
       348  -9.7914     28.5972    175.7843   1.2526206912e+02   3.5631975464e+01    0.1950407    0.1445214  45.88   0.00140117    1.377    0.274
       349  -9.6093    231.5959    175.3792   8.4201089935e+01   2.9276586277e+00    0.3703272    0.1052596  43.85  0.001412223    3.161    0.684
       350 -10.1523     74.4677     19.5467   7.7023940449e+01   6.2781024117e+01    0.2541152    0.1910044   1.31 0.0008457318    1.369    0.270
       351 -11.2541    113.3782     49.5853   7.7082202471e+01   5.0049095416e+01    0.6370418    0.3944091  34.32  0.002173723    1.815    0.449
       352  -8.9911     57.2713    174.9886   1.1923448220e+02   3.2589081096e+01    0.1622384    0.1305163  81.21 0.0004414879    1.059    0.056
       353  -9.7612    247.5724    173.9494   8.1300590550e+01   3.7434030570e-01    0.4398196    0.1304219  33.41  0.001484816    4.402    0.773
       354 -10.3256      9.5173     21.9996   1.0749180406e+02   7.0482018270e+01    0.2914136    0.1304151 -54.40 0.0008616348    1.693    0.409
       355  -9.7985     39.5103    173.5092   1.2283929161e+02   3.4946932017e+01    0.2180714   0.09740289 -74.60 0.0006862595    2.040    0.510
       356  -8.6927    170.5078    172.4181   9.4902154963e+01   1.4625663275e+01    0.1349618    0.1174755  39.40 0.0001702665    1.020    0.020
       357 -11.1903     10.7799    127.3633   1.2549056725e+02   4.7389840711e+01    0.4708806    0.2013953 -62.78  0.001626349    2.022    0.506
       358  -9.4150    115.1107     17.7049   6.4047190367e+01   5.4368317778e+01    0.2784055    0.2091655 -10.39  0.001440298    1.377    0.274
       359 -11.0886     15.4492    147.8109   1.2602975245e+02   4.2611993370e+01     0.560637    0.2422717  75.90  0.002843948    2.356    0.575
       360 -11.8582     12.4199    137.6053   1.2593873894e+02   4.5040093603e+01     1.857981    0.6200286  83.25  0.007093075    4.102    0.756
       361  -9.7019    219.6492     12.7047   4.6034515427e+01   2.7739585690e+01    0.3581476    0.1583894  67.62  0.001515655    2.167    0.539
       362 -11.9902      9.7845    166.6060   1.2850190335e+02   3.9211052180e+01    0.8393319    0.3249168 -81.64  0.004583983    2.161    0.537
       363 -11.2423     14.0163    158.5137   1.2710823885e+02   4.0497476019e+01    0.4373965     0.240459 -80.67  0.002254408    1.499    0.333
       364 -11.0059     21.2859    150.6951   1.2493669545e+02   4.1491724319e+01    0.2511531    0.1579589  78.58 0.0003811973    1.341    0.254
       365 -11.5426     24.0061    148.5293   1.2414046155e+02   4.1704318657e+01    0.2611026    0.2161401 -83.72 0.0006314919    1.158    0.137
       366  -9.0472    197.8393    167.8746   8.8768175693e+01   1.0139521814e+01      0.16649    0.1608585  87.11 0.0007355158    1.316    0.240
       367 -10.6366     35.5368    170.4049   1.2341919663e+02   3.6000845991e+01    0.4146751    0.1813972  77.89  0.002013938    2.566    0.610
       368 -10.0895     18.6830    165.2105   1.2657274518e+02   3.8712344013e+01    0.2281494    0.2117295  51.63   0.00183433    1.403    0.287
       369  -9.9706    188.6812    164.1996   8.9798991565e+01   1.2464273565e+01    0.2706718    0.2224459  -6.53  0.000894763    1.320    0.243
       370 -10.1415     28.1780    163.9654   1.2447073783e+02   3.8068447995e+01    0.2841638    0.1385175  80.05  0.001547488    1.984    0.496
       371  -9.8238    204.9496    162.9923   8.6493209025e+01   9.5088849229e+00    0.2908669    0.1905191  28.46 0.0006199387    1.501    0.334
       372 -10.3084    246.4654    158.7479   7.8484541884e+01   2.4208634793e+00     0.300861     0.117588 -27.28  0.001294477    2.579    0.612
       373  -9.3770     79.5443    159.7978   1.1258297011e+02   3.2754156037e+01    0.2391753    0.1142192 -60.83  0.001154652    2.074    0.518
       374  -9.6165    215.2521    158.3839   8.3696982781e+01   8.2084273074e+00    0.2444139     0.156518 -17.70 0.0008213429    1.730    0.422
       375 -10.5382    105.2518    154.2681   1.0584149485e+02   2.9917985772e+01    0.4249898     0.393455  53.00   0.00266556    1.122    0.109
       376  -8.8016    223.6924    156.6792   8.1861616923e+01   6.8466567089e+00    0.1386676   0.09336846  12.18 0.0007033373    1.641    0.390
       377 -11.0495     31.3924    153.1880   1.2286368114e+02   4.0005599243e+01    0.4377241    0.2575999  89.38  0.002639143    1.492    0.330
       378 -10.1698     70.9101    151.9146   1.1354379038e+02   3.5634428302e+01    0.3313216    0.1705176  57.62  0.001223229    2.011    0.503
       379 -12.0047      3.7458    147.2781   1.2860985387e+02   4.3655716178e+01    0.7064034    0.3633925 -89.50  0.004362635    1.557    0.358
       380 -10.7309      5.5146    141.5035   1.2783276465e+02   4.4738088175e+01    0.2096318    0.1844614  65.57 0.0009034924    1.261    0.207
       381 -12.2759      4.0333    137.0307   1.2786514176e+02   4.5797006676e+01    0.3242869    0.1825836 -66.14 0.0003443837    1.609    0.378
       382  -9.4521     47.8907    151.8874   1.1894440179e+02   3.8522650640e+01    0.2388124    0.1919432  40.58 0.0009230219    1.386    0.279
       383 -11.1950     47.4507    146.5963   1.1846260927e+02   3.9717271263e+01    0.4670005    0.4054542 -70.01  0.003046897    1.241    0.194
       384 -11.5499     62.8401    150.0096   1.1520769102e+02   3.7113606080e+01    0.4182409    0.3679263  44.42  0.001810509    1.281    0.219
       385  -9.7516    234.5920    150.2549   7.8673277640e+01   5.6805748158e+00    0.1883473    0.1170507 -16.03  0.000955183    1.683    0.406
