#   1 NUMBER                 Running object number                                     
#   2 MAG_AUTO               Kron-like elliptical aperture magnitude                    [mag]
#   3 X_IMAGE                Object position along x                                    [pixel]
#   4 Y_IMAGE                Object position along y                                    [pixel]
#   5 X_WORLD                Barycenter position along world x axis                     [deg]
#   6 Y_WORLD                Barycenter position along world y axis                     [deg]
#   7 A_WORLD                Profile RMS along major axis (world units)                 [deg]
#   8 B_WORLD                Profile RMS along minor axis (world units)                 [deg]
#   9 THETA_WORLD            Position angle (CCW/world-x)                               [deg]
#  10 FWHM_WORLD             FWHM assuming a gaussian core                              [deg]
#  11 ELONGATION             A_IMAGE/B_IMAGE                                           
#  12 ELLIPTICITY            1 - B_IMAGE/A_IMAGE                                       
         1 -13.1919    238.9151     17.2036   2.9819441998e+01   2.5475633554e+01    0.9282605    0.3906487 -72.66  0.004460885    2.689    0.628
         2 -12.5416    249.1464      7.9462   2.7442044907e+01   2.4562488178e+01    0.6321644    0.4732865  20.19  0.003892242    3.059    0.673
         3 -12.6188    247.7530     32.6384   3.2083303194e+01   2.1925046812e+01    0.7558339    0.3134457 -56.69  0.003881881    2.120    0.528
         4 -12.2010    250.1990     26.2895   3.0713269930e+01   2.2248784934e+01    0.5583736    0.2459439 -45.23  0.002664495    1.817    0.450
         5 -12.9898    250.1117     18.1207   2.9219140578e+01   2.3234705637e+01    0.6729822    0.2796597 -45.61  0.003789817    1.898    0.473
         6 -12.9668    224.6319     23.5171   3.2163714438e+01   2.7591245230e+01    0.5985383    0.4639141  50.27  0.003942896    1.740    0.425
         7 -12.4828    229.5584     17.2005   3.0507213788e+01   2.7325714031e+01    0.4226756    0.3350832 -54.13  0.002558038    1.209    0.173
         8 -11.1580    232.3835     10.7343   2.9044386420e+01   2.7484645093e+01    0.2311775    0.1885783 -62.49  0.001033281    1.162    0.139
         9 -12.6760    221.4469      5.2294   2.8738525861e+01   3.0275120533e+01     0.427907    0.1914465 -44.08  0.002401444    1.940    0.485
        10 -12.6344     88.3677     16.6109   5.0939310396e+01   5.9058425158e+01    0.3607585    0.2664653  64.72  0.001381533    1.421    0.296
        11 -12.2388     25.1305     16.9068   7.5340465377e+01   6.9928382635e+01    0.3296652     0.180195   6.37  0.001751443    2.107    0.525
        12 -12.2099     66.7537     13.3459   5.6085471444e+01   6.3730381331e+01    0.2571387     0.190359 -36.24   0.00143258    1.643    0.391
        13 -11.8050    204.7780     12.4330   3.1539165174e+01   3.3015723121e+01       0.3335    0.1542885 -55.68  0.001196443    2.021    0.505
        14 -11.9402    102.9988      7.6543   4.4111564724e+01   5.6698905751e+01    0.2933617    0.1934457 -84.64  0.001273865    2.120    0.528
        15 -11.4175     97.7498      2.6377   4.3420321438e+01   5.8262852882e+01    0.3542267    0.1989112 -74.24  0.001518524    3.545    0.718
        16 -12.7437    119.7874      3.4673   3.9499153276e+01   5.3244391587e+01      0.46149    0.1626493  67.22  0.001962935    2.444    0.591
        17 -11.3967    107.7062     10.1829   4.4015404567e+01   5.5429002310e+01    0.2365171    0.1956994  85.76 0.0005312437    1.322    0.244
        18 -11.2251    109.6936      3.0056   4.1150957781e+01   5.5575526833e+01    0.2233367    0.1773656 -65.26 0.0007402172    1.511    0.338
        19 -12.1960    112.8536     11.9846   4.3589847419e+01   5.4104978930e+01    0.2968689    0.2651624   4.98 0.0005708567    1.280    0.219
        20 -12.9128    112.2683      6.2207   4.1756262606e+01   5.4735710196e+01    0.4898802    0.2706911  43.06    0.0025222    1.720    0.419
        21 -13.0638    127.6987     11.2527   4.0625458071e+01   5.0757885649e+01    0.3272617    0.3116591 -76.60  0.002249612    1.160    0.138
        22 -12.0251     59.4290     12.2225   5.8132961783e+01   6.5205558077e+01    0.2992702    0.1489671  49.78  0.001550065    1.873    0.466
        23 -11.7804    119.1554     10.7111   4.1961502029e+01   5.2779219014e+01    0.2052915     0.146937  82.38  0.000963872    1.453    0.312
        24 -11.5389     28.6287     10.3885   7.0422868469e+01   7.0318237044e+01    0.2236494    0.1553696  11.56 0.0007095125    1.204    0.169
        25 -11.5313     31.6380      7.0784   6.7295202904e+01   7.0287101375e+01    0.2203081     0.177314  10.48 0.0005220736    1.090    0.083
        26 -12.0486    240.1378      9.3076   2.8253480409e+01   2.6124040163e+01    0.4128932    0.2398679 -86.15  0.002644428    1.512    0.338
        27 -12.6345    240.6515      1.9895   2.6873914846e+01   2.6808607274e+01     0.414512    0.2006774  85.99  0.002472401    1.866    0.464
        28 -11.7310    236.2104      3.2854   2.7383414872e+01   2.7531180468e+01    0.3428461    0.1756782 -45.89   0.00212562    1.658    0.397
        29 -11.5039    231.6084      2.2609   2.7481120351e+01   2.8540784955e+01    0.3091235    0.1612515 -87.13  0.001441636    1.707    0.414
        30 -11.4966    138.9733      8.0143   3.7867429941e+01   4.8423362857e+01    0.2079884    0.1356069 -71.96  0.001137512    1.761    0.432
        31 -12.9135     22.5334      6.9136   7.1811014462e+01   7.1535082493e+01    0.3550349    0.2388059  36.43  0.001776248    1.637    0.389
        32 -12.1031     74.0045      6.0346   5.0709009697e+01   6.2995510170e+01     0.193094    0.1590533  37.17  0.001010624    1.015    0.015
        33 -12.7937    213.1487      7.9156   2.9897620696e+01   3.1713498851e+01    0.4820693    0.2010112 -47.88  0.002537389    2.076    0.518
        34 -11.2145     94.8562      5.1305   4.4978894328e+01   5.8698596476e+01    0.1846719    0.1618268  81.88 0.0009791607    1.285    0.222
        35 -11.1719    155.6646     10.1062   3.6165565830e+01   4.4339758432e+01    0.1948729    0.1421741 -58.04 0.0009828539    1.419    0.295
        36 -10.3869    187.3394      4.2299   3.1269410701e+01   3.7666647774e+01    0.1593828   0.09411901 -46.83 0.0004924656    1.640    0.390
        37 -11.8963    169.7274      3.3796   3.2790948102e+01   4.1715684080e+01    0.2549037     0.215917 -67.43  0.001368473    1.163    0.140
        38 -10.5098    134.6480      4.3444   3.7420644049e+01   4.9743961148e+01    0.1314147   0.08456951 -71.25 0.0007040307    1.815    0.449
        39 -11.6335     90.0188      3.6964   4.5557846178e+01   5.9858240997e+01    0.1793242    0.1410764  52.64 0.0008741169    1.070    0.066
        40 -11.5772    201.1399      3.1180   2.9838133391e+01   3.4754130397e+01    0.1716566    0.1478118  76.76 0.0009433921    1.249    0.200
        41 -11.7444    160.1116      2.8510   3.3707233558e+01   4.3968305015e+01    0.1975256    0.1442854 -79.17 0.0009882257    1.288    0.224
        42 -12.4362    149.7393      2.0208   3.4717217902e+01   4.6436132122e+01    0.4760897    0.1611253  67.44  0.002082786    2.354    0.575
        43 -11.0251     40.4663      2.9959   6.1222467020e+01   6.9373749815e+01     0.239983    0.1286507  29.57   0.00137682    1.626    0.385
        44 -11.2002    148.5566      8.2496   3.6589333997e+01   4.6167585262e+01    0.2959303     0.166832 -55.79  0.001543563    1.998    0.500
        45 -13.0498     65.3265      3.8558   5.2413515577e+01   6.4887291163e+01    0.4192995    0.2759844  36.14  0.002596406    1.258    0.205
        46 -12.2200      9.4751      2.0187   7.6621530340e+01   7.3654087059e+01      0.42903    0.1363374  26.24   0.00199245    3.115    0.679
        47 -11.9639    133.0508      9.2691   3.9141371068e+01   4.9691808078e+01    0.2173415    0.1519011 -50.59  0.001032302    1.609    0.378
        48 -10.6148    137.9627      1.4854   3.6106850930e+01   4.9209322622e+01    0.1798401   0.09213804 -83.46 0.0008098136    2.538    0.606
        49 -11.0151    242.9521    153.9908   5.6854898379e+01   3.7856673911e+00    0.1964553    0.1488899 -61.13 0.0009235716    1.643    0.391
        50 -10.4419    249.5515    250.2486   7.3119659319e+01  -1.1926920277e+01    0.1559954   0.08388516 -22.54 0.0009423387    1.613    0.380
        51 -11.1217     21.1451    249.2415   1.1899713078e+02   1.8311470867e+01    0.2358547    0.1084468  68.65  0.001236025    2.079    0.519
        52 -10.8613     12.8768    249.0846   1.2056057712e+02   1.9194938126e+01     0.271028     0.103787  60.18  0.001353526    2.300    0.565
        53 -10.8072      3.5366    250.5052   1.2236378201e+02   1.9830740542e+01    0.2156951   0.09478296  33.58  0.001209368    2.159    0.537
        54 -12.0845    244.8150    149.7090   5.5720212984e+01   4.2313039111e+00    0.2751166    0.2495382 -41.77  0.001095253    1.153    0.132
        55 -10.0947     39.5126    153.5359   1.0586543622e+02   3.8751683559e+01    0.1403159    0.1243416 -63.94 0.0002061432    1.073    0.068
        56 -10.5076    233.4737    153.0648   5.8181710639e+01   5.4529410831e+00    0.2120365    0.1141111 -39.03  0.001029078    1.587    0.370
        57 -11.0491    216.2341    149.1127   6.0296073468e+01   9.0919696720e+00    0.2692997    0.1786848 -53.38  0.001341442    1.607    0.378
        58 -10.8314    235.8120    148.4886   5.6880078873e+01   5.8806522150e+00    0.2444781    0.1620679 -66.26  0.001181305    2.292    0.564
        59 -10.6539    182.4821    149.0207   6.6777137138e+01   1.5386132434e+01    0.2138884    0.1240841 -22.75   0.00080957    2.475    0.596
        60 -11.4250    224.5617    146.1492   5.8242071974e+01   8.1870022387e+00    0.3247771     0.214271 -35.92  0.001656131    1.340    0.254
        61 -10.9438     17.3122    146.6670   1.1144151931e+02   4.2594321337e+01     0.138911   0.09006476  68.80 0.0007044534    1.679    0.404
        62 -10.9076    230.8100    141.2977   5.6211835725e+01   7.9916468656e+00    0.2467474    0.1644961 -48.86  0.001310082    1.412    0.292
        63 -11.9618      7.6082    141.7251   1.1370188762e+02   4.4565664765e+01     0.376826   0.08593912  35.45  0.001361379    4.025    0.752
        64 -11.4470    224.9641    140.0174   5.6897115639e+01   9.2329953150e+00    0.2598378    0.1597803 -39.88  0.001068053    1.412    0.292
        65 -12.0832    199.4009    138.3121   6.1042771515e+01   1.4261614357e+01    0.4627202    0.1961101 -52.06  0.001661174    2.746    0.636
        66 -11.6904    218.8642    138.4756   5.7593233399e+01   1.0599972924e+01    0.2687966    0.2093972 -64.41  0.001371937    1.503    0.335
        67 -11.9032    209.5271    138.4601   5.9216421697e+01   1.2314811312e+01     0.261039    0.2291634 -38.11  0.001078887    1.020    0.019
        68 -11.4368    248.9588    135.3256   5.2253846295e+01   6.0303968265e+00    0.3719513    0.1559409 -46.18  0.001125841    2.088    0.521
        69 -11.4217    249.0546    130.7951   5.1339026940e+01   6.7820222516e+00    0.2497555    0.1939814 -65.28  0.001110713    1.490    0.329
        70 -12.3722    242.0504    134.5272   5.3096681612e+01   7.2921338469e+00     0.444901    0.3567266   0.19  0.002597452    1.558    0.358
        71 -10.7991    234.4786    134.4698   5.4227352770e+01   8.5776349258e+00    0.2865668    0.1140951 -40.96    0.0011464    2.129    0.530
        72 -11.0563    234.1431    129.8539   5.3325386029e+01   9.4490692706e+00    0.2080941    0.1640187 -57.39 0.0008585623    1.297    0.229
        73 -11.0491    221.3771    129.5381   5.5269898816e+01   1.1784217874e+01    0.2323469    0.1973063 -81.10 0.0007939511    1.417    0.294
        74 -10.4877    186.9730    128.6850   6.1269350421e+01   1.8629023122e+01    0.1990557    0.1977791  72.95 0.0007286369    1.077    0.072
        75 -10.8280    193.5139    128.0023   5.9844622575e+01   1.7439765079e+01    0.2321739    0.1350311 -42.47 0.0007145873    1.587    0.370
        76 -10.4250     25.4809    128.4954   1.0649804821e+02   4.6529977015e+01    0.1369658     0.119123 -66.92 0.0003442209    1.012    0.012
        77 -11.5934      2.1031    127.3439   1.1373508367e+02   4.8505222574e+01    0.2570686    0.1651844 -80.13  0.001194699    1.364    0.267
        78 -12.5416    241.3409    124.9325   5.1251113032e+01   9.0652302240e+00     0.397763    0.2289933 -54.70  0.001984591    1.815    0.449
        79 -11.6242    228.6307    125.3882   5.3237084836e+01   1.1214297044e+01    0.2825352    0.1500059 -38.95  0.001337187    1.649    0.394
        80 -11.0164    206.5000    126.4992   5.7129262417e+01   1.5158944550e+01    0.1429552    0.1287894 -43.85 0.0008106894    1.007    0.007
        81 -10.8042    200.5354    126.4871   5.8194389589e+01   1.6332221310e+01    0.1447652    0.1311488 -47.96  0.000244777    1.034    0.033
        82 -11.3016    221.6442    122.1007   5.3631681777e+01   1.3083636641e+01    0.2960955    0.1062383 -46.85  0.001102772    2.594    0.615
        83 -11.3848    213.0021    122.9787   5.5233982412e+01   1.4559778340e+01    0.2278558    0.1635974 -68.25  0.001135877    1.715    0.417
        84 -11.3905    203.4997    121.0000   5.6426929456e+01   1.6788271299e+01    0.2291456    0.1300127 -42.04  0.001035569    1.598    0.374
        85 -11.4260    249.4342    118.2057   4.8773137818e+01   8.8361515843e+00    0.2077623    0.1860652  52.56   0.00138467    1.360    0.265
        86 -10.6871    188.6212    123.2318   5.9685203043e+01   1.9373370445e+01    0.2154373    0.1329031 -34.36 0.0009544719    1.650    0.394
        87 -12.7622    231.4445    115.4964   5.0728904266e+01   1.2445335518e+01    0.4231162    0.2966044 -29.50   0.00230297    1.469    0.319
        88 -11.9371    220.1998    115.0416   5.2332600096e+01   1.4624327738e+01    0.3074435    0.1516835 -58.57  0.001201481    2.736    0.635
        89 -11.2553    249.2786     98.1573   4.4776768884e+01   1.2156584262e+01    0.2508056    0.1510634 -65.73  0.001014611    1.963    0.490
        90 -13.1125    242.3456    104.6292   4.6960992251e+01   1.2325005201e+01    0.5444279    0.2483959 -38.67  0.002541743    1.906    0.475
        91 -13.0060    248.5210    105.5764   4.6359031644e+01   1.1082706456e+01    0.7466464    0.2684255 -43.91  0.002990939    2.255    0.557
        92 -10.1342    194.4702    113.4774   5.6318282094e+01   2.0050017307e+01    0.1454786    0.1330793 -53.71 0.0001036778    1.023    0.023
        93 -10.0042     15.4981    112.4813   1.0732591459e+02   5.1329298996e+01    0.1330039    0.1133703 -61.87 0.0008103174    1.019    0.019
        94 -10.2485    104.9806    111.5442   7.7093522644e+01   3.9469392122e+01    0.2271136      0.15197  40.51  0.000665863    1.518    0.341
        95 -11.1121    236.3224    107.9690   4.8458902655e+01   1.2849918536e+01    0.1945777    0.1481868 -47.16 0.0007388416    1.109    0.098
        96 -11.7318    212.1242    105.0892   5.1405733623e+01   1.7982489183e+01    0.2768382    0.1949502  67.08  0.001436473    1.649    0.393
        97 -11.1944    222.6350    104.1953   4.9605332842e+01   1.6067088974e+01    0.1961242    0.1171731 -33.67 0.0008056714    1.678    0.404
        98 -10.1214    121.1910    103.8093   7.0373949763e+01   3.7905109541e+01    0.2673024    0.1774401  88.26 0.0009589868    2.922    0.658
        99 -10.2660    230.8607    102.8251   4.8133754036e+01   1.4732446332e+01    0.1876726    0.1383332 -59.70 0.0006929015    1.311    0.237
       100 -12.5000    245.2897     99.1710   4.5472352409e+01   1.2697531100e+01    0.2962866    0.2667157 -52.36   0.00198669    1.106    0.096
       101 -10.3149    196.2246     97.2180   5.2195027711e+01   2.2685824419e+01    0.2388619   0.09629395 -48.79 0.0008813147    2.478    0.596
       102 -11.3314    238.3979     83.7749   4.3166093481e+01   1.6435639836e+01    0.3668156    0.2289052 -84.91  0.001881391    2.123    0.529
       103 -11.5963    239.0198     64.6429   3.9171586486e+01   1.9236615490e+01    0.2474056    0.1734524 -61.43  0.001072402    1.238    0.192
       104 -12.5046    242.8134     92.0775   4.4335285600e+01   1.4292348269e+01    0.4950309    0.2073398 -35.77  0.002176051    2.311    0.567
       105 -13.6458    235.0188     74.6463   4.1674099203e+01   1.8504835004e+01    0.9885051    0.4646056 -63.81  0.004147999    2.874    0.652
       106 -12.5590    241.7968     70.1215   3.9985811014e+01   1.7894602029e+01     0.524242    0.3204321 -46.61  0.003007575    1.361    0.265
       107 -12.3946    247.5114     85.2682   4.2401768586e+01   1.4517773780e+01    0.4941516    0.3217601 -62.44  0.002846135    1.494    0.330
       108 -12.3284    245.6600     77.9424   4.1140011059e+01   1.5989005357e+01    0.8266845    0.3664511 -68.46  0.002799678    4.937    0.797
       109 -11.1005    225.4806     92.9324   4.6760827318e+01   1.7429973642e+01    0.2082118    0.1162908 -41.83 0.0008040466    1.567    0.362
       110 -11.8907    237.2318     90.4088   4.4683492808e+01   1.5593904854e+01     0.296664    0.2194933 -66.90  0.001071492    1.343    0.255
       111 -11.2449    231.7367     90.9704   4.5504602529e+01   1.6543538779e+01    0.1930567    0.1466919 -47.42 0.0007116395    1.127    0.113
       112 -12.1154    216.8334     88.9650   4.7100182705e+01   1.9816990769e+01     0.336058    0.1879319  71.53  0.001543693    2.271    0.560
       113 -10.0925     27.6762     88.3701   9.8183806517e+01   5.6154849958e+01    0.1323814    0.1010812  71.84 0.0007034051    1.807    0.447
       114 -11.7127    226.5247     85.8609   4.5097232137e+01   1.8389883699e+01    0.4059761    0.2273021 -26.35  0.001836932    2.394    0.582
       115 -11.7428    231.5197     83.0787   4.3863996109e+01   1.7861547709e+01    0.4540607    0.1644357 -50.40  0.001809738    2.661    0.624
       116 -10.0229    147.9251     84.9940   5.8486178350e+01   3.5750064461e+01    0.1784882    0.1665529  60.93 0.0005120415    1.060    0.057
       117  -9.7728    135.4729     83.4682   6.0965312897e+01   3.8874037763e+01    0.1504127    0.1417365 -88.30 0.0003609054    1.103    0.094
       118 -10.8780    220.1018     81.8699   4.5082222946e+01   2.0321514651e+01    0.2146143    0.1613465 -66.84   0.00094307    1.292    0.226
       119 -10.4550    195.5575     82.4359   4.8795390083e+01   2.5406603456e+01    0.2319802    0.1228091  46.95 0.0005243931    2.167    0.539
       120  -9.9188     88.6503     82.2464   7.3925368408e+01   4.8961775833e+01    0.1409721    0.1155309  69.42 0.0005773101    1.582    0.368
       121 -11.2186    246.5147     62.5178   3.7975327452e+01   1.8124710187e+01    0.2404823    0.1551577 -47.62  0.001449578    1.280    0.219
       122 -11.7223    249.3802     69.7418   3.9111463957e+01   1.6538858088e+01    0.3037744    0.2213911 -78.39  0.001924772    1.371    0.271
       123 -11.7195    249.6888     65.4927   3.8245117734e+01   1.7105256760e+01    0.4600707    0.2008083 -38.41  0.002270514    2.042    0.510
       124 -12.5462    227.7119     66.6074   4.0834563487e+01   2.1166598117e+01    0.3768054    0.2544535 -49.02  0.001366912    1.274    0.215
       125 -10.0045    168.9777     67.4736   4.9516842990e+01   3.3891038216e+01     0.187394    0.1187597 -88.41 0.0005588963    2.179    0.541
       126 -10.6030      3.2943     66.5087   1.0334133322e+02   6.2780457489e+01    0.2215114   0.09353421 -62.03  0.001062252    2.020    0.505
       127  -9.9031    203.6910     65.6593   4.3646970874e+01   2.6334034503e+01    0.1260506    0.1070386  17.09 0.0004338956    1.690    0.408
       128 -10.6378     99.7244     62.9649   6.4305042675e+01   5.0385504479e+01    0.2019691    0.1907105  -6.14 0.0009870825    1.062    0.058
       129 -10.1429     41.4877     63.5031   8.5692968989e+01   6.0096315024e+01    0.1342129    0.1144825 -19.13 -0.000104495    1.011    0.011
       130 -10.7007    134.4917     59.5955   5.4196053059e+01   4.3209739417e+01    0.2640895    0.1418137 -36.11 0.0009291951    1.962    0.490
       131 -13.3022    243.1820     51.7957   3.6178695286e+01   2.0269256920e+01    0.7262552    0.4007847 -41.26  0.004112054    1.601    0.375
       132 -12.0681    234.6133     57.5823   3.8191843494e+01   2.1117383968e+01    0.4854683    0.1887411 -48.64  0.002228537    2.191    0.544
       133 -12.1255    236.1928     53.2855   3.7153720964e+01   2.1414710606e+01    0.3199801    0.2024693  69.38  0.001891715    1.654    0.395
       134 -10.3329    118.5155     64.5278   5.9570852500e+01   4.6059949250e+01    0.1446765    0.1354616  32.24 0.0001272638    1.047    0.045
       135 -10.3671     19.4986     57.0043   9.3452227494e+01   6.3659432305e+01    0.1877779    0.1073491 -50.35 0.0006216574    1.539    0.350
       136 -10.7154    250.2769     54.5876   3.6065815646e+01   1.8547876059e+01     0.221595    0.1383007 -46.33 0.0008701364    1.330    0.248
       137 -11.7076    231.2254     50.0350   3.6986220786e+01   2.2850393762e+01    0.2160925    0.1601341 -35.91  0.001265794    1.457    0.314
       138 -11.1569    249.2024     43.4498   3.4019716669e+01   2.0259157107e+01    0.4519649    0.1203583 -49.62  0.001866607    3.063    0.673
       139 -10.6041    233.2057     45.1918   3.5800701144e+01   2.3115291504e+01    0.1795329    0.1172752 -66.33  0.000656825    1.364    0.267
       140 -12.2494    244.1964     41.8224   3.4133509651e+01   2.1420444782e+01    0.3713813    0.2542947 -31.93  0.001892371    1.702    0.413
       141 -10.4400    159.0362     42.9642   4.4636163394e+01   3.9825705778e+01    0.1983644    0.1742618  77.20 0.0003231115    1.036    0.035
       142 -11.9471    218.4928     41.8997   3.6574705009e+01   2.6560154214e+01     0.186566    0.1682267  63.66  0.001238812    1.346    0.257
       143 -10.2121    134.3176     42.6321   4.9094724632e+01   4.5706741550e+01    0.1439889    0.1020935 -72.14 0.0007037403    1.783    0.439
       144 -10.1114    169.4819     39.9775   4.2195864129e+01   3.7760538209e+01    0.1932146    0.1288404 -37.61 0.0007493675    1.571    0.363
       145 -12.4098    238.4927     38.3440   3.3946760753e+01   2.2976427722e+01    0.2441439    0.1940677 -59.69  0.001681358    1.084    0.078
       146 -10.2698     61.4117     38.2354   6.8359409275e+01   6.1596850592e+01    0.1704351    0.1201374 -42.41 0.0009464865    1.639    0.390
       147 -11.1724     65.5141    249.0077   1.1007620980e+02   1.3145558380e+01    0.2946351    0.1038863  47.95    0.0012739    2.460    0.593
       148 -10.8018     50.4243    249.8137   1.1324652590e+02   1.4873741883e+01     0.234672   0.07254474  36.10  0.001007599    2.627    0.619
       149 -11.8768     36.0064    247.9969   1.1601327106e+02   1.6933758640e+01    0.3877962    0.1372648  60.77  0.001611369    3.163    0.684
       150 -11.3489    243.0279    246.1222   7.3573947026e+01  -1.0668556266e+01    0.2751082    0.1442834 -29.84  0.001483559    1.676    0.403
       151 -10.8558    233.2436    247.2413   7.5474865859e+01  -9.7007374122e+00    0.1656419   0.08902109 -45.82 0.0008903949    2.451    0.592
       152 -11.9375    227.7927     34.3996   3.4105034852e+01   2.5613598468e+01    0.3508986    0.1980121 -62.26  0.001976297    1.607    0.378
       153  -9.9349    154.5517     33.5252   4.2757440962e+01   4.2084531708e+01    0.1334328    0.1178275  85.42 0.0001301269    1.039    0.038
       154 -11.7144    237.8624     31.1609   3.2589212703e+01   2.4011781295e+01    0.3653325    0.2421667 -80.31  0.002335217    1.353    0.261
       155 -12.1310    215.1218     30.9115   3.4559852469e+01   2.8676329993e+01    0.2977702    0.1724466  56.53  0.001645862    1.932    0.482
       156 -10.9046     71.0587     30.9763   6.1934967535e+01   6.0881194241e+01    0.1835227    0.1620868  84.08 0.0007562335    1.650    0.394
       157 -10.5969    229.5826     25.7427   3.2199971925e+01   2.6320400864e+01     0.164884   0.08841504 -50.18 0.0005656631    1.572    0.364
       158 -12.0917      2.7654    242.8149   1.2214990666e+02   2.1439748190e+01    0.3601526    0.1746433  72.99  0.002042122    1.798    0.444
       159 -10.6386     45.1671    244.3789   1.1390095180e+02   1.6604513070e+01    0.1845601   0.08667277  44.62 0.0009531771    1.748    0.428
       160 -11.0029    225.2261    242.4657   7.6146658081e+01  -8.0722857084e+00    0.2270006    0.0898621 -49.23 0.0008869671    4.375    0.771
       161 -10.8527    137.1213     25.6954   4.3420463382e+01   4.7105564005e+01    0.2029666    0.1692531 -51.38 0.0004229531    1.304    0.233
       162 -10.8207      8.7643     26.5990   8.8418890499e+01   7.0129418649e+01    0.1521063    0.0969359  25.28   0.00095508    1.688    0.407
       163 -11.3391    142.0687     23.8108   4.2015024918e+01   4.6146733392e+01    0.3520162    0.1398747 -41.60  0.001506127    2.678    0.627
       164 -10.2167    128.6685     24.2896   4.4530315845e+01   4.9239492910e+01    0.1313038   0.09609058 -78.73 0.0003423609    1.625    0.385
       165 -10.4093     97.7555     21.9183   5.0484386293e+01   5.6499940307e+01    0.1949461    0.1400184 -58.92 0.0008934645    1.907    0.476
       166 -10.8562    103.0067     20.9724   4.8857301694e+01   5.5446008435e+01    0.2015076    0.1557701 -76.61  0.001140969    1.720    0.419
       167 -10.7479     61.9904     19.0424   6.0197364537e+01   6.4004028751e+01    0.2056973    0.1289698  19.51 0.0008227201    1.656    0.396
       168 -11.8963    221.6944     13.3304   3.0339460278e+01   2.9357269043e+01    0.2100154    0.1396555 -80.57   0.00111782    1.274    0.215
       169 -11.3011     17.8644    241.0909   1.1916197575e+02   2.0307305832e+01    0.1981694    0.1238229  63.98   0.00124118    1.314    0.239
       170 -10.4655    168.9436     17.9944   3.6567728277e+01   4.0465684835e+01    0.1569353     0.128624  82.36 0.0006520527    1.045    0.043
       171 -10.8816    246.9446    239.5772   7.1828867639e+01  -1.0224069423e+01    0.2356314    0.1265793 -21.81  0.001372335    1.673    0.402
       172 -12.3229    134.3854     16.3380   4.1064286892e+01   4.8720703269e+01    0.2774756     0.221859  55.61  0.001715094    1.141    0.123
       173 -10.9894    240.0016    239.8220   7.3070285318e+01  -9.4639854346e+00     0.208397    0.1436087 -24.68  0.001125019    1.258    0.205
       174 -11.2074      6.7412    236.3460   1.2107014561e+02   2.2390678545e+01    0.2226333    0.1134918  83.38  0.001259336    1.761    0.432
       175 -11.2992    249.1568    233.9141   7.0510587365e+01  -9.6957427597e+00    0.1670541    0.1386791 -21.81 0.0009136199    1.321    0.243
       176 -11.6966      4.8091    228.5562   1.2103846363e+02   2.4211774060e+01    0.3154121    0.1427849  67.30  0.001651279    2.003    0.501
       177 -11.0924    229.4866    227.9997   7.2953963412e+01  -6.4799660262e+00    0.1836827    0.1059541 -35.89  0.001026727    1.615    0.381
       178 -10.6898     10.1697    225.3635   1.1978070121e+02   2.4393946064e+01     0.171848   0.08458912  44.72 0.0009474504    1.744    0.427
       179 -11.1838    238.6465    219.6604   6.9883647932e+01  -6.3785173869e+00    0.3584495    0.1660175 -44.65  0.001763119    2.368    0.578
       180 -10.7982    193.9996    220.0211   7.8362785871e+01  -3.1011483880e-01     0.190259    0.1696808  72.48  0.001140338    1.719    0.418
       181 -11.1667      1.7056    219.9881   1.2120117116e+02   2.6340628217e+01    0.1731105    0.1249949  85.18 0.0009231425    1.134    0.118
       182 -11.5915    247.5961    216.2404   6.7747449244e+01  -6.9719842439e+00    0.4250553    0.1412615 -35.97  0.001885794    2.612    0.617
       183 -10.8119    101.1872     13.2296   4.6506965185e+01   5.6608640923e+01    0.1639701    0.1445137  89.97 0.0006156726    1.310    0.237
       184 -11.6001      6.5387     13.1613   8.3933452836e+01   7.2423366382e+01    0.2310524     0.113402 -11.76  0.001207799    2.328    0.570
       185 -12.0184     12.1150    216.9073   1.1885915977e+02   2.6065674633e+01    0.3052936    0.1296559  42.56   0.00155947    2.036    0.509
       186 -10.6448    156.4159     16.2884   3.7737920356e+01   4.3560540126e+01    0.2088262    0.1290458 -22.71  0.001041837    2.007    0.502
       187 -11.7405    215.4657    214.8649   7.3255584969e+01  -2.5411076532e+00    0.3074148    0.1386228  37.99  0.001434113    2.323    0.570
       188 -10.8575    186.5917    213.3071   7.8700812060e+01   1.9969720858e+00    0.2549104    0.1278272 -47.92  0.001145882    2.181    0.542
       189 -10.5885     41.4996     11.5010   6.4935666503e+01   6.8314945451e+01    0.1214422   0.09442317  13.91 0.0008105466    1.027    0.026
       190 -11.8229      2.2854    212.7153   1.2067524032e+02   2.7894435414e+01    0.2858917    0.1520865  82.92  0.001588945    1.651    0.394
       191 -10.6992    233.0515    212.2314   6.9558731201e+01  -4.5134175759e+00    0.2422397    0.1354861 -25.10   0.00128667    1.681    0.405
       192 -10.6011    248.0114    194.0441   6.3693562810e+01  -3.6068547408e+00    0.1766646    0.1504797 -57.67  0.001135684    1.701    0.412
       193 -10.5960    231.6710    194.3590   6.6537888549e+01  -1.4243030158e+00    0.1779029    0.1585155 -69.10  0.001108695    1.700    0.412
       194 -10.5508    199.4800    191.4857   7.2042516063e+01   3.9677844112e+00    0.1374943    0.1228926 -12.79 6.483939e-05    1.030    0.029
       195 -11.1519    237.5672    188.2917   6.4375797959e+01  -1.2473802959e+00    0.2464648    0.1085084 -43.21  0.001012698    2.104    0.525
       196 -11.7909    210.3466    188.4333   6.9330258547e+01   2.7954113084e+00    0.2734813    0.1594709 -42.28  0.001350633    1.624    0.384
       197 -11.1882    224.7259    184.3729   6.5879502540e+01   1.2973810347e+00    0.2468612     0.148963 -46.92  0.001256195    1.713    0.416
       198 -12.1119      3.6720    187.9491   1.1879223362e+02   3.3487854374e+01    0.3617564    0.1307095  57.42  0.001516558    2.908    0.656
       199 -10.8298      5.6483    183.3054   1.1798885869e+02   3.4437620365e+01    0.1355159    0.0762163  63.19 0.0005399216    1.708    0.415
       200 -11.0548    226.5007    179.4972   6.4619107829e+01   1.8806338388e+00    0.1348531    0.1122129 -19.70   0.00081039    1.038    0.037
       201 -11.2172    219.4369    178.3168   6.5659041427e+01   3.1869407373e+00    0.2072712    0.1715898  63.20   0.00107446    1.741    0.426
       202 -10.6546    198.0024    176.7692   6.9446814945e+01   6.9987023735e+00    0.2016739    0.1532217 -58.54 0.0008821775    1.615    0.381
       203 -10.4582    233.5229    174.9888   6.2520968166e+01   1.6001163296e+00    0.2065224    0.1124127 -39.52  0.001031122    1.591    0.371
       204 -11.2688    225.9033    173.6582   6.3581860509e+01   3.0028909336e+00    0.2647835    0.1791317 -41.81  0.001095876    1.357    0.263
       205 -13.0214      5.6826    172.8594   1.1716345049e+02   3.6967162288e+01    0.3115602    0.2929237 -53.18  0.002149838    1.272    0.214
       206 -10.1238    237.6921    170.3555   6.0917352619e+01   1.7715082148e+00    0.1251793   0.09849327 -62.34 0.0007042307    1.724    0.420
       207 -10.5321    219.4048    168.7628   6.3766463299e+01   4.9215816008e+00    0.2005401    0.1142972 -31.66 0.0009498255    1.669    0.401
       208 -10.7981    193.1531    165.8440   6.8187167463e+01   9.9837079938e+00    0.2065179    0.1651157 -12.98  0.001082969    1.322    0.244
       209 -11.9689    213.4928    163.9530   6.3868188088e+01   6.7926360765e+00    0.3217419    0.2386689 -38.08  0.001495995    1.208    0.172
       210 -10.7709    245.9620    158.1564   5.7206028965e+01   2.6121328677e+00     0.190797     0.164258 -51.52  0.001221264    1.293    0.227
       211 -10.9588    226.8790    157.3680   6.0152956194e+01   5.7626921540e+00    0.2820736    0.1758739 -33.62   0.00133583    1.437    0.304
       212 -11.5829      2.4940    156.0059   1.1654683918e+02   4.1351593478e+01    0.2072956    0.1059502 -75.88  0.001041021    1.614    0.380
       213 -11.2892    221.8161    153.6637   6.0265593751e+01   7.2833374301e+00    0.3224093    0.1976474 -57.96  0.001497102    2.090    0.522
