#   1 NUMBER                 Running object number                                     
#   2 MAG_AUTO               Kron-like elliptical aperture magnitude                    [mag]
#   3 X_IMAGE                Object position along x                                    [pixel]
#   4 Y_IMAGE                Object position along y                                    [pixel]
#   5 X_WORLD                Barycenter position along world x axis                     [deg]
#   6 Y_WORLD                Barycenter position along world y axis                     [deg]
#   7 A_WORLD                Profile RMS along major axis (world units)                 [deg]
#   8 B_WORLD                Profile RMS along minor axis (world units)                 [deg]
#   9 THETA_WORLD            Position angle (CCW/world-x)                               [deg]
#  10 FWHM_WORLD             FWHM assuming a gaussian core                              [deg]
#  11 ELONGATION             A_IMAGE/B_IMAGE                                           
#  12 ELLIPTICITY            1 - B_IMAGE/A_IMAGE                                       
         1 -15.7118    133.1241    139.9411   8.3343423206e+01   2.7553350288e+01     2.199267     1.322267  48.23  0.009234257    1.724    0.420
         2 -13.8803     52.6063     53.0433   8.3800082807e+01   6.1008887555e+01      2.66418    0.4859485 -46.91  0.007551942    5.270    0.810
         3 -14.0733     64.6481     29.2588   6.9457669911e+01   6.2989181940e+01     1.387794    0.6656513 -24.55  0.006381788    2.263    0.558
         4 -14.8024     77.6182      8.7054   5.5905775444e+01   6.2908373998e+01     1.827854     1.172813  29.13   0.01043931    1.455    0.313
         5 -13.2981    109.0313     15.0450   5.0489440311e+01   5.5543335028e+01    0.4574936    0.3024176 -38.81  0.002477512    1.713    0.416
         6 -11.7061     49.5290    215.1483   1.1556502082e+02   2.3520734640e+01    0.4651296    0.3480108 -37.16  0.002070668    2.063    0.515
         7 -16.0930    118.9201    235.6427   1.0331850215e+02   9.4744608234e+00      2.82591     2.254015  36.70   0.01281611    1.161    0.139
         8 -17.7267     32.1546    235.9567   1.2058486790e+02   2.1272972029e+01     3.630164     1.811526 -84.45   0.02081393    1.888    0.470
         9 -18.9503     11.2114    100.6157   1.1209075925e+02   5.4603458985e+01     17.67475    0.7638573 -68.59    0.0289527   15.809    0.937
        10 -11.8376     56.4828    210.4164   1.1365224411e+02   2.3670685770e+01    0.5936466    0.3382064  85.87  0.002284915    1.857    0.461
        11 -12.1702     63.8470    207.8581   1.1179592107e+02   2.3266585927e+01    0.5142291    0.3771523  -4.74  0.002665261    2.489    0.598
        12 -13.9008     67.9979    180.3229   1.0756206685e+02   2.9031943208e+01    0.9803301    0.7317868 -35.24  0.005178283    1.805    0.446
        13 -13.1759     79.3865    201.9482   1.0765493341e+02   2.2407216661e+01     1.085401    0.3848269  44.96  0.004343844    2.542    0.607
        14 -13.7417     82.9115    196.8230   1.0619556126e+02   2.3040205460e+01    0.6212929    0.4486966  52.40  0.003423064    1.281    0.220
        15 -13.5711     69.6859    194.7077   1.0899110625e+02   2.5427983539e+01    0.7673274    0.5501271  56.15  0.004308361    1.289    0.224
        16 -13.0648     72.0516    187.3105   1.0750447429e+02   2.6811325064e+01    0.4957128     0.339763 -72.56  0.001387804    1.400    0.286
        17 -15.7513     95.8918    148.7243   9.5103594802e+01   3.2457953100e+01     1.851733     1.283004  32.39  0.008743658    1.582    0.368
        18 -14.1882     69.4088    144.0848   1.0157973932e+02   3.7760032070e+01     1.289391    0.6968708 -57.77  0.003628455    1.679    0.404
        19 -15.6332    139.0829    177.6131   8.9811266874e+01   1.7840169768e+01     5.326837     3.104577  20.00   0.02045437    2.656    0.624
        20 -15.1654     76.4175    152.8543   1.0118351653e+02   3.4546665841e+01     2.427456    0.9516861 -46.45  0.002517014    2.898    0.655
        21 -16.4400    100.4382    169.6059   9.7795547934e+01   2.6616496283e+01      4.16261     1.760625  39.20   0.01603406    2.326    0.570
        22 -13.2861     58.7971    190.0354   1.1096861426e+02   2.7975963151e+01     1.022828    0.4901224 -61.99  0.004811934    1.972    0.493
        23 -10.4790     44.2095    186.7710   1.1400587887e+02   3.0546487996e+01    0.2329134    0.1518494 -60.46 0.0009558615    1.539    0.350
        24 -13.7593     81.0304    165.8343   1.0213854903e+02   3.0645836969e+01    0.9985417    0.4645084 -40.28  0.003178717    3.224    0.690
        25 -12.2736     49.8310    174.9130   1.1133284423e+02   3.2695637935e+01    0.5486324    0.2968325 -51.47  0.002455551    2.004    0.501
        26 -12.4447     55.8834    174.9468   1.0984367325e+02   3.1934844191e+01    0.3835836    0.2233459  48.35   0.00112304    1.682    0.406
        27 -11.2683     37.4756    175.2577   1.1438292075e+02   3.4040999959e+01     0.462124    0.2169515 -76.50  0.002154153    1.951    0.487
        28 -12.1554     54.0090    157.8230   1.0801784415e+02   3.6371856999e+01    0.4771382    0.2870234 -26.35  0.001999267    2.968    0.663
        29 -12.2090     89.5427    156.3201   9.8259521240e+01   3.1644246221e+01    0.2684431    0.2498138 -48.04 0.0005218048    1.151    0.131
        30 -13.3512    241.4434    152.8712   6.3871077352e+01   3.3575565639e+00    0.5132644    0.3311213 -22.32  0.002648714    1.554    0.357
        31 -11.3247     63.5327    201.9764   1.1123183094e+02   2.4616839060e+01    0.2475773    0.2064597  69.65 0.0004801653    1.035    0.034
        32 -11.1375    102.1442    124.0543   8.7949829228e+01   3.7372300483e+01    0.2418035    0.2077866 -24.88 0.0009496261    1.297    0.229
        33 -12.6643    106.2176    130.8144   8.8395432811e+01   3.4989160193e+01    0.3730903     0.311796 -69.56  0.001782293    1.235    0.190
        34 -12.4057     95.1098    136.1719   9.2721501154e+01   3.5680678229e+01    0.3218025    0.2893929 -28.32 0.0004591073    1.231    0.187
        35 -12.8148    128.9885     96.0234   7.2981109385e+01   3.8248854423e+01    0.3642276    0.2335642  52.28  0.001568127    1.639    0.390
        36 -11.3630     52.3942    199.5949   1.1346706559e+02   2.6597139273e+01    0.3251691    0.2731899 -34.56  0.001332321    1.676    0.403
        37 -12.5235     48.2172     70.7712   9.1488806486e+01   5.8049732231e+01    0.5823686    0.3789528  36.78  0.003085904    1.739    0.425
        38 -12.7180     42.2014     65.6856   9.2305621198e+01   5.9835899798e+01    0.4061545    0.3129977 -54.80  0.002148394    1.304    0.233
        39 -12.4902    249.2570     42.6702   3.8696638445e+01   1.9340030524e+01    0.7748395   0.09350306 -37.38  0.002390371    4.788    0.791
        40 -11.6241     43.3194    209.2276   1.1634749833e+02   2.5557323420e+01    0.4762797    0.2476676  63.94  0.001778476    1.852    0.460
        41 -12.5137     48.9310    205.6480   1.1482178029e+02   2.5669339913e+01     0.585188    0.3893517  64.42   0.00341901    1.339    0.253
        42 -11.6946    197.2408     36.9446   4.2814981074e+01   3.1692973419e+01    0.3262798    0.2424232  41.25  0.001180257    1.671    0.401
