#   1 NUMBER                 Running object number                                     
#   2 MAG_AUTO               Kron-like elliptical aperture magnitude                    [mag]
#   3 X_IMAGE                Object position along x                                    [pixel]
#   4 Y_IMAGE                Object position along y                                    [pixel]
#   5 X_WORLD                Barycenter position along world x axis                     [deg]
#   6 Y_WORLD                Barycenter position along world y axis                     [deg]
#   7 A_WORLD                Profile RMS along major axis (world units)                 [deg]
#   8 B_WORLD                Profile RMS along minor axis (world units)                 [deg]
#   9 THETA_WORLD            Position angle (CCW/world-x)                               [deg]
#  10 FWHM_WORLD             FWHM assuming a gaussian core                              [deg]
#  11 ELONGATION             A_IMAGE/B_IMAGE                                           
#  12 ELLIPTICITY            1 - B_IMAGE/A_IMAGE                                       
         1 -15.1877    231.9954     79.9010   4.6672022173e+01   1.7534695079e+01     5.289135     3.716051 -60.63   0.02461932    1.411    0.291
         2 -13.7359    248.1055     36.1573   3.5521650558e+01   2.0471016920e+01     1.268109    0.9462345 -87.33  0.002146613    1.272    0.214
         3 -13.1246    245.8802     26.8180   3.3806925523e+01   2.2072670815e+01     1.682165    0.6920057 -34.07  0.008251835    2.337    0.572
         4 -13.9405    243.1176     53.4114   3.9578798684e+01   1.9180939692e+01     2.586549     1.252749 -62.25  0.002072215    2.336    0.572
         5  -9.5405    230.2523     17.6380   3.3150806555e+01   2.6370457826e+01     0.416571    0.2559509  33.44  0.002050844    3.177    0.685
         6  -9.1608    227.3957     11.9140   3.2167868507e+01   2.7609743555e+01    0.2082495    0.1556803 -15.83   0.00129258    1.883    0.469
         7  -8.5303    215.7707      8.7813   3.2409364868e+01   3.0454499303e+01    0.1691096    0.1138783 -66.36 0.0003902669    1.301    0.231
         8  -9.2519    249.5838      5.3620   2.9332490579e+01   2.3773187240e+01    0.2166433    0.1493953  42.13   0.00133383    2.382    0.580
         9  -8.5040    245.1987      2.9995   2.9147881458e+01   2.4890337072e+01    0.1530798    0.1280528  20.02 0.0006536581    2.013    0.503
        10  -8.8726    186.3823    140.9882   6.8791009135e+01   1.6072938919e+01    0.3182093    0.2362833 -80.06  0.001404872    2.084    0.520
        11 -11.2173    248.7134    247.0256   7.7665369291e+01  -1.1422576297e+01    0.3783914    0.2879934   5.07  0.002763208    1.100    0.091
        12 -11.4662    244.1045    244.8456   7.8101563680e+01  -1.0598772094e+01    0.5300891    0.2500998  19.89  0.002836416    2.100    0.524
        13  -9.2684    157.9834    249.8476   9.5201357379e+01   6.8113434756e-01    0.2119223    0.1308222  12.48  0.001088053    2.007    0.502
        14  -8.9939    248.7228    137.5794   5.6922226619e+01   4.8883578134e+00    0.4033445    0.2567252 -84.65  0.001481841    4.769    0.790
        15 -10.0944    242.2706    132.9177   5.6915281027e+01   6.7831006950e+00    0.3380812      0.24119  85.18  0.001634528    2.434    0.589
        16  -8.5523    192.6053    136.8121   6.6548370444e+01   1.5621236658e+01    0.2208874    0.1329733 -49.82 0.0009477802    1.738    0.425
        17  -8.8288    221.0008    136.4800   6.1168932480e+01   1.0056637163e+01    0.2038867    0.1420108  47.86  0.001036382    1.611    0.379
        18  -9.9257    204.5038    131.3829   6.2980370974e+01   1.4235817335e+01    0.3962097    0.2683977 -64.62   0.00176534    2.035    0.509
        19  -9.9153    249.0277    130.8393   5.5457742529e+01   5.9546040950e+00     0.277555     0.199488 -47.03  0.001575053    1.316    0.240
        20  -9.8204    234.1001    131.3676   5.7859316597e+01   8.5163067235e+00    0.2842394    0.2108863  76.75  0.001404752    2.005    0.501
        21 -10.0099    197.3526    129.5817   6.3917768071e+01   1.6045079266e+01    0.4651659    0.2520922 -56.94  0.001778617    2.492    0.599
        22  -9.4388    224.4675    129.3694   5.8991005388e+01   1.0669361390e+01    0.3688796    0.2343775 -73.10  0.001479727    3.052    0.672
        23  -9.5808    220.6355    125.2872   5.8714682650e+01   1.2139382501e+01    0.3032146    0.2256334  85.27 0.0009591563    1.997    0.499
        24 -10.1311    230.8021    126.6034   5.7339125151e+01   9.9557526835e+00    0.3288055    0.2130196 -40.34  0.001678545    1.356    0.263
        25  -9.8586    212.8660    127.3147   6.0519931397e+01   1.3309188104e+01    0.2200568    0.1869121  85.87  0.001180024    1.491    0.329
        26 -10.3852    246.0499    125.3428   5.4727600397e+01   7.3884764282e+00    0.3474712    0.2205998 -62.62  0.001676371    2.183    0.542
        27 -12.0963    247.2950     96.6042   4.8378963828e+01   1.1872218810e+01     1.172579    0.7417229 -34.74  0.004434381    1.424    0.298
        28  -9.3565    198.9938    249.5183   8.7092591671e+01  -5.2711803848e+00    0.1907097    0.1009391  31.53 0.0008813605    1.603    0.376
        29 -10.0193    186.7221    119.3834   6.3553488723e+01   2.0279562563e+01     0.387971    0.2492911 -68.51  0.001251272    2.402    0.584
        30  -9.1118    185.3857    249.4039   8.9701860359e+01  -3.3105020252e+00    0.2500891   0.09578935  24.89  0.000958211    3.282    0.695
        31 -11.0913    190.1561    100.8541   5.8265146034e+01   2.3036473082e+01    0.5035961    0.2870476 -50.55  0.002137023    1.821    0.451
        32 -10.9901    147.7628    101.1615   6.7351456803e+01   3.2676240873e+01      0.38377    0.2493897 -61.67  0.001568296    1.979    0.495
        33 -10.4108    169.8853     99.7169   6.1981507831e+01   2.7874193332e+01    0.3160646    0.1722151 -48.90  0.001262168    1.908    0.476
        34  -8.8964    175.6725    247.6858   9.1356430214e+01  -1.6282339087e+00    0.1280876   0.08615834   5.11 0.0004857009    1.671    0.401
        35 -11.8586    175.9305     94.3943   5.9332848653e+01   2.7478775147e+01    0.7106387    0.4490424 -89.23   0.00263955    2.871    0.652
        36 -12.1304    133.6685     94.8761   6.9094690657e+01   3.7139460882e+01    0.6347522    0.3783849 -39.31  0.002668209    1.681    0.405
        37 -12.7428    151.7305     91.7124   6.3784153598e+01   3.3627230442e+01    0.8876826     0.554248 -57.89  0.003664497    1.962    0.490
        38 -11.9863    151.3791     79.5777   6.0394945197e+01   3.5965390835e+01    0.7713465    0.3582635 -30.01   0.00277912    2.575    0.612
        39 -11.7071    159.1214     75.7985   5.7639710468e+01   3.4785587018e+01     0.762814    0.4220683 -65.22  0.002655248    3.142    0.682
        40 -12.4499    178.4407     75.1393   5.3704731122e+01   3.0283259746e+01    0.9610983    0.6166939 -83.11  0.003990633    2.329    0.571
        41 -11.5857    186.3120     90.8982   5.6430214338e+01   2.5715467509e+01    0.8543101    0.3006755 -34.84  0.002832643    2.977    0.664
        42 -11.1724    181.9844     86.4258   5.6062265904e+01   2.7510864824e+01    0.4752878    0.3486346 -11.10  0.002202533    1.823    0.451
        43 -10.4344    184.9873     82.4979   5.4481956120e+01   2.7494650748e+01    0.3953587    0.2451119 -52.41  0.001644621    1.682    0.406
        44 -12.6991    172.8878     84.2317   5.7210328697e+01   3.0032849535e+01     0.832906    0.6061172  20.86  0.003789416    1.892    0.472
        45 -11.2478    126.3149     89.9702   6.9600772546e+01   3.9767081345e+01    0.5263647    0.2301314 -49.35  0.001833326    2.570    0.611
        46 -12.7114    248.7207     68.8733   4.2276181962e+01   1.5861186867e+01     1.553636    0.5609442 -38.23  0.006707824    2.328    0.570
        47 -11.4186    151.9140     69.4714   5.7320718014e+01   3.7590017240e+01    0.5467637     0.305156 -23.55  0.002178941    2.300    0.565
        48 -10.7728    119.0957     88.2610   7.1065426539e+01   4.1690176897e+01    0.4660023    0.2072667 -52.89  0.001560831    2.910    0.656
        49 -11.4193    157.3033     83.1140   6.0108688820e+01   3.3923314406e+01    0.3685246    0.3601513 -64.95  0.002036069    1.018    0.017
        50  -9.7761    109.4919     85.0571   7.2844813803e+01   4.4375227521e+01    0.2394371     0.147573 -40.65  0.001038912    1.610    0.379
        51 -11.3314    235.3115    242.6957   7.9290440158e+01  -9.2295451127e+00    0.6373608    0.2694643  12.48  0.002254621    4.919    0.797
        52 -10.4169    218.3219    105.0366   5.4429819175e+01   1.6192664761e+01    0.3073479    0.2195746 -48.92 0.0008162034    1.313    0.238
        53 -10.9429    129.4034     78.7986   6.5430752734e+01   4.1233759446e+01    0.4350447    0.2313501 -24.61  0.001592856    2.580    0.612
        54 -10.8813    144.1800     75.5933   6.0855157388e+01   3.8380082470e+01    0.3879241     0.248792  -8.57  0.001515421    2.515    0.602
        55 -10.9644    138.3861     73.7559   6.1662589281e+01   4.0069232348e+01    0.5387407    0.2406747 -24.75  0.001697972    3.575    0.720
        56 -12.5862    167.0845     79.5499   5.7073178348e+01   3.2232483750e+01    0.8587784    0.5014455 -31.93  0.003681898    1.821    0.451
        57 -11.2705    168.4927     67.5663   5.3455657358e+01   3.3907803715e+01    0.6291533    0.3061266 -26.09  0.002374668    2.614    0.617
        58 -11.3694    160.5848     66.7769   5.4753300301e+01   3.5944149859e+01    0.5058681     0.314329 -22.50  0.002202428    1.981    0.495
        59 -10.7261    145.0544     68.1086   5.8410513882e+01   3.9460975028e+01    0.3662031    0.2169014 -23.84   0.00139564    2.066    0.516
        60 -10.2818    135.7685     65.6318   5.9783766194e+01   4.2078740616e+01    0.5742463    0.1388795 -32.12  0.001413328    5.658    0.823
        61 -10.0999    172.9750     58.4857   5.0117672956e+01   3.4240517849e+01    0.2659084    0.2124103  -7.55  0.001370874    1.585    0.369
        62 -10.9325    183.5182     66.0769   5.0394001955e+01   3.0544249663e+01    0.3468945    0.2900428  82.54  0.001889105    1.216    0.178
        63 -11.2214    187.9905     54.9879   4.6755719642e+01   3.1155556905e+01     0.440937    0.3135064  -1.88  0.002095534    2.153    0.535
        64 -10.3996    161.7666     52.9478   5.0531607742e+01   3.7781985876e+01     0.354881    0.2041931 -19.18  0.001494241    2.329    0.571
        65 -10.1981    205.0453    122.9156   6.0901440393e+01   1.5714233774e+01    0.4071334    0.1893854 -41.76  0.001633138    1.979    0.495
        66  -9.7901    175.3188    122.8898   6.6781601108e+01   2.2069716632e+01    0.3599874    0.1782602 -50.67  0.001339664    2.214    0.548
        67 -10.5352    212.6087    122.2222   5.9388943099e+01   1.4293299848e+01    0.3294441    0.2599379 -63.37  0.001698554    1.456    0.313
        68 -10.2919    199.0915    121.9995   6.1787271268e+01   1.7129131944e+01    0.3234528    0.2059864 -45.41  0.001337354    1.500    0.333
        69 -10.6307    215.8413    115.8670   5.7359249176e+01   1.4786519908e+01    0.4653713    0.2610212 -62.28  0.001811657    2.755    0.637
        70 -10.6115    211.2061    110.0752   5.6783325141e+01   1.6782848507e+01    0.4270613    0.3101688 -76.69  0.001710238    1.866    0.464
        71  -9.6152    177.7091     44.3016   4.5456705356e+01   3.5113124297e+01    0.2640531     0.154248 -45.37  0.001256754    1.708    0.415
        72 -10.9555    190.9238    115.3098   6.1724868631e+01   2.0152180763e+01    0.5186321    0.3035436 -61.02  0.002030049    2.384    0.581
        73  -9.3903    202.7206    115.6296   5.9593334304e+01   1.7557064149e+01    0.2786791    0.1759016 -28.73  0.001251923    1.678    0.404
        74 -10.9572    196.5466     40.0464   4.1741304956e+01   3.1190063760e+01    0.3327311    0.2413248 -23.91  0.001812561    1.626    0.385
        75 -10.1083    203.8342     37.7569   4.0289857022e+01   2.9794951218e+01    0.4229291    0.1554451 -42.19  0.001762981    2.450    0.592
        76  -8.3794    150.0000     36.9755   4.7916958614e+01   4.2818623669e+01    0.2144314    0.0800215 -29.61 0.0007959067    2.897    0.655
        77  -9.5799    149.5988    112.7805   7.0044595322e+01   2.9861468883e+01    0.2301264    0.1457968 -51.84 0.0009557673    1.671    0.402
        78 -10.0946    197.7995    111.1184   5.9400258009e+01   1.9449343685e+01    0.4195792    0.1769169 -47.12  0.001535728    2.399    0.583
        79 -10.3322    166.4767    105.4891   6.4238772617e+01   2.7533399700e+01    0.4841467     0.154482 -36.82  0.001433327    3.386    0.705
        80  -9.4312    197.1500     31.6468   3.9576357591e+01   3.2105821112e+01    0.2393155    0.1588764 -20.72   0.00125118    1.894    0.472
        81 -10.1019    216.3087     30.9852   3.7337978663e+01   2.7823061387e+01    0.1809503    0.1488083 -52.23  0.001031313    1.148    0.129
        82 -10.8644    224.2088    122.2152   5.7425338336e+01   1.1988185960e+01    0.5353854    0.3176522 -59.76  0.002130923    2.262    0.558
        83 -10.7048    221.5944    115.4347   5.6308780864e+01   1.3702351703e+01    0.4071031    0.3050597 -75.48  0.002061926    1.765    0.433
        84  -9.0153    216.4938     21.8148   3.5242063116e+01   2.8870325992e+01    0.2078409    0.1215351 -28.39  0.000610965    1.937    0.484
        85  -8.6116    183.6642    245.6500   8.9471652114e+01  -2.5020931432e+00    0.1318087   0.08555493   2.54 0.0007046645    1.784    0.439
        86 -11.3144    221.1788    109.7122   5.5059733711e+01   1.4791311850e+01    0.4362514    0.3807154  78.04  0.002374749    1.317    0.241
        87  -8.4949    202.4715     13.9749   3.4751272782e+01   3.2886281165e+01    0.1777959    0.1197221 -33.14  0.000777668    1.597    0.374
        88  -9.5118    242.7536    234.6529   7.6631026470e+01  -9.1241743391e+00    0.2526429    0.1111916 -12.53 0.0009550998    4.169    0.760
        89  -9.5307    248.5040    229.9842   7.4835292796e+01  -9.2336592136e+00    0.2822008    0.1315801  -6.05 0.0007991395    3.889    0.743
        90  -9.5942    248.3363    225.9988   7.4172235145e+01  -8.6820760465e+00     0.231695    0.1083419 -47.52  0.001013896    3.671    0.728
