#   1 NUMBER                 Running object number                                     
#   2 MAG_AUTO               Kron-like elliptical aperture magnitude                    [mag]
#   3 X_IMAGE                Object position along x                                    [pixel]
#   4 Y_IMAGE                Object position along y                                    [pixel]
#   5 X_WORLD                Barycenter position along world x axis                     [deg]
#   6 Y_WORLD                Barycenter position along world y axis                     [deg]
#   7 A_WORLD                Profile RMS along major axis (world units)                 [deg]
#   8 B_WORLD                Profile RMS along minor axis (world units)                 [deg]
#   9 THETA_WORLD            Position angle (CCW/world-x)                               [deg]
#  10 FWHM_WORLD             FWHM assuming a gaussian core                              [deg]
#  11 ELONGATION             A_IMAGE/B_IMAGE                                           
#  12 ELLIPTICITY            1 - B_IMAGE/A_IMAGE                                       
         1 -18.6257    153.9654    139.5902   9.8757013560e+01   2.4181519622e+01     5.650015     4.264526  20.47   0.02596671    1.398    0.285
         2 -17.2626    221.8467     67.9765   6.6902586504e+01   2.1025331951e+01     3.442434     1.874611 -57.25   0.01294749    2.695    0.629
         3 -16.4648    243.2555     55.2320   6.0821698404e+01   1.7885480672e+01     2.461538     1.233846 -39.77  0.007517139    1.825    0.452
         4 -18.0319    232.6697     11.2856   5.0806509156e+01   2.5134561740e+01     7.941673     1.842643  68.00   0.02698856    3.842    0.740
         5 -18.2253    122.9208    145.1404   1.0748819358e+02   2.8957766723e+01     7.359612     2.603118 -55.82    0.0248141    3.540    0.717
         6 -17.7244    231.3445    135.7075   8.2075922688e+01   9.3714269735e+00     3.930118     1.593784 -30.41    0.0126831    2.339    0.572
         7 -12.3350    199.0749      2.3761   5.1416767581e+01   3.4120520438e+01    0.3241209    0.2568133 -35.75  0.001088333    1.271    0.213
         8 -17.8958    139.0022     93.0255   9.0814000417e+01   3.6480189074e+01     12.91889     6.404394 -20.02   0.03729589    4.218    0.763
         9 -11.2979    105.3107      2.9612   6.6376028707e+01   5.8366488491e+01    0.2057161    0.1776524  13.19  0.001185808    1.102    0.092
        10 -14.7641    160.1012    206.9092   1.0957620395e+02   1.1462279749e+01     1.337899    0.6990564  25.42  0.004669338    2.060    0.515
        11  99.0000    229.9193    242.2448   1.0197229756e+02  -3.3592852998e+00     1.382108    0.6095096  42.08  0.007627735    2.267    0.559
        12 -13.4477    203.0893    228.3147   1.0457939315e+02   1.9222549109e+00     1.860287    0.6848351  39.41  0.009071073    2.190    0.543
        13 -15.8205    195.9372    247.5847   1.0853804411e+02   7.9031097936e-01     1.397212    0.5756994  35.97  0.007461154    1.785    0.440
        14 -15.7438    212.6829    245.5178   1.0535928792e+02  -1.3300269253e+00     1.211975     0.733829  42.69  0.007849892    1.726    0.421
        15 -15.2136    141.8608    243.1725   1.1773081507e+02   9.0578473717e+00      2.94612    0.9831176  39.22   0.01433339    2.208    0.547
        16 -11.5727     29.8258    250.5414   1.3802239752e+02   2.1702888627e+01    0.3732624   0.06940254  34.24  0.001678111    4.148    0.759
        17 -14.5960     10.7427    248.5456   1.4099869965e+02   2.3784935100e+01    0.9706244    0.2276119  36.11  0.005389175    2.970    0.663
        18 -12.7756     46.4040    249.5394   1.3524491273e+02   2.0170200635e+01    0.6904551    0.1878107  35.10  0.003041225    2.963    0.662
        19 -11.2241    219.0757    219.0823   1.0030940197e+02   6.1156472410e-01     0.361685    0.2675878  38.65  0.001574115    1.474    0.321
        20  -9.8469    214.7466    215.9644   1.0058113885e+02   1.6192328603e+00    0.2060845    0.1400378  -4.58 0.0008095658    1.465    0.317
        21 -14.7684     20.7781    201.2259   1.3741515008e+02   3.0854169521e+01    0.7595243    0.6008042  64.41   0.00382336    1.066    0.062
        22  99.0000    183.8725    161.6698   9.6781696514e+01   1.4453933716e+01     4.165264     2.787862 -13.04    0.0206492    1.761    0.432
        23 -11.2563    174.6393    241.2606   1.1151005706e+02   4.5695927031e+00    0.2917901    0.1988467  33.41  0.001249772    1.093    0.085
        24 -10.9211    170.8601    194.3214   1.0544003471e+02   1.1598718884e+01    0.2859327     0.211867  12.29  0.001056194    1.383    0.277
        25 -14.9898    209.7090    124.0267   8.3264361933e+01   1.5376889798e+01      1.05603    0.7429211 -62.02  0.003679765    2.378    0.580
        26 -16.1083    245.5451    171.3118   8.7147924475e+01   2.1862761491e+00     1.901885    0.8934814 -17.87  0.008963711    2.277    0.561
        27 -10.7382    249.8471    239.8305   9.8338134010e+01  -5.7609187731e+00    0.3048583    0.1305957  27.54  0.001679645    1.795    0.443
        28 -11.8923    248.8205    230.8694   9.7123996706e+01  -4.7945315522e+00     0.405954    0.2098686  18.34  0.002476923    1.619    0.382
        29 -12.5241    243.3395    197.8657   9.2507727770e+01  -6.0001953018e-01    0.9178712    0.5200486  -3.11  0.004051112    1.824    0.452
        30 -10.6341     24.1100    177.2011   1.3539288706e+02   3.5189772719e+01     0.154027    0.1370881  88.38 0.0005324201    1.196    0.164
        31  -9.9909      5.2818    170.3203   1.3900998474e+02   3.8097373116e+01   0.09856211    0.0728595 -58.96 0.0002492437    1.586    0.370
        32 -13.8787     50.2449    178.1801   1.2975402736e+02   3.2410223810e+01    0.5588633    0.4035505  60.00  0.001484809    1.206    0.171
        33 -10.5117    158.6262    195.6149   1.0815695691e+02   1.3451135732e+01    0.2506506    0.1846211  -1.82  0.001274696    1.659    0.397
        34 -13.6940    200.8266    148.0872   9.0480114290e+01   1.3383476740e+01     1.001848    0.5600107 -43.18  0.003961832    2.086    0.521
        35 -11.0599     90.5759    149.7430   1.1656153893e+02   3.3275987443e+01    0.3292055    0.2579136 -37.73  0.001617676    1.494    0.331
        36 -10.3134    217.8538    148.4427   8.7298770928e+01   1.0077954460e+01    0.2451226    0.1782269  13.82 0.0009245304    1.310    0.236
        37 -12.7936     67.9007    144.4854   1.2168529555e+02   3.7553185677e+01      0.72117    0.3732052  60.26  0.002949089    2.387    0.581
        38 -10.7592    181.1896    107.5463   8.4841506798e+01   2.4264093230e+01    0.5603207    0.4146577 -78.47  0.002404357    2.304    0.566
        39 -12.2507     37.9779    182.2329   1.3276522555e+02   3.2875320297e+01    0.1939671     0.146052 -89.66  0.000469997    1.207    0.171
        40 -13.0784     33.8844     79.9686   1.2158411836e+02   5.6216829767e+01    0.7739747     0.520449 -42.36  0.003236315    1.419    0.295
        41 -12.2674     42.0702     79.5551   1.1847802930e+02   5.5573486616e+01    0.5121057    0.3655938 -77.89   0.00199578    1.487    0.327
        42 -11.4776    183.7988     83.9398   7.7858310778e+01   2.7643822311e+01    0.3439416    0.2937299   6.62 0.0008943578    1.197    0.164
        43 -10.9305    169.9497     78.3833   7.9112418470e+01   3.1905928836e+01    0.2798796    0.2328306   3.63 0.0006107793    1.274    0.215
        44  -9.9869    184.4601     77.4466   7.5867914628e+01   2.8528685410e+01    0.1533775    0.1431909  10.98 0.0008067155    1.028    0.027
        45 -11.5570    175.7221     73.6505   7.6495061545e+01   3.1270987529e+01    0.2761831    0.2493742  11.34 0.0003832726    1.096    0.088
        46 -11.2905    183.9155     66.8356   7.2860391960e+01   3.0308498408e+01    0.4257005    0.2807203  18.63  0.001480761    1.953    0.488
        47 -11.7531    187.7679     63.9733   7.1302434182e+01   2.9778453979e+01    0.4592698     0.247172  30.82  0.001374707    2.475    0.596
        48 -13.2511    167.0272     63.3797   7.5145022962e+01   3.5063701878e+01    0.5127376    0.3401268   0.51   0.00139963    1.996    0.499
        49 -10.4620     77.4788     53.5295   9.7384621279e+01   5.6670713780e+01    0.1437177     0.129233 -17.03 9.864571e-05    1.002    0.002
        50 -11.5749    157.4375     49.1505   7.2533890889e+01   3.9650880474e+01    0.5113608    0.3121743 -43.47  0.002067037    1.781    0.438
        51 -12.3646    232.7156    224.8869   9.8864628362e+01  -1.9947970917e+00    0.5026427    0.3882032   9.45  0.002474101    1.141    0.123
        52  -9.9308     74.5012     44.4933   9.5133497135e+01   5.8925013957e+01    0.1423158    0.1266835 -13.87 7.910452e-05    1.014    0.013
        53 -11.0845    173.1581     37.3856   6.5639660037e+01   3.7173194789e+01    0.6915236    0.2959759 -45.90  0.002448389    2.775    0.640
        54 -10.2308     73.1931     40.1911   9.3933167423e+01   5.9947060495e+01     0.181029    0.1628353 -49.83 0.0004623785    1.331    0.248
        55 -10.0806     71.9982     36.3263   9.2811109417e+01   6.0848869433e+01    0.2213891    0.1675753 -31.00 0.0004396662    1.223    0.183
        56 -15.3391    217.4976    172.7115   9.2374102823e+01   6.6957057738e+00     1.194223     1.100123  13.36  0.005610617    1.283    0.220
        57 -14.2624    242.7537    215.6539   9.5670951947e+01  -2.4465650167e+00    0.7861058    0.5276365  -9.12  0.004164125    1.360    0.265
        58 -13.6482     73.4196    159.5032   1.2229400303e+02   3.3554099003e+01     1.845279      1.18768 -33.11  0.009317376    2.308    0.567
        59 -10.4791    194.2709     26.5910   5.9074132784e+01   3.2967125907e+01    0.2457924     0.185702 -27.42 0.0006262637    1.333    0.250
        60 -14.0827     56.3735    172.9932   1.2788502891e+02   3.2788460601e+01    0.7582708     0.522419  53.80  0.002712343    1.296    0.228
        61 -13.5385     60.5675    167.4742   1.2634141196e+02   3.3452556167e+01    0.5190064    0.4068026  66.80  0.001547112    1.159    0.137
        62 -14.2345    247.7213    209.7875   9.3854379207e+01  -2.5334125798e+00     0.677008    0.3503179 -17.85  0.003914177    1.911    0.477
        63 -15.2484    139.9368    211.7588   1.1431637593e+02   1.3907916880e+01      1.32654    0.9901699   1.33   0.00508296    1.749    0.428
