#   1 NUMBER                 Running object number                                     
#   2 MAG_AUTO               Kron-like elliptical aperture magnitude                    [mag]
#   3 X_IMAGE                Object position along x                                    [pixel]
#   4 Y_IMAGE                Object position along y                                    [pixel]
#   5 X_WORLD                Barycenter position along world x axis                     [deg]
#   6 Y_WORLD                Barycenter position along world y axis                     [deg]
#   7 A_WORLD                Profile RMS along major axis (world units)                 [deg]
#   8 B_WORLD                Profile RMS along minor axis (world units)                 [deg]
#   9 THETA_WORLD            Position angle (CCW/world-x)                               [deg]
#  10 FWHM_WORLD             FWHM assuming a gaussian core                              [deg]
#  11 ELONGATION             A_IMAGE/B_IMAGE                                           
#  12 ELLIPTICITY            1 - B_IMAGE/A_IMAGE                                       
         1 -15.5038     22.8004    132.8095   1.2085338947e+02   4.5049873898e+01     4.345973     3.465762  37.57   0.02785799    1.509    0.337
         2 -11.8858    197.3604     27.5667   4.9059606749e+01   3.2259091332e+01    0.8074887    0.7329587 -12.70  0.001385655    1.256    0.204
         3 -12.3650    189.5943     36.6328   5.2772646335e+01   3.3105182163e+01     1.476416     1.038619 -21.82  0.007167251    1.574    0.365
         4 -11.0856      4.5704      4.4433   9.7622631743e+01   7.3508379123e+01    0.5235238    0.3380308 -53.08   0.00352089    1.740    0.425
         5  -9.6596    211.4824      7.8031   4.2051023662e+01   3.0927776547e+01    0.3106922    0.1808457  86.56 0.0009725867    1.699    0.411
         6  -9.6712    221.2120      2.8386   3.9899358061e+01   2.9048888534e+01    0.3723617    0.2356469  81.95  0.001993205    1.468    0.319
         7  -7.8093    136.0853      8.7277   5.2448604475e+01   5.0130637099e+01     0.187314    0.1602722  52.90 0.0002778186    1.058    0.055
         8 -14.6245     11.1979    214.8020   1.2958028404e+02   2.8587682894e+01    0.9014079    0.5436003  46.12   0.00644879    1.569    0.363
         9 -10.1359    249.6622    191.2487   8.0631479858e+01  -4.7054323296e+00    0.4153476    0.2778465  41.36 0.0001884966    1.571    0.364
        10 -13.0803    244.2740    234.7474   8.9258671032e+01  -9.1501160105e+00     2.819361     1.115854 -28.39   0.01437653    2.761    0.638
        11 -14.9663    123.8064    225.7986   1.0987417864e+02   1.1606188634e+01      3.86396     3.424153 -76.24   0.02686574    1.287    0.223
        12 -13.4753     47.7947    221.2413   1.2358697643e+02   2.3356378798e+01    0.4267527     0.208571 -67.92  0.002517164    2.047    0.512
        13 -15.5854     53.1060    246.5091   1.2440610409e+02   1.8167538129e+01    0.8522713     0.559531  40.12  0.005991263    1.634    0.388
        14 -17.8493     20.0831    239.8690   1.2936100995e+02   2.3110736589e+01     2.331111     1.650981  51.78   0.01858571    1.362    0.266
        15 -15.9749     41.2748    244.2241   1.2619864978e+02   1.9987333509e+01     1.007126    0.7990209 -19.80   0.00652018    3.263    0.693
        16 -12.2925     66.1682    221.5498   1.2027727333e+02   2.0958286260e+01    0.2613266      0.15035  63.11  0.001465532    1.471    0.320
        17 -10.6919     55.2342    217.3809   1.2194372877e+02   2.3169569980e+01    0.2311965    0.1174505 -83.26  0.001301966    1.936    0.483
        18 -11.0881     51.0704    215.1446   1.2253286602e+02   2.4120698715e+01    0.2973295    0.1332639  64.27   0.00155023    2.110    0.526
        19 -10.6717     60.7680    209.0813   1.2020580281e+02   2.4076873745e+01    0.1571803    0.1229931  74.66 0.0002531512    1.026    0.025
        20 -10.2004    234.8590    217.0083   8.7882324505e+01  -5.6610090039e+00    0.3470753    0.2782289  52.27  0.001562516    1.722    0.419
        21  -9.8970     17.7661    201.4107   1.2768059353e+02   3.0548698169e+01    0.2624548    0.1048022  64.79  0.001386542    2.236    0.553
        22  -8.0465     90.1997    196.8464   1.1305168809e+02   2.2389936946e+01    0.1449497    0.1379126  79.96 0.0009669348    1.245    0.196
        23  99.0000     49.8618    197.2963   1.2128270065e+02   2.7837740171e+01    0.2549576    0.1402271  15.82  0.001001226    5.181    0.807
        24  -9.6631     24.1186    197.6992   1.2626992601e+02   3.0652542457e+01    0.1025406   0.05552958  88.14 0.0006021906    1.537    0.349
        25 -10.4599     20.8523    196.8971   1.2682767879e+02   3.1148178375e+01    0.1242857   0.08840116  75.91 0.0002482221    1.042    0.040
        26 -11.5419     74.4553    242.4894   1.2052044845e+02   1.6085289189e+01    0.1709321    0.1285223  65.94 0.0001086733    1.033    0.032
        27 -10.4523     12.0898    191.3841   1.2811752759e+02   3.3121014981e+01    0.1586961   0.07611208  78.35 0.0008488932    1.776    0.437
        28  -7.9386    221.8693    188.2375   8.4937454242e+01   4.3618856296e-01    0.1864053    0.1390312   8.84  0.001050136    1.339    0.253
        29  -9.8442     10.1722    185.9733   1.2814688478e+02   3.4410093550e+01    0.0933969   0.06810904  73.52 0.0006624445    1.086    0.079
        30  -9.9000      9.8165    182.0679   1.2796985636e+02   3.5254225739e+01    0.1399851    0.0817146 -78.40 0.0003302165    1.400    0.286
        31  -8.3510    190.0897    180.0925   8.9436263962e+01   7.6614997037e+00    0.1964821    0.1853915  29.03 0.0003400976    1.071    0.067
        32 -12.6515     73.6968    249.4334   1.2118539241e+02   1.5019757244e+01    0.4784013    0.2225165  31.02   0.00231882    3.315    0.698
        33  -8.4095     77.5867    178.0561   1.1342202570e+02   2.8250560122e+01    0.2204401    0.1555755 -48.39  0.001216984    1.744    0.427
        34  -9.0746     81.4122    172.9514   1.1189586362e+02   2.8816128073e+01    0.2417792    0.2040699 -45.90 0.0005857207    1.484    0.326
        35  -9.6048    175.3635    172.4030   9.0936986892e+01   1.1931075368e+01    0.3190305    0.2968054  48.08 0.0008053521    1.079    0.073
        36 -11.4758     77.0457    244.9651   1.2027128998e+02   1.5313417252e+01    0.2098693    0.1555261  83.98 0.0003523401    1.265    0.210
        37  -8.9915      7.1124    170.1013   1.2772103634e+02   3.8021518511e+01    0.1285333   0.09319723  77.27 0.0002984756    1.088    0.081
        38 -12.0194     66.2583    249.8480   1.2245830557e+02   1.5933842224e+01    0.1787277    0.1429287 -76.66  0.001384858    1.482    0.325
        39  -8.7314     89.0790    164.1068   1.0885508424e+02   2.9630835441e+01    0.2643776    0.2185895 -74.42 0.0009408166    1.144    0.126
        40  -8.4525    210.1194    164.0085   8.2240632852e+01   6.4914474834e+00    0.2028931    0.1845933   8.96 0.0003070346    1.006    0.006
        41 -12.1784     61.6238    231.0888   1.2186802102e+02   1.9794740713e+01    0.2169583    0.1393407  65.10  0.000448202    1.221    0.181
        42  99.0000     30.8347    208.4882   1.2575481881e+02   2.7780448056e+01    0.9300637    0.7372801 -70.39  0.006905853    1.488    0.328
        43  -8.2733    106.5589    141.1958   1.0057503160e+02   3.1975970065e+01    0.3807586    0.2229826 -28.66  0.001401185    3.148    0.682
        44  -9.7052     97.7144    152.5693   1.0489760344e+02   3.0871313842e+01    0.3961141    0.3311466  75.85 0.0005557306    1.160    0.138
        45  -7.8299    104.7406    133.2900   9.9434180190e+01   3.4140327445e+01    0.1784492    0.1639931 -31.90 0.0002845953    1.243    0.196
        46  -7.6892    120.2984    128.3727   9.4334328934e+01   3.2362827821e+01    0.2038269    0.1396282  53.40 0.0006064138    1.525    0.344
        47  -8.4143    106.5504    154.2132   1.0303677896e+02   2.8986233478e+01    0.2372991    0.1841944  47.46 0.0002447773    1.273    0.215
        48 -12.3093     67.5241    143.7532   1.1097060713e+02   3.7516130446e+01     1.153918    0.6396796  68.37  0.003900916    2.312    0.568
        49  -7.5445    132.6486    148.7217   9.5685115007e+01   2.5349464909e+01    0.1463106    0.1197858   3.90 0.0007009655    1.645    0.392
        50  -8.0946    168.6980    114.1327   7.9086319913e+01   2.4933250796e+01    0.2576461    0.2136701  68.95 0.0003862157    1.346    0.257
        51  -8.7432    211.5785    110.2016   6.9411564059e+01   1.5672542268e+01    0.2898064     0.234218 -53.88  0.000890743    1.318    0.242
        52  -8.0142    117.5656    109.2234   9.0414101388e+01   3.7268664622e+01    0.2868413    0.2149967  15.82  0.001294719    1.800    0.444
        53  -8.7188    113.3944    107.9442   9.1218234342e+01   3.8385933551e+01     0.259977    0.2191866  60.86   0.00034488    1.272    0.214
        54  -8.2475    196.7391    106.8355   7.1328880732e+01   1.9737972270e+01    0.2802615    0.2277182  14.22 0.0008475236    1.453    0.312
        55  -7.7799    181.0309    104.6602   7.3914443538e+01   2.3892007977e+01    0.2088136    0.1984432  39.72 0.0003777775    1.073    0.068
        56  -8.9210    119.4158    101.7161   8.7927526693e+01   3.8573354520e+01    0.4417847    0.2513464 -35.93  0.001028488    1.947    0.486
        57  -8.1574    123.1453     96.2001   8.5389726281e+01   3.9003852424e+01    0.2212787    0.2062852 -14.59 0.0003481478    1.137    0.120
        58  -7.5455    156.8396     87.2050   7.4321649676e+01   3.3147116089e+01    0.2097038     0.183789   0.60 0.0003667328    1.293    0.226
        59  -8.6541    109.5481     83.8659   8.5590747415e+01   4.4457648992e+01    0.2471868    0.2140498  51.82 0.0003119133    1.235    0.190
        60 -11.9696      5.3151    199.2407   1.2979981492e+02   3.2162314529e+01     1.030208    0.3240691 -64.83  0.005208286    3.019    0.669
        61  -8.1730    126.9271    147.7603   9.6860359393e+01   2.6682485901e+01    0.2024811    0.1956407   7.96 0.0003802105    1.174    0.149
        62  -7.5209    168.6642     71.7260   6.7104494675e+01   3.3085048483e+01     0.158823    0.1207335  24.15 0.0002624052    1.603    0.376
        63  -7.6404    115.2599     69.0175   7.9266416557e+01   4.6287378785e+01    0.2054811    0.1885116 -33.43 0.0002445677    1.055    0.052
        64  -7.3586     52.2819     68.7287   9.9680822098e+01   5.6970300584e+01     0.119105    0.1010244 -88.96 0.0001864029    1.496    0.332
        65  -7.6419    125.9786     67.2276   7.5734069237e+01   4.4263844748e+01    0.1954589    0.1264779  49.68 0.0003743727    1.575    0.365
        66  -7.5913    104.5922     59.4960   7.9134799009e+01   5.0319701387e+01    0.1466163    0.1355026 -17.33 6.761557e-05    1.021    0.020
        67  -9.0279    160.0802     56.7848   6.4241612332e+01   3.7795127262e+01    0.2570289    0.2270861  -1.91  0.001311943    1.245    0.197
        68 -11.9752    178.3262     46.8257   5.7650852968e+01   3.4614754538e+01    0.9412736    0.7446133  37.38  0.003536556    1.386    0.278
        69 -12.0847     63.4280    237.4388   1.2203484389e+02   1.8426442182e+01    0.2348626    0.1534844  67.88  0.001517835    1.207    0.172
        70 -11.8750     65.4724    234.3618   1.2144446761e+02   1.8703897512e+01    0.1754058    0.1360797  61.43 0.0001669905    1.113    0.102
        71 -10.1597     94.2774    156.7493   1.0644555529e+02   3.0477178839e+01    0.4148275    0.3500813 -42.54  0.001862962    1.405    0.288
        72  -9.1717     34.3780     26.5961   9.2348836045e+01   6.7213316436e+01    0.2138139    0.1770431 -28.88 0.0005429114    1.117    0.105
        73  -7.8947     43.5495     22.5700   8.6513005707e+01   6.6805355400e+01     0.123913    0.0990018 -15.96 7.308715e-05    1.011    0.011
        74 -13.2579     68.4281    230.6895   1.2062958560e+02   1.8971047541e+01    0.3223037    0.1968052  78.25  0.002035639    1.524    0.344
        75 -11.6419     80.9877    235.3954   1.1878609114e+02   1.6413859761e+01    0.1805753    0.1490826  63.88 0.0002616426    1.136    0.120
        76 -12.3407     57.9057    225.1649   1.2207155532e+02   2.1360268114e+01     0.360302     0.232144  47.51  0.002088285    1.383    0.277
