#   1 NUMBER                 Running object number                                     
#   2 MAG_AUTO               Kron-like elliptical aperture magnitude                    [mag]
#   3 X_IMAGE                Object position along x                                    [pixel]
#   4 Y_IMAGE                Object position along y                                    [pixel]
#   5 X_WORLD                Barycenter position along world x axis                     [deg]
#   6 Y_WORLD                Barycenter position along world y axis                     [deg]
#   7 A_WORLD                Profile RMS along major axis (world units)                 [deg]
#   8 B_WORLD                Profile RMS along minor axis (world units)                 [deg]
#   9 THETA_WORLD            Position angle (CCW/world-x)                               [deg]
#  10 FWHM_WORLD             FWHM assuming a gaussian core                              [deg]
#  11 ELONGATION             A_IMAGE/B_IMAGE                                           
#  12 ELLIPTICITY            1 - B_IMAGE/A_IMAGE                                       
         1 -13.0845    201.0434     34.0322   5.8598448494e+01   3.0569454582e+01    0.8771918     0.767079  30.44  0.004448583    1.283    0.220
         2 -13.7190    218.4651     15.5474   5.1500904150e+01   2.8370997128e+01     1.166759    0.9031021  27.52  0.006447823    1.637    0.389
         3 -12.3310      2.2774     16.2326   1.1272848849e+02   7.1518373805e+01    0.9410294    0.1894627 -58.09  0.003471318    4.398    0.773
         4 -12.6774      3.2925      5.3880   1.0775815744e+02   7.3362140593e+01      0.68624    0.5041046 -26.05  0.005153845    1.077    0.072
         5 -10.7325     73.9789    243.9043   1.2780891914e+02   1.7084846095e+01    0.3036416    0.2345472 -70.16  0.001825213    1.551    0.355
         6 -11.2507    184.9364    250.0260   1.0910992361e+02  -8.8132242089e-03    0.3459507    0.1573251  40.90  0.001928682    1.687    0.407
         7 -10.8515    176.2555    249.7680   1.1057678043e+02   1.3434918426e+00     0.407963    0.1659227  27.83  0.001708031    3.490    0.713
         8 -10.7168    169.1868    248.9840   1.1170730634e+02   2.5225852204e+00    0.2376559    0.1890197  11.19 0.0005200401    1.429    0.300
         9 -11.6617    170.2456    243.9443   1.1088932682e+02   3.0108810920e+00    0.3480435    0.1882404  46.29  0.001142514    1.554    0.357
        10 -11.7143    150.5810    246.6290   1.1468713882e+02   5.6866563120e+00    0.4253949    0.3086767 -25.86  0.002816804    2.011    0.503
        11 -10.9665    143.1426    249.0509   1.1626945373e+02   6.4839923974e+00     0.350593     0.186603  56.02  0.001987471    1.943    0.485
        12 -11.6915    109.8663    247.7361   1.2194993243e+02   1.1586938158e+01    0.4700865    0.3615931  77.35  0.003466322    1.356    0.262
        13 -11.7805    115.5755    249.8078   1.2115552175e+02   1.0456889387e+01    0.6738124    0.2888972  40.54  0.003426671    1.859    0.462
        14 -12.9740    122.4559    245.7182   1.1954903590e+02   1.0058108527e+01     1.616439    0.3622071  48.55  0.005912026    4.104    0.756
        15 -11.9934    125.8440    242.2807   1.1859109233e+02   1.0066949603e+01    0.4069017    0.3333033 -87.19  0.001104911    1.445    0.308
        16 -11.3724     99.2833    248.2591   1.2382842751e+02   1.3000806217e+01    0.5379152    0.2506529  50.61  0.003157455    1.670    0.401
        17  -9.9536     81.6647    248.0602   1.2682121572e+02   1.5419301832e+01    0.2750554    0.1497567 -78.61   0.00174871    2.136    0.532
        18 -10.0584     90.8311    250.2030   1.2543780699e+02   1.3861328461e+01    0.2271625    0.1822762  42.91  0.001475733    1.300    0.231
        19 -11.2101     86.4041    248.3678   1.2604141968e+02   1.4741743680e+01    0.3095063    0.2476049  34.46 0.0007508227    1.498    0.332
        20 -10.4699     50.4635    249.4828   1.3208074493e+02   1.9073138355e+01    0.2395683    0.1981823  53.00  0.002007322    1.342    0.255
        21 -13.1975     11.2476    215.4259   1.3674181594e+02   2.9085300149e+01      1.05714    0.9489776  44.21  0.005224312    1.560    0.359
        22 -12.3704     11.4592    206.1912   1.3625175549e+02   3.0767654160e+01     0.990772    0.5564576  17.40  0.005705578    3.435    0.709
        23 -12.7134     41.2794    206.5834   1.3087608908e+02   2.7654572229e+01     1.515329     0.610778  71.37  0.007163357    2.933    0.659
        24 -13.2829     26.7452    247.4170   1.3573201698e+02   2.2035128284e+01     1.090852    0.6583814  38.94  0.008144333    1.720    0.419
        25 -13.6893      6.0045    245.1537   1.3881115269e+02   2.4466992020e+01     1.304593    0.6488074  84.07  0.009611683    1.632    0.387
        26 -12.8348     12.3764    238.1551   1.3756470360e+02   2.5012703813e+01     1.053159    0.2828298  42.64   0.00591949    2.605    0.616
        27 -12.3348     44.1575    242.9621   1.3272304005e+02   2.0861773125e+01      0.60827    0.3172958 -83.05  0.002323146    1.886    0.470
        28 -12.0108     38.7016    237.6989   1.3331668106e+02   2.2354347123e+01    0.5856211    0.2169392 -64.68  0.001308137    2.922    0.658
        29 -12.8888     25.9738    225.7958   1.3478027905e+02   2.5776458944e+01     0.404244    0.3929278 -67.76 0.0007502898    1.663    0.399
        30 -14.0221     32.1788    218.8136   1.3332273347e+02   2.6374330983e+01    0.9556257    0.7324765  85.27  0.007522776    1.177    0.150
        31  -8.8189     68.9248    247.0000   1.2888675545e+02   1.7230425340e+01    0.1774415   0.04810047  39.58 0.0008119093    3.008    0.668
        32 -11.6783    179.0747    243.7791   1.0931411915e+02   1.6620843816e+00    0.3816295    0.1664576  41.67  0.001990384    1.787    0.441
        33 -10.9618    159.3548    244.1956   1.1284626075e+02   4.6670860360e+00    0.2146418    0.1636341  73.89 0.0007763816    1.775    0.437
        34 -10.8894    136.0465    225.7840   1.1483426938e+02   1.1035638004e+01    0.3449066    0.1955736 -47.71  0.001319048    2.191    0.544
        35 -11.9055    135.8284    241.3972   1.1671083651e+02   8.6874750636e+00    0.3593821    0.2797424  65.73  0.001959746    1.337    0.252
        36 -12.4034    135.1174    234.8183   1.1608821898e+02   9.7798501457e+00    0.4726946    0.3843185 -83.43  0.003307701    1.513    0.339
        37 -11.9125    102.5794    239.8587   1.2248941584e+02   1.3848597731e+01    0.3905782    0.3399341  -6.44            0    1.837    0.456
        38 -12.0751    100.5503    234.9926   1.2238977678e+02   1.4921580021e+01    0.5752494    0.3016889  83.56  0.002823909    3.129    0.680
        39 -10.6302     83.7391    241.1736   1.2591596677e+02   1.6244312372e+01    0.3673399    0.2051734  56.43   0.00164884    1.442    0.306
        40 -11.5401     92.0486    241.3218   1.2447897357e+02   1.5091241431e+01    0.3276127    0.2839119  88.25  0.001948763    1.280    0.219
        41 -11.4281     88.7906    237.6514   1.2473243664e+02   1.6133791526e+01    0.5270679     0.217808  45.87  0.002884651    1.860    0.462
        42 -11.0916    244.9729    242.2549   9.7920483062e+01  -7.9653781156e+00    0.2019323    0.1455952  42.90  0.001408477    1.673    0.402
        43 -10.7097    162.2162    250.3056   1.1308202164e+02   3.4171539254e+00    0.3369437    0.1160159  42.56 0.0006472786    2.209    0.547
        44  -9.5563     53.7303    241.0034   1.3102244389e+02   2.0072015937e+01     0.143902    0.1091382  75.15 0.0006115707    1.133    0.117
        45 -10.7372    143.9442    240.6347   1.1516850074e+02   7.5515311199e+00    0.2793632    0.0886031  41.41  0.001244166    2.461    0.594
        46 -11.6977    117.0185    238.2234   1.1974600966e+02   1.2004021041e+01     0.386955    0.2976858  -5.82  0.002411963    2.332    0.571
        47  -9.2323     66.5485    239.4187   1.2874597215e+02   1.8766695191e+01    0.2143215    0.1039845  68.00 0.0009255472    2.070    0.517
        48  -9.0760     48.2989    237.2005   1.3169076109e+02   2.1348067501e+01    0.2246565   0.09860545  49.31  0.001377777    1.710    0.415
        49  -9.8592    173.1284    236.1632   1.0935808326e+02   3.5907623294e+00    0.1523861    0.1252354  54.27  0.000376367    1.319    0.242
        50 -11.2485    129.4566    235.4707   1.1719548826e+02   1.0552868932e+01    0.2810856    0.1755897  62.18  0.001676408    1.701    0.412
        51  -8.6929     70.8287    235.1949   1.2768887081e+02   1.8929362644e+01    0.1322029     0.117451  57.38  0.000905499    1.304    0.233
        52  -9.3364     54.6305    235.2906   1.3049492795e+02   2.0924693583e+01    0.1837988   0.09214903  64.91  0.001126246    1.741    0.426
        53 -11.5161    105.4933    228.5096   1.2084292793e+02   1.5274107187e+01    0.4111274    0.2530149  37.75  0.002498982    1.520    0.342
        54 -11.2774    109.4942    232.4690   1.2051576340e+02   1.4033618043e+01    0.3632918    0.2173576  79.53  0.002031762    2.250    0.556
        55 -10.9169    113.4510    230.7784   1.1961302816e+02   1.3720954370e+01    0.2864288    0.2090603  58.28  0.001057726    1.173    0.147
        56  -9.9024    156.6674    232.0703   1.1180441436e+02   6.7890212643e+00    0.1552544    0.1408746  31.96 0.0005476391    1.152    0.132
        57 -10.7815     84.5084    230.0582   1.2482984118e+02   1.7988095051e+01    0.3808913    0.1902481 -64.89   0.00222569    2.233    0.552
        58 -10.3216    249.3632    231.3326   9.5496447467e+01  -7.4731894408e+00    0.1871618    0.1074338  11.94  0.001126384    1.692    0.409
        59  -9.0895     45.6505    231.1249   1.3175635276e+02   2.2694349517e+01    0.1665401   0.09854622  73.73 0.0009253657    1.430    0.301
        60 -10.0584     56.8868    228.5163   1.2963335207e+02   2.1820665338e+01    0.2110585    0.1339337 -82.66  0.001452478    1.541    0.351
        61 -10.7091     79.3000    225.7480   1.2539510834e+02   1.9436715363e+01    0.3293937    0.2280111 -87.59  0.001502334    1.466    0.318
        62  -9.4062     77.1434    220.8150   1.2535428666e+02   2.0596684059e+01    0.1746871    0.1228553  65.27 0.0004032601    1.185    0.156
        63  -9.7767     92.1641    225.9451   1.2305011595e+02   1.7629396853e+01     0.187839    0.1256075  64.03 0.0008705658    1.327    0.247
        64  -9.6496     51.4774    225.4839   1.3037000808e+02   2.3003330138e+01    0.1747141    0.1371552  76.60 0.0005809467    1.114    0.102
        65 -10.0075    117.0602    224.4883   1.1825092972e+02   1.4209371155e+01    0.2691447    0.2099881  24.47 0.0008960344    1.566    0.361
        66  -9.3790     64.9459    224.5310   1.2789852733e+02   2.1523333345e+01    0.2064108    0.1200266 -51.02  0.001221937    2.482    0.597
        67  -9.1097    164.2919    224.0567   1.0931748156e+02   6.7236396507e+00     0.157468    0.1420272  40.64  0.000351915    1.119    0.107
        68 -10.4985     97.1074    239.2589   1.2340408696e+02   1.4718791595e+01    0.2184743    0.1523365  63.10 0.0007747523    1.234    0.189
        69 -11.2815     98.9646    222.9972   1.2149111904e+02   1.7163205398e+01    0.3180792    0.2103668  52.03 0.0009897545    1.225    0.184
        70 -10.2499     87.4599    223.5138   1.2368878149e+02   1.8710453236e+01    0.2129838    0.1612827  62.65 0.0007509327    1.072    0.067
        71 -10.5730    245.7420    220.8453   9.4370879645e+01  -5.8325775358e+00    0.3074539   0.09350336 -29.49  0.001325533    3.625    0.724
        72 -10.6248    141.8619    219.5280   1.1293632908e+02   1.1097860582e+01    0.3087806    0.2272118 -46.78  0.001590531    1.656    0.396
        73 -10.4766     70.7464    219.7168   1.2644266766e+02   2.1638816398e+01    0.3798837    0.2510727  79.72  0.002499401    1.429    0.300
        74  -9.6209     89.3623    218.8447   1.2288020275e+02   1.9267004369e+01     0.246452    0.1168975  58.13  0.001265638    2.050    0.512
        75  -9.6376    111.1294    215.7882   1.1838679963e+02   1.6600676033e+01    0.2958013    0.2269908   1.42  0.001715064    2.230    0.552
        76  -9.7683    117.9797    214.9277   1.1695754663e+02   1.5689767339e+01    0.1801445    0.1523629  56.11 0.0004567327    1.028    0.027
        77  -9.3970     88.1273    212.8400   1.2251154254e+02   2.0524340821e+01     0.223366    0.1453498  89.02 0.0009933305    1.672    0.402
        78 -10.7148     55.3736    208.2603   1.2835875970e+02   2.5693672610e+01    0.7185662    0.3349264  72.72  0.003436389    2.438    0.590
        79 -10.0794     62.6553    209.0704   1.2704423168e+02   2.4639964278e+01    0.3058074    0.2555867  88.20  0.001148128    1.179    0.152
        80 -10.1969     63.9360    205.2746   1.2646378946e+02   2.5198723737e+01     0.326367     0.176396 -78.93  0.001242533    1.875    0.467
        81  -8.5576    156.2475    208.3082   1.0858514527e+02   1.0507920824e+01    0.1166015   0.09401705   7.53 0.0001416897    1.506    0.336
        82  -8.7992    134.3663    207.7470   1.1281418132e+02   1.4291484705e+01    0.1557288    0.1186107 -42.03 0.0009218496    1.614    0.380
        83  -9.2735    112.4545    208.4531   1.1725423635e+02   1.7696722875e+01    0.1818261    0.1487846 -86.17  3.93431e-05    1.306    0.234
        84  -9.5134    110.5712    205.5264   1.1726954601e+02   1.8521244333e+01    0.1892263    0.1389687  56.73 9.008706e-05    1.188    0.159
        85  -8.6922     74.4327    208.4347   1.2472349697e+02   2.3229051297e+01    0.1177154   0.09422144  66.51 0.0001474525    1.002    0.002
        86 -10.2334    246.6068    206.2004   9.1709041306e+01  -4.2935183038e+00    0.2782068    0.1083374  25.44   0.00109959    3.448    0.710
        87  -9.6431     91.2373    205.1399   1.2108456422e+02   2.1505595933e+01    0.3387692    0.1541279  35.47  0.001424977    2.262    0.558
        88 -10.0071    106.9283    203.6331   1.1776782668e+02   1.9435296775e+01    0.2274917    0.1818156  87.25  0.000431907    1.292    0.226
        89 -10.8193      3.9090    179.1033   1.3619540790e+02   3.6688478442e+01     0.261341    0.2499964 -68.86  0.001424004    1.500    0.333
        90 -10.3233      8.2206    182.0006   1.3553016890e+02   3.5747665198e+01    0.2179843    0.1004327  75.33 0.0005010708    1.920    0.479
        91 -11.5180      4.2903    186.1356   1.3650746461e+02   3.5256763495e+01    0.6752707    0.2455565  47.55  0.003255863    2.259    0.557
        92 -10.5592      3.2015    197.4914   1.3728208808e+02   3.3145733425e+01    0.2715971    0.2645316 -55.06  0.001835653    1.627    0.385
        93 -10.7939      1.7214    192.6254   1.3731217399e+02   3.4204409613e+01    0.4053681    0.1877474  75.78  0.002464267    1.784    0.439
        94 -10.4599     83.8083    201.5458   1.2217693153e+02   2.3250543196e+01    0.2101689    0.1725715  78.65 0.0002599676    1.099    0.090
        95  -9.7104     43.0586    200.4807   1.3008624786e+02   2.8629240233e+01    0.2351431    0.1423533 -65.94 0.0008564414    1.705    0.413
        96  -9.8812    250.5873    200.2266   8.9979575338e+01  -4.1974668674e+00    0.1700988   0.09996767 -14.21 0.0009549861    1.713    0.416
        97  -8.6784     75.3278    199.7057   1.2368403724e+02   2.4777822371e+01    0.1271725   0.07551966  65.84 0.0002412221    1.627    0.385
        98 -10.4928     31.0942    192.7734   1.3181553842e+02   3.1437639307e+01    0.5751871    0.3017289 -52.29  0.002003778    2.588    0.614
        99 -10.1768     21.6966    193.1979   1.3364219016e+02   3.2294520662e+01    0.2888954    0.1849145 -83.40 0.0007119517    1.328    0.247
       100  -9.3922     26.0004    192.6896   1.3278951535e+02   3.1971730373e+01    0.2143776    0.1774717 -72.80  0.001017529    1.384    0.277
       101 -11.9214     55.2281    193.8575   1.2714934378e+02   2.8512221568e+01    0.3961428    0.2708528 -58.04 0.0005468047    1.695    0.410
       102  -8.5246    103.4162    196.4875   1.1759483127e+02   2.1324255218e+01    0.1256235    0.1075862  64.11 0.0001122702    1.015    0.014
       103  -8.6060     77.9636    193.9977   1.2254689472e+02   2.5538061974e+01     0.144443    0.1183508  64.83 -0.002661949    1.033    0.032
       104  -9.5200    191.5214    191.5642   9.8972502380e+01   6.9459844928e+00    0.2205269    0.1972251  21.29 0.0006244024    1.046    0.044
       105  -9.6300     39.6670    190.4310   1.2995961327e+02   3.0993283253e+01    0.3611623    0.1754008 -50.67  0.001852308    2.910    0.656
       106  -9.5629      2.5164    201.9764   1.3761437777e+02   3.2355343710e+01     0.236024    0.0794825 -79.02  0.001290014    2.464    0.594
       107 -10.6427    250.3098    187.8611   8.7734385490e+01  -2.6440593814e+00    0.3009002    0.1367299 -24.31  0.001443236    2.264    0.558
       108  -9.1742     76.9411    188.2185   1.2211938099e+02   2.6836446354e+01    0.1910934     0.139527  71.74  0.001175614    1.251    0.200
       109  -9.8046     83.5624    186.7269   1.2054913135e+02   2.6209075871e+01    0.2020136    0.1700668  57.38 0.0003382044    1.098    0.090
       110 -10.3320     71.6018    186.8433   1.2308782851e+02   2.7840840026e+01    0.2354133    0.2205445  -3.36   0.00161887    1.529    0.346
       111 -11.6163     61.7848    186.0103   1.2505525378e+02   2.9287452773e+01    0.2331838    0.2138845 -65.46 0.0004197782    1.348    0.258
       112  -9.3916     24.3422    184.0690   1.3251579638e+02   3.3861426779e+01    0.1661928    0.1459264  60.71 0.0007988773    1.287    0.223
       113  -9.1674     30.0470    183.5182   1.3133886909e+02   3.3407266530e+01    0.1566128   0.09938729  43.41 0.0005473478    1.548    0.354
       114  -8.7492     85.7255    180.3017   1.1929283190e+02   2.7211606821e+01    0.1287275   0.08635841  71.97            0    1.537    0.349
       115  -8.8064     36.3886    182.7984   1.3000038720e+02   3.2896914456e+01    0.1626452    0.0885473 -65.36 0.0009520439    1.770    0.435
       116  -8.7734     47.7785    179.6562   1.2736638716e+02   3.2289520728e+01    0.1629627   0.09160782  48.26 0.0006814201    1.616    0.381
       117  -9.1453     12.1844    178.5815   1.3454975207e+02   3.6096375370e+01      0.17544    0.1077363 -78.24  0.001178949    1.378    0.274
       118  -8.6077    102.9909    176.0107   1.1491039363e+02   2.5462123630e+01    0.1552548    0.1379224  68.07            0    1.001    0.001
       119  -9.5246     64.8700    175.8426   1.2330717454e+02   3.1009062715e+01    0.2166347    0.1454292  51.42  0.001014987    1.367    0.268
       120 -10.8546     73.0812    173.9717   1.2128134551e+02   3.0318115858e+01    0.2242828    0.2108175 -87.82 0.0004026978    1.194    0.162
       121 -10.6189     19.2777    174.0773   1.3282043329e+02   3.6388056391e+01    0.3417488    0.1699215  80.18 0.0008457542    1.855    0.461
       122 -11.9195    247.0748    158.2106   8.2366839530e+01   1.8382499223e+00    0.8627791    0.6602705  89.66  0.004281504    2.811    0.644
       123 -11.6687    249.0706    172.3423   8.4921889417e+01  -4.3551808436e-01    0.5219955    0.3692299  -6.78  0.003069826    1.328    0.247
       124 -12.2112    245.4279    163.3857   8.3712492105e+01   1.4062910113e+00    0.6298741    0.3074434 -42.44   0.00287687    2.406    0.584
       125 -11.1330     58.6823    173.0457   1.2435037083e+02   3.2383417429e+01     0.270321    0.2585545 -35.32  0.000966332    1.426    0.299
       126 -10.2869     12.6099    172.9213   1.3409688878e+02   3.7218874911e+01    0.3242392     0.147984 -74.44  0.001171192    1.815    0.449
       127 -12.4206     11.0273    158.6436   1.3342751975e+02   4.0345187886e+01    0.5968788     0.406146 -89.17  0.001969406    1.146    0.127
       128 -11.2357     13.8490    167.1790   1.3344700997e+02   3.8306784931e+01    0.3478284    0.2360868  29.39  0.002368133    1.834    0.455
       129 -11.1116      2.8894    172.7498   1.3603203611e+02   3.8056416071e+01    0.3998026    0.1744096  80.60  0.001326187    2.039    0.509
       130 -11.4577      4.9618    167.0599   1.3527184565e+02   3.9062453065e+01    0.5248218    0.2428976  72.87 0.0004473782    1.963    0.491
       131 -11.1170      8.7940    166.1671   1.3442663663e+02   3.8940794216e+01    0.3333421    0.1677933 -74.79  0.001423955    1.628    0.386
       132 -10.1733     27.5159    171.4497   1.3090989936e+02   3.6159936158e+01    0.2741222    0.1721288 -57.32 0.0005583596    1.769    0.435
       133  -9.9146    166.9347    170.2733   9.9984873553e+01   1.5120936523e+01     0.201232     0.194123 -17.62 0.0003139564    1.107    0.096
       134  -8.4563    124.7765    171.3609   1.0933284361e+02   2.2751238828e+01      0.13265    0.1009089  87.49 0.0002115578    1.571    0.363
       135  -9.2244     51.9123    171.0504   1.2562219842e+02   3.3625819320e+01    0.1804612    0.1528732  80.36 0.0005915092    1.048    0.046
       136  -8.5169     95.9492    169.0541   1.1547453738e+02   2.8026092001e+01     0.154039    0.1338239  62.66            0    1.053    0.051
       137 -11.5702     80.5977    165.8834   1.1853731115e+02   3.1001765042e+01    0.5201102     0.392448  32.86  0.001725428    1.502    0.334
       138 -10.5321     81.9677    158.2934   1.1714043989e+02   3.2459718507e+01    0.3722781    0.2315995 -70.81 0.0007584884    1.599    0.374
       139 -10.4796     68.3576    166.2733   1.2139156576e+02   3.2602403465e+01     0.222981    0.1936754  84.61 0.0003213597    1.034    0.032
       140  -8.6588     64.7163    167.3069   1.2234550554e+02   3.2853744746e+01    0.1590052    0.1020179  40.61  0.000198819    1.570    0.363
       141  -8.5371     38.3596    167.6866   1.2825432853e+02   3.5859405073e+01    0.1295104   0.07196504  66.99 0.0007042766    1.749    0.428
       142 -10.1792     45.0035    164.6821   1.2648876482e+02   3.5787174807e+01    0.2430567    0.1417237 -55.20  0.001122161    1.849    0.459
       143  -9.1180     43.1808    161.1668   1.2653280918e+02   3.6752301184e+01    0.2271022    0.1419514  73.01 0.0002657776    1.541    0.351
       144 -10.6045     31.2762    163.6190   1.2942886751e+02   3.7457656305e+01    0.2718163    0.2259579 -77.17  0.001847959    1.195    0.163
       145  -8.8735     28.7466    161.0236   1.2975201890e+02   3.8264167703e+01    0.1608534    0.0903463 -66.89 0.0003459757    1.590    0.371
       146  -9.3038     38.0007    163.1565   1.2789798313e+02   3.6873012917e+01     0.206834    0.1028652  58.32  0.001083853    1.983    0.496
       147  -8.9358     66.9688    161.7437   1.2113689981e+02   3.3772853914e+01    0.1736473    0.1498216  84.40 0.0005157907    1.012    0.011
       148  -9.9472     24.0146    161.9759   1.3087475798e+02   3.8505756139e+01    0.1744872    0.1374378  85.12 0.0003466407    1.011    0.011
       149  -9.2452     46.2267    156.3866   1.2531474198e+02   3.7466962746e+01    0.1603006    0.1009699  50.67 0.0004201741    1.537    0.350
       150 -11.1455     26.0419    155.4289   1.2984878836e+02   3.9734160502e+01    0.3862167    0.1848273  32.94  0.001781937    2.291    0.564
       151 -10.4161     32.3554    153.2839   1.2820095239e+02   3.9602390582e+01    0.2956975    0.1789201 -88.14 0.0009466136    1.468    0.319
       152  -8.7924    228.3537    155.2589   8.4941984614e+01   5.6896055293e+00    0.1822772    0.1195823 -38.95 0.0004384416    1.597    0.374
       153 -10.9087    249.5494    151.0221   8.0446957514e+01   2.4092507641e+00    0.5243826     0.254142 -37.18  0.002452375    2.016    0.504
       154 -13.0537    248.0274    101.1479   6.9420914167e+01   1.0009640354e+01     1.625802    0.6705855 -25.95  0.006247832    2.567    0.610
       155 -13.0969    248.6275    133.1245   7.6695527198e+01   5.1547106406e+00     1.502304    0.6319934 -31.89  0.006381931    2.177    0.541
       156 -11.7894    248.1929    113.1810   7.2220080036e+01   8.1874920506e+00     0.638577    0.4600211  23.52  0.003383261    1.570    0.363
       157 -12.8970      9.1577    112.6449   1.2972554086e+02   5.0622416665e+01    0.6033319    0.2793522 -81.82  0.002359461    1.885    0.469
       158 -13.7364      4.0467    125.3798   1.3233703549e+02   4.8107518470e+01      1.84152    0.2677445 -70.55  0.006611433    4.088    0.755
       159 -12.0831      5.9508    142.0147   1.3328851705e+02   4.4317810987e+01    0.4250954    0.2724543 -68.94  0.001402557    1.345    0.256
       160  -9.9808     94.6737    150.2274   1.1280746904e+02   3.2311431072e+01    0.2861654    0.2248065  64.85  0.001047292    1.270    0.213
       161  -9.4119     87.0068    151.0494   1.1481522110e+02   3.3316843376e+01    0.1973453    0.1748957  84.93  0.001193273    1.036    0.035
       162 -11.5629     21.5911    149.3794   1.3031060060e+02   4.1459165908e+01    0.3882404    0.2180301  43.64  0.002337188    1.801    0.445
       163 -10.4482     82.9223    149.2979   1.1553624731e+02   3.4317736886e+01    0.2397479    0.1902283 -57.79 0.0004948931    1.267    0.211
       164 -10.0603     55.0172    150.2521   1.2249249758e+02   3.7821647663e+01    0.1789274     0.133401  74.51 0.0006441156    1.271    0.213
       165 -12.0565     68.2492    144.2551   1.1840045456e+02   3.7511805170e+01    0.6348984    0.4225673  80.87  0.002346479    1.667    0.400
       166  -8.7368     97.8618    146.3871   1.1136064223e+02   3.2651654906e+01    0.1775807    0.1319878  27.04 0.0004204549    1.604    0.376
       167 -10.2577    133.2684    141.1750   1.0169801189e+02   2.7435801021e+01    0.3387904    0.2440339 -64.22  0.001029826    1.569    0.363
       168 -10.4502     37.5801    141.0633   1.2562208808e+02   4.1812021277e+01    0.2744276    0.1177696  52.56  0.001280641    2.513    0.602
       169 -11.4298     16.9740    140.0137   1.3052547206e+02   4.3915276445e+01    0.3260512    0.2014497  57.35  0.001614541    1.598    0.374
       170  -9.9274    249.7778    117.5938   7.3000096376e+01   7.2205677717e+00    0.2572528    0.2390387  11.14 0.0007574281    1.110    0.099
       171  -9.5732    107.7840    135.8622   1.0688955056e+02   3.3319348081e+01    0.3548394    0.2327153 -23.22  0.001497655    2.520    0.603
       172  -9.8203     41.0041    147.4983   1.2553826414e+02   4.0011025450e+01    0.1653047    0.1170992  39.46  0.000457524    1.533    0.348
       173  -8.9900     94.3113    133.0807   1.0980597624e+02   3.6219517794e+01    0.1915357    0.1683128 -62.97 0.0004180684    1.096    0.088
       174 -10.4633     44.6138    130.2221   1.2243350833e+02   4.3557729538e+01    0.2454237    0.1581479  77.68 0.0008791618    1.677    0.404
       175 -11.3189     13.4380    127.7206   1.3019725786e+02   4.6931917963e+01    0.2144648     0.170847 -67.87 0.0006901319    1.181    0.153
       176  -9.9159    235.8851    145.8878   8.1611168514e+01   5.6752487436e+00    0.2153493    0.1665975   5.86 0.0005274594    1.289    0.224
       177  -9.9506     48.1317    126.0267   1.2088905217e+02   4.4144924457e+01    0.1895671    0.1759848  71.64 0.0003201387    1.151    0.132
       178  -8.6050    209.7017    125.7114   8.1666731475e+01   1.4210915426e+01    0.1469495    0.1098647  10.61 0.0002621724    1.556    0.357
       179 -12.0454     18.2047    122.5037   1.2841043698e+02   4.7746528988e+01    0.3539829    0.2034684  28.12  0.002086185    2.092    0.522
       180  -9.8348    238.7674    122.0216   7.5747356318e+01   8.7390810421e+00     0.234583    0.1519863  -1.86   0.00107453    1.979    0.495
       181 -10.7436    231.8033    116.4349   7.5572753430e+01   1.1032204182e+01    0.2784028    0.2215588 -11.02 0.0006496417    1.256    0.204
       182  -9.7785    167.5670    112.8254   8.7030353646e+01   2.5949959089e+01    0.2880681    0.2373944 -86.60 0.0009084809    1.554    0.356
       183 -10.7484    236.5146    110.5752   7.3413647146e+01   1.0962242898e+01    0.4060246    0.1186702 -36.29  0.001370211    3.039    0.671
       184  -8.6649    203.2996    111.3610   7.9350625420e+01   1.8075339575e+01    0.1566651    0.1146172   7.23 0.0007035371    1.717    0.418
       185 -12.0796      4.8744    151.3063   1.3423232926e+02   4.2389542122e+01    0.6301799    0.3454265  81.13  0.003874829    1.563    0.360
       186  -8.8354     29.2935    109.3330   1.2365103895e+02   4.9853159765e+01    0.1264328    0.0790516 -46.55 0.0003828347    1.637    0.389
       187 -11.1252     18.9866    105.9866   1.2615071719e+02   5.1446771507e+01    0.2677616    0.1729489  72.39  0.001069806    1.698    0.411
       188 -12.1113     14.7286    101.9815   1.2684989530e+02   5.2662756777e+01    0.3423168    0.2414253 -75.98 0.0005834625    1.147    0.128
       189 -10.6399     16.7443     99.0141   1.2584322199e+02   5.3197460366e+01    0.1940293      0.16529  79.20 0.0003260787    1.222    0.181
       190  -8.7172     71.7635    100.0703   1.0923142027e+02   4.7221411717e+01    0.1723735    0.1067997 -58.59 0.0002890712    1.482    0.325
       191 -12.3625      9.8270    141.3526   1.3233446210e+02   4.4177355792e+01    0.5601512    0.2356798 -74.50 0.0004373804    1.870    0.465
       192 -11.9859    247.7905    142.0580   7.8799971614e+01   4.0101703095e+00    0.6565509    0.4350953  34.90  0.003530747    1.532    0.347
       193 -11.2320      2.2669     76.6107   1.2714032983e+02   5.9091672725e+01    0.3970928   0.09202889 -70.28   0.00155265    3.262    0.693
       194  -8.6762    184.6791     77.6362   7.3852431839e+01   2.8283517204e+01    0.1627401    0.1185952  15.40 0.0007040526    1.781    0.438
       195 -11.2888     60.0278    245.7341   1.3028222438e+02   1.8537188990e+01     0.366867    0.2470531  59.04  0.001958341    1.084    0.078
       196  -9.7284     66.7594    244.0238   1.2904007910e+02   1.7983233485e+01    0.2447645    0.1350513  30.15  0.001184028    2.396    0.583
       197 -11.9875    200.4919    246.2224   1.0592753646e+02  -1.9157100560e+00    0.5548968    0.1432236  43.62  0.002258282    3.291    0.696
