#   1 NUMBER                 Running object number                                     
#   2 MAG_AUTO               Kron-like elliptical aperture magnitude                    [mag]
#   3 X_IMAGE                Object position along x                                    [pixel]
#   4 Y_IMAGE                Object position along y                                    [pixel]
#   5 X_WORLD                Barycenter position along world x axis                     [deg]
#   6 Y_WORLD                Barycenter position along world y axis                     [deg]
#   7 A_WORLD                Profile RMS along major axis (world units)                 [deg]
#   8 B_WORLD                Profile RMS along minor axis (world units)                 [deg]
#   9 THETA_WORLD            Position angle (CCW/world-x)                               [deg]
#  10 FWHM_WORLD             FWHM assuming a gaussian core                              [deg]
#  11 ELONGATION             A_IMAGE/B_IMAGE                                           
#  12 ELLIPTICITY            1 - B_IMAGE/A_IMAGE                                       
         1 -16.9387    141.2234    106.1847   7.4308483974e+01   3.3186148077e+01     6.699923     3.448046 -49.90   0.02346577    2.108    0.526
         2 -14.8592    185.2800    109.8967   6.5032685440e+01   2.2301554428e+01     1.872927     1.177413  18.68  0.007085954    2.591    0.614
         3 -14.9298     22.1840     96.9504   1.1017734734e+02   5.3951490480e+01     2.096382     1.085877 -84.89  0.009429623    2.476    0.596
         4 -15.7894     64.7207     48.2259   8.0204323048e+01   5.9742575343e+01     2.776093     2.017918  35.04   0.01545543    1.427    0.299
         5 -13.8584     83.0545     49.3427   7.3760472128e+01   5.6417797536e+01    0.9249883    0.7837378 -32.63  0.004140545    1.227    0.185
         6 -12.3979      2.3275     51.8573   1.0880670211e+02   6.5171584450e+01    0.9193721     0.198565 -61.60  0.003626127    3.243    0.692
         7 -15.7633     25.7935     70.8851   1.0339838771e+02   5.9669440519e+01     1.989325     1.947237 -27.45   0.01259811    1.217    0.178
         8 -13.8655     15.6851      9.2259   8.6889382609e+01   7.2114481544e+01     1.394382     0.747988  -8.23     0.006377    1.929    0.482
         9 -11.9739     31.5197      8.5389   7.7871861027e+01   7.0497611919e+01    0.5853311    0.2296879 -40.12  0.002818696    2.715    0.632
        10 -12.6820    163.4745      5.4511   3.9543160565e+01   4.3120502593e+01     2.117661    0.8209038  76.77  0.008304597    2.664    0.625
        11 -13.2585    186.3979     12.2966   3.8618346952e+01   3.6796375378e+01     1.529435    0.6631549  61.12  0.006928263    2.012    0.503
        12 -12.4653    199.2864      4.0149   3.5174062778e+01   3.4502464961e+01     1.262218     0.485224  75.80  0.005457236    2.383    0.580
        13 -12.1898     55.4990     11.5628   6.8246045388e+01   6.6639630007e+01    0.5104178    0.3267382  20.76  0.002966883    1.415    0.293
        14 -13.5889     55.9166      4.4296   6.4558319073e+01   6.7355326487e+01      1.17426    0.6216186  50.97  0.006129269    2.127    0.530
        15 -11.9510     89.2465      3.1064   5.2830635591e+01   6.1002968461e+01    0.5761229    0.2632886  47.61  0.002796135    1.760    0.432
        16 -14.7065     93.1022    191.7474   1.0476970804e+02   2.2604162263e+01      1.97693     1.325106 -86.79  0.009821532    1.781    0.438
        17 -10.4854      2.0504    250.2504   1.2806369091e+02   2.1708014056e+01    0.2060068    0.0951919  53.80  0.001358939    1.568    0.362
        18 -14.4836     73.0775    182.7924   1.0840583542e+02   2.7591624644e+01     1.409178    0.9777763  41.71  0.006883857    1.388    0.280
        19 -11.8546    151.3214    210.0035   9.4107648936e+01   9.0767956898e+00    0.3905292     0.309082 -41.74  0.002206408    1.413    0.292
        20 -10.5762     13.9822    210.7303   1.2405571856e+02   2.8208439986e+01    0.1624427    0.1230891  69.34 0.0006753328    1.051    0.048
        21 -10.4905      1.7397    205.5491   1.2615103955e+02   3.0374974956e+01    0.2404126    0.1016679  83.85   0.00126775    2.124    0.529
        22 -12.1929      9.8052    186.6150   1.2341098448e+02   3.3746195147e+01    0.4254515    0.3587087  72.24   0.00289422    1.126    0.112
        23 -15.4319     70.4315    197.5468   1.1084235159e+02   2.4606367784e+01     3.065623     1.434501  55.22   0.01361236    2.230    0.552
        24  -9.7964    207.3403    166.3056   7.3713265455e+01   6.9604056844e+00    0.1503953    0.1058652   3.40 0.0007041362    1.681    0.405
        25 -12.7580     20.3879    153.6492   1.1824980665e+02   4.0438337780e+01    0.6718205    0.6589558  67.60  0.004217386    1.239    0.193
        26 -10.9829    198.8546    150.1317   7.1898200623e+01   1.1606074107e+01      0.22209    0.2130365 -62.90   0.00124021    1.221    0.181
        27 -12.2726    106.7735    148.0070   9.3810132386e+01   3.0555596865e+01    0.5862296    0.3612864  26.90  0.002496064    1.878    0.467
        28 -12.6953    106.0873    142.1539   9.2789292587e+01   3.2081721114e+01    0.8388023    0.6360412  30.49  0.002915538    1.388    0.280
        29 -12.0901    186.2473    248.2307   9.2777459911e+01  -2.8817903118e+00    0.4240634    0.2291991  35.03  0.002327834    1.504    0.335
        30 -11.9694    175.3200    106.0357   6.6140310417e+01   2.5350100920e+01    0.2899258    0.2422625  30.62 0.0009904333    1.273    0.214
        31 -13.0498    173.2460     98.2758   6.4522478892e+01   2.7334205482e+01    0.4184367     0.349281  -2.19  0.002036627    1.406    0.289
        32 -14.0243    135.1166    115.3101   7.8366369801e+01   3.2558846783e+01     1.144732    0.9956689 -75.18  0.005616112    1.339    0.253
        33 -15.4321     40.4838    108.5658   1.0608590699e+02   4.9608609641e+01     2.682341     1.483012 -38.63   0.01274412    1.914    0.477
        34 -13.4605    180.9071     88.0291   6.0162699327e+01   2.7406754204e+01    0.6304445    0.4043514  56.47  0.002801329    1.593    0.372
        35 -12.1395      6.5563     84.1398   1.1352081452e+02   5.7885637417e+01     0.458998    0.1892886 -67.75  0.001952405    1.958    0.489
        36 -11.5683    182.7296    129.3391   7.0434310492e+01   1.9059315894e+01    0.2620923     0.243643 -84.83  0.000654642    1.242    0.195
        37 -12.7909    185.0020    118.8796   6.7365420098e+01   2.0623187233e+01    0.6786095    0.3954015  42.01  0.002247951    1.778    0.437
        38 -10.2211     89.8495     83.6842   8.2989793410e+01   4.8581061034e+01    0.2699155     0.191192 -36.20  0.001296414    1.379    0.275
        39 -12.9568    191.5282    114.8077   6.4998359838e+01   1.9944246787e+01    0.7926976    0.5216638  26.17   0.00337388    1.962    0.490
        40 -13.6281    102.2490     69.4264   7.4421412937e+01   4.9085098388e+01     1.717999    0.8788346  38.90  0.007048417    1.958    0.489
        41 -11.6751    171.9866     81.3239   6.0127965476e+01   3.0762316789e+01    0.2893979    0.2146096 -63.81  0.001099415    1.596    0.374
        42 -13.2192    104.8741     76.5010   7.5895708142e+01   4.7179358050e+01     1.115905    0.6309336  38.09  0.004739872    1.782    0.439
        43 -12.7991    177.3793     71.8154   5.6393574929e+01   3.1075126422e+01    0.6532716    0.3144766 -45.40  0.002283444    2.154    0.536
        44 -12.9336    177.2263     64.8208   5.4461077907e+01   3.2251098574e+01     0.853398    0.3294341  59.11  0.003024759    2.586    0.613
        45 -10.6227      1.8645    244.1348   1.2785801709e+02   2.2830246800e+01     0.173317    0.1000912  65.46   0.00123148    1.266    0.210
        46 -14.4330     46.8678     81.7746   9.7889200169e+01   5.5256161444e+01      1.26026     0.950202 -42.69  0.006282711    1.155    0.134
        47 -11.4258      7.1036    241.4780   1.2686260352e+02   2.2825531332e+01    0.2613477    0.1417794  57.75  0.001187871    1.380    0.275
        48 -10.5428    208.9726     70.4986   5.0635814717e+01   2.3682810522e+01    0.2196611    0.1391505  61.16  0.001042047    1.617    0.382
        49 -11.1328    200.6071    237.9590   8.8400119699e+01  -3.5968120517e+00    0.3295456    0.1129855 -36.58  0.001386434    3.321    0.699
        50 -11.0712    181.3614    239.1956   9.2389727519e+01  -8.1577852755e-01    0.2334067     0.166289  32.42  0.001405852    1.167    0.143
        51 -11.5901      2.0018    225.9745   1.2707492774e+02   2.6244521876e+01    0.3519645    0.1511318  56.71   0.00209376    1.823    0.452
        52 -12.9815      9.5744     47.0175   1.0423919634e+02   6.5807630859e+01    0.6018593    0.4204679 -27.64  0.002681084    1.240    0.193
        53 -11.2160    194.5705     55.8723   4.9070131028e+01   2.9351599083e+01    0.3018092    0.1885905  86.63  0.001330198    2.006    0.502
        54 -12.9249     14.1867    236.3026   1.2538917261e+02   2.3108355099e+01    0.5189057    0.4243273  40.63  0.004044352    1.447    0.309
        55 -12.0531    249.5744     50.7306   4.0912739467e+01   1.7625784846e+01    0.5658516    0.3256936 -29.78  0.002937184    1.832    0.454
        56 -11.4653    127.0150     43.1979   5.8425928700e+01   4.7904633956e+01    0.4153307    0.2837804  36.26  0.001810692    1.467    0.318
        57 -10.9060    123.7415     40.5636   5.8321251921e+01   4.9049072381e+01    0.4157777    0.2885592  40.95  0.001554256    1.356    0.262
        58 -10.6665     24.1271     22.0736   8.8132513617e+01   6.9314991794e+01    0.2826394    0.1498331  10.17  0.001535254    2.007    0.502
        59 -13.2262     10.1308    229.2930   1.2577128370e+02   2.4848050687e+01    0.5413266    0.3523562  67.77  0.003850826    1.162    0.140
        60 -12.6661     15.0322    226.7654   1.2474905792e+02   2.4868605961e+01    0.5873167    0.2387148  62.25  0.003160502    2.133    0.531
        61  -9.7702    104.6645     17.2945   5.4551991887e+01   5.6278917308e+01     0.127273    0.1054167 -79.48 0.0003943002    1.644    0.392
        62  -9.9441    172.3239    237.6465   9.3974659782e+01   8.4400402261e-01    0.1237065   0.09555496  60.78 0.0007047118    1.761    0.432
        63 -11.9557    218.2727    225.7388   8.2969729202e+01  -4.5228851105e+00    0.4363122    0.2138989   9.12  0.001662584    3.686    0.729
        64 -11.8768    204.0336    229.5112   8.6355770950e+01  -2.9029685250e+00    0.3144228    0.1953174  25.40  0.001315094    1.393    0.282
        65 -12.1460    223.1791    219.8103   8.1007035295e+01  -4.4134619508e+00    0.4042517    0.2483527 -14.55  0.002202847    1.703    0.413
        66 -11.2099      3.3308    220.8744   1.2660210767e+02   2.7127603967e+01    0.3086905    0.1526259  32.13  0.001875189    2.165    0.538
