#   1 NUMBER                 Running object number                                     
#   2 MAG_AUTO               Kron-like elliptical aperture magnitude                    [mag]
#   3 X_IMAGE                Object position along x                                    [pixel]
#   4 Y_IMAGE                Object position along y                                    [pixel]
#   5 X_WORLD                Barycenter position along world x axis                     [deg]
#   6 Y_WORLD                Barycenter position along world y axis                     [deg]
#   7 A_WORLD                Profile RMS along major axis (world units)                 [deg]
#   8 B_WORLD                Profile RMS along minor axis (world units)                 [deg]
#   9 THETA_WORLD            Position angle (CCW/world-x)                               [deg]
#  10 FWHM_WORLD             FWHM assuming a gaussian core                              [deg]
#  11 ELONGATION             A_IMAGE/B_IMAGE                                           
#  12 ELLIPTICITY            1 - B_IMAGE/A_IMAGE                                       
         1 -11.9664    226.2053     95.6797   8.3822625913e+01   1.5446630746e+01     1.415852     1.190552  67.14  0.007629357    1.307    0.235
         2 -10.5932     96.6718     52.9300   9.9227822782e+01   5.3501894093e+01    0.6410372    0.4521337  62.12  0.003032951    1.821    0.451
         3 -10.8151    198.4386     38.1574   7.2422828482e+01   3.1063671110e+01    0.9359759    0.5629095 -44.04  0.003612261    1.608    0.378
         4 -13.4560    168.7343     10.7364   6.8211585783e+01   4.1993286750e+01     1.782688     1.451112 -81.04  0.007755684    1.243    0.195
         5 -11.2135    185.7274      2.2900   6.3558315851e+01   3.8407175571e+01    0.9868768    0.2109797  66.89   0.00319312    3.587    0.721
         6 -11.9001    199.9886      6.6406   6.3305778908e+01   3.4339122260e+01      1.07059    0.7780939 -81.07  0.004641115    1.320    0.242
         7  -9.0877    188.0534     16.3548   6.7427940674e+01   3.6391969404e+01    0.3056619     0.245232  -3.34  0.000801733    1.513    0.339
         8  -8.3934    111.8821     10.8606   7.8369234961e+01   5.6109713559e+01    0.2153637    0.1616364  30.24 0.0006776883    1.287    0.223
         9  -9.0051    114.8490      6.5380   7.5934056522e+01   5.5838752108e+01    0.9171975    0.3673011  -9.39  0.003347124    3.528    0.717
        10  -9.8783    125.6064      7.8206   7.4241086712e+01   5.3167139381e+01    0.5213689    0.3470089   8.86  0.002237798    1.749    0.428
        11 -10.7213    121.0276      4.5041   7.3839337427e+01   5.4565469422e+01     1.213423    0.3478872  52.60  0.004517343    2.759    0.637
        12  -8.3591     71.9431      5.5830   8.6986438866e+01   6.4970122523e+01    0.1941517    0.1500758   7.07 0.0005298543    1.161    0.139
        13  -9.7398     39.2649    110.9402   1.3302874220e+02   4.9284568464e+01    0.5006873    0.2605514 -59.20  0.002097701    1.588    0.370
        14  -9.1919    250.1164    240.7582   1.0953715762e+02  -9.5320909773e+00    0.4868662    0.1685656 -27.28  0.002377477    3.317    0.699
        15  -7.6580    176.4667     87.4997   9.0522425312e+01   2.8821213437e+01      0.15484    0.1507789 -58.76 4.882392e-05    1.007    0.007
        16  -7.3294    130.6619     84.2984   1.0007057510e+02   4.0359495112e+01    0.1561279    0.1218428 -83.71 0.0007033537    1.659    0.397
        17  -7.8900    173.9741     80.4921   8.9014740083e+01   3.0709326763e+01    0.2250946    0.1534831  55.79 0.0004956994    1.483    0.326
        18  -9.4715     79.7850     79.0980   1.1319162149e+02   5.1334249160e+01    0.2828453    0.1805783 -35.96  0.001357939    1.616    0.381
        19  -7.6784      7.0067     80.5080   1.3795837301e+02   5.8811416484e+01    0.1430675    0.1186801   7.97  0.001025978    1.576    0.365
        20  -9.8369    212.0447     92.3278   8.5266791935e+01   1.9299781894e+01    0.7537417    0.4750125 -59.90  0.002677687    1.967    0.492
        21  -8.2574     89.5198     78.5186   1.0996274379e+02   4.9824058709e+01    0.1438285    0.1321171 -37.33 0.0002258469    1.031    0.030
        22  -7.7055     36.9850     77.6623   1.2716871115e+02   5.7147655222e+01    0.1649225    0.1488982 -44.05  0.000727663    1.128    0.113
        23  -7.4048    216.4807     76.4971   8.0379350788e+01   2.0849985553e+01    0.1464187    0.1410341 -17.00 0.0008084465    1.100    0.091
        24 -10.6783    135.5340     75.1981   9.6039143040e+01   4.1028299922e+01    0.7401261    0.2677472  53.56  0.002411286    2.957    0.662
        25  -7.6229    148.6835     89.7258   9.7242277703e+01   3.5132296487e+01    0.1537455     0.123465  14.47 0.0002070088    1.565    0.361
        26  -8.1975    122.1226     74.6625   9.9332032305e+01   4.4156686807e+01    0.2091025    0.1855199  42.02 0.0004754147    1.159    0.137
        27  -8.9278    146.5881     72.3781   9.2493878232e+01   3.8934520679e+01    0.2980388    0.1424117 -41.47 0.0009328604    2.055    0.513
        28  -8.4397     84.3135     73.3293   1.1001204869e+02   5.1809208121e+01    0.1447104    0.1070818 -15.82 0.0007043981    1.673    0.402
        29  -8.6451     73.3516     72.6654   1.1337401491e+02   5.3713934115e+01    0.2097081    0.1664316 -89.85  0.001107892    1.712    0.416
        30  -9.5576     11.9425     70.2123   1.3439202987e+02   6.0784042670e+01     0.332368    0.2526151 -34.16  0.001809855    1.381    0.276
        31  -9.5808      6.9174     66.7415   1.3552419441e+02   6.1837653849e+01    0.4727559    0.2941005 -49.11  0.003033036    1.332    0.249
        32 -10.3840     59.5576     68.8447   1.1692820278e+02   5.6490014034e+01     0.484103    0.2093046 -48.78  0.002126167    1.981    0.495
        33  -9.0705    119.7728     71.4562   9.8936808896e+01   4.5289553591e+01    0.3455936    0.1451514  46.14 0.0009657961    2.444    0.591
        34  -8.1842    188.9962     87.4213   8.8052116974e+01   2.5741805958e+01    0.2378779    0.1989014 -38.05 3.579203e-05    1.167    0.143
        35  -8.9605    184.0101     67.0209   8.3152836722e+01   3.0487461549e+01    0.3291385    0.2131995  81.37  0.001164434    1.979    0.495
        36  -9.1844     39.7887     70.8946   1.2451809440e+02   5.8360042101e+01    0.2144486    0.1861136  13.81  0.000468195    1.362    0.266
        37  -9.1517    131.9707     66.9284   9.4279090745e+01   4.3392401603e+01    0.2479371    0.1882192 -75.40  0.001132069    1.743    0.426
        38  -7.9637    243.0670     69.7999   7.4942469682e+01   1.5663062179e+01     0.224346     0.170762 -59.22 0.0006631078    1.315    0.239
        39  -8.4261     67.6618     66.3189   1.1334174245e+02   5.5889904373e+01    0.1319759    0.1065629 -89.84 0.0007049442    1.708    0.414
        40  -9.4227    151.7729     68.9547   9.0237223538e+01   3.8284989772e+01    0.3659904    0.2242332  76.26  0.001403614    2.359    0.576
        41  -7.9287    213.1967     63.1679   7.7298702954e+01   2.3739767878e+01    0.2065404    0.2014696   6.39 0.0006203139    1.136    0.120
        42  -8.9767     72.3505     61.7047   1.1023744736e+02   5.6121096317e+01    0.4128946    0.1736274 -60.16  0.001257263    4.695    0.787
        43  -7.5956     49.3169     62.3141   1.1864908712e+02   5.9144886351e+01    0.1337351   0.08827474 -27.75 0.0004757597    1.646    0.393
        44  -9.9611     16.1477     66.1107   1.3200209811e+02   6.1401045259e+01    0.5450789    0.2895152 -75.24  0.002858265    1.950    0.487
        45  -7.7491    108.8695     60.8729   9.8434405464e+01   4.9602293051e+01    0.1886449      0.17288 -76.61 0.0004886813    1.260    0.207
        46 -10.4530    138.3855     68.8675   9.3325958109e+01   4.1536268405e+01    0.4112072    0.3167509 -51.64  0.001982506    1.359    0.264
        47  -7.8958    153.6365     59.6854   8.6876084320e+01   3.9408844505e+01    0.1623768    0.1169104  23.56 0.0004083057    1.762    0.433
        48  -9.8542     90.7166     56.8602   1.0249489581e+02   5.3924154732e+01    0.5320829    0.2672453  44.60  0.002312756    2.113    0.527
        49  -8.4939    248.5766    229.2806   1.0795026777e+02  -8.1074763732e+00    0.2380541    0.2023959 -61.67  0.001606869    2.282    0.562
        50  -9.0597    149.6873     56.0076   8.6530771874e+01   4.0996895287e+01    0.2192139    0.2025312 -34.50 0.0008005608    1.088    0.081
        51  -7.5682      6.3171     56.3011   1.3357242965e+02   6.4101565698e+01    0.1208196   0.06503832 -42.23 0.0003133905    1.619    0.382
        52  -8.7425    142.0582     52.7224   8.7125583187e+01   4.3411770845e+01    0.2131274    0.1954212  50.70 0.0004944314    1.081    0.075
        53  -9.5248    206.8833     50.4540   7.4717176081e+01   2.7205325578e+01    0.5212799    0.3687512  62.89    0.0021555    1.421    0.296
        54  -9.1509     65.3326     52.0358   1.0938466932e+02   5.9069744967e+01    0.1951375    0.1587191 -37.24   0.00115715    1.092    0.084
        55 -10.0638    145.4693     49.1574   8.5161576352e+01   4.3129218625e+01    0.3835781    0.2999904  34.73  0.001324088    1.362    0.266
        56  -9.3996    203.7436     45.1680   7.3679197843e+01   2.8750444838e+01    0.5331109    0.2361609  51.46  0.001832186    2.350    0.575
        57 -10.1755    206.6195     36.8312   7.0956965624e+01   2.9146251254e+01    0.5417172    0.4045322 -28.28  0.001942429    1.392    0.281
        58  -7.8878    245.2000    214.8203   1.0607325911e+02  -5.9658971371e+00    0.1692852    0.1372519 -82.70 0.0009555171    2.916    0.657
        59 -10.1921    194.0076     30.2765   7.0746465569e+01   3.3222602761e+01    0.5504488    0.5040901 -37.74   0.00245618    1.134    0.118
        60  -9.7343    199.6592     28.1119   6.9388673110e+01   3.2032931880e+01    0.4089776    0.3612321 -58.84  0.002314099    1.081    0.075
        61  -9.2921    126.1645     45.6738   8.8420259423e+01   4.8333181332e+01    0.2916209    0.2620139 -52.82 0.0007829845    1.200    0.167
        62  -8.6718    190.9577     43.0536   7.4927297253e+01   3.2330050262e+01     0.364022     0.275083  53.45  0.001829271    1.344    0.256
        63  -8.1745    116.2874     44.3431   9.0457391421e+01   5.0803323655e+01    0.1490466    0.1094977  11.59 0.0007021335    1.646    0.393
        64  -8.2937     80.6627     44.3126   1.0113406698e+02   5.7982712963e+01    0.1297839    0.1093208 -76.68 0.0004384004    1.690    0.408
        65  -9.1340    152.3066     50.8155   8.4259822109e+01   4.1162160493e+01    0.3855345    0.2017176  58.23  0.001564074    1.888    0.470
        66  -8.1850    215.8285     56.3466   7.5077554259e+01   2.4110949897e+01    0.2056317    0.1277009  54.32 0.0006471939    1.677    0.404
        67  -9.3820    134.2073     40.0650   8.4497713792e+01   4.7251285774e+01    0.2670594    0.2259623  76.98  0.001083954    1.308    0.235
        68  -8.6777    150.3779     39.1927   8.0749765647e+01   4.3356268291e+01    0.2259872    0.1469644 -29.45  0.001037201    1.579    0.367
        69  -7.8505    153.3637     37.6090   7.9626657818e+01   4.2814788873e+01    0.2169721    0.1659631 -70.77 0.0005948433    1.540    0.351
        70  -7.8908    155.7666     42.2195   8.0707066706e+01   4.1559386769e+01    0.2179459    0.1939826 -69.43 0.0007026478    1.192    0.161
        71  -8.2810     69.6548     26.6811   9.7693558129e+01   6.2696555677e+01    0.1365612   0.09183875   4.90 0.0004217298    1.725    0.420
        72  -8.6228     43.9547    177.3651   1.4028522679e+02   3.3600979273e+01     0.258864    0.1599201 -80.01  0.001548697    1.392    0.282
        73  -7.8167     96.9527    151.4980   1.2472044554e+02   3.1970892102e+01    0.2058693    0.1330716  44.20  0.001019287    1.550    0.355
        74  -9.1770    185.0936    132.6691   1.0051668984e+02   1.8218702389e+01    0.4362723    0.2506958  33.72    0.0017645    2.085    0.520
        75 -10.4217    195.2104    136.9755   9.9501149503e+01   1.5183738151e+01    0.8616424    0.6737136 -77.78  0.003452067    1.747    0.427
        76  -8.5613    139.2549    128.2145   1.0963659499e+02   2.9185157474e+01    0.3762726    0.2843792  59.58  0.001810034    1.386    0.279
        77  -8.9866     11.9458    127.6665   1.4269607998e+02   4.7807393290e+01    0.3080623    0.2928329 -32.60  0.002360644    1.432    0.301
        78  -7.8296      7.4920    124.0080   1.4345186448e+02   4.8960764374e+01    0.2020161    0.1215401  85.08  0.001222158    1.471    0.320
        79  -8.7567     42.4977    111.0044   1.3210451766e+02   4.8935970155e+01     0.324022    0.1530036 -54.48  0.001097103    1.833    0.454
