#   1 NUMBER                 Running object number                                     
#   2 MAG_AUTO               Kron-like elliptical aperture magnitude                    [mag]
#   3 X_IMAGE                Object position along x                                    [pixel]
#   4 Y_IMAGE                Object position along y                                    [pixel]
#   5 X_WORLD                Barycenter position along world x axis                     [deg]
#   6 Y_WORLD                Barycenter position along world y axis                     [deg]
#   7 A_WORLD                Profile RMS along major axis (world units)                 [deg]
#   8 B_WORLD                Profile RMS along minor axis (world units)                 [deg]
#   9 THETA_WORLD            Position angle (CCW/world-x)                               [deg]
#  10 FWHM_WORLD             FWHM assuming a gaussian core                              [deg]
#  11 ELONGATION             A_IMAGE/B_IMAGE                                           
#  12 ELLIPTICITY            1 - B_IMAGE/A_IMAGE                                       
         1 -12.5741    200.5373     16.6681   3.1887931865e+01   3.3467028626e+01    0.6174441    0.2012738 -46.57  0.002735631    2.723    0.633
         2 -12.3265    199.3564      5.6766   2.9577877416e+01   3.4871305240e+01     0.478891    0.2769853 -44.40  0.002875028    1.646    0.393
         3 -11.2100     37.9132     18.3364   6.9201860834e+01   6.8221819134e+01    0.3227984     0.291553  81.13  0.002084403    2.159    0.537
         4 -11.4068     62.5495     11.0577   5.5664490399e+01   6.4896484326e+01    0.3244755    0.1891757  46.75  0.001381038    1.493    0.330
         5 -11.6333     36.6629     11.0690   6.6260958766e+01   6.9287929731e+01    0.2062486    0.1523494  23.83 0.0002300677    1.150    0.131
         6 -10.7062    145.8024     10.8574   3.6710376078e+01   4.6572561587e+01    0.1715034    0.1316174 -81.08 0.0002759817    1.308    0.235
         7 -12.7790    189.4141      4.7378   3.0228481175e+01   3.7138678349e+01    0.3408547    0.2093229  75.07 0.0006328882    1.400    0.286
         8 -11.4664    127.1310      5.7858   3.8013808342e+01   5.1380818933e+01    0.2606493    0.1873148  71.95 0.0004788394    1.213    0.175
         9  -9.5053     71.4773      1.4181   4.8521229768e+01   6.3990291907e+01    0.1240295   0.09583556  38.13 0.0001008191    1.030    0.029
        10 -10.2259     28.8799      1.4358   6.5048197121e+01   7.1479218035e+01     0.165841   0.09406047  35.32  0.001004997    1.537    0.349
        11 -10.7898     75.9531    232.4489   1.0646852079e+02   1.4498250783e+01    0.2778018    0.1565474  85.59  0.001254484    2.439    0.590
        12 -11.3717     69.8703    249.1432   1.0946319457e+02   1.1832233899e+01    0.3571533    0.2743968  12.43  0.001538771    1.673    0.402
        13 -11.3395    149.8511    222.4612   8.8083039774e+01   5.4806319580e+00     0.540868    0.3759581 -67.92  0.002656064    2.060    0.515
        14 -10.8426     35.9840    223.7527   1.1457252350e+02   2.1393199944e+01     0.216586    0.1618454 -84.21 0.0006286792    1.246    0.198
        15 -12.5196     23.2679    218.5813   1.1695532306e+02   2.3920285128e+01     0.402449     0.261132  66.11  0.001597449    1.362    0.266
        16 -10.1370     98.0131    220.5305   9.9915044257e+01   1.3957905406e+01    0.2142186    0.1276786  33.88 0.0006882817    1.564    0.361
        17 -11.0221    234.8486    215.5651   6.9354676454e+01  -5.7285568502e+00    0.3628519    0.2991416 -58.74  0.002082054    2.010    0.503
        18 -11.9229    239.3347    216.1599   6.8658806586e+01  -6.3881654519e+00    0.4323646    0.1998398 -45.16  0.002068895    2.404    0.584
        19 -11.4569    236.9659    210.0185   6.7967152133e+01  -5.1183062030e+00    0.4437999    0.2301168 -31.72  0.001740569    1.654    0.395
        20 -11.2743    179.4946    217.2465   8.0629599577e+01   1.8410987774e+00    0.2741334    0.2381278 -36.42 0.0005327286    1.249    0.200
        21 -10.0524    111.6200    216.2102   9.6058694327e+01   1.2834557774e+01    0.1983443    0.1283217 -46.30  0.000956633    1.676    0.403
        22  -9.9457    192.0000    207.9832   7.6300208832e+01   1.6284133453e+00      0.22417    0.0738785 -43.91 0.0008064138    2.970    0.663
        23 -10.6544     18.9148    203.1683   1.1677828688e+02   2.7931259038e+01     0.381169    0.1894683  61.72  0.001860477    1.979    0.495
        24 -10.9573      3.4779    203.1935   1.2024204506e+02   2.9309182323e+01    0.2258973    0.1799418  75.17 0.0005636001    1.045    0.043
        25 -10.3076    238.0924    200.2809   6.5967019447e+01  -3.6862532312e+00    0.2263535    0.1618958 -56.30 0.0009253081    2.131    0.531
        26  -9.4352    215.3512    194.6596   6.9082885984e+01   4.9718067651e-01    0.1247641    0.1104547 -80.36  0.000704363    1.801    0.445
        27 -11.0232    161.0431    193.5553   8.0392566274e+01   9.5647174948e+00    0.3649241    0.2724223  43.79  0.001827186    1.429    0.300
        28 -10.0908     86.5239    188.5187   9.8203299588e+01   2.3223416190e+01    0.2618602    0.1436266 -76.03  0.001029885    2.317    0.568
        29  -9.4336    209.7874    188.0098   6.8863647745e+01   2.5615574178e+00    0.1822423    0.1009186 -39.81  0.000431266    1.642    0.391
        30 -10.4518    120.7032    187.7083   8.9155093716e+01   1.7881344833e+01    0.2967277      0.19145 -82.09  0.001169597    2.467    0.595
        31 -10.2420     94.4904    186.4734   9.5775935913e+01   2.2502597044e+01    0.3249653    0.1433081 -77.38  0.000810565    5.802    0.828
        32 -10.1097    140.2321    200.2446   8.6550987314e+01   1.1685843623e+01    0.2245007    0.1243534 -63.05 0.0007280261    2.433    0.589
        33 -10.0031    108.6859    185.3469   9.1847730768e+01   2.0478899814e+01    0.1577018    0.1162993  71.90 0.0007047182    1.718    0.418
        34 -12.4802     44.6840    181.4464   1.0832178216e+02   3.0599742509e+01    0.4710221    0.2730441  85.16  0.002123453    1.969    0.492
        35 -10.7935    147.2879    179.4679   8.0910874151e+01   1.5090666468e+01     0.409337    0.1404104 -54.75  0.001219438    3.613    0.723
        36 -10.6442    191.7788    177.1922   7.0326510061e+01   7.6157407269e+00    0.4085032    0.1835161 -40.82  0.001637443    2.077    0.518
        37 -10.3945    101.0022    175.9776   9.2235409938e+01   2.4068030926e+01    0.2092324    0.2077648 -53.39  0.001149111    1.021    0.021
        38 -11.0390     11.7448    172.9129   1.1602057414e+02   3.5979459783e+01    0.4466504    0.1912539 -76.08  0.001992526    1.992    0.498
        39 -10.2687    159.1329    174.6786   7.7084747769e+01   1.3998656246e+01     0.300729    0.1770076 -59.07  0.001207241    2.124    0.529
        40  -9.8996     76.3399    175.6532   9.8939586221e+01   2.7985067489e+01     0.161108    0.1086901  68.53 0.0007046783    1.787    0.440
        41 -11.5748    120.7368    172.0028   8.6189399576e+01   2.1653213452e+01    0.5654088    0.3116526 -46.45  0.001657034    1.812    0.448
        42  -9.6763    248.4776    180.4865   6.0447736262e+01  -1.8017018013e+00    0.1300822    0.1022449 -24.52 0.0008101129    1.002    0.002
        43 -11.6502     51.6254    169.8073   1.0493996474e+02   3.2786882343e+01    0.3109615    0.2878248 -15.50 0.0005731213    1.264    0.209
        44 -11.8942     52.3647    165.0818   1.0406257164e+02   3.3932124952e+01    0.3394006    0.3346003  84.04 0.0009223103    1.103    0.093
        45 -12.1172     50.7410    159.8098   1.0375656527e+02   3.5511296204e+01     0.489193    0.3612716  60.32  0.001481928    1.457    0.314
        46 -10.3889    138.7537    164.4655   7.9951638782e+01   2.0148122868e+01    0.3771879    0.2254294 -68.67   0.00138547    2.532    0.605
        47 -10.6190     79.3474    163.4149   9.6047847591e+01   3.0709579441e+01     0.454019    0.2517415  84.62  0.001467319    3.571    0.720
        48 -11.7385    121.1519    160.4508   8.3728162161e+01   2.4409153557e+01    0.5202279     0.266566 -59.99  0.001905551    2.247    0.555
        49 -10.9495     93.3742    160.8265   9.1546980165e+01   2.9176877710e+01    0.3444861    0.2338296  63.02  0.001380074    1.851    0.460
        50 -10.0487     17.0041    161.0023   1.1347939150e+02   3.8579486587e+01     0.258249    0.1403582 -61.34 0.0006065442    1.590    0.371
        51  -9.6371     16.2843    157.7131   1.1333077667e+02   3.9483641241e+01    0.1836233    0.1625938  69.15 0.0002667989    1.159    0.137
        52 -10.3127    175.5835    171.1799   7.2571464034e+01   1.1736962350e+01     0.379816    0.1369625 -43.07  0.001298638    2.646    0.622
        53 -10.2112    105.1838    157.9931   8.7630033974e+01   2.7897731942e+01    0.2629665    0.1846115  88.91  0.001073274    2.056    0.514
        54 -10.4473    218.9363    156.1327   6.0626713107e+01   7.0537056274e+00    0.2428352    0.2139185 -29.73  0.001188964    1.036    0.035
        55 -10.5292    170.5333    157.1240   7.0667956963e+01   1.5711465215e+01    0.2813296     0.225367  35.88 0.0008826223    1.299    0.230
        56 -10.7766    236.3248    154.3337   5.7268141827e+01   4.5280385689e+00    0.2932797    0.2039642 -12.16  0.001551098    1.695    0.410
        57 -10.1641    192.1755    165.5415   6.7804654438e+01   9.8980675859e+00     0.292486    0.1033272 -45.90  0.001000821    2.723    0.633
        58 -10.3140    189.4585    148.9519   6.4746547471e+01   1.3803191493e+01    0.3592223    0.1344457 -48.42  0.001215652    2.738    0.635
        59 -11.9028    108.0956    146.0340   8.4256537115e+01   3.0400509205e+01    0.7750514    0.4063658  65.55  0.002048009    5.039    0.802
        60 -10.0000    185.0000    166.0260   6.9419260466e+01   1.1098411676e+01    0.2504543   0.07993623 -44.25 0.0008023891    2.942    0.660
        61 -10.5335     55.4942    145.4904   1.0002799991e+02   3.8714124936e+01     0.343421    0.1944909  81.16  0.001260984    2.860    0.650
        62 -10.4472    148.4672    144.9770   7.3148858285e+01   2.2807944963e+01    0.2251173    0.1403854 -69.76 0.0006731598    2.540    0.606
        63 -10.8181    124.9379    143.3387   7.8916577271e+01   2.7884584933e+01    0.4024701    0.2174621 -67.20  0.001319972    2.958    0.662
        64 -10.6494     87.8076    143.9845   8.9802845115e+01   3.4441671176e+01    0.2628441    0.1835216  87.21  0.001084796    2.026    0.506
        65 -11.0576     21.5631    138.8792   1.0952934000e+02   4.3940926056e+01    0.4545972    0.2303491  20.88  0.002100995    2.298    0.565
        66 -10.4183      1.4142    135.9626   1.1529268802e+02   4.6083948421e+01     0.204029    0.1062537 -74.45 0.0005314346    1.569    0.362
        67 -11.1008     83.5121    132.7166   8.8687943029e+01   3.8045483796e+01    0.3871288    0.2600113  88.39  0.001530383    2.317    0.568
        68 -10.1690    132.0085    131.9910   7.4288763425e+01   2.9188540042e+01     0.287427    0.1767497 -70.82  0.001012327    2.626    0.619
        69 -11.6317     97.9158    126.6217   8.2779492433e+01   3.7116149285e+01    0.5227799    0.3582886 -77.15  0.001253149    2.050    0.512
        70 -10.5983     59.3266    124.4444   9.4758711463e+01   4.3736602762e+01    0.4352582    0.2508064  85.31  0.001475892    3.492    0.714
        71 -11.4640     43.6701    122.3600   9.9640756152e+01   4.6157388368e+01    0.8597166    0.4642205  87.93  0.003033604    3.374    0.704
        72 -10.5255    189.3193    124.0964   5.9060336417e+01   1.8904072256e+01    0.2677481    0.2213489  60.27 0.0008621237    1.363    0.266
        73 -10.6119     28.5050    123.0061   1.0490645440e+02   4.7478307473e+01    0.2033394    0.1124806  84.55  0.000810676    2.624    0.619
        74 -11.1718    157.7339    121.0315   6.5082961883e+01   2.6229608657e+01    0.2901891    0.2289846  81.44  0.001329107    1.654    0.395
        75 -10.3699    248.3219    120.6457   4.8583847317e+01   8.4934328472e+00    0.1344049   0.08915459 -62.57 0.0007046734    1.757    0.431
        76 -10.2598     98.3022    120.3194   8.1098666474e+01   3.8597539712e+01    0.1623603     0.121553 -17.19 0.0002735299    1.626    0.385
        77 -10.0482    141.6654    119.3445   6.8571860691e+01   3.0062716107e+01    0.1644804    0.1275906 -86.82 0.0007049852    1.765    0.433
        78 -10.3303      3.3323    118.6627   1.1266645608e+02   5.0360718615e+01     0.133251    0.0895149  68.20 0.0007052023    1.740    0.425
        79 -10.8235    108.4920    112.9437   7.6070361856e+01   3.8418187578e+01    0.6320633    0.2624887 -58.59  0.001857487    3.573    0.720
        80 -11.2180     92.0789    111.0232   8.0661568096e+01   4.1975433658e+01     0.870407    0.2823482 -55.88  0.002445194    3.831    0.739
        81 -10.7437     78.9574    112.7229   8.5416181477e+01   4.3812712664e+01    0.5043837    0.3142261 -88.78   0.00170365    3.481    0.713
        82 -11.1120    141.5028    112.8504   6.6918381316e+01   3.1528880315e+01    0.3208537    0.2605251   4.75  0.001495729    1.518    0.341
        83 -11.1935     13.7323    110.2073   1.0789634162e+02   5.1869801439e+01    0.3975205    0.2255434 -84.88  0.001874848    1.983    0.496
        84 -11.4472    152.4792    111.0173   6.3750245154e+01   2.9514069817e+01    0.3339127    0.2146482  47.07   0.00144696    1.601    0.376
        85 -10.4769     66.7436    111.1578   8.9198350744e+01   4.6077424567e+01    0.2516294    0.1617796  72.83 0.0009535389    2.810    0.644
        86 -10.3421    139.7959    105.2052   6.5304014400e+01   3.3546541067e+01    0.2686607    0.1782362 -86.04 0.0009590559    2.850    0.649
        87 -12.7379     63.9713    100.8304   8.7570044279e+01   4.8993503824e+01    0.5387082    0.3277521 -58.30 0.0004702601    1.677    0.404
        88 -11.3711     45.4931    102.5869   9.4790316534e+01   5.0949493938e+01    0.6420701    0.3487537  70.69  0.001850982    5.736    0.826
        89 -10.9272      7.2203    103.0014   1.0906781250e+02   5.4057842258e+01    0.4214702    0.2453686  86.52  0.002027503    2.151    0.535
        90 -10.3531    150.3045    103.6602   6.2319554781e+01   3.1531039342e+01    0.1591403    0.1225665 -78.50 0.0003611165    1.677    0.404
        91 -11.4868    128.1665    102.1940   6.7511467612e+01   3.6737080722e+01    0.2556224    0.2275663  82.93  0.001174467    1.297    0.229
        92 -12.5570    109.6375     99.8040   7.2101048131e+01   4.1169360280e+01    0.8593155    0.5065779  67.32  0.002899311    3.263    0.694
        93 -11.1134    123.3965     99.7813   6.8137013501e+01   3.8284251203e+01    0.2316973    0.1456592 -33.07  0.000957021    1.730    0.422
        94 -10.7902     94.4972     96.5246   7.5868706353e+01   4.4877860452e+01    0.2846924    0.1473881 -57.58  0.001040036    2.431    0.589
        95 -10.5110     20.6614     99.9785   1.0355572117e+02   5.3928921048e+01    0.2171644    0.1054186  88.87 0.0007048674    4.342    0.770
        96 -10.7832     34.3938     89.0989   9.5833556628e+01   5.5371377221e+01    0.5596216    0.2070008 -67.65  0.001806997    3.915    0.745
        97  -9.9639    105.7696     93.9769   7.1583903678e+01   4.3221835982e+01    0.3256597    0.2544829  84.66 0.0009807636    1.854    0.461
        98 -10.2385     79.7921     87.8773   7.8270099508e+01   4.9451082131e+01    0.2242053    0.1904028 -15.54 0.0003509128    1.170    0.146
        99 -10.8692     86.0876     86.7001   7.5743825185e+01   4.8584859766e+01    0.3228333     0.241653 -79.90  0.001436794    2.104    0.525
       100 -10.0503    138.8433     86.1692   6.0225700574e+01   3.7606551746e+01    0.2135933    0.1832816  14.82 0.0006751433    1.339    0.253
       101 -10.6456     48.2635     84.6898   8.9151398269e+01   5.4857437577e+01    0.3179761    0.1965081  69.64  0.001143063    3.955    0.747
       102 -10.6151    104.5988     83.3917   6.8758828248e+01   4.5661004361e+01    0.3836879    0.1856196 -55.97  0.001315718    2.990    0.666
       103 -10.5753    203.5213     75.3975   4.5043351731e+01   2.4801590727e+01     0.221912     0.202962 -79.52 8.396686e-05    1.065    0.061
       104 -10.2071    102.9858     75.8001   6.6872530306e+01   4.7481675857e+01    0.2425649    0.1780678  72.34   0.00108714    1.972    0.493
       105 -10.9363     62.9089     74.4629   8.0326272146e+01   5.5058541786e+01     0.393231    0.2059405 -58.98  0.001500396    2.632    0.620
       106 -10.3257    249.6675     74.3297   3.9075888417e+01   1.5785619514e+01    0.1323752   0.07808071 -64.31 0.0007051955    1.721    0.419
       107 -11.2362     82.1657     72.8303   7.2707194886e+01   5.2141015120e+01     0.416727    0.2618741 -66.07  0.001647418    2.838    0.648
       108 -10.2227    104.9858     70.7540   6.4648343813e+01   4.8002712327e+01    0.3956966    0.1781088 -53.98  0.001300019    3.509    0.715
       109 -10.4914     51.1223     69.5998   8.3468722853e+01   5.7758109649e+01    0.3954656    0.1911844 -63.88  0.001336853    4.082    0.755
       110 -11.1935    179.0533     69.9297   4.7539033806e+01   3.1151588144e+01    0.2061904    0.1885329 -76.02 0.0002998342    1.020    0.020
       111 -10.4083     43.4869     67.0439   8.5850195708e+01   5.9265599045e+01    0.2748908    0.1904673 -23.09   0.00146546    1.384    0.278
       112 -11.3920     38.0065     65.0261   8.7577828515e+01   6.0325885766e+01    0.3986664    0.2425019  58.39  0.001624875    3.580    0.721
       113 -11.5151      7.8141     65.3965   1.0130794629e+02   6.2816640555e+01    0.3693162    0.2260481  21.41  0.001559413    1.846    0.458
       114 -12.2905     25.1894     58.1929   9.1212577955e+01   6.3038961530e+01    0.8143041    0.3994287 -62.60  0.003601163    2.653    0.623
       115 -11.3029     20.6537     51.3125   9.1157031302e+01   6.4817822470e+01    0.5690011    0.2306245 -47.26  0.002671125    2.042    0.510
       116 -11.6436     31.0259     51.8859   8.6376037662e+01   6.3699822409e+01    0.3652626    0.2622293  80.47  0.001633615    3.627    0.724
       117 -12.9305      9.5873     48.9288   9.5886277564e+01   6.6140858383e+01    0.4120462    0.3604242 -35.59  0.001347089    1.198    0.165
       118 -10.3195     57.4789     41.4698   7.0664457850e+01   6.1932341438e+01    0.2123202    0.1219317 -46.86 0.0007261749    2.167    0.538
       119 -11.8517     73.3319     33.5661   6.1463849613e+01   6.0267114260e+01    0.4026528    0.3326788 -32.28  0.002447304    1.364    0.267
       120 -12.0334      2.0002     28.8394   9.3136075437e+01   7.0403828755e+01    0.4114581    0.1516868 -49.06   0.00194029    2.206    0.547
       121 -10.3797    179.9054     26.0607   3.6287980132e+01   3.7038148123e+01     0.188171    0.1571589 -89.49 0.0003368481    1.034    0.033
       122 -10.4862     36.9663     25.9354   7.3158576429e+01   6.7327291458e+01    0.2930858    0.1541779  24.54  0.001538209    1.804    0.446
       123 -11.9174    216.6352    244.1971   7.7713038309e+01  -7.8253653824e+00    0.5226457    0.4113978 -76.48   0.00270777    3.466    0.711
       124 -11.1145    209.7325    237.2007   7.7878738951e+01  -5.8786521139e+00    0.3736939    0.2595282 -54.05  0.002066808    2.238    0.553
       125  -9.4635    137.2723     20.7128   4.0925931423e+01   4.7626416275e+01    0.1251789   0.09331147 -73.99 0.0001844597    1.507    0.336
       126 -11.2251     32.8589     19.5347   7.2215962372e+01   6.8773980622e+01    0.2728833    0.1929936  21.57 0.0007902725    1.237    0.191
       127 -10.2040     41.2558    245.4202   1.1511927944e+02   1.6120017026e+01    0.2277509    0.1003866  55.12  0.001111247    2.060    0.515
       128  -9.7059    100.7955     19.3498   4.7869612570e+01   5.6185129358e+01    0.1860439   0.09984788  49.99 0.0003950303    1.562    0.360
       129 -10.5728    150.2865     16.2767   3.7606154908e+01   4.5001217119e+01    0.2184982    0.1661119  -2.06   0.00127525    1.780    0.438
       130 -10.4993    123.3494     16.9027   4.2212017750e+01   5.1273630923e+01    0.2964515    0.1259605  64.39 0.0008630192    2.073    0.518
       131  -9.6032    135.4830     14.4447   3.9326687701e+01   4.8664865455e+01    0.1289846    0.1100272  69.41 8.067035e-05    1.010    0.010
       132 -11.4195     37.0046    240.7228   1.1565004611e+02   1.7585951249e+01    0.4158557    0.2271776  54.12  0.002313298    1.572    0.364
       133 -12.9012     18.3298    242.2360   1.1951149593e+02   1.9281586554e+01    0.4964744    0.3651253  49.43  0.001973145    1.206    0.171
       134 -11.4302     28.8023    242.6636   1.1745508632e+02   1.8088986089e+01    0.2898152    0.1401778  44.38 0.0008303258    1.709    0.415
       135 -10.5129     25.3341    241.6895   1.1808854756e+02   1.8664763659e+01    0.1984253    0.1203976  71.29 0.0008205404    1.460    0.315
       136 -10.6492      1.3831    235.3216   1.2244185534e+02   2.2364755344e+01    0.2580256   0.09435808 -82.93  0.001048492    2.476    0.596
       137 -10.6125     71.2341    234.3849   1.0773086473e+02   1.4716661358e+01    0.2468821    0.1481816  44.23  0.001302741    1.457    0.313
