#   1 NUMBER                 Running object number                                     
#   2 MAG_AUTO               Kron-like elliptical aperture magnitude                    [mag]
#   3 X_IMAGE                Object position along x                                    [pixel]
#   4 Y_IMAGE                Object position along y                                    [pixel]
#   5 X_WORLD                Barycenter position along world x axis                     [deg]
#   6 Y_WORLD                Barycenter position along world y axis                     [deg]
#   7 A_WORLD                Profile RMS along major axis (world units)                 [deg]
#   8 B_WORLD                Profile RMS along minor axis (world units)                 [deg]
#   9 THETA_WORLD            Position angle (CCW/world-x)                               [deg]
#  10 FWHM_WORLD             FWHM assuming a gaussian core                              [deg]
#  11 ELONGATION             A_IMAGE/B_IMAGE                                           
#  12 ELLIPTICITY            1 - B_IMAGE/A_IMAGE                                       
         1 -14.4394     69.0221    144.3794   9.7108679638e+01   3.7446492982e+01     4.633032     2.491531  77.22  0.003505333    4.187    0.761
         2 -13.5426    203.1252     42.5839   3.8878285931e+01   2.9799711977e+01     1.388084     1.179903  40.45  0.006881437    1.513    0.339
         3 -11.7911      2.1924     22.9071   9.2432759916e+01   7.1406162497e+01    0.8398063    0.1254999 -50.37  0.003057936    4.460    0.776
         4 -10.6955      2.0176      4.0162   8.3924363603e+01   7.4351883338e+01    0.4416123    0.1466727 -37.40  0.002247402    2.520    0.603
         5 -13.4305    214.6688     32.1003   3.5233994827e+01   2.8613856631e+01    0.8507072    0.7918849  31.73  0.002675756    1.485    0.326
         6 -12.0506    243.3695      8.9892   2.8203314823e+01   2.5417277547e+01    0.7848632     0.387003 -34.07  0.004525643    2.109    0.526
         7 -12.0578    237.2365      7.2210   2.8265058879e+01   2.6810601941e+01    0.6604258    0.3706897 -34.72   0.00403847    1.870    0.465
         8 -10.4820     55.7133      5.8049   5.7449664074e+01   6.6872739996e+01    0.2352426    0.1555487  54.16  0.001394441    1.677    0.404
         9  -9.5224     99.3525    180.8793   9.5034513707e+01   2.3554974388e+01      0.26533    0.2161573  27.85 0.0006252754    1.280    0.219
        10 -10.2150    102.0000    248.9753   1.0378866521e+02   8.2654972818e+00     0.258695    0.1819157 -64.86  0.001035255    1.648    0.393
        11 -11.4488    101.2772    242.9926   1.0326471681e+02   9.5172618766e+00    0.5598502    0.2642128 -56.58  0.001437117    2.366    0.577
        12 -15.1030     40.4433    190.2511   1.1150491896e+02   2.9331561727e+01     3.925927     2.200222  64.34  0.009188951    1.896    0.473
        13  -9.6192     86.7304    176.6172   9.7676764323e+01   2.6598812344e+01    0.2112407    0.1832024  44.73 0.0003889422    1.146    0.127
        14 -10.0384    186.3746    174.4851   7.2688997675e+01   9.4174819190e+00    0.3714897    0.3547187  84.02  0.001627866    1.306    0.234
        15 -12.2579     79.2583    158.6682   9.6694347475e+01   3.2276397670e+01     1.156024    0.6047685  57.18 0.0005737658    2.571    0.611
        16 -12.7435     67.0576    154.2010   9.9444448216e+01   3.5178548540e+01    0.6200901    0.4332267 -46.52 0.0009402545    1.447    0.309
        17 -10.2906     90.4200    246.8104   1.0601458836e+02   1.0313181096e+01    0.2612202    0.1601199 -69.08  0.001432493    1.877    0.467
        18 -10.3938    111.7388    172.3161   9.0240864799e+01   2.3562062439e+01    0.3552328    0.3083623  -3.81    0.0018188    1.319    0.242
        19 -15.2878      6.9159    158.5583   1.1696163257e+02   4.0273350091e+01     7.322942     1.299428 -74.67   0.02194193    4.664    0.786
        20 -10.6654    240.5230    169.2207   6.1331480309e+01   1.3456445255e+00    0.2639479     0.187712  63.37  0.001183032    2.406    0.584
        21 -11.4288     65.5796    171.9533   1.0267864572e+02   3.0822695257e+01    0.4371878    0.3123506 -32.49  0.001963266    1.757    0.431
        22  -8.5534    102.8574    165.1166   9.1272247030e+01   2.6858243263e+01    0.1991737    0.1754743 -24.88  0.001016651    1.250    0.200
        23 -10.1411     35.5512    161.4708   1.0951945420e+02   3.7057946025e+01    0.3035479    0.2510394  38.88    0.0012121    1.311    0.237
        24 -10.8024     31.7812    154.7584   1.0973559507e+02   3.9150145596e+01     0.438399    0.2943249 -63.20  0.001512215    1.311    0.237
        25 -11.5969     86.5845    152.2701   9.3397019643e+01   3.2783038386e+01    0.6594304    0.4601397 -22.04  0.001868193    1.934    0.483
        26 -10.5282    133.7947    145.1179   7.8700305285e+01   2.6007214667e+01     1.307557    0.2973528 -53.61  0.002740186    6.649    0.850
        27  -8.4877    112.1607    150.3772   8.5724472415e+01   2.8873204999e+01    0.2191849    0.1416503  48.48 0.0003017792    1.653    0.395
        28  -9.2907    174.9040    149.1423   6.9690375598e+01   1.6841804365e+01    0.2340871    0.2127583 -81.71  0.001223852    1.306    0.234
        29  -9.3719     48.0928    145.1085   1.0357725849e+02   3.9925074588e+01    0.4196858     0.198792  31.78  0.001784125    2.221    0.550
        30 -10.3218     54.2249    147.4301   1.0210844841e+02   3.8597444116e+01     0.489517    0.2664164 -73.04   0.00198906    1.896    0.473
        31 -10.8032     58.1552    145.6140   1.0062003139e+02   3.8579279079e+01    0.4391892    0.3089544  68.69  0.002101423    1.691    0.409
        32 -10.3168     81.0146    182.1903   1.0007226856e+02   2.6074455519e+01    0.3675935    0.3105742 -71.32  0.001014021    1.160    0.138
        33 -10.2639    101.0687    138.5487   8.6299997309e+01   3.3813476308e+01    0.5285107    0.3340129 -24.79  0.002061713    2.244    0.554
        34 -11.6415     88.3127    137.7265   8.9918146284e+01   3.6208025450e+01    0.3129919    0.2794724 -34.55 0.0003959354    1.140    0.123
        35 -16.9556     14.2214    242.0231   1.2112285816e+02   2.0501039951e+01     6.480484     2.388826  23.13   0.02751076    4.115    0.757
        36 -10.1005    105.9738    130.9791   8.3115612442e+01   3.4791867759e+01    0.4305564    0.3248339 -53.99  0.001480939    1.309    0.236
        37  -9.5641    110.5081    129.4853   8.1435652258e+01   3.4302242964e+01    0.3618378    0.2652503  15.11  0.001073001    1.690    0.408
        38 -10.5726     43.8575    130.7119   1.0249451505e+02   4.4120365512e+01    0.4437352    0.2323167 -73.07   0.00188869    1.983    0.496
        39 -10.0285    135.0002    128.7264   7.4470843440e+01   2.9585098062e+01    0.3499944    0.3102282 -66.16  0.001722294    1.213    0.176
        40 -10.0986     22.7987    129.2023   1.0897948857e+02   4.6495255325e+01     0.201354    0.1694226 -88.81 0.0006731749    1.172    0.147
        41 -10.2013     97.8820    124.9840   8.4096969660e+01   3.7739583040e+01    0.3432458    0.2787391  -2.95  0.001419937    1.465    0.318
        42 -10.1799     47.0165    124.6822   1.0037136807e+02   4.5318543877e+01    0.2908567    0.1863669 -54.08 0.0008154022    1.378    0.274
        43  -9.3864    116.6466    123.7055   7.8244926885e+01   3.4490834499e+01     0.252156    0.1887204 -12.33   0.00102415    1.739    0.425
        44  -9.7535     29.8406    122.8193   1.0571853315e+02   4.7523768466e+01    0.1870116    0.1549734  69.46 0.0007827083    1.352    0.260
        45  -9.1156    135.0000    120.0193   7.2269989120e+01   3.1566429488e+01    0.2657162   0.08894961 -45.73 0.0007269406    2.930    0.659
        46  -9.0383    107.1585    118.2738   7.9629731175e+01   3.7630599769e+01     0.220175     0.202686  -1.61 0.0003985189    1.138    0.121
        47  -8.7159     82.2588    116.6200   8.6971276230e+01   4.2477884864e+01    0.2005956     0.147298  20.29 0.0005112849    1.528    0.346
        48  -9.9891    231.2826    113.6815   5.1207712718e+01   1.2663218436e+01    0.2606283    0.2486039 -35.44  0.000763418    1.124    0.110
        49  -9.5731     39.9005    113.3714   1.0059812905e+02   4.8950943630e+01    0.2260893    0.1807174 -71.89 0.0004183929    1.236    0.191
        50 -10.2000    248.4925    111.9470   4.8410268966e+01   9.8552484816e+00    0.2086994    0.1090552 -39.53 0.0009445811    1.589    0.371
        51  -9.3580    205.4869    110.2039   5.4559213941e+01   1.8365337206e+01    0.2437034    0.2046385  52.82 0.0006259702    1.306    0.234
        52 -10.3527     33.1836    109.1156   1.0212114312e+02   5.0670730765e+01    0.3714376    0.2075273 -73.42  0.001407411    1.894    0.472
        53 -11.3975     70.4053    167.1904   1.0062224871e+02   3.1375249860e+01    0.5416983     0.317077 -52.79  0.001017735    1.660    0.398
        54 -10.6123     39.5295    102.3320   9.8436189135e+01   5.1722427879e+01    0.3807536    0.2194793  48.64  0.001361305    2.253    0.556
        55  -9.6698    120.8108     98.1239   7.0194511965e+01   3.9398366448e+01    0.2423598    0.2189464 -81.66  0.001086212    1.271    0.213
        56 -10.2395    119.1379    103.6641   7.2225032748e+01   3.8556783633e+01    0.2759356    0.2164938 -56.61 0.0007045933    1.366    0.268
        57  -9.5322     53.1542     90.8694   9.0584456402e+01   5.2888325206e+01    0.2073322    0.1537562 -27.82 0.0005847631    1.335    0.251
        58  -9.7628    149.2931    191.1864   8.4379617945e+01   1.2578930478e+01     0.462348    0.2871378 -76.05  0.001719987    3.148    0.682
        59 -14.7355      9.1775    207.6894   1.2014295969e+02   2.8349599379e+01     1.231315     1.019594 -29.56  0.007564344    1.747    0.428
        60  -8.8923    152.0120     83.9941   5.8307332934e+01   3.5183231156e+01    0.2381432    0.1808316 -76.48 0.0005335706    1.656    0.396
        61  -9.8345     72.8931     83.5481   8.1188474980e+01   5.1668254757e+01    0.3843572    0.2401795  54.92  0.001653584    2.265    0.559
        62  -8.2396    107.5542     77.5238   6.7857214968e+01   4.6388436835e+01    0.1455755     0.144857  33.27 0.0001135544    1.085    0.078
        63  -8.6883     93.8817     68.1101   6.9035506499e+01   5.0956932812e+01    0.2069755    0.1990842  84.04 0.0005523012    1.242    0.195
        64 -11.2428      2.1785     61.5723   1.0437847044e+02   6.3910135574e+01    0.6252537    0.1282197 -63.92  0.002141302    4.123    0.757
        65  -8.6059     51.4608     64.0470   8.3267342461e+01   5.8899143255e+01    0.1907817     0.124409 -44.46 0.0001023418    1.455    0.313
        66 -10.3113     13.4683     60.0179   9.8799540840e+01   6.3587434656e+01    0.2367541    0.1895925 -41.41 0.0004486591    1.065    0.061
        67 -12.8146    193.3766     49.6783   4.1820313625e+01   3.1034027767e+01    0.8799614    0.6664167  36.61  0.001133235    1.738    0.425
        68 -10.9455    192.8005    194.3298   7.5303539935e+01   4.4460549614e+00    0.8770713    0.4459482 -61.19  0.002784973    4.847    0.794
        69  -8.2515     74.3026     56.2915   7.1637162287e+01   5.6762385326e+01    0.1409646    0.1012985   2.28 0.0001978622    1.570    0.363
        70  -8.4454     45.9124     41.4314   7.7418453570e+01   6.3791310819e+01    0.1652738    0.1077229  52.44 0.0008058132    2.496    0.599
        71  -9.6971    187.7053     31.0596   3.7958976732e+01   3.4769098359e+01    0.1800045    0.1590911 -66.92 0.0005396031    1.091    0.083
        72 -10.1141    111.1208    203.6256   9.5728841967e+01   1.6306866972e+01    0.2434564    0.1987787  89.16 0.0004434884    1.417    0.294
        73 -10.7953    115.7657    244.7851   1.0034603497e+02   7.0620059194e+00    0.2433628    0.1892835 -78.92  0.001444561    1.594    0.373
        74 -13.4367     16.2847    216.2982   1.1918966173e+02   2.5758478255e+01    0.8309961    0.4536452  29.19  0.004628962    1.999    0.500
        75 -10.0108    107.5312    203.9285   9.6649480791e+01   1.6813025385e+01    0.2232951    0.1807333 -40.76  0.001193188    1.366    0.268
        76  -8.8084    189.5411     14.9942   3.3853485464e+01   3.6164849542e+01     0.170387     0.118058 -36.64  0.000439801    1.542    0.352
        77 -10.6407    203.7781    200.0047   7.4151785819e+01   1.6382345638e+00    0.2838404    0.1670824  33.06  0.001408533    1.699    0.411
        78  -9.9641    122.5943    199.1808   9.2220796512e+01   1.5421690246e+01    0.3366979     0.246217 -75.56  0.001633938    1.708    0.414
