#   1 NUMBER                 Running object number                                     
#   2 MAG_AUTO               Kron-like elliptical aperture magnitude                    [mag]
#   3 X_IMAGE                Object position along x                                    [pixel]
#   4 Y_IMAGE                Object position along y                                    [pixel]
#   5 X_WORLD                Barycenter position along world x axis                     [deg]
#   6 Y_WORLD                Barycenter position along world y axis                     [deg]
#   7 A_WORLD                Profile RMS along major axis (world units)                 [deg]
#   8 B_WORLD                Profile RMS along minor axis (world units)                 [deg]
#   9 THETA_WORLD            Position angle (CCW/world-x)                               [deg]
#  10 FWHM_WORLD             FWHM assuming a gaussian core                              [deg]
#  11 ELONGATION             A_IMAGE/B_IMAGE                                           
#  12 ELLIPTICITY            1 - B_IMAGE/A_IMAGE                                       
         1 -14.0897    165.1775     47.3820   7.2325045960e+01   3.8030235379e+01     1.376026     1.099246  -8.80  0.003946554    1.322    0.243
         2 -14.3787    181.4409     16.3878   5.9043682194e+01   3.7674227786e+01     1.520099     1.212901  53.83  0.005205954    1.211    0.174
         3 -10.7193     30.5504    246.5246   1.3298580051e+02   2.4720617421e+01   0.09008557    0.0590489  63.46 0.0001158036    1.024    0.024
         4 -19.8930     68.1063    166.0209   1.2126993313e+02   3.3646560151e+01     14.74782     4.733397 -67.86   0.06696928    3.149    0.682
         5 -12.6721    103.7150    236.6595   1.2142867283e+02   1.7538676357e+01    0.2394383    0.1510139  56.35  0.001131058    1.189    0.159
         6 -10.9244    220.0867    197.6936   9.7503933123e+01   4.3293523090e+00    0.1725474    0.1560487 -14.68 0.0006558602    1.358    0.263
         7  -9.5713     23.6189    198.7225   1.3189941582e+02   3.2700864549e+01   0.07860653   0.07391372 -63.28 0.0007004061    1.713    0.416
         8  -9.3535    113.2311    195.7361   1.1588900468e+02   2.2203833367e+01    0.2781373    0.2101206 -11.18  0.001646506    2.682    0.627
         9  -9.8238    111.4423    191.9060   1.1577942464e+02   2.3085920449e+01     0.375859    0.1500495  58.55  0.001145623    3.118    0.679
        10 -10.6027    156.7131    189.9263   1.0722780071e+02   1.6135240887e+01    0.2105244    0.1463085  48.89 0.0003305842    1.207    0.172
        11 -11.8172    174.9981    186.4125   1.0341015881e+02   1.3482774897e+01    0.4640122    0.1721734 -50.90  0.001889393    4.132    0.758
        12 -12.7207    101.3046    245.0843   1.2246237893e+02   1.6740725414e+01    0.2082209    0.1832931 -71.42  0.001252841    1.557    0.358
        13 -10.9044    164.7271    187.2841   1.0539048329e+02   1.5145851403e+01    0.2009777    0.1653886  60.27 0.0006127795    1.249    0.199
        14 -11.4770    168.9496    184.5444   1.0421005300e+02   1.4803104986e+01    0.3204052     0.175046 -28.72   0.00159514    2.732    0.634
        15 -10.6432    153.4422    184.4246   1.0702833849e+02   1.7505189410e+01    0.2322018     0.188779  70.78 0.0009986397    1.356    0.263
        16 -11.8494    102.5329    240.5015   1.2191997703e+02   1.7181789417e+01    0.1877688    0.1146261  55.21 0.0009812381    1.203    0.169
        17 -10.9095     35.6733    250.7590   1.3243786746e+02   2.3620451215e+01    0.1231286   0.05234515  45.87 0.0004544569    1.698    0.411
        18 -10.0031    107.4139    183.8776   1.1559263015e+02   2.5016399421e+01     0.255998     0.139002  42.97 0.0003499319    1.624    0.384
        19 -11.5788    134.3753    239.7681   1.1687442963e+02   1.2897452947e+01    0.1818623    0.1494372 -56.08 0.0009693232    1.661    0.398
        20 -10.1606     31.3627    182.4995   1.2964043266e+02   3.4736154695e+01     0.227973     0.162427  19.73   0.00161764    2.320    0.569
        21  -9.5910     13.0492    239.8358   1.3520235893e+02   2.7345063424e+01    0.1648588   0.07280157  53.18 0.0009680208    1.495    0.331
        22 -12.0590    189.2386    178.2576   9.9547222946e+01   1.2063222167e+01     0.424187    0.2619689  48.81  0.001253427    1.465    0.317
        23 -12.0464    188.6803    174.3660   9.8984308757e+01   1.2694179821e+01    0.6938767    0.4032708 -61.42  0.003077358    3.483    0.713
        24 -11.0986    149.0265    179.5751   1.0713378330e+02   1.9003595362e+01    0.2020977    0.1657835 -89.16   0.00058697    1.476    0.323
        25 -11.4616    138.0157    172.0023   1.0810458353e+02   2.2104518322e+01     0.314298    0.2161941 -84.12  0.001727461    2.048    0.512
        26 -12.5331    141.3476    169.8280   1.0712438306e+02   2.1890938360e+01    0.4961952     0.265481  61.89  0.001532038    2.371    0.578
        27 -10.4691    168.1026    177.3950   1.0323940153e+02   1.5987688230e+01    0.2434029    0.1717211  64.68  0.001306609    1.680    0.405
        28 -10.8465    194.8365    172.6790   9.7590305487e+01   1.1794653603e+01    0.2622771    0.2115389 -58.88  0.001604985    1.725    0.420
        29 -11.3331     26.2211    173.5205   1.3000797255e+02   3.6847196644e+01    0.2105893    0.1583657  75.33 0.0003016551    1.036    0.035
        30  -9.7644    207.7210    171.4698   9.5111214675e+01   9.5850182840e+00     0.241026    0.1806702 -61.93  0.001102487    2.177    0.541
        31  -9.5242    151.1371    236.3700   1.1388531342e+02   1.0875650964e+01    0.1387204    0.0984287  47.51 0.0005884538    1.039    0.038
        32  -9.8881    160.4987    234.0495   1.1214579508e+02   9.7541385258e+00    0.1226856    0.1086669 -50.94 0.0004659909    1.538    0.350
        33  -9.9639     25.5684    165.0374   1.2957264475e+02   3.8472578246e+01    0.1504324    0.1432809  45.78 0.0006635971    1.513    0.339
        34 -11.1643    140.4464    163.3874   1.0628539409e+02   2.3125081988e+01    0.2469575    0.1994756  73.81 0.0005209849    1.335    0.251
        35 -10.0786    110.8193    231.4578   1.1986040121e+02   1.7281482135e+01     0.223481    0.1155313 -67.67  0.001449488    2.496    0.599
        36 -10.7855     28.1667    232.8684   1.3276886681e+02   2.6906975194e+01    0.1271943   0.07927667  70.48 0.0004830671    1.148    0.129
        37  -8.9365    177.7418    156.2872   9.7760736144e+01   1.7371198272e+01    0.1189679     0.101455  80.55 0.0001770726    1.485    0.326
        38 -11.1412    188.4200    154.3024   9.5373584200e+01   1.5601189771e+01    0.5303629    0.2861819  47.35  0.002584945    1.675    0.403
        39 -10.8346    164.4319    152.5419   9.9638193394e+01   2.0518600615e+01    0.2634776    0.2270437  58.56 0.0008651478    1.168    0.144
        40 -12.2180    104.4471    249.2309   1.2229789573e+02   1.5798559734e+01    0.2326238    0.1945825   7.75   0.00189016    2.171    0.539
        41  -9.7088    174.8760    149.1534   9.6950358378e+01   1.9037124879e+01    0.1999861    0.1754837  64.15 0.0005728262    1.246    0.198
        42  -9.9705    152.7806    219.8709   1.1179036879e+02   1.2671200837e+01    0.1572289    0.1226386  39.90 0.0003515828    1.131    0.116
        43 -10.6573      8.7391    138.3400   1.3114872662e+02   4.5041386102e+01    0.3180575     0.162766 -63.41  0.001212814    1.869    0.465
        44 -10.0839    155.6568    216.6877   1.1093157030e+02   1.2633416096e+01    0.1769335    0.1348557  36.82 0.0009457091    1.188    0.159
        45 -11.1742    160.2435    127.7210   9.5505527409e+01   2.5546650266e+01    0.3969684    0.2665693 -52.66    0.0014414    1.697    0.411
        46 -10.5324    217.5916    218.2733   1.0103402481e+02   2.5992951529e+00    0.1727828    0.1058652 -34.50   0.00113456    2.089    0.521
        47 -10.2016    231.2548    113.7657   7.8985093736e+01   1.2532290621e+01    0.2488045    0.2088957  28.74  0.000669469    1.111    0.100
        48  -9.8016    168.1710    113.0669   9.0509663540e+01   2.6429835272e+01    0.2765901    0.1956877  80.42  0.001233099    2.143    0.533
        49 -10.6087      3.9472    112.3476   1.3029710697e+02   5.0635366957e+01    0.2969841    0.1577354  14.92  0.001813444    2.890    0.654
        50 -10.0135    205.3387    110.2801   8.2593997884e+01   1.8660140592e+01    0.3127108    0.1879684  44.67  0.001040603    1.584    0.369
        51 -10.2509     23.9334    216.9496   1.3271654091e+02   2.9730210506e+01    0.1007323   0.06877325  70.39 0.0008607954    1.041    0.039
        52 -10.7461    119.7242    212.5796   1.1657334149e+02   1.8676570236e+01    0.1623836    0.1331639  68.55  0.001147159    1.156    0.135
        53 -10.1421    113.2746    207.3589   1.1714346096e+02   2.0394531810e+01    0.1715643    0.1041647  54.12 0.0007057572    1.333    0.250
        54 -12.7393    106.3866    203.2988   1.1793153029e+02   2.2013419422e+01     0.487695    0.2648032  57.50  0.002173057    1.627    0.385
        55 -10.7234    105.4945    198.4845   1.1758751513e+02   2.2900871386e+01    0.1959854    0.1537008  65.69 0.0008128469    1.087    0.080
        56 -11.2693    102.6637    195.3167   1.1776240363e+02   2.3817866349e+01     0.268663    0.1885399  57.41 0.0009560144    1.159    0.137
        57 -13.4496    153.1391     61.8642   7.9577730184e+01   3.8748127513e+01     1.372178    0.9646024  32.87 0.0009603319    1.558    0.358
        58 -12.1966     11.7456    205.9605   1.3415471462e+02   3.2611050192e+01      0.31438    0.1723634  39.13  0.002414673    1.842    0.457
        59 -12.4588    169.8320     39.0994   6.8662232396e+01   3.8001720796e+01    0.4687091    0.4257278  18.33 0.0008333555    1.098    0.090
        60  -9.8876     13.5046     59.9820   1.2114427733e+02   6.1161947294e+01    0.1598648    0.1322773 -67.83 0.0004187753    1.074    0.069
