#   1 NUMBER                 Running object number                                     
#   2 MAG_AUTO               Kron-like elliptical aperture magnitude                    [mag]
#   3 X_IMAGE                Object position along x                                    [pixel]
#   4 Y_IMAGE                Object position along y                                    [pixel]
#   5 X_WORLD                Barycenter position along world x axis                     [deg]
#   6 Y_WORLD                Barycenter position along world y axis                     [deg]
#   7 A_WORLD                Profile RMS along major axis (world units)                 [deg]
#   8 B_WORLD                Profile RMS along minor axis (world units)                 [deg]
#   9 THETA_WORLD            Position angle (CCW/world-x)                               [deg]
#  10 FWHM_WORLD             FWHM assuming a gaussian core                              [deg]
#  11 ELONGATION             A_IMAGE/B_IMAGE                                           
#  12 ELLIPTICITY            1 - B_IMAGE/A_IMAGE                                       
         1 -12.3268    231.7760     31.4681   2.3556970140e+01   2.2769253843e+01     2.470818    0.9536527 -49.17  0.002865202    2.772    0.639
         2 -11.5025    213.4371     25.3451   2.4152317588e+01   2.8258468501e+01      1.14589    0.7394437   5.97  0.004949498    2.334    0.572
         3 -14.2606    181.0840     78.9001   4.5130554660e+01   2.8604376191e+01     6.701917     3.943163 -63.65   0.02240699    2.603    0.616
         4 -14.8079    225.0024     83.0612   3.8265867612e+01   1.6861528340e+01     8.094975     3.419617 -47.50    0.0282375    2.683    0.627
         5 -11.3326    189.7999     43.9135   3.3082972834e+01   3.2011967945e+01     4.515885    0.7399946 -40.69   0.01073077    5.587    0.821
         6 -11.4449    235.3997     17.9418   1.9632501664e+01   2.3537043146e+01     1.002889    0.6657419  49.25  0.004798784    1.684    0.406
         7 -10.4716    240.2443      6.7134   1.6330756155e+01   2.3622417160e+01    0.2607469     0.220991  -7.41 0.0005588292    1.458    0.314
         8 -13.9168    245.9065     60.8936   2.9418289100e+01   1.5222649571e+01     1.697035     1.284335  73.72  0.002635044    1.434    0.302
         9 -12.8347    219.3495     36.7681   2.6553298670e+01   2.5243929529e+01     2.831072    0.9013691 -47.42  0.008766777    3.601    0.722
        10 -12.7990    184.4162     91.3899   4.7973570365e+01   2.5508351184e+01     1.912519     1.469713 -30.74  0.009016458    1.336    0.251
        11 -11.5365    249.7573     26.2038   2.0238419542e+01   1.9014376983e+01    0.8457686      0.31195 -32.94 0.0006975874    2.417    0.586
        12 -12.7773    249.6790     36.4504   2.2789352720e+01   1.7717971739e+01      1.85051    0.4782092 -30.80  0.002335614    3.465    0.711
        13 -10.5361    134.2493     21.7312   3.6417232970e+01   4.9238589426e+01     0.492989    0.2592489 -25.45  0.001932876    1.956    0.489
        14  -8.7719    165.0374     20.6982   2.9972810773e+01   4.1611788135e+01    0.2601055    0.2105233  -4.22 0.0005408515    1.374    0.272
        15 -11.6504    205.9100     17.6217   2.2925423836e+01   3.1161633567e+01     1.948137    0.5264387 -25.54  0.006061608    3.910    0.744
        16  -9.5158    128.5644     12.5997   3.4227133482e+01   5.1657418747e+01    0.3300425    0.2291583  -7.69 0.0009175446    1.548    0.354
        17  -9.0538    223.3053     18.2128   2.1011428727e+01   2.6566363026e+01    0.3558648    0.2265317 -44.34  0.001744606    1.508    0.337
        18  -9.3494     79.4062     10.3435   4.6510008866e+01   6.2168505787e+01    0.2929276    0.1941665 -17.19 0.0007283941    1.401    0.286
        19 -10.3638    120.0662      8.6152   3.4580936759e+01   5.4061366160e+01    0.5463826    0.2930856 -25.73  0.001841335    1.886    0.470
        20 -11.8116    249.7128      3.0604   1.4630500574e+01   2.1732040512e+01    0.3825316    0.2629533  -0.30  0.001966467    2.139    0.532
        21  -8.2146    235.3355      3.9324   1.6082153910e+01   2.5135986084e+01    0.3294546    0.2094978  52.54  0.001681236    1.716    0.417
        22  -8.8135    182.2690      3.2855   2.1727137783e+01   3.8944007644e+01    0.2898965    0.2598912  24.25  0.001671918    1.229    0.186
        23  -8.4179    171.9883      2.5143   2.2895751671e+01   4.1723092606e+01    0.2576906    0.1853516 -48.12 0.0008998127    1.506    0.336
        24  -8.6119    136.8370      2.4955   2.8690960258e+01   5.0687100410e+01    0.2397633    0.1862831 -17.61 0.0007051614    1.360    0.265
        25  -9.1732     90.7392      9.3723   4.2569453273e+01   6.0187638116e+01    0.2651224    0.1876262 -18.92 0.0005622656    1.336    0.252
        26  -7.7899    169.7881    185.0226   7.2014448151e+01   1.1332454685e+01    0.1613478    0.1112564 -46.91  0.000515901    1.651    0.394
        27  -9.0825    172.3711    250.1860   8.0936713199e+01   1.2896414976e+00    0.2181568     0.125505  50.59 0.0008363549    1.387    0.279
        28  -9.3470    135.6626    249.7522   8.6890390465e+01   7.2539642464e+00    0.2973064    0.1420986  58.60  0.001201022    1.962    0.490
        29  -9.2938    242.4408    182.5827   5.8168252861e+01  -2.2543999718e+00     0.367804    0.2236028   6.28 0.0007030545    2.095    0.523
        30  -8.5305    222.3321    183.3263   6.1835272328e+01   1.3801465999e+00     0.139569   0.09338781  15.45  0.000705123    1.711    0.416
        31  -8.0514    201.5448    181.5318   6.5307297702e+01   5.6691498876e+00    0.1351886    0.1199947  36.49 0.0001820989    1.032    0.031
        32  -9.8599    238.6758    175.9641   5.7519026943e+01  -6.7214807730e-01    0.3138512    0.2474204  68.60  0.000804431    1.873    0.466
        33  -9.7480    224.2097    175.6887   6.0018655891e+01   2.1186339048e+00    0.4448373    0.2267273  25.14  0.001812631    2.674    0.626
        34  -9.1569    213.6510    176.1565   6.2031400647e+01   4.1105432132e+00    0.2517125    0.2162389  45.56 0.0007338627    1.165    0.141
        35  -7.6378    197.3170    177.6293   6.5370206358e+01   7.1206475686e+00    0.1352461    0.1082202  87.54 3.852748e-05    1.789    0.441
        36  -9.4075    228.0077    171.0197   5.8407718621e+01   2.0619689210e+00    0.3312391    0.2475908  63.06  0.001366461    1.753    0.430
        37 -10.1853    230.9823    168.1532   5.7297002985e+01   1.9007484620e+00    0.5242058    0.2520323 -47.13   0.00217677    2.826    0.646
        38  -8.6657    218.5271    172.1157   6.0340658284e+01   3.7590529813e+00    0.2049458    0.1730864  46.73 0.0004374179    1.204    0.169
        39  -8.3069    189.1479    170.4247   6.5561876025e+01   9.9540068379e+00     0.186177    0.1249724  56.10 0.0004616974    1.539    0.350
        40 -10.2534    243.8023    165.8559   5.4589864294e+01  -2.3624985418e-01    0.4802989    0.1803822  46.64  0.001948379    2.566    0.610
        41 -10.8859     64.7083    143.6183   8.7782368932e+01   3.7741995830e+01     1.636879    0.4166704  44.03  0.006170177    3.720    0.731
        42 -13.0044     30.2695    151.1918   9.6233197519e+01   3.9999752209e+01     1.369037    0.9157864  20.91  0.001949189    2.333    0.571
        43 -12.3475     41.2690    146.8551   9.3426182159e+01   3.9801142757e+01    0.8018661    0.6144057 -86.39  0.002746705    1.027    0.026
        44 -10.3518    194.2042    245.4749   7.6744184732e+01  -1.7183222053e+00    0.1938235     0.167683  45.73 -5.464823e-05    1.196    0.164
        45  -9.4673    160.4752    244.4736   8.2222389222e+01   3.9705596029e+00     0.240735    0.1624232  45.68  0.001055595    1.133    0.117
        46  -9.1326    162.0864    240.1040   8.1427698828e+01   4.2893277660e+00     0.205699    0.1445037  50.11 0.0002942362    1.105    0.095
        47  -7.9472    188.6511    243.3244   7.7381411616e+01  -5.4668622577e-01     0.113792   0.07957727  64.05 0.0007049149    1.750    0.428
        48  -8.5393    136.4940    155.6960   7.3628980626e+01   2.3362965764e+01    0.2404617    0.1867673 -87.17 0.0006541781    1.448    0.309
        49  -8.3436    106.5825    156.0045   8.0254089823e+01   2.8751426394e+01    0.1911899    0.1611297  61.12 0.0001641435    1.119    0.106
        50  -9.4104    205.2017    152.0383   5.8677358673e+01   9.7103049331e+00    0.4913808    0.4036954  70.98  0.002593099    1.486    0.327
        51  -8.5473    130.7253    237.0303   8.6368265686e+01   9.8756034665e+00    0.2578687    0.1387946  73.76  0.001291952    2.727    0.633
        52  -9.5712    174.0829    148.6114   6.4174743978e+01   1.7024993277e+01    0.3003216    0.2047827 -21.60  0.001348457    1.987    0.497
        53  -9.7112    223.5026    145.6431   5.3849413752e+01   6.8710686189e+00    0.5819541    0.3533339  68.91  0.001375284    2.750    0.636
        54 -10.3763    217.7641    143.5808   5.4444118185e+01   8.4292152345e+00    0.5843081    0.4317084  60.37  0.001439312    1.556    0.357
        55 -10.4238    215.3066    140.7000   5.4253086116e+01   9.4382637139e+00    0.6340529    0.3368824  63.39   0.00239018    2.798    0.643
        56 -10.0410    164.4764    148.8450   6.6244060613e+01   1.9032553901e+01    0.6231613    0.3618824 -74.81  0.002046033    3.792    0.736
        57  -9.4161    249.8962    143.2102   4.8714324488e+01   1.8281181477e+00    0.3104046    0.2066129 -12.01  0.001472925    1.618    0.382
        58 -10.0026    192.4070    143.4412   5.9304639346e+01   1.3985172240e+01    0.3580368    0.3089936  14.72  0.001114845    1.247    0.198
        59  -9.2116    166.3001    142.8810   6.4589367531e+01   1.9802558539e+01    0.4800666     0.289825 -74.48   0.00137193    3.198    0.687
        60 -10.7149    180.2083    137.7014   6.0507336095e+01   1.7746129281e+01    0.8424501     0.369687 -46.93  0.003136792    2.470    0.595
        61  -9.6734    175.5372    130.5681   5.9850317987e+01   2.0156539202e+01    0.4435313    0.2253351 -55.83  0.001448033    2.623    0.619
        62 -10.1021    174.0549    126.0103   5.9091255865e+01   2.1376717699e+01    0.5162984    0.3157772 -63.72  0.002025841    2.350    0.574
        63  -7.5546    149.4291    152.4151   7.0194145252e+01   2.1456410221e+01    0.1428128    0.1320669  64.33 0.0001128826    1.005    0.005
        64 -10.1538    143.9554    138.4697   6.8550691637e+01   2.5419799628e+01    0.6234249    0.3332089 -72.35  0.001984769    3.989    0.749
        65  -8.7581    163.1227    235.6474   8.0700291014e+01   4.7239040161e+00    0.1749227    0.1714506  44.88 0.0005354595    1.282    0.220
        66 -13.4682    236.8559     70.4597   3.3134537539e+01   1.5964905287e+01     1.596851     1.101724 -70.81  0.006252482    1.832    0.454
        67  -8.2874    150.6662    140.6875   6.7522186873e+01   2.3569285355e+01    0.1465217    0.1188129   7.13 0.0004703736    1.682    0.405
        68  -7.4513    191.5425    233.5584   7.5568969193e+01   1.7370574664e-01    0.1198446   0.09310917  42.72  0.000155088    1.044    0.042
        69  -9.3564    190.5692    131.9989   5.7066099171e+01   1.6481493280e+01    0.4387674    0.2594561 -76.29    0.0012553    5.034    0.801
        70  -9.3825    134.0365    147.2782   7.2569694243e+01   2.5577287642e+01    0.7248363    0.2375343 -57.06  0.002237449    3.998    0.750
        71  -9.7841    160.2538    129.2387   6.2856206985e+01   2.3831552870e+01     0.446743     0.363773 -19.57  0.002212677    1.487    0.328
        72  -9.4479    135.8167    128.0747   6.8165230079e+01   2.9276666273e+01    0.6123567    0.1842346 -48.36  0.001934117    3.342    0.701
        73  -8.7394    223.0417    129.0139   5.0128228348e+01   9.6870746389e+00    0.2217176    0.2051931  13.21 0.0004347205    1.038    0.037
        74  -7.5833     91.3546    127.2726   7.8745497765e+01   3.7565095546e+01    0.1285003    0.1086578 -19.23 0.0005327896    1.641    0.390
        75 -10.0335    130.4582    227.7547   8.5384297322e+01   1.1340538065e+01     0.212082    0.1828298  69.73 0.0005442614    1.145    0.126
        76  -9.0393    201.8189    125.9873   5.3400472052e+01   1.5003946414e+01    0.2203416    0.2002297 -67.15 0.0005234443    1.242    0.195
        77  -8.6150     57.7128    121.0803   8.6051902370e+01   4.3649318020e+01    0.1962889    0.1541357  71.81 0.0005524227    1.292    0.226
        78 -12.7897    235.5038     54.8069   2.9233949687e+01   1.8627985804e+01    0.6711982    0.4078217 -34.55  0.001526818    1.551    0.355
        79  -9.4289    221.6267    117.1385   4.7533056748e+01   1.1991267247e+01    0.3839318    0.2402959 -58.81  0.001428848    2.242    0.554
        80  -9.3483    172.0802    116.0217   5.7077749979e+01   2.3784137009e+01    0.3778266     0.280923 -13.97  0.001448078    1.751    0.429
        81  -8.8496    168.3990    113.6778   5.7292018544e+01   2.5101070348e+01     0.320177    0.2349033 -35.40 0.0008422643    1.422    0.297
        82  -9.3320    200.3658    115.8946   5.1213570801e+01   1.7155793503e+01    0.2712227    0.2105139  61.90 0.0009867552    1.390    0.280
        83 -11.1175    136.9344     99.6128   6.0967157017e+01   3.5075965903e+01    0.7225443    0.5314464  72.93  0.001933279    1.694    0.410
        84 -10.1752    134.7585    110.5415   6.4304701073e+01   3.3235269746e+01     0.727221    0.1919087 -47.84  0.002085715    3.814    0.738
        85 -10.2301    205.2401    109.9738   4.8781052875e+01   1.7060803343e+01    0.5105738    0.3972808  27.62   0.00226342    1.421    0.296
        86  -9.6563    206.7998    102.9036   4.6671607197e+01   1.7936225191e+01    0.3744107    0.2432877 -46.67 0.0007170804    1.607    0.378
        87  -7.6981    108.5135    110.5280   7.0885509306e+01   3.8390481939e+01    0.1439079    0.1344021 -70.83 0.0001590619    1.006    0.006
        88 -10.0888    124.5965    107.5822   6.6086176662e+01   3.5957827076e+01    0.4188807    0.2384195 -53.44  0.001617401    1.766    0.434
        89 -11.4725    120.9533     98.7212   6.4765651333e+01   3.8592862695e+01     1.206373    0.6615307 -65.18  0.004487842    2.666    0.625
        90  -9.4989    150.5435    103.6765   5.8768802335e+01   3.1219554714e+01    0.3797397    0.3295796  66.36  0.001160676    1.203    0.168
        91 -10.2625     76.8964    104.2732   7.7873579440e+01   4.4929049405e+01    0.2278795    0.1896846 -61.75 0.0002396752    1.061    0.058
        92 -10.0054    168.9522    101.5034   5.4006556157e+01   2.7364123485e+01    0.4452847    0.3120613 -33.04 0.0005786951    1.497    0.332
        93 -10.6850    162.8715     99.4170   5.4798004799e+01   2.9218244679e+01     1.282142     0.651701  32.02  0.004263653    3.024    0.669
        94 -11.8703    202.6947     83.3421   4.2208175309e+01   2.2357015260e+01     1.296287    0.9264757  46.01  0.004212292    1.428    0.300
        95  -7.4854    209.3281    163.6687   6.0338877205e+01   6.9288861298e+00    0.1362847     0.112752 -89.40 0.0007051518    1.713    0.416
        96 -10.1434    145.0699     94.6859   5.7652353956e+01   3.4290551574e+01    0.3682767    0.3317422 -64.47 0.0005091525    1.147    0.129
        97  -9.0300    212.4494     94.4573   4.3425503371e+01   1.8029675505e+01    0.2487961    0.2393712  40.03 6.729576e-05    1.053    0.050
        98 -11.0000    194.6647    157.7620   6.1936877807e+01   1.0971806535e+01    0.8152792    0.5304068 -65.66   0.00352527    2.441    0.590
        99  -9.7317    163.1081    162.2564   6.9218042071e+01   1.6753879618e+01    0.2261719    0.2177308 -63.85  0.000253659    1.117    0.105
       100 -11.0720    161.3028     90.6524   5.2737825240e+01   3.1306179125e+01    0.3846491    0.3573348 -53.24   0.00177765    1.086    0.079
       101 -10.6045    139.9938     90.0847   5.7608223722e+01   3.6363886967e+01    0.4624795    0.2807726 -39.91 0.0007937049    1.638    0.390
       102  -9.6142    133.6606     90.2116   5.9219683004e+01   3.7731382690e+01    0.4727512    0.1225281  47.14  0.001335006    3.938    0.746
       103  -8.6389    239.5150    228.5143   6.6763024412e+01  -7.2221136737e+00    0.1163443     0.091252  28.27 0.0005403912    1.073    0.068
       104 -10.4006    127.7481     86.8984   5.9792095705e+01   3.9677827564e+01    0.5156195    0.2265843  48.17  0.001820885    2.361    0.576
       105 -11.0764    149.5545     82.3806   5.3083753189e+01   3.5699821797e+01    0.6949117    0.4213775  19.07  0.002408762    3.058    0.673
       106 -11.1535    158.9125     83.0113   5.1095443297e+01   3.3348756248e+01    0.6312202    0.4140733  46.48  0.002761793    1.534    0.348
       107  -9.2328      5.3995     82.1927   9.4076934073e+01   5.6846393940e+01    0.1690224   0.08522707 -79.45 0.0004619059    1.741    0.426
       108 -10.1504    140.3937     78.6243   5.4186075044e+01   3.8549758505e+01     0.378852    0.2899151  30.66  0.001553749    1.466    0.318
       109  -8.3501    127.1900     76.4334   5.6874381021e+01   4.1905267867e+01    0.2084216     0.146066  61.21  0.000915203    1.658    0.397
       110  -8.1059    131.5107     73.5683   5.4886536056e+01   4.1523734356e+01    0.1487509    0.1460031 -24.99 6.035731e-05    1.010    0.010
       111  -9.2157    151.0827     71.2920   4.9395681522e+01   3.7429243721e+01    0.2787365    0.2422577 -44.73 0.0003261795    1.155    0.135
       112 -10.2708    152.1977     61.5890   4.6101166718e+01   3.8891205603e+01    0.5027648    0.2937177  38.98  0.002052337    1.888    0.470
       113  -9.6877    154.0891     65.7174   4.6973410970e+01   3.7704887706e+01    0.4209303    0.2397057 -39.78 0.0009233466    1.741    0.426
       114  -8.7042    125.1026     69.3291   5.5235729247e+01   4.3734997313e+01    0.2473033     0.199039 -24.77 0.0004362527    1.290    0.225
       115  -9.7636    144.5690     67.2142   4.9668773918e+01   3.9728227280e+01    0.3353236    0.2487107 -89.88  0.001130999    1.905    0.475
       116  -9.0410    125.7859     61.6232   5.2587302072e+01   4.5028742003e+01     0.279384    0.2026013 -35.61 0.0005959877    1.344    0.256
       117 -10.2692    143.7742     59.3325   4.7338339801e+01   4.1319020646e+01    0.5064332    0.2873163  63.14   0.00195639    2.107    0.525
       118  -7.5560     98.6590    226.2737   9.0706086896e+01   1.6580000479e+01    0.1206682   0.06804533  65.91 0.0004293679    1.613    0.380
       119  -7.8433     72.5998     58.4580   6.7262295815e+01   5.5362732092e+01    0.1326918    0.1147691 -40.82 0.0001194157    1.041    0.040
       120  -9.4768    217.4355     53.8063   3.1540059933e+01   2.3328306178e+01    0.2750309    0.2549238 -37.90 0.0004285901    1.072    0.067
       121  -9.5185    154.8342     69.8021   4.8071440887e+01   3.6792021566e+01    0.2792305    0.2525869 -63.63 0.0004067391    1.181    0.153
       122  -8.9388    178.9930     50.7311   3.7101402356e+01   3.3842006867e+01    0.3740257    0.2496432  88.84  0.001546678    2.028    0.507
       123  -8.9204    113.0526     50.0454   5.2113001774e+01   4.9797748766e+01    0.2111267    0.1950113 -20.71 0.0003114163    1.030    0.029
       124  -8.8132    103.1813     49.5752   5.4764918393e+01   5.1855060838e+01    0.2786133    0.1757818 -37.54  0.001329194    1.497    0.332
       125  -9.6317    199.0506     42.0262   3.1005984946e+01   2.9835201365e+01    0.3835889    0.2076107 -33.11  0.000940228    1.826    0.452
       126  -8.5527     10.3544     44.3281   8.5227557549e+01   6.4408662481e+01    0.1216104   0.06076014 -39.09 0.0007046154    1.775    0.437
       127  -8.1601    168.9277    159.5242   6.7481833531e+01   1.6066351975e+01    0.2174898    0.1327462  47.00 0.0006251009    1.517    0.341
       128  -9.7038    162.9566     38.6303   3.6321196333e+01   3.9811695253e+01    0.4023323      0.25233 -35.72 0.0008468973    1.612    0.380
       129  -8.7214     81.9687    220.2713   9.2993591576e+01   2.0036993302e+01     0.177601    0.1429572 -85.72  0.000237788    1.277    0.217
       130  -8.5601    110.3547     39.3135   4.9004058586e+01   5.2134462996e+01    0.2307671    0.1627821  10.58 0.0009049217    1.719    0.418
       131  -8.0962     78.7052    219.3727   9.3470424325e+01   2.0652461552e+01    0.2189842    0.1149724  75.72 0.0008746615    1.979    0.495
       132  -8.2024    171.0101     35.0302   3.3613161341e+01   3.8219006907e+01    0.2622159    0.2125625 -26.73  0.001325272    1.281    0.219
       133  -9.7700    171.2095     28.9478   3.1604803578e+01   3.8974656492e+01    0.3065242    0.2150719 -26.78 0.0005039123    1.488    0.328
       134  -8.2778    112.3286     35.2991   4.6960937625e+01   5.2343235853e+01    0.1471077    0.1041246  15.36 0.0003782455    1.639    0.390
       135 -10.0118    162.8839     31.8370   3.4082242419e+01   4.0768665143e+01    0.3206036    0.2336448 -28.69 0.0005120896    1.415    0.293
       136 -10.5424    132.5166     30.8675   4.0180585864e+01   4.8456709792e+01    0.5662386     0.260275 -27.89  0.001642273    2.228    0.551
       137  -8.9594    224.5920    218.6425   6.7664776239e+01  -3.6428653970e+00    0.2606981    0.1816794  57.18  0.001262079    1.803    0.445
       138  -8.3809    158.9866     21.9898   3.1494706399e+01   4.3027914275e+01    0.2430139    0.2085049 -25.39  0.000361839    1.219    0.180
       139  -9.5630    179.0728     23.8987   2.8657947442e+01   3.7532310046e+01     0.526101    0.3596493  67.76  0.002494887    1.415    0.293
       140  -8.7197    188.5550     22.8745   2.6868123256e+01   3.5138580437e+01    0.2481263    0.1490544 -20.84 0.0008739099    1.855    0.461
       141  -9.1314    144.3143     21.8007   3.4289203811e+01   4.6770834891e+01    0.3081634    0.1100959 -34.17   0.00110857    2.743    0.635
       142  -8.2996     92.3100     22.1025   4.7527305350e+01   5.8267787067e+01    0.1895444    0.1521157 -21.64 0.0005788573    1.167    0.143
       143  -9.6687     37.3359    214.1993   9.9975940682e+01   2.6813769094e+01    0.2522055    0.1574291  44.14  0.001787868    1.684    0.406
       144  -8.5727    153.6958    214.8848   7.9640483388e+01   9.4098241105e+00    0.1941486      0.14407  42.78 0.0004093191    1.193    0.162
       145  -8.6521    159.0562     26.1457   3.2895066489e+01   4.2497300424e+01    0.2576053    0.2179328 -16.27  0.001319124    1.247    0.198
       146  -8.2604     78.6676     19.0757   5.0585224075e+01   6.1147415615e+01    0.1848518    0.1431247 -18.26 0.0003947281    1.149    0.130
       147  -9.3659    188.4958    209.9543   7.2602337933e+01   3.8890217369e+00    0.3564465    0.2316519  71.22   0.00141439    2.457    0.593
       148  -7.9915    152.6884    157.1920   7.0427782382e+01   1.9849378423e+01    0.2180522    0.1715276 -75.73  0.001130073    1.468    0.319
       149  -8.0867    210.8514    208.8112   6.8426866339e+01  -2.3328317746e-03    0.1657759    0.1397503  56.86 0.0005393974    1.369    0.270
       150  -8.0622    206.3437    205.7048   6.8707985131e+01   1.2307405578e+00     0.121164   0.09555314  67.53 0.0007031677    1.665    0.399
       151  -9.0588     14.2175    202.5375   1.0302101535e+02   3.1372122337e+01    0.1681793    0.1200591 -83.85 0.0006401872    1.297    0.229
       152  -9.4636    191.6973    192.5562   6.9138113377e+01   5.8768633419e+00    0.8632759    0.4395709 -65.23  0.002306879    8.488    0.882
       153  -7.8459    250.4750    198.4191   5.9794501396e+01  -5.6415083663e+00    0.1244308   0.09944311  19.18 0.0001650007    1.013    0.013
       154  -7.7448     62.3583    195.3443   9.4180719045e+01   2.7289311148e+01    0.1021877    0.0892239 -44.19 0.0007034246    1.834    0.455
       155  -8.5342    216.6643    189.3208   6.3976235429e+01   1.6015447015e+00    0.1237456    0.1039628  78.11  0.000704996    1.706    0.414
       156  -8.8622     17.7201    187.0244   1.0150164558e+02   3.3950673504e+01    0.1613164    0.1182629  67.84 0.0005199436    1.182    0.154
