#   1 NUMBER                 Running object number                                     
#   2 MAG_AUTO               Kron-like elliptical aperture magnitude                    [mag]
#   3 X_IMAGE                Object position along x                                    [pixel]
#   4 Y_IMAGE                Object position along y                                    [pixel]
#   5 X_WORLD                Barycenter position along world x axis                     [deg]
#   6 Y_WORLD                Barycenter position along world y axis                     [deg]
#   7 A_WORLD                Profile RMS along major axis (world units)                 [deg]
#   8 B_WORLD                Profile RMS along minor axis (world units)                 [deg]
#   9 THETA_WORLD            Position angle (CCW/world-x)                               [deg]
#  10 FWHM_WORLD             FWHM assuming a gaussian core                              [deg]
#  11 ELONGATION             A_IMAGE/B_IMAGE                                           
#  12 ELLIPTICITY            1 - B_IMAGE/A_IMAGE                                       
         1 -13.0750    196.3460     47.0183   7.9524909114e+00   2.9219382383e+01      1.04366    0.9960967  35.09  0.004158759    1.227    0.185
         2 -13.2429    223.2462     18.7034   3.5827101338e+02   2.6542196100e+01     1.162562    0.8980111 -16.99  0.005701386    1.492    0.330
         3 -11.0705    119.1987     10.0270   6.5826667836e+00   5.3567578628e+01    0.6934285    0.4270522  49.00  0.003090918    1.600    0.375
         4 -10.9221      7.0308      9.5002   5.8106895052e+01   7.7254610483e+01    0.3200612     0.221775  -4.99  0.001914672    1.418    0.295
         5  -8.9594    144.4812      6.4974   1.6590488902e+00   4.7062151877e+01    0.1413128    0.1264664 -89.73 0.0001177485    1.013    0.013
         6  -9.1810    172.0117      3.1730   3.5787791964e+02   4.0149060790e+01    0.2480173    0.1222536 -66.24  0.001089522    2.066    0.516
         7  -9.0793     67.7002    243.0649   7.4315238105e+01   1.6585144933e+01    0.1611931    0.1208798  49.06 0.0005062267    1.110    0.099
         8 -10.8518    247.4004    248.3438   4.1112789695e+01  -5.8285754774e+00    0.3114775    0.2075954   7.07  0.002344773    1.047    0.045
         9 -10.1659    133.7006    249.4474   6.1323444585e+01   7.3523571586e+00    0.2335671    0.2100035  -2.66  0.001574342    1.302    0.232
        10 -18.6722     18.4584    227.0632   8.3915480871e+01   2.4727133253e+01     4.458769     4.039461  68.22   0.03274201    1.275    0.216
        11 -15.0648     68.5740    142.4834   6.3543619250e+01   3.7683794467e+01     5.557671     2.809626  69.51   0.01921505    3.282    0.695
        12 -10.2619     67.7447    249.6440   7.4750448312e+01   1.5491501840e+01     0.226486    0.1987407 -25.40  0.001714247    1.614    0.380
        13  -9.4295     85.2258    187.7826   6.5118529344e+01   2.4803787796e+01     0.350084    0.2233092  27.88  0.001799313    1.493    0.330
        14  -9.2225    126.5401    191.1269   5.5461363511e+01   1.7860014198e+01    0.1802361    0.1352876 -49.44 0.0005205219    1.539    0.350
        15  -8.2523    184.1674    200.1865   4.4609851238e+01   7.4834548402e+00    0.1565531    0.1325149  31.46 0.0003560353    1.298    0.230
        16  -9.7881    181.6323    182.0731   4.2011416602e+01   1.0601402437e+01    0.4306845    0.1952966 -36.59  0.001994763    2.290    0.563
        17 -10.0539    180.8656    175.7487   4.1018083281e+01   1.1725704390e+01    0.3676859    0.2217171 -45.72  0.001527247    1.933    0.483
        18  -9.6955    221.7991    176.5172   3.3712079157e+01   5.3505120755e+00    0.3893249    0.1417652 -42.10  0.001658917    3.240    0.691
        19  -9.8285     77.4765    174.5658   6.5501551524e+01   2.8789149923e+01    0.3038317    0.2259832 -59.24  0.001024491    1.483    0.326
        20 -10.9447    242.6099    170.7602   2.9383906698e+01   3.2225195211e+00    0.2673925    0.1583924 -14.15  0.001597797    1.555    0.357
        21  -9.9644    229.6841    172.0399   3.1610364499e+01   4.8303604852e+00    0.1785951    0.1324007 -15.57   0.00117259    1.128    0.113
        22  -8.9847    188.0392    171.0754   3.8742743743e+01   1.1303035026e+01    0.1842097    0.1679974 -86.13 0.0008781166    1.695    0.410
        23  -9.6862    144.4717    182.4784   4.9957515499e+01   1.6560756529e+01    0.2683124    0.2233906  89.26  0.001281823    1.761    0.432
        24  -9.0966    145.0610    169.1801   4.7493780855e+01   1.8923074938e+01    0.2169299    0.1807828   3.91 0.0006540917    1.238    0.192
        25 -10.4777    230.4991    167.0088   3.0546504811e+01   5.3809200941e+00    0.2838868    0.2106089 -56.72  0.001270583    2.389    0.581
        26 -10.0869     90.1855    202.3162   6.5598412118e+01   2.1143110943e+01    0.5413892    0.2682644 -53.49  0.002626324    2.357    0.576
        27  -8.5399    215.2233    241.7777   4.5313799775e+01  -1.7503004839e+00    0.1850962    0.0944751   3.31   0.00105654    2.176    0.541
        28  -9.8259    122.9613    155.6718   5.0365828137e+01   2.5552316723e+01    0.2585647    0.2168755 -65.25 0.0003486387    1.370    0.270
        29 -10.1867    192.7971    195.0172   4.2110432947e+01   6.9716274596e+00    0.6223361    0.3730857 -60.28  0.002560714    4.584    0.782
        30 -10.4937     86.9252    154.7665   6.0023177322e+01   3.1913500659e+01    0.3071363    0.2739809  34.39 0.0003849671    1.096    0.088
        31 -10.6249     99.2839    152.2314   5.6093165063e+01   3.0469127686e+01    0.4423226    0.2834381 -77.27  0.001723736    2.093    0.522
        32 -11.9532     93.1098    149.0656   5.7287247570e+01   3.2241646788e+01     0.695501    0.6168614 -32.52  0.001923513    1.281    0.219
        33  -9.4676    112.2304    155.0407   5.3058973576e+01   2.7598893890e+01    0.2167602    0.1972477  -4.10 0.0003850427    1.207    0.171
        34 -11.7259    111.3765    150.6460   5.2472409114e+01   2.8720372816e+01     0.813278    0.4629864  62.16  0.002690128    2.629    0.620
        35 -11.2984    133.8512    145.4638   4.5575172942e+01   2.5678972631e+01     1.382758    0.3563764 -53.41  0.003423475    6.014    0.834
        36 -10.4905     74.9449    248.0930   7.3162543599e+01   1.4899197473e+01    0.3244177    0.2402475 -50.44  0.002268396    1.843    0.457
        37 -10.8909     98.4509    194.9464   6.2713394414e+01   2.1414948702e+01    0.7037882    0.2574617 -63.94  0.002696246    3.610    0.723
        38  -9.6443    137.7651    143.9628   4.4288373727e+01   2.5240287545e+01    0.3615606    0.1989119 -57.40  0.001236244    2.307    0.567
        39  -9.5001    114.2385    145.0583   5.0615092815e+01   2.9445078883e+01    0.2303131    0.1977021  67.45 0.0005543448    1.278    0.218
        40 -11.3085    115.1820    140.4842   4.9433179557e+01   3.0290242798e+01    0.5959668    0.3832497 -88.96  0.002239474    2.911    0.656
        41  -9.7201    124.8562    141.1555   4.6981158953e+01   2.8310059640e+01     0.222079    0.2003169  62.57 0.0003475499    1.183    0.155
        42 -10.8211    121.0219    136.1348   4.6931415545e+01   3.0143453545e+01    0.4818116    0.3251321 -34.81  0.001255763    1.700    0.412
        43 -11.7202    105.9987    135.8316   5.1043617214e+01   3.3059211299e+01    0.7676731    0.5360584  -3.60  0.002537647    2.253    0.556
        44  -8.7889     92.9626    125.5188   5.2757375676e+01   3.7886360396e+01    0.3419147    0.2240408  62.45 0.0006207911    1.863    0.463
        45 -10.1457     98.9990    132.1715   5.2328111140e+01   3.5200205468e+01    0.4472825    0.2836766  63.82  0.001577997    2.055    0.513
        46  -9.2541     95.6821    129.3012   5.2725228832e+01   3.6485126842e+01    0.2798077    0.2168601  60.12 0.0008051247    1.371    0.271
        47 -11.4452     93.5424    135.7000   5.4673088039e+01   3.5333652490e+01    0.4037817    0.3846894 -69.84  0.002226417    1.089    0.082
        48  -8.9528    246.0000    131.9433   2.1429663254e+01   7.7712874493e+00    0.1997115   0.05748659 -32.89 0.0005501604    2.887    0.654
        49 -10.6256    135.1746    129.2333   4.1686541003e+01   2.8818567633e+01     0.577053    0.3099394 -44.29  0.002126958    1.920    0.479
        50  -9.4823    135.2414    120.1644   3.9516448896e+01   3.0713505681e+01    0.5025072    0.1668644 -44.65  0.001597222    3.079    0.675
        51 -10.2529    113.5126    128.2388   4.7263970876e+01   3.3371997963e+01    0.3651593    0.2772818  31.03 0.0007513268    1.343    0.255
        52 -10.1067    100.9439    123.9941   4.9980630876e+01   3.6775942379e+01    0.3255539    0.2704211  -8.36 0.0006687502    1.492    0.330
        53 -10.6043    119.7042    122.4875   4.4204657051e+01   3.3432598162e+01     0.528542    0.3472592   6.85  0.001989225    2.651    0.623
        54  -7.8692    170.7298    121.6541   3.1724963703e+01   2.2966130494e+01    0.1475182    0.1110553  -2.14 0.0003822431    1.617    0.382
        55 -10.8500    102.3810    196.1844   6.1917188852e+01   2.0590972210e+01    0.2680956    0.2174981 -71.58 0.0009969149    1.475    0.322
        56  -9.0506     71.8520    240.9659   7.3291981630e+01   1.6447095028e+01    0.3551973    0.1950321 -83.06   0.00204338    2.467    0.595
        57 -10.0897     82.9527    118.6291   5.4469433300e+01   4.1347811254e+01    0.4998026    0.3065647  61.61  0.001016935    2.057    0.514
        58  -8.7927    186.0000    227.0381   4.8376584027e+01   3.5534104917e+00    0.3467245   0.06612577 -41.51  0.001211035    6.015    0.834
        59 -10.2973     20.0765    117.6311   7.6614012553e+01   4.9696742407e+01    0.3963506    0.1581325 -70.97  0.001629328    2.210    0.548
        60  -8.9075    109.1094    118.0120   4.6158099856e+01   3.6585825853e+01    0.2296262    0.2205365  45.71 0.0004547761    1.012    0.012
        61  -9.6024    100.9013    114.6667   4.7823253407e+01   3.8990883427e+01    0.5481583    0.4481397  70.07   0.00169736    1.375    0.273
        62  -8.2787     98.4672    109.5175   4.7315447971e+01   4.0687044753e+01    0.2674163    0.1557465 -54.27 0.0007137775    1.778    0.437
        63 -10.9827    117.2545    110.3584   4.1895015897e+01   3.6647643132e+01     0.516752     0.377198  58.73  0.002344361    1.501    0.334
        64  -9.9423     18.6063    110.9730   7.6434321800e+01   5.1559546710e+01    0.3677473    0.1700131  73.38  0.001458055    2.576    0.612
        65  -8.3776     88.1194    111.5276   5.1148447975e+01   4.2174440967e+01    0.2297816    0.1485614  40.74 0.0009971786    1.507    0.336
        66 -10.8526    119.4398    103.8767   3.9567654276e+01   3.7612436537e+01    0.3976097    0.3220617 -38.30  0.001336491    1.285    0.222
        67  -8.5558     14.5192    100.8307   7.6876389748e+01   5.4527791789e+01    0.2237989    0.1518346  25.08  0.001182654    1.581    0.368
        68  -8.5594    185.0000    222.9979   4.7978088119e+01   4.2106478820e+00     0.303123    0.1017895 -38.85  0.001389595    3.316    0.698
        69  -8.7014    114.0117    250.5118   6.5370293135e+01   9.7070637356e+00    0.1782261    0.0870553  32.28  0.000385344    1.514    0.339
        70  -8.4829     72.3756     91.9037   5.1752008904e+01   4.9838172244e+01    0.2115727    0.1879711 -53.99 0.0004675385    1.119    0.106
        71  -9.4818    167.4635    224.5268   5.1555907213e+01   6.3654448940e+00    0.2162813    0.1681291  19.72  0.000784869    1.020    0.020
        72  -9.3608     18.9025     87.4993   7.3227859449e+01   5.7720323516e+01    0.3424504    0.1985252  36.53   0.00165985    1.787    0.441
        73  -8.1415    157.0397     84.9923   2.5013659944e+01   3.2714331981e+01    0.1806055    0.1763216 -50.95 0.0004192442    1.006    0.006
        74  -9.7335    184.0084    214.5363   4.6903462893e+01   5.4808443774e+00    0.3168918    0.1483444 -42.21  0.001644915    2.507    0.601
        75  -8.9912     86.6140    204.7058   6.6719008530e+01   2.1169845670e+01    0.2505274    0.1899472  37.68 0.0006543212    1.094    0.086
        76  -8.0287    124.3531     77.4995   3.0461560082e+01   4.2003675439e+01    0.1534675    0.1486756 -47.97 0.0007915391    1.047    0.045
        77  -9.3793      3.6231     77.0252   7.8804613082e+01   6.1375761289e+01    0.2419041    0.2022632  10.91   0.00068097    1.360    0.265
        78 -10.0719    163.8990     62.6696   1.7146249267e+01   3.4817534323e+01    0.2930485     0.225875 -56.44 0.0003481885    1.319    0.242
        79 -12.4675    180.2227     59.4919   1.3558193102e+01   3.1305102433e+01     1.381066    0.9603499  27.97  0.005839896    1.962    0.490
        80  -9.5083     94.9585    248.5524   6.9074528295e+01   1.2393549305e+01    0.2864489    0.1730182  20.94  0.001459049    1.630    0.386
        81 -12.1465    201.6748     41.4459   5.8671024259e+00   2.8703946807e+01     0.600971    0.4773226 -15.22  0.002157866    1.440    0.305
        82  -8.8127    141.8071     42.1837   1.4605028724e+01   4.3592151582e+01    0.2067747    0.1714968  39.44  0.000451173    1.325    0.245
        83  -8.8272     90.0904    246.8073   6.9931709066e+01   1.3270203760e+01    0.2253526    0.1390915  26.10  0.001028146    1.411    0.291
        84  -8.1856     92.4264     14.4865   1.4272728764e+01   6.0217736012e+01    0.1423608    0.1333699  60.25 0.0001242936    1.029    0.028
        85  -8.8207    151.2885    247.4400   5.7652015846e+01   5.3761205150e+00    0.1635987    0.1036054 -44.45 0.0007149783    2.046    0.511
        86  -8.0765    108.7613     13.6001   1.0056517594e+01   5.6017895641e+01    0.1949881    0.1317647  81.82 0.0003060336    1.528    0.346
        87 -10.2521    138.8131    248.2068   6.0177872629e+01   6.8695389097e+00    0.2970774    0.2028802 -17.47  0.001926935    1.863    0.463
        88 -10.1801    109.6042    242.1082   6.5457189676e+01   1.1538363032e+01     0.298462    0.2043899  -7.45  0.001775402    2.097    0.523
        89  -8.1666    189.6950     15.6742   1.6846444196e-02   3.4524809789e+01    0.1283785    0.1001984  36.62 0.0005380477    1.646    0.392
