#   1 NUMBER                 Running object number                                     
#   2 MAG_AUTO               Kron-like elliptical aperture magnitude                    [mag]
#   3 X_IMAGE                Object position along x                                    [pixel]
#   4 Y_IMAGE                Object position along y                                    [pixel]
#   5 X_WORLD                Barycenter position along world x axis                     [deg]
#   6 Y_WORLD                Barycenter position along world y axis                     [deg]
#   7 A_WORLD                Profile RMS along major axis (world units)                 [deg]
#   8 B_WORLD                Profile RMS along minor axis (world units)                 [deg]
#   9 THETA_WORLD            Position angle (CCW/world-x)                               [deg]
#  10 FWHM_WORLD             FWHM assuming a gaussian core                              [deg]
#  11 ELONGATION             A_IMAGE/B_IMAGE                                           
#  12 ELLIPTICITY            1 - B_IMAGE/A_IMAGE                                       
         1 -10.6975      4.6019     34.9009   1.0966136290e+02   7.0831771099e+01    0.9109693    0.3522396 -62.18  0.003132235    1.937    0.484
         2  -4.5167     51.9661     26.0606   7.9137153762e+01   6.7319629960e+01     1.910745    0.5587255 -43.85  0.006571723    3.187    0.686
         3 -10.1951     32.5177      6.4574   7.7710786124e+01   7.3826705169e+01    0.3353251    0.3180234  81.66 0.0005734322    1.482    0.325
         4  -8.4908     34.1916      1.6840   7.3257978108e+01   7.4285521680e+01    0.2150422    0.1448867  37.88 0.0005367905    1.556    0.357
         5  -9.3276     34.0168     12.5384   8.0844234310e+01   7.2587852626e+01    0.4265341    0.1928597  34.55  0.001938581    2.479    0.597
         6 -10.2384     40.1860     15.0401   7.8889227864e+01   7.1209907038e+01    0.6307158    0.3778834 -32.63  0.002314555    1.533    0.348
         7 -10.4426     46.5691     17.4975   7.7013668620e+01   6.9744600931e+01    0.3503525    0.2897676  22.94   0.00203308    1.258    0.205
         8  -9.5547    224.5787     28.0358   4.3315483637e+01   2.5929522815e+01    0.5388902    0.1971754 -31.79  0.002257545    2.146    0.534
         9  -9.7851    188.4729     21.5735   4.4818696771e+01   3.5173152095e+01    0.4815541    0.2624462 -38.31  0.001810184    1.617    0.382
        10  -9.0440    234.9181     26.0885   4.1979541168e+01   2.3892905707e+01    0.5438435    0.2080479 -17.95  0.002089058    3.006    0.667
        11  -9.4089    126.9013     14.1201   5.0412352861e+01   5.1956003254e+01    0.7377964    0.3998361 -30.88   0.00324062    1.767    0.434
        12  -8.7423    140.1693     18.8145   5.0096864252e+01   4.7959614767e+01    0.3891627    0.2018042 -45.28  0.001111574    1.957    0.489
        13 -10.3948    134.5846      9.9940   4.7446014160e+01   5.0367597691e+01    0.8712745    0.4936164  26.74  0.003614089    2.314    0.568
        14 -10.3551    142.1807     13.2673   4.7620951274e+01   4.8033177312e+01    0.5221252    0.3852237  83.83  0.001127327    1.411    0.291
        15  -9.7043    137.0050     15.2953   4.9210113512e+01   4.9180869609e+01    0.4703008     0.297906  32.47  0.001785491    1.877    0.467
        16 -12.2031    100.1782     11.6936   5.4736721359e+01   5.9045276196e+01     1.104409    0.4911558 -48.34  0.004102491    2.833    0.647
        17 -10.3748     88.7394     16.4428   6.0120654372e+01   6.1239419957e+01    0.6163579    0.4941563  67.34  0.001311848    1.367    0.268
        18  -9.9968     92.2131     12.3548   5.7057812839e+01   6.0914877932e+01     1.324279    0.4665722 -14.69   0.00118585    4.528    0.779
        19  -9.9829    211.3712     19.3211   4.2021356055e+01   2.9890067358e+01    0.6121013    0.3615959 -19.74  0.003017745    1.686    0.407
        20  -9.7974    153.5988     16.6168   4.7281719795e+01   4.4673376808e+01    0.8505388    0.4480268  53.27  0.003670065    1.925    0.481
        21 -10.4262     16.2257     18.4222   9.5713349343e+01   7.3644103775e+01    0.5557424    0.2582446 -54.65  0.001277144    1.847    0.459
        22 -10.4831     23.4690     17.1974   9.0206142701e+01   7.3121336948e+01    0.5714116    0.3115835  42.04  0.002353111    2.299    0.565
        23  -9.2558    197.1595     18.8679   4.3138237754e+01   3.3329028990e+01    0.4186338    0.2284502 -53.86  0.001927628    1.797    0.444
        24  -9.5752    193.4534     12.8358   4.1652684330e+01   3.4864949570e+01    0.5041677    0.4404533  41.34  0.002215047    1.323    0.244
        25 -10.6754    183.3109     10.6210   4.1880662685e+01   3.7614294031e+01    0.8528648    0.3570826 -42.04  0.002598076    2.110    0.526
        26 -11.5599    186.1759      3.4414   3.9367735405e+01   3.7574087075e+01    0.4425638    0.3505651  66.64  0.002143361    1.323    0.244
        27  -9.0637    240.3338      7.9519   3.7020492157e+01   2.4606518183e+01    0.2022031    0.1963157 -33.71 0.0004051114    1.220    0.180
        28 -10.4573    244.1797      4.5264   3.5969459846e+01   2.4130340044e+01    0.4399587    0.2093824 -47.59  0.002185293    1.698    0.411
        29  -8.5854    248.3216      1.9572   3.5143892080e+01   2.3519442423e+01    0.1860276    0.1661233  87.36 0.0003556057    1.297    0.229
        30  -9.8896    235.4845     16.6789   3.9521571436e+01   2.4767020009e+01    0.7476127    0.3581362  42.57  0.003266852    3.128    0.680
        31  -9.4310    237.5061     12.3105   3.8280681172e+01   2.4777243372e+01    0.3801623    0.2566164 -86.28  0.001399017    1.605    0.377
        32  -9.7215    233.1496      6.0930   3.6953667734e+01   2.6318278077e+01    0.3619528    0.3280212  89.60  0.001853997    1.234    0.190
        33  -9.8622    234.8183      1.5163   3.5698367993e+01   2.6387441296e+01    0.2047107    0.1502981 -73.72 0.0004368391    1.336    0.252
        34 -11.5919     65.2141      5.5011   6.1516670584e+01   6.7873582426e+01     1.069602     0.356406  52.19  0.004115615    2.817    0.645
        35  -7.9595     77.7359      2.0557   5.5377568114e+01   6.5452008935e+01    0.2120349    0.1846758  72.26 0.0004378586    1.276    0.217
        36  -9.6707     63.6192     17.2718   6.9169763103e+01   6.6619869799e+01    0.4300429    0.3333456  -0.53   0.00146057    1.375    0.273
        37  -8.6323     66.9166     11.8274   6.4728176699e+01   6.6715198698e+01    0.2688505    0.2155309 -16.75 0.0004823547    1.183    0.155
        38  -8.9913    247.6266     17.1558   3.8869761251e+01   2.2181518984e+01    0.3392741    0.1531717 -37.91  0.001707593    1.674    0.403
        39  -9.4513    171.4849     17.3379   4.5304056626e+01   3.9939341404e+01    0.6687996    0.1997157  55.15  0.002268227    3.263    0.694
        40  -9.1151    113.7519     14.9972   5.3301108580e+01   5.5257645475e+01     0.567061    0.3149148 -32.93  0.002518828    1.737    0.424
        41  -9.3382    109.7344     15.4721   5.4372540187e+01   5.6224037615e+01    0.3000776    0.2401756 -17.11 0.0002769052    1.261    0.207
        42 -10.2050    209.5698     11.5221   3.9958133279e+01   3.1116234267e+01    0.2963668    0.2580824 -45.41 0.0001003652    1.022    0.022
        43 -10.8931    205.0368      9.7437   3.9791265791e+01   3.2365248821e+01    0.5415857    0.3090922 -20.89 0.0008193899    1.717    0.418
        44  -8.7685     14.8543      3.1671   8.7600681836e+01   7.6748276749e+01    0.2526454    0.1713405  21.39  0.001048544    1.614    0.380
        45 -10.0475     25.1407      9.0353   8.4169242197e+01   7.4444324809e+01    0.6292487    0.3567656 -51.64  0.003226828    1.902    0.474
        46 -10.5279      6.7076      8.1539   9.7333777386e+01   7.6591557472e+01    0.9255779    0.3716097 -51.76  0.004505291    1.960    0.490
        47  -8.9274      1.5664      2.6339   9.8486112443e+01   7.8093999691e+01    0.3036423     0.142891 -52.23  0.001179444    1.688    0.408
        48  -9.3411     17.3898      8.5833   8.9310210329e+01   7.5471351211e+01    0.3995145    0.2432826 -30.04  0.001978185    1.552    0.356
        49  -9.2104     13.1717      9.0825   9.2778608438e+01   7.5821583642e+01    0.3284687    0.1752923 -46.15  0.001057938    1.541    0.351
        50  -8.4971    229.3050     12.1196   3.8746338920e+01   2.6568448623e+01    0.2708358    0.1693811  83.36  0.001295352    1.750    0.429
        51  -8.7338    171.7128     11.7293   4.3392568527e+01   4.0461875154e+01    0.2283573    0.2087613  46.30 0.0009304329    1.198    0.165
        52  -8.9242     81.2789     11.7274   5.9824283323e+01   6.3561452136e+01    0.3923713    0.2187423  35.13  0.001200693    2.004    0.501
        53  -7.7831     85.6827     11.4064   5.8351950614e+01   6.2578005105e+01    0.2355449     0.147995 -44.21   0.00111199    1.733    0.423
        54  -8.5795     84.5983      6.6605   5.6074140630e+01   6.3368999437e+01    0.5170411    0.2439194 -47.21  0.002049527    2.667    0.625
        55  -8.5856     73.6643     11.5209   6.2152095316e+01   6.5300447584e+01    0.2472502    0.2127501 -63.74 0.0008407256    1.419    0.295
        56  -8.8058     60.9352     11.6452   6.6949059488e+01   6.7973701214e+01    0.3520574    0.2417389  82.85  0.001621648    2.571    0.611
        57  -8.7594    150.0785     10.5804   4.5508912436e+01   4.6223872755e+01    0.3514893    0.1738361 -44.14  0.000529092    1.981    0.495
        58  -9.1350    146.0556      5.4281   4.4064539813e+01   4.7774544777e+01    0.4208607    0.2428322  56.93  0.001011743    1.698    0.411
        59  -8.8886    150.8982      1.7467   4.2104400213e+01   4.6822715017e+01    0.2822197    0.2341583  26.00  0.001551323    1.346    0.257
        60  -8.3468     48.2249      9.5811   7.1293207558e+01   7.0709283646e+01    0.2374327    0.1730586 -32.51  0.001337391    1.281    0.219
        61  -9.4068    250.3109      7.8077   3.6452046857e+01   2.2562990511e+01    0.2297975    0.1427216 -30.08 0.0005835717    1.329    0.247
        62  -8.5402    128.7439      9.2218   4.8036096051e+01   5.1979613702e+01    0.1974464    0.1602878  30.08 0.0004845731    1.320    0.243
        63  -8.2197    227.3381      2.7470   3.6415448955e+01   2.7904502140e+01     0.230623    0.1439903 -38.71 0.0007382916    1.309    0.236
        64  -9.1521    225.0714      7.7622   3.7868158549e+01   2.7933108588e+01     0.291913     0.173381 -42.02 0.0006825848    1.383    0.277
        65  -8.8862    223.3419      2.8268   3.6663087733e+01   2.8786988604e+01     0.327012     0.200571  -1.60  0.001645276    2.111    0.526
        66  -8.6981    122.6469      4.4644   4.6968192892e+01   5.4026801918e+01    0.5521398    0.3231972 -88.43  0.001805462    2.045    0.511
        67  -9.7999    112.9571      4.3456   4.8561130517e+01   5.6554026766e+01    0.3895891    0.3235261  13.50 0.0007110047    1.269    0.212
        68  -9.1763    108.0918      5.9896   5.0253837978e+01   5.7646808710e+01    0.2432424    0.2217055 -56.65 0.0003373483    1.159    0.137
        69  -8.6529    195.8214      5.3947   3.9212391475e+01   3.5007619134e+01     0.317564    0.1913654 -68.34 0.0008852419    1.689    0.408
        70  -8.8720    168.6936      5.1861   4.1484520598e+01   4.1868322119e+01    0.2413741    0.2333305  36.72 0.0007750024    1.139    0.122
        71  -8.4572     39.9757      5.5581   7.2804346319e+01   7.2754981117e+01    0.3576855    0.1885775 -55.88   0.00135393    3.939    0.746
        72  -8.5945    218.2420      3.4435   3.7130449178e+01   2.9883846847e+01    0.2808124    0.1584727 -40.52 0.0007826989    1.463    0.317
        73  -8.1158    130.5730      3.0920   4.5184014624e+01   5.2068630651e+01    0.2508781    0.1835885  -9.11  0.001278398    1.460    0.315
        74  -8.3436    210.4962      2.4803   3.7346528016e+01   3.1763816132e+01    0.2210501    0.1904387 -50.33 0.0005359083    1.008    0.008
        75  -8.8833    203.4962      2.3320   3.7762278269e+01   3.3433838558e+01    0.3251363    0.1766787  78.46 0.0009775206    1.898    0.473
        76  -7.8873    158.1504      1.3812   4.1203336185e+01   4.4949935783e+01    0.1936305    0.1250818 -84.16 0.0003475042    1.615    0.381
        77  -9.3334     87.2669     82.9727   8.7513421959e+01   4.8931294442e+01    0.4180245    0.2857428 -73.13  0.001202257    1.815    0.449
        78  -8.2941    249.5025    250.0558   8.5946223049e+01  -4.8322921042e+00    0.1291064   0.07702172 -15.09 0.0009900655    1.543    0.352
        79  -8.3629    110.4725    249.7861   1.0857268151e+02   1.1987250272e+01    0.2162051    0.1369213  63.79  0.001399728    1.874    0.466
        80  -7.9045     49.6792     84.0610   1.0108340019e+02   5.4575441580e+01    0.1991184    0.1622439 -61.36 0.0002906683    1.093    0.085
        81  -8.8982     11.9402     82.4255   1.1549555838e+02   5.8647838602e+01    0.3982485     0.160849 -50.43  0.001407223    2.368    0.578
        82 -10.4074    195.8275     82.0401   6.1682024634e+01   2.5145988513e+01    0.3150009    0.2614667  61.29            0    1.355    0.262
        83 -10.4960    188.7468     82.2297   6.2889222974e+01   2.6697222866e+01    0.2909417    0.2524312  50.90 0.0002970851    1.252    0.201
        84  -7.6927    135.5916     82.7935   7.3796733824e+01   3.8832073113e+01    0.2179658    0.1392617 -49.63 0.0005202359    1.580    0.367
        85  -8.4093    169.1924     81.7915   6.6261407110e+01   3.1243349028e+01    0.2071676    0.1771022   4.39 0.0006116251    1.317    0.241
        86  -8.6693    126.1582     81.5834   7.5774286614e+01   4.1203580551e+01    0.3869451    0.2468217  23.03   0.00102622    2.425    0.588
        87  -7.4788     37.6914     82.3463   1.0530210108e+02   5.6421107623e+01     0.144014   0.09799674  74.95 0.0007044227    1.702    0.413
        88  -7.2960     33.3153     82.6871   1.0708695483e+02   5.6792381739e+01    0.1400759   0.09610056  72.10  0.000345401    1.640    0.390
        89  -8.2511     80.9458     79.3583   8.8538533044e+01   5.0918510014e+01    0.3205178    0.1754503  52.17   0.00106447    2.141    0.533
        90  -8.6802     75.8488     78.5739   9.0058775804e+01   5.1994203610e+01    0.2755722    0.2205646 -28.35 0.0006462557    1.432    0.302
        91  -7.9598     49.7765     79.6771   9.9982198001e+01   5.5657230267e+01    0.1876607     0.126522  41.93  0.000936511    1.621    0.383
        92  -8.1151    156.1755     77.9433   6.7708456613e+01   3.4963314774e+01    0.3026152    0.1950322  27.31  0.001241212    2.134    0.531
        93  -9.5139     31.3588     77.2089   1.0674009773e+02   5.8374974065e+01     0.449151    0.2416659  10.36  0.001322785    2.716    0.632
        94  -8.7536    199.7174     75.8515   5.9385812560e+01   2.5230016159e+01    0.3203371    0.2107887 -34.76  0.001214688    1.351    0.260
        95  -8.0252    195.7299     77.3631   6.0413423040e+01   2.5891748785e+01     0.197804    0.1661189 -38.54 0.0006519365    1.095    0.086
        96  -7.9547    107.4827     77.4933   7.9592309607e+01   4.6132176767e+01    0.1543669     0.145033 -61.41 0.0008099739    1.046    0.044
        97  -9.2298    249.6348     74.0799   5.2590810769e+01   1.5196412843e+01    0.4067328    0.1916668 -26.25  0.001934948    1.792    0.442
        98  -8.8215    232.2048     75.0420   5.4799119870e+01   1.8449029666e+01    0.3587548     0.167321 -19.74  0.001490007    2.327    0.570
        99  -8.9393      8.6853     62.6670   1.1374487315e+02   6.3837677581e+01    0.3030265    0.1601044  67.29  0.001413184    2.369    0.578
       100  -9.7500     18.6814     73.7260   1.1132903031e+02   6.0369711879e+01     0.511156    0.3669314 -80.37  0.002921469    1.230    0.187
       101  -8.0876     20.5254     68.8994   1.0959780305e+02   6.1441748573e+01    0.1941645    0.1126631 -69.28 0.0002937605    1.443    0.307
       102  -9.4549     16.0838     65.6026   1.1091220140e+02   6.2610835124e+01    0.6379509    0.3475025  -9.97  0.001744649    2.773    0.639
       103 -10.1626     25.6037     60.5503   1.0539401440e+02   6.3086597769e+01    0.5401024     0.404238  70.08  0.002550021    1.564    0.361
       104  -9.2889     28.6500     54.1274   1.0219345005e+02   6.4362981783e+01     0.455321    0.2032066 -41.66  0.001042859    2.337    0.572
       105  -8.9777     10.5755     75.5232   1.1504029177e+02   6.0486220329e+01    0.3855689    0.2112409 -28.51  0.001867758    2.420    0.587
       106  -8.2134     87.4671     75.1126   8.5041580749e+01   5.0689898468e+01    0.2291371    0.1411541 -49.42 0.0005192647    1.521    0.343
       107  -8.9084    148.4180     72.6875   6.7721641782e+01   3.7746207747e+01    0.3179611    0.2564501 -19.42 0.0007521512    1.330    0.248
       108  -9.4544    242.8994     71.9891   5.2814527041e+01   1.6743143058e+01    0.3232101    0.2210933  24.51   0.00112782    1.895    0.472
       109  -8.3707    189.0686     73.3624   6.0344149123e+01   2.8024196934e+01    0.1940544    0.1842556  65.58 0.0004502179    1.156    0.135
       110  -8.9620     57.2875     66.3941   9.3285970244e+01   5.7851379586e+01    0.2984987    0.2459248 -66.39 0.0008084965    1.176    0.150
       111  -9.2622     59.4265     71.3593   9.3959294382e+01   5.6349330990e+01    0.4210242     0.271504 -49.48  0.001466394    1.412    0.292
       112  -8.8083     56.3034     71.6533   9.5266678769e+01   5.6736315900e+01    0.2816539     0.205625 -68.87 0.0007224222    1.360    0.265
       113  -9.9914    128.5840     71.0394   7.1790600170e+01   4.2737090627e+01    0.2854629    0.2737828  45.63 0.0003218616    1.092    0.085
       114  -8.2966    123.9178     70.5094   7.2797520861e+01   4.3919874651e+01    0.2378963    0.2073534 -66.36 0.0004297745    1.220    0.180
       115  -9.2153    134.3964     68.9919   6.9699863269e+01   4.1760051801e+01    0.6086966    0.2299743  53.67  0.002052798    2.777    0.640
       116  -9.8620    113.3381     70.3110   7.5567593083e+01   4.6355627823e+01    0.4912953    0.4015286 -61.66   0.00242924    1.299    0.230
       117  -9.7113     28.9073     71.5310   1.0652980156e+02   6.0043143356e+01    0.2598289    0.1847951 -63.62 0.0002975303    1.188    0.158
       118  -8.3576    160.3309     70.5291   6.4595934899e+01   3.5271446084e+01    0.2554479    0.2108787 -74.42 0.0005640183    1.395    0.283
       119  -8.6794    211.1374     69.6394   5.6068773805e+01   2.3614711237e+01    0.3074891    0.2291763 -85.06  0.001586285    1.737    0.424
       120  -9.9065     94.4689     67.8576   8.0361910281e+01   5.0903027967e+01    0.6058656    0.3683618 -32.35  0.002553157    1.853    0.460
       121 -10.3697    100.5971     63.2955   7.6846783377e+01   5.0571736271e+01    0.8170643    0.5280417 -39.97  0.002908086    1.481    0.325
       122  -9.0626    106.0119     64.0019   7.5479368265e+01   4.9250883999e+01    0.3183906    0.2108368 -42.54   0.00105825    1.434    0.303
       123  -9.2271     72.5711     75.2385   9.0217746314e+01   5.3336449696e+01    0.4289688     0.133062 -51.90  0.001394588    2.928    0.658
       124  -8.2447    204.0538     68.6677   5.6775992247e+01   2.5322691605e+01    0.1854477    0.1795757  63.59 0.0003937462    1.156    0.135
       125  -8.2813    192.1821     69.5020   5.8754317011e+01   2.7899329906e+01    0.2544368    0.1363619  51.77  0.001096315    2.004    0.501
       126  -8.6821     42.5538     67.9821   9.9836200426e+01   5.9452543007e+01    0.4212397    0.2884756 -41.75  0.002171589    1.470    0.320
       127 -10.5917     48.9572     65.5080   9.6429471276e+01   5.9238639524e+01    0.3116233    0.3021955  24.11 -0.0003032348    1.167    0.143
       128  -8.3027     39.0235     66.4675   1.0093043455e+02   6.0241057330e+01    0.1877987    0.1400885  27.35 0.0005095666    1.550    0.355
       129  -7.9826    221.7961     67.6751   5.4176072304e+01   2.1591350974e+01    0.1707937    0.1301877  81.09 0.0004381606    1.629    0.386
       130  -8.2109    169.2390     67.5731   6.2007579992e+01   3.3621525384e+01    0.3675497    0.1558486  64.25  0.001272946    2.924    0.658
       131  -7.9684    173.6131     66.2205   6.0819837901e+01   3.2787600687e+01    0.2434545    0.1712923   0.73   0.00099281    1.906    0.475
       132  -8.8422    148.7639     66.5547   6.5683277033e+01   3.8751232015e+01    0.3043114    0.2058853  39.45 0.0009897192    1.669    0.401
       133  -8.4131      3.4605     66.7769   1.1679465065e+02   6.3099389331e+01      0.22975    0.1550028  80.15 0.0008363432    1.457    0.313
       134  -9.8832    233.3314     63.9155   5.1858115129e+01   1.9688331592e+01    0.4298722    0.2785022  13.70  0.001401865    2.218    0.549
       135  -8.2632    208.3600     64.8953   5.5148730260e+01   2.4898867035e+01    0.2116423     0.201976  61.36  0.000354625    1.180    0.153
       136  -8.2480    212.1382     63.7551   5.4343569555e+01   2.4219598189e+01     0.277109    0.1856193 -73.23  0.001321663    1.987    0.497
       137  -9.1860    144.1181     64.2366   6.5914716370e+01   4.0284606721e+01    0.3097356    0.2666156 -64.05 0.0006261152    1.231    0.188
       138 -10.4838    121.8687     64.0415   7.1123941547e+01   4.5640607577e+01    0.2748433    0.2612512 -86.78  0.001466459    1.104    0.094
       139  -8.4688    126.9785     64.5052   6.9988269912e+01   4.4353045455e+01    0.3401007    0.2315392  82.78  0.001235139    2.140    0.533
       140  -8.5991     89.6956     65.1900   8.0984938530e+01   5.2439197257e+01     0.281303    0.2002707  12.41  0.001217964    2.089    0.521
       141  -8.4982     68.2994     64.4786   8.8350462714e+01   5.6552348739e+01    0.4180797    0.2386506  25.52  0.001731107    2.392    0.582
       142  -8.3690    201.8951     64.0779   5.5799305646e+01   2.6471709812e+01     0.210588    0.1974479 -18.42 0.0005062264    1.083    0.076
       143 -10.0876    242.2923     60.2908   4.9997959129e+01   1.8344022886e+01    0.5569568    0.2017009 -29.79  0.001891784    2.205    0.546
       144  -8.1592    161.3623     62.4454   6.1852070030e+01   3.6370746102e+01    0.2493314    0.1383388 -32.64 0.0007068304    1.705    0.414
       145  -8.7936     82.0249     61.5858   8.2313265924e+01   5.4718481825e+01    0.4992218    0.3008366  17.78  0.001846137    3.029    0.670
       146  -8.8110     40.5745     61.9763   9.8983480501e+01   6.1154833978e+01     0.224372     0.186772  64.54 0.0005369093    1.386    0.279
       147  -7.8428      1.3457     62.1018   1.1705602725e+02   6.4371966147e+01    0.1874945   0.09863605 -88.44 0.0009301891    1.774    0.436
       148  -7.3779    117.2828     61.7079   7.1507653977e+01   4.7150783793e+01    0.1519402    0.1187737 -70.83 0.0002495714    1.534    0.348
       149  -8.7464    188.6618     59.9158   5.6502356898e+01   3.0153568844e+01    0.3460342    0.1959168  64.09  0.001521496    1.959    0.490
       150  -8.4456    133.9775     58.3372   6.6166987800e+01   4.3788178415e+01    0.4805931    0.1497093 -43.33  0.001454795    3.178    0.685
       151  -8.6905    249.1624     58.3308   4.8841407857e+01   1.7239766536e+01    0.2267648    0.1631805 -32.82 0.0007311999    1.118    0.106
       152  -7.7894    149.7601     59.3443   6.3100137519e+01   3.9737745648e+01    0.1922115    0.1413644  49.90 0.0002580921    1.425    0.298
       153  -8.1359      2.6430     53.7380   1.1503750718e+02   6.6383516260e+01    0.1811804   0.08452377 -30.51 0.0002561648    2.615    0.618
       154  -8.6206      5.8523     58.2599   1.1428537920e+02   6.5098108261e+01    0.3000801    0.1964788 -41.46  0.001080871    1.544    0.352
       155 -10.1798      9.4408     52.8911   1.1143816724e+02   6.6215698407e+01    0.3723414    0.2984201  73.76  0.002312622    1.370    0.270
       156  -8.1912    175.6214     58.1521   5.8003071564e+01   3.3556022875e+01    0.2131807    0.1385843 -18.53 0.0008207344    1.685    0.406
       157  -8.2889    159.4921     57.5565   6.0620925697e+01   3.7619660209e+01    0.2591278    0.2268031  43.42  0.001001713    1.224    0.183
       158  -9.5244    155.9687     56.2812   6.0861446347e+01   3.8698147953e+01    0.3585341    0.3031511  81.72 0.0005925007    1.300    0.231
       159  -9.3542     88.7523     57.4969   7.8500290987e+01   5.4245455702e+01    0.2937017    0.2409142 -60.48 0.0008540171    1.288    0.223
       160  -9.3737     62.8866     55.2128   8.7200536780e+01   5.9543154212e+01    0.4676155    0.3278681  81.94  0.001688239    2.313    0.568
       161  -9.3564    235.2079     56.8758   4.9865530724e+01   2.0202949210e+01    0.3039192    0.2129884 -73.24 0.0009813238    1.769    0.435
       162  -8.9045    192.5754     56.7415   5.4998016468e+01   2.9685161433e+01    0.3874294    0.2461486 -69.66 0.0004366519    2.071    0.517
       163  -8.9404    188.1507     51.8533   5.4169783899e+01   3.1434005986e+01      0.28152    0.2293231 -69.17 0.0005542721    1.321    0.243
       164 -10.1165    193.0924     49.3062   5.2728402100e+01   3.0599337016e+01    0.5792395    0.3441038 -55.48   0.00259319    1.836    0.455
       165  -8.5276    197.4863     48.5324   5.1926042038e+01   2.9657708945e+01    0.2635348    0.1944934 -55.64 0.0005524008    1.364    0.267
       166  -8.3205    207.3488     55.4982   5.2672473175e+01   2.6425770995e+01    0.2368546    0.2078275  15.19 0.0008875765    1.301    0.231
       167  -9.3931    205.6229     51.0111   5.1621701689e+01   2.7424103681e+01    0.4425243    0.3021193  12.07  0.002078651    2.021    0.505
       168  -8.9943    141.5874     55.1063   6.3351211886e+01   4.2467389621e+01    0.3856658    0.2659759  37.86  0.001733084    1.660    0.397
       169  -9.0169    124.7802     54.5433   6.6994619349e+01   4.6687316312e+01    0.3573907    0.2350934  28.25  0.001210317    2.021    0.505
       170  -9.6697    113.4523     55.1307   7.0138267871e+01   4.9273711109e+01    0.3577302    0.3521549  18.05 0.0003195081    1.057    0.054
       171 -10.1206    119.7379     50.6757   6.6810883321e+01   4.8580562064e+01    0.6094836    0.4369041 -31.66 0.0007533734    1.369    0.270
       172  -8.6448     36.8419     56.1504   9.8913340374e+01   6.2995500158e+01    0.1879819    0.1418528 -39.30 0.0002460637    1.302    0.232
       173  -9.2444     41.7493     54.5234   9.6120918270e+01   6.2789284835e+01    0.3939788    0.2255298 -54.49  0.001130921    1.509    0.337
       174  -9.7041     42.9846     47.7146   9.3147465813e+01   6.4202135165e+01    0.6350626     0.422661  83.16  0.002804085    2.613    0.617
       175  -8.3372    224.1268     57.0848   5.1114356555e+01   2.2503672575e+01    0.2024324    0.1745765   2.34 0.0007621475    1.289    0.224
       176 -10.0603    224.5191     38.5015   4.6125962689e+01   2.4735218323e+01    0.7283694    0.3164304 -28.39   0.00318914    1.952    0.488
       177  -8.6064    219.3057     54.2391   5.0899590881e+01   2.3919700137e+01    0.2922621    0.1930221  85.59  0.001016379    1.929    0.482
       178  -9.7353    221.7275     48.7291   4.9150686441e+01   2.4094937206e+01    0.5271121    0.4725248  -2.33  0.003207228    1.226    0.184
       179  -7.9076     88.5669     46.4640   7.4193107958e+01   5.6463606314e+01    0.2406639    0.1489814  50.24 0.0007701049    1.720    0.419
       180  -8.9903     94.9493     51.6225   7.4212986372e+01   5.4108619730e+01    0.3977834    0.3312043  29.17  0.001270394    1.328    0.247
       181  -8.5428     92.5232     48.4455   7.3713500750e+01   5.5240319814e+01    0.2631448    0.2342859 -88.52 0.0007322982    1.303    0.233
       182  -9.3838    183.7762     50.6077   5.4417984181e+01   3.2670058238e+01    0.5674835    0.2901769  28.90  0.001907081    3.646    0.726
       183  -8.7634    128.5393     51.5120   6.4978812534e+01   4.6295175574e+01    0.2782119    0.2385396 -60.20  0.001122172    1.221    0.181
       184  -7.8107    100.7066     52.4103   7.2744363939e+01   5.2692122913e+01    0.2075654     0.142265  38.70 0.0006088885    1.606    0.377
       185  -8.6815     15.9036     51.3506   1.0778380674e+02   6.6150950491e+01    0.3046572    0.1710759 -83.85  0.001380681    1.977    0.494
       186  -9.2517    244.8194     49.7235   4.7132842836e+01   1.9131982392e+01    0.3783408    0.2293886  40.92   0.00196664    2.149    0.535
       187  -9.3630    246.8619     44.4718   4.5653364968e+01   1.9344289023e+01    0.3931327    0.1872171 -21.23  0.001005988    2.008    0.502
       188  -9.0689    250.2295     40.5853   4.4420534475e+01   1.9123600425e+01    0.2304664    0.2266677 -80.66  0.001229082    1.232    0.188
       189  -9.4340    247.5122     37.5341   4.3888562911e+01   2.0010996706e+01    0.5264934     0.167217 -44.37  0.002138525    2.631    0.620
       190  -8.1311    227.3564     51.2194   4.9218808615e+01   2.2561882691e+01    0.2384478    0.1654006  34.24  0.001013904    1.833    0.454
       191  -8.9320     84.3036     51.3847   7.7645939144e+01   5.6391859962e+01     0.282698    0.2052993  57.78 0.0008768818    1.582    0.368
       192  -9.0773     80.3674     49.2518   7.8173837493e+01   5.7609501142e+01    0.4107637    0.3214754  -1.83  0.001829739    1.611    0.379
       193  -7.7799     72.5164     51.5011   8.1982175299e+01   5.8656007708e+01    0.1465814    0.1355406 -47.27 0.0008101024    1.042    0.040
       194  -9.2524    213.2181     49.0592   5.0177529917e+01   2.5946605355e+01    0.3359016    0.3043665 -25.63  0.001264689    1.086    0.079
       195  -7.8073     67.6072     50.1932   8.3373898502e+01   5.9820966292e+01    0.2101896    0.1264699 -37.84 0.0007187074    1.628    0.386
       196  -9.1852    237.4778     48.6352   4.7542263974e+01   2.0753761994e+01    0.3001156    0.2118433 -31.34  0.001710292    1.178    0.151
       197  -9.2020    231.5064     41.1693   4.6178535123e+01   2.2904072326e+01    0.3515278    0.2661719  68.92   0.00205454    1.523    0.343
       198  -9.4915    233.8892     44.9274   4.6931420928e+01   2.1949543804e+01    0.2997862    0.2593884   4.99 0.0008522425    1.332    0.249
       199  -8.7552    238.0217     42.9707   4.6050456370e+01   2.1319366733e+01     0.216585    0.1889687 -77.57 0.0006037588    1.269    0.212
       200  -9.9031    138.0406     43.9410   6.0088658596e+01   4.5145798007e+01    0.9720614    0.5975398   7.39  0.003613272    2.765    0.638
       201 -10.0025    174.2101     45.1545   5.4120581853e+01   3.5798728882e+01    0.4015446    0.2824791 -32.98  0.001953934    1.317    0.240
       202  -8.7173     74.4785     48.4451   8.0008064932e+01   5.8918752341e+01    0.2580033    0.1389507  56.45  0.000807477    2.450    0.592
       203  -8.8463     20.1000     46.9309   1.0439050039e+02   6.6882344576e+01     0.323043    0.2439145  78.66  0.001434122    1.598    0.374
       204  -7.9507    181.8584     47.1017   5.3611731957e+01   3.3630274507e+01    0.1945933    0.1700527  11.30 0.0004041661    1.302    0.232
       205  -7.2486    155.3096     47.3155   5.7957548995e+01   4.0252507739e+01    0.1535266    0.1164384  21.27 0.0005275418    1.633    0.388
       206  -8.2472    111.4597     46.9277   6.7518873222e+01   5.1210766299e+01    0.2373044    0.1951641  54.49 0.0005764458    1.264    0.209
       207  -9.2031     19.9564     40.4296   1.0242342503e+02   6.8430204747e+01    0.4505907    0.2837775  88.37  0.002189541    2.245    0.555
       208  -9.2129     13.5953     37.3204   1.0502966088e+02   6.9674886534e+01    0.5990941    0.3109172  80.85  0.002247748    4.055    0.753
       209 -10.4028     33.0097     43.1713   9.6392194734e+01   6.6471957145e+01    0.6420493    0.5037647  -6.00  0.002073001    1.500    0.333
       210  -8.4610     26.7904     38.8335   9.8079957106e+01   6.8141396551e+01    0.2727357    0.1860629 -53.06 0.0007914687    1.236    0.191
       211  -7.9352     19.6710    248.3131   1.2449069228e+02   2.2232690269e+01    0.1090829   0.04588258  55.52 0.0005393933    1.672    0.402
       212  -9.5942     24.6118     33.4239   9.7196988054e+01   6.9582772726e+01    0.4643982    0.3157447  24.44  0.002241401    1.691    0.409
       213  -9.8774     21.2630     30.9808   9.8171811922e+01   7.0460231200e+01    0.5110462    0.4324484 -19.89  0.003152821    1.220    0.180
       214 -10.0883     12.1700     29.9348   1.0335851181e+02   7.1483066292e+01    0.4065484    0.2271755  27.62  0.001765669    2.070    0.517
       215 -10.5453      8.8217     26.4351   1.0422206702e+02   7.2518745588e+01    0.4228263    0.3006036 -67.77  0.001201358    1.314    0.239
       216  -7.7848    164.4052     46.2276   5.6019070703e+01   3.8111227671e+01    0.2205863     0.124546 -41.51 0.0003949067    1.661    0.398
       217  -8.9347      7.7835     45.4259   1.1058788506e+02   6.8136630598e+01    0.2774853    0.1644115 -37.98 0.0008811805    1.696    0.411
       218  -8.1562      9.5122     42.4663   1.0887781390e+02   6.8741605080e+01    0.1709245    0.1345612  82.63 -1.829373e-05    1.415    0.293
       219  -8.8731    187.9800     44.0182   5.1814922566e+01   3.2549071742e+01    0.2883828    0.2035398  57.29  0.001438379    1.518    0.341
       220  -9.3731    185.4891     41.4938   5.1369148958e+01   3.3494763940e+01    0.3419621    0.2234575 -39.86  0.001134507    1.384    0.278
       221  -8.8018    156.0528     43.7956   5.6614311110e+01   4.0582811631e+01    0.4197034    0.2116951  51.76  0.001002931    2.047    0.512
       222  -9.0836    152.0908     40.5231   5.6166418919e+01   4.2066194703e+01    0.3958048    0.2350004 -45.18 0.0005382335    1.657    0.396
       223  -9.9793    128.3269     40.3307   6.0797333694e+01   4.8153185853e+01    0.4751505    0.3277687 -30.37  0.002212405    1.413    0.292
       224  -9.5410    123.9130     26.8411   5.6326757961e+01   5.1201689747e+01    0.3716182     0.213035 -23.16  0.001590294    1.792    0.442
       225  -8.4581    120.2557     38.6225   6.1969888462e+01   5.0435041955e+01    0.2438816    0.2077062  79.86 0.0005942101    1.291    0.225
       226 -10.2400    124.4512     36.1500   6.0010898946e+01   4.9759166043e+01    0.3857759    0.3328798 -17.75 0.0009145174    1.184    0.155
       227  -9.9913    128.2818     31.1986   5.7199795713e+01   4.9494415175e+01    0.3638023    0.2527823  50.09 0.0003188569    1.466    0.318
       228  -7.4797     95.4777     43.5649   7.0760585357e+01   5.5489648208e+01    0.1487922    0.1407197 -10.37 6.965017e-05    1.061    0.058
       229  -8.4355     85.0897     42.4982   7.3684957782e+01   5.7941979912e+01    0.3679509    0.2228107  23.00  0.001397275    2.545    0.607
       230  -7.9252     90.3542     40.3797   7.1017356618e+01   5.7191810878e+01    0.2603764    0.1785675  28.21 0.0008094203    1.776    0.437
       231  -9.4224     90.9825     34.8741   6.8369537278e+01   5.7998065811e+01    0.4724453    0.3093145 -55.81    0.0021193    1.852    0.460
       232  -8.5094    106.4910     40.4479   6.6235434488e+01   5.3488797428e+01    0.3723859     0.146842 -32.31  0.000548877    2.521    0.603
       233  -8.9152     69.8654     31.9411   7.4410069791e+01   6.2965810865e+01    0.3194667    0.2908899  34.35  0.001339797    1.158    0.136
       234  -8.3165     67.1767     41.9331   8.0097545296e+01   6.1594098179e+01    0.3318962    0.1922578  46.34 0.0008946514    1.897    0.473
       235  -9.5507     51.5912     37.5734   8.4916647096e+01   6.5144548858e+01    0.4909436    0.3122638 -32.23  0.001649445    1.609    0.378
       236  -8.3309     56.5300     36.4022   8.2129681951e+01   6.4571704098e+01    0.2265409    0.1744653  39.30 0.0005295358    1.420    0.296
       237  -9.8747     63.7816     38.0808   7.9769443367e+01   6.2971419659e+01    0.8893007    0.4346541  31.20  0.003058072    2.745    0.636
       238  -8.8712     63.9551     32.7045   7.7168590837e+01   6.3960129322e+01    0.2685232    0.2488452 -18.59 0.0005692046    1.027    0.026
       239  -9.4983     68.3900     27.1174   7.2582985228e+01   6.4093631694e+01    0.5429092    0.3541799  12.70  0.001658024    2.216    0.549
       240  -8.7307     59.5499     33.4614   7.9411245778e+01   6.4619697379e+01    0.2667826    0.2264586 -30.46 0.0005430795    1.080    0.074
       241  -7.9327     58.9921     30.0153   7.7965149504e+01   6.5363950187e+01    0.2002812    0.1826944 -25.62            0    1.015    0.015
       242  -8.1467     78.2822     40.9827   7.5422240056e+01   5.9632031558e+01    0.2102597    0.1871164 -32.64 0.0008667781    1.051    0.049
       243  -7.9152    241.9569     40.5263   4.5088849623e+01   2.0794409456e+01    0.1704525    0.1291071  82.95  0.001013303    1.555    0.357
       244  -9.3731     99.4972     38.4350   6.7362574069e+01   5.5462611366e+01    0.4243042    0.3242763 -35.91  0.002122948    1.254    0.202
       245  -9.0726    216.0419     39.2479   4.7159528834e+01   2.6537616543e+01    0.2591922    0.2210025  80.46 0.0007372667    1.300    0.231
       246 -11.4548    211.9272     34.5434   4.6262742515e+01   2.8044020178e+01    0.4490308    0.3062307 -38.22 0.0004074672    1.261    0.207
       247  -9.1524    163.3562     42.0906   5.4804937267e+01   3.8966029745e+01     0.446781    0.2189775  67.86  0.000377414    2.236    0.553
       248  -9.5385    112.6583     36.3124   6.2879492120e+01   5.2665985902e+01    0.6726837    0.4017385  44.86  0.002931483    1.763    0.433
       249  -9.1779    236.5356     35.8940   4.4371364621e+01   2.2453779010e+01    0.2927253    0.2010352 -86.55  0.001020586    1.714    0.416
       250  -7.9883    232.4526     36.5378   4.4887258095e+01   2.3245512794e+01    0.1824289    0.1164847 -17.48 2.503652e-05    1.576    0.366
       251  -8.9520    193.1600     36.7239   4.8944761276e+01   3.2229750328e+01    0.2933518    0.2175616  68.97 0.0009522276    1.445    0.308
       252  -8.0081    174.5229     36.5532   5.1290421921e+01   3.6879401193e+01    0.2921557    0.1024827 -38.52  0.001032652    2.472    0.596
       253  -8.7908    178.8520     23.5191   4.6494519957e+01   3.7372000571e+01    0.2594902     0.184714 -33.84 0.0006865321    1.295    0.228
       254  -9.0126    168.5739     27.7486   4.9180655629e+01   3.9501776497e+01    0.8010707    0.2792161  48.32  0.002677281    3.316    0.698
       255  -8.3519    160.0280     30.0375   5.1177946448e+01   4.1425209016e+01    0.3520755    0.3032735 -55.86  0.001368357    1.133    0.118
       256  -9.4538    174.5606     25.6225   4.7697813558e+01   3.8220893221e+01    0.3992455    0.2255014 -47.69  0.001544068    1.714    0.416
       257  -9.1820    169.0632     23.1414   4.7556487168e+01   3.9918882235e+01    0.4325419     0.214509  65.05   0.00122103    2.012    0.503
       258  -7.8984    157.5205     34.5217   5.3137429791e+01   4.1494244777e+01     0.225783    0.1746554  33.71  0.000705839    1.482    0.325
       259 -10.0140    153.9052     32.9397   5.3159122855e+01   4.2637642776e+01    0.4050878    0.2764452 -31.95 0.0003501348    1.392    0.281
       260  -8.5380    155.9658     28.7903   5.1350249707e+01   4.2635364418e+01    0.2956939    0.2034101  84.92 0.0009413169    1.623    0.384
       261  -8.7376     33.2681     34.3033   9.2710848950e+01   6.8413239769e+01    0.2657842    0.2342319  84.45 0.0008709709    1.433    0.302
       262  -8.7746     39.5677     32.4778   8.8528135399e+01   6.7979792793e+01    0.3183254    0.2269912 -15.87  0.001227707    1.655    0.396
       263  -8.8589    102.7583     33.9250   6.4469786892e+01   5.5426600673e+01    0.2511134    0.2195031  62.24 0.0004021122    1.210    0.173
       264  -8.9715    134.2115     31.5623   5.6152870156e+01   4.7921090136e+01    0.2793429    0.2042224 -29.51  0.000610456    1.332    0.249
       265  -8.8489     55.1152     31.3185   8.0346152263e+01   6.5800830340e+01    0.2196011    0.1737805 -27.42 0.0005171808    1.200    0.167
       266  -8.4483      9.3146    248.6655   1.2625828271e+02   2.3124966272e+01    0.1081464   0.04372888  56.33 -2.302368e-05    1.688    0.408
       267  -8.2489    225.2939    247.3552   8.9141181360e+01  -1.9178290661e+00    0.1042081   0.05880735   7.27 0.0005351178    1.689    0.408
       268  -9.1082    214.0654    244.7782   9.0526323020e+01  -3.6001761661e-01    0.2647128    0.1803518  36.14  0.002019641    1.497    0.332
       269  -9.2563     33.9888     16.4801   8.3265764436e+01   7.1890707492e+01    0.5877648    0.2226393  42.03  0.002433934    3.058    0.673
       270  -8.8358    234.4088    243.2901   8.7230059888e+01  -2.5850635020e+00    0.2343677    0.1091008  16.03  0.001413774    2.176    0.540
       271  -8.7311    194.3607    242.8823   9.3419212039e+01   2.2328285058e+00    0.1822656    0.1122745  35.67 0.0007583397    1.384    0.278
       272 -10.2595     50.9289     18.4569   7.5435199261e+01   6.8829423659e+01    0.3338077    0.2742569  44.16  0.001285057    1.356    0.263
       273  -9.3367    247.4168    239.1288   8.4747531089e+01  -3.6711334871e+00     0.161228    0.1411158   3.41  0.001424326    1.623    0.384
       274  -8.6665     97.4317     29.4803   6.3967538722e+01   5.7370285729e+01    0.3010656    0.2447164 -36.01  0.001083024    1.196    0.164
       275  -8.2005     95.9865     23.9687   6.1793005460e+01   5.8515931790e+01    0.4048404    0.1747739 -40.23  0.001555574    2.302    0.566
       276  -8.2191     47.2522     30.6162   8.3730535231e+01   6.7224975270e+01    0.2265799     0.166759 -37.70 0.0003505853    1.217    0.178
       277  -8.6701    227.6174    240.1776   8.7827156917e+01  -1.5134147629e+00    0.1348524    0.0790071 -12.75 0.0009506526    1.687    0.407
       278 -10.8851    218.7523     25.1994   4.3037380651e+01   2.7552583169e+01    0.3480493    0.2917656 -78.51 0.0006261433    1.238    0.192
       279  -9.1768    185.6664     27.8824   4.7098430709e+01   3.5151723782e+01    0.5036933    0.3683313 -67.13  0.002587911    1.423    0.297
       280  -9.6408    192.5619     24.2093   4.5206337689e+01   3.3866987862e+01    0.3958377     0.259978 -26.40  0.001209379    1.431    0.301
       281  -7.4556     71.4968    239.5244   1.1482657366e+02   1.8184338251e+01    0.1078568   0.08046582  49.42 0.0008101808    1.003    0.003
       282  -9.1198     84.4267     29.5233   6.7986304696e+01   6.0330479432e+01    0.2990335     0.242303   5.37  0.000939457    1.374    0.272
       283  -9.2281    105.2128     26.6526   6.0570759179e+01   5.5915531483e+01    0.4250826    0.2429445 -12.55  0.001231462    2.213    0.548
       284  -8.9412    103.8377     21.1295   5.8379675826e+01   5.7000771919e+01    0.3808734    0.2936026 -19.82  0.001610971    1.301    0.231
       285  -7.0539    247.3152     28.3172   4.1631562222e+01   2.1071281705e+01    0.1195817   0.09376046  15.36 0.0007037659    1.649    0.394
       286  -7.4992    201.9669     28.0315   4.5390070569e+01   3.1148454559e+01    0.1648099    0.1454719 -45.49 0.0003529199    1.003    0.003
       287  -9.6864    114.7589     26.9930   5.8399440000e+01   5.3503036960e+01    0.2828518    0.2336627  52.36 0.0004676075    1.220    0.180
       288  -9.6101    171.6136    234.0278   9.6118974602e+01   6.1666710595e+00    0.2248851    0.2054538  25.09  0.001835103    1.265    0.210
       289 -10.0503    239.1576     24.5833   4.1281949314e+01   2.3157498959e+01    0.3838995    0.2104698 -28.02 0.0002978199    1.537    0.349
       290  -8.7751     39.1791     25.1462   8.5138104067e+01   6.9509895256e+01    0.3501016    0.2877244  15.51  0.002090217    1.319    0.242
       291  -7.8730     31.5979     27.2952   9.0446178969e+01   7.0101556997e+01    0.1902788    0.1248758  36.93 0.0009548842    1.747    0.428
       292  -8.1537     29.7422     24.8648   9.0334465452e+01   7.0831043408e+01    0.3765798    0.2216503 -20.34  0.001442927    2.256    0.557
       293  -8.1042    152.9735    233.7958   9.9363291565e+01   8.6704705852e+00    0.1487955    0.1117164  -4.64   0.00104321    1.589    0.371
       294 -10.1316    136.9713     25.4055   5.3223840514e+01   4.8010294247e+01    0.4092344    0.2741884 -61.24 0.0005676443    1.708    0.414
       295  -9.2675    143.6148     22.3893   5.0925339308e+01   4.6641231537e+01    0.3974788    0.2891736  43.62  0.001102208    1.469    0.319
       296  -8.2418    249.5425    230.5027   8.3207635118e+01  -3.1363068663e+00    0.1024646    0.0716419   8.04 0.0001946481    1.007    0.007
       297  -7.7755    102.5013    229.4494   1.0821624618e+02   1.5967098226e+01    0.1131693   0.08717783  45.88 0.0002638647    1.039    0.037
       298  -8.5009    220.5588    228.8112   8.7330253127e+01   4.6081520842e-01    0.2045051   0.06425668  34.26  0.001017428    2.658    0.624
       299  -8.2031     47.7774    218.4051   1.1797356912e+02   2.4405355019e+01    0.1499575   0.09603754  26.02 0.0009568697    1.765    0.433
       300 -10.0086    133.0096     19.5358   5.1583758648e+01   4.9752860901e+01    0.3284459    0.2788717 -83.89 0.0003285233    1.246    0.197
       301  -9.9445    129.6796     19.2949   5.2077674542e+01   5.0649895276e+01    0.3366782    0.2486977  76.76  0.001207142    1.425    0.298
       302  -8.6760    239.4960    216.0082   8.2519596454e+01  -5.6239693225e-01    0.1482935   0.07354975  -5.99  0.000788997    2.443    0.591
       303  -8.3462     28.6605    214.0153   1.2149592823e+02   2.7194505884e+01    0.1547241     0.117241  70.28 0.0007492186    1.112    0.101
       304  -8.1331    240.9610    202.8073   8.0208162775e+01   6.2465522612e-01    0.1613665   0.09652244  -3.48 0.0009269848    1.575    0.365
       305  -9.1437     28.8181    199.7699   1.2074134967e+02   2.9869094350e+01    0.2613938    0.1804178 -70.08  0.001230053    1.603    0.376
       306  -8.6059    161.5249     22.0534   4.8163895794e+01   4.1996278686e+01    0.3490361    0.2152995  49.95  0.001029248    1.722    0.419
       307  -7.9978     33.7403    193.2317   1.1932192595e+02   3.0660784646e+01    0.1375755    0.1300062 -86.53  0.001044912    1.337    0.252
       308  -8.9425    153.2882     23.8404   4.9968101317e+01   4.3936621311e+01     0.433331    0.3125159 -53.84  0.001449801    1.407    0.289
       309  -8.1900    156.7437     22.1906   4.8870513018e+01   4.3226906865e+01    0.3280894    0.1864391 -64.82  0.001207942    2.143    0.533
       310  -8.8052     78.5028     23.7461   6.7119085962e+01   6.2529954046e+01    0.5396616    0.3162234  -6.64  0.002159148    2.575    0.612
       311  -8.0618     81.8251     24.2370   6.6244514343e+01   6.1727931626e+01    0.3055542    0.1960981   7.17  0.001012023    2.249    0.555
       312  -8.1342    246.0002     23.3006   4.0484911779e+01   2.1875663797e+01    0.1681792    0.1404051 -50.64 0.0002340986    1.090    0.083
       313  -7.8342    113.8153     22.1895   5.6510147895e+01   5.4375039286e+01    0.1997431     0.163214  24.63            0    1.324    0.245
       314  -8.2939    152.4972    190.5022   9.3633454915e+01   1.5059065707e+01    0.1239568    0.1082445  27.99 0.0008106881    1.002    0.002
       315  -8.1085    130.9193    190.2879   9.7980514544e+01   1.8433723684e+01    0.1720663    0.1427577  33.99 0.0003651592    1.082    0.076
       316  -7.8507    141.3088    189.6461   9.5751330729e+01   1.6940326395e+01    0.1235409   0.09392518  68.84  0.000704327    1.722    0.419
       317  -7.7647     66.4059    161.4372   1.0889134620e+02   3.3608381938e+01    0.1276039    0.1129151  74.01 8.376457e-05    1.032    0.031
       318  -7.9527     35.1947    157.2396   1.1635590789e+02   3.8220683114e+01     0.196229    0.1137548 -39.35 0.0007360098    2.722    0.633
       319  -7.9823    171.5507    152.5098   8.3103504042e+01   1.8201710826e+01    0.1340918    0.1229183   5.82 0.0001906831    1.013    0.013
       320  -8.2879     71.3437     20.8096   6.8138721188e+01   6.4502583716e+01    0.2199095    0.1639474 -48.82 0.0007355989    1.486    0.327
       321  -8.4349      7.3077    151.1455   1.2304423863e+02   4.2141566821e+01    0.1687159    0.1584704  52.21 0.0005099515    1.302    0.232
       322  -9.8137     66.2546    131.4532   1.0479325017e+02   4.0586836245e+01    0.5324503    0.2988021  27.37  0.002251798    2.107    0.525
       323  -8.3626     13.6907    133.0166   1.2015283120e+02   4.5894350942e+01    0.1792018    0.1336564  88.05 0.0005281059    1.097    0.088
       324  -8.4203     25.3286    128.7318   1.1640764166e+02   4.5941929811e+01     0.238419    0.1766508 -64.84  0.001040361    1.324    0.245
       325  -7.7848     39.4939    126.5456   1.1194829053e+02   4.5072428255e+01    0.1351743    0.1135983  83.04 1.595325e-05    1.034    0.033
       326  -8.4065     29.8926    124.5801   1.1460431462e+02   4.6535679578e+01    0.2318196    0.1503057 -69.81 0.0005941901    1.372    0.271
       327  -9.7408     69.3030    122.7929   1.0244669442e+02   4.2256646575e+01     0.241957    0.2183935  76.60 0.0002832534    1.052    0.049
       328  -8.3431      2.3075     19.9767   1.0628594234e+02   7.4381109374e+01    0.2232592    0.1652647 -12.11  0.001422741    1.488    0.328
       329  -7.3404     10.0000    121.9932   1.2037225665e+02   4.8852672458e+01    0.2093237   0.06041638 -78.72 0.0006923159    2.895    0.655
       330  -7.4433    201.5486    120.5074   7.0485617700e+01   1.7861413706e+01    0.1383663    0.1234389 -15.90 0.0001040389    1.010    0.010
       331  -7.4363    125.6424    118.6961   8.5984708249e+01   3.3479037976e+01    0.1504396    0.1182446  -0.83 0.0007039384    1.719    0.418
       332  -9.2388      6.3680    113.5536   1.2081461487e+02   5.1183722256e+01    0.3060433    0.2254557  49.47  0.001471806    1.370    0.270
       333  -9.4851     12.0615    114.9780   1.1913819853e+02   5.0432115252e+01    0.2828082    0.2049063  85.33 0.0004634353    1.151    0.131
       334  -8.5674    242.2139    115.5903   6.3137736514e+01   1.1109272652e+01    0.1678664    0.1126762  31.80 0.0009007507    1.655    0.396
       335  -8.6335    121.5704     17.4754   5.2829944003e+01   5.2965674394e+01    0.2500162    0.2104195  77.89 0.0001196829    1.236    0.191
       336  -8.0375     73.1328     16.8554   6.5333870535e+01   6.4701529187e+01    0.1972707    0.1571172   2.14   0.00106159    1.315    0.239
       337  -7.9975    206.5789     20.2136   4.2684242204e+01   3.0921391207e+01    0.2840761    0.2334551  -0.55  0.001467124    1.405    0.288
       338  -8.6765     22.3178    113.9412   1.1576517181e+02   4.9874565382e+01     0.187483    0.1472713 -82.77 0.0005617872    1.071    0.066
       339  -7.3122    105.4713    111.5226   8.9606276140e+01   3.8939971433e+01    0.1473013    0.1416864 -69.38 9.397466e-05    1.019    0.019
       340  -7.6853     65.4301    110.5071   1.0133620712e+02   4.5829581869e+01    0.1423737    0.1285966 -69.60 0.0001143025    1.062    0.059
       341  -9.2814     15.7037    112.4472   1.1773314619e+02   5.0787917593e+01    0.2358724    0.1985215 -64.13 0.0005745196    1.229    0.186
       342  -8.2698     44.1992    105.2322   1.0730947304e+02   4.9888756886e+01    0.1893331    0.1446401  76.69 0.0003710217    1.306    0.234
       343  -9.0029     19.3241    104.6941   1.1567979208e+02   5.2451572174e+01    0.2580526    0.1444082 -46.80 0.0006798084    1.993    0.498
       344  -7.8516    245.6941    103.6892   5.9989948526e+01   1.2079860567e+01    0.1288952   0.08965265   3.41 0.0002671914    1.615    0.381
       345  -8.6086    119.8134    102.9336   8.3551726889e+01   3.8052214076e+01    0.2814723    0.2177747  58.21 0.0007266434    1.393    0.282
       346  -8.8504     25.5114    103.0624   1.1335359289e+02   5.2341198956e+01    0.2339301    0.1962087  42.10 0.0006137844    1.318    0.241
       347  -9.6845      8.8574    100.8372   1.1883903921e+02   5.4192531905e+01     0.403892    0.1620901  37.69  0.001879707    2.491    0.599
       348  -7.4602    243.3186     99.6501   5.9362333811e+01   1.3036780280e+01    0.1323519   0.08907771 -50.66 0.0007048054    1.737    0.424
       349  -8.1703     16.4129     99.1328   1.1601459451e+02   5.4087006197e+01    0.1869763    0.1722289 -30.41  0.001222088    1.341    0.254
       350  -8.2866     55.9380    100.0945   1.0236295166e+02   4.9734663546e+01    0.2165347    0.1756687  80.04 0.0003656657    1.255    0.203
       351  -8.6212    231.0625     97.0072   6.0344786636e+01   1.5664188470e+01    0.2021164    0.1686598 -17.02  0.001220119    1.065    0.061
       352  -8.6204    203.9545     97.0029   6.4330236163e+01   2.1069381102e+01    0.2293056    0.1670361 -61.06  0.001140795    1.749    0.428
       353  -9.5225     71.6015     95.1910   9.5976284162e+01   4.8687805053e+01    0.5011913    0.3864038  52.19  0.002000771    1.375    0.273
       354  -8.9363     38.5639     95.2837   1.0751899856e+02   5.3041510404e+01    0.2977233    0.2150202 -58.15  0.001411298    1.273    0.214
       355  -8.5115    249.4592     92.9661   5.7057690628e+01   1.2811967023e+01    0.1853426   0.08229114 -45.17 0.0006260819    2.409    0.585
       356  -7.6671    174.6182     93.1521   6.8427604046e+01   2.8039696730e+01     0.206651    0.1359575 -24.80 0.0006948692    1.586    0.369
       357  -7.8892    165.4973     93.6959   7.0364370784e+01   2.9981007792e+01    0.2517278    0.1382292  52.29 0.0009865934    1.931    0.482
       358  -7.5912    237.3013     92.3142   5.8400465067e+01   1.5127635616e+01    0.1317559   0.09440457   4.44  0.000318341    1.613    0.380
       359  -7.3263    145.9281     93.0000   7.4371128383e+01   3.4498493439e+01    0.2305812   0.08775402  50.00 0.0004154308    2.739    0.635
       360  -8.8442     99.8035     91.1849   8.5971247139e+01   4.4667012656e+01    0.2553095    0.2264704 -55.86 0.0005081414    1.071    0.066
       361  -9.5463     19.6327     90.6275   1.1371219045e+02   5.5999191055e+01    0.4221709    0.2843597  82.98  0.002009724    1.428    0.300
       362  -9.3586     55.6326     89.6366   1.0019389794e+02   5.2397711837e+01    0.4153863    0.2158318  47.75  0.001744459    2.145    0.534
       363  -8.6555     27.3718     88.7602   1.1050398413e+02   5.5816549210e+01    0.2569115    0.1864104  67.21 0.0009959978    1.443    0.307
       364  -8.7167      1.5984     88.2846   1.2017796835e+02   5.7785702700e+01    0.2813256    0.1427844 -70.07  0.001455153    1.572    0.364
       365  -8.3194      5.8839     87.8515   1.1852300725e+02   5.7654245222e+01    0.2053684    0.1729324 -36.54 0.0009936483    1.408    0.290
       366  -8.9611    242.4017     86.9669   5.6490670979e+01   1.4885533723e+01    0.3401884    0.1939049  -8.80  0.001582933    2.178    0.541
       367  -7.3423    201.3410     88.3019   6.2488190566e+01   2.2970605285e+01    0.1454761    0.1071956  12.86 0.0004041645    1.674    0.403
       368  -9.3927    189.0793     87.9599   6.4405120739e+01   2.5698901459e+01    0.2387729    0.2262042  74.24  0.001363959    1.187    0.158
       369  -7.9877     83.2156     87.3969   9.0101464897e+01   4.8629210564e+01    0.2079287    0.1376319  53.12 0.0009431312    1.678    0.404
       370  -8.9333    212.1891     93.9107   6.2269735891e+01   1.9840918940e+01    0.4516369    0.2033752 -51.72  0.001629555    3.232    0.691
       371  -8.0343    102.8253     86.2245   8.3642515886e+01   4.5186974397e+01    0.1967819    0.1767032   4.84 0.0003855505    1.306    0.234
       372 -10.6350     65.6706     83.3946   9.5025780068e+01   5.2492041801e+01     0.559748    0.4374526 -14.78 0.0009364084    1.706    0.414
       373  -8.5972    145.9679     83.1457   7.1484564578e+01   3.6385156488e+01    0.3400012    0.2092601 -34.09 0.0009768335    1.609    0.378
