#   1 NUMBER                 Running object number                                     
#   2 MAG_AUTO               Kron-like elliptical aperture magnitude                    [mag]
#   3 X_IMAGE                Object position along x                                    [pixel]
#   4 Y_IMAGE                Object position along y                                    [pixel]
#   5 X_WORLD                Barycenter position along world x axis                     [deg]
#   6 Y_WORLD                Barycenter position along world y axis                     [deg]
#   7 A_WORLD                Profile RMS along major axis (world units)                 [deg]
#   8 B_WORLD                Profile RMS along minor axis (world units)                 [deg]
#   9 THETA_WORLD            Position angle (CCW/world-x)                               [deg]
#  10 FWHM_WORLD             FWHM assuming a gaussian core                              [deg]
#  11 ELONGATION             A_IMAGE/B_IMAGE                                           
#  12 ELLIPTICITY            1 - B_IMAGE/A_IMAGE                                       
         1 -13.4264    149.6779     51.3758   1.7308934383e+01   4.0461239083e+01    0.5159024    0.4607547  26.70 0.0008424557    1.363    0.267
         2 -11.2637     23.4960      2.5718   3.7557944399e+01   7.1563722047e+01    0.9119247    0.4397928  24.23  0.005156213    1.903    0.475
         3 -11.6755      7.4703     29.5129   5.8375251733e+01   6.9698665841e+01    0.9676788    0.3055701 -54.20  0.003916094    4.151    0.759
         4 -11.8424     14.6972     17.7531   4.9510566698e+01   7.0790305829e+01    0.4465368     0.297592  13.66  0.001827996    1.269    0.212
         5 -12.5753      3.3462     12.8475   5.3824896224e+01   7.2567224644e+01    0.5221367    0.2867174 -36.12  0.002364234    1.643    0.391
         6 -12.0981     10.0190     10.2762   4.8700608683e+01   7.2280749020e+01    0.5912988     0.389553   7.03  0.004090566    1.230    0.187
         7 -10.9439     82.0578     21.5193   2.3360051291e+01   5.9452958751e+01    0.6257915    0.2172361 -28.56  0.002632037    3.304    0.697
         8 -11.5674    249.4436     20.8839   3.5912214997e+02   2.2754708802e+01    0.2969846    0.1626782 -47.86 0.0002334225    1.543    0.352
         9 -10.7296    100.0553     21.7664   1.8707533570e+01   5.5579004490e+01    0.4318241    0.2261647  43.98  0.002170725    1.712    0.416
        10 -12.6229     28.6833     20.1144   4.3285167060e+01   6.8814878024e+01    0.3827053    0.2312782  16.60 0.0003873921    1.505    0.336
        11 -10.2321     68.5584     20.0062   2.6948937291e+01   6.2301393958e+01    0.3685342    0.1869296 -34.86  0.001904982    2.286    0.562
        12 -10.6398     58.7635      5.4433   2.4184986760e+01   6.5553582543e+01    0.3261534    0.2518475  65.31  0.001438503    1.626    0.385
        13 -11.9111     82.2158      6.9195   1.7819894413e+01   6.0782173013e+01    0.2157609    0.1696902  43.53 0.0002651282    1.042    0.040
        14 -12.5664     75.8281     11.0410   2.1152290476e+01   6.1743116438e+01    0.6068096    0.3726824  24.28  0.002234569    1.749    0.428
        15 -13.3214     65.5613     11.5853   2.4517251597e+01   6.3717864822e+01    0.5125653    0.2806669  41.62  0.001206163    1.481    0.325
        16 -10.4074    217.4054     15.9917   5.8408249194e-01   2.9609324746e+01    0.3912827    0.1471767  60.76  0.001912352    2.684    0.627
        17 -11.3707    169.0224     14.7054   4.9953225233e+00   4.0360876671e+01    0.4442934    0.1774905 -42.19  0.002121243    2.504    0.601
        18 -11.7553    137.5695     15.4168   9.4306575054e+00   4.7605452800e+01     0.322282    0.2493049 -79.97 0.0007852904    1.325    0.246
        19 -10.4721    139.6535     10.9458   7.8725414502e+00   4.7540537028e+01    0.2468893    0.1568619  69.87 0.0005224012    1.290    0.225
        20 -10.5280     53.6608     14.6481   2.9992894112e+01   6.5601518099e+01    0.4324438    0.2601384  57.64  0.002345067    2.123    0.529
        21 -11.6276    239.7864     14.2775   3.5861885097e+02   2.5349143446e+01    0.2749744    0.1597697 -69.06  0.001147442    1.368    0.269
        22 -10.6647    126.0583     14.0987   1.0941052351e+01   5.0410698460e+01    0.4084078    0.2063307 -71.17   0.00162953    3.590    0.721
        23 -12.3367    244.2368      4.1417   3.5658162655e+02   2.5635923486e+01    0.4031686    0.3178403 -64.69  0.003037103    1.230    0.187
        24 -11.5425    249.4111      9.6706   3.5720972787e+02   2.4061954413e+01    0.3900293    0.1392744 -47.51  0.002168131    2.147    0.534
        25 -10.6161    177.8291     12.1597   3.4222205272e+00   3.8614715936e+01    0.2281906    0.1682398 -89.02 0.0002464976    1.114    0.102
        26 -10.8677    145.5293     11.5381   7.1920728499e+00   4.6116954030e+01    0.2833059    0.2409097  -6.32  0.001491221    1.587    0.370
        27 -10.2451    146.0559      6.9291   5.8944528549e+00   4.6415699145e+01    0.2791364    0.1459049  65.31  0.001498779    1.535    0.348
        28 -10.7245     27.4637     11.3247   3.9853944885e+01   7.0061335394e+01    0.3684818    0.1682081 -18.41  0.001809215    2.757    0.637
        29  -9.3872    227.0000     11.9576   3.5909025567e+02   2.8114050764e+01    0.1714676   0.05747065 -36.67  0.000808347    2.984    0.665
        30 -11.6145    234.0959      9.2424   3.5810536824e+02   2.7015771021e+01    0.2561708    0.1502457  88.48  0.001179988    1.425    0.298
        31 -10.3473    160.1109      8.7302   4.5906493874e+00   4.3000068002e+01    0.1980473    0.1851432 -39.37   0.00072933    1.353    0.261
        32 -10.8575    154.7708      8.6231   5.2133397261e+00   4.4243006961e+01    0.3704075    0.2099735  83.46 0.0008861556    1.612    0.379
        33 -10.4860    159.6826      3.8602   3.4411768668e+00   4.3546240689e+01    0.2505171    0.1673882 -76.59 0.0003201959    1.433    0.302
        34  -9.5674    100.7086     10.1046   1.4575821786e+01   5.6528979949e+01    0.1819871    0.1535511  78.58  0.000542211    1.246    0.197
        35  -9.8371     90.6664      9.5445   1.6675147849e+01   5.8770275035e+01    0.2155285    0.1337493 -40.66   0.00082066    2.014    0.503
        36 -10.7708     35.7933      6.1946   3.3491266459e+01   6.9408169394e+01    0.3175822    0.1605642  27.93  0.001359672    1.764    0.433
        37 -10.1352     33.1713      2.1726   3.2720769975e+01   7.0204093564e+01    0.2428655    0.1528009  20.23  0.001574115    1.349    0.259
        38  -9.9415    117.2813      9.1421   1.0985157807e+01   5.2875035007e+01    0.5369704    0.1202553  66.72  0.001714401    4.265    0.766
        39  -9.5446    101.8723      6.3334   1.3052235341e+01   5.6584416702e+01    0.2667183    0.1667956  88.70  0.001405508    2.084    0.520
        40  -9.5558     96.3115      6.3277   1.4236203163e+01   5.7811013521e+01    0.1838258    0.1725257  89.29 0.0004989732    1.244    0.196
        41 -10.3682     97.5343      3.0315   1.2831669411e+01   5.7800830929e+01    0.2545996    0.2158673  46.66 0.0007871467    1.103    0.093
        42  -9.6422    223.0235      5.4349   3.5816426233e+02   2.9622001264e+01    0.1622302    0.1187949 -64.61  0.000327997    1.150    0.130
        43 -10.4883     67.5749      5.1442   2.1232190490e+01   6.3895054663e+01    0.3599324    0.2028609  62.44  0.001404791    1.892    0.471
        44 -11.0028    179.8846      3.5496   1.2749612526e+00   3.9001168481e+01    0.3863223    0.1823672  59.51  0.000790075    1.987    0.497
        45 -10.0155    164.3548      4.5861   3.0968800381e+00   4.2411846610e+01    0.1940157    0.1584822 -73.16 0.0002215575    1.173    0.148
        46 -10.2110      3.8562      4.0491   4.9330904395e+01   7.3690189934e+01    0.2114629    0.1082203   1.80  0.001216129    2.041    0.510
        47 -10.3735     90.9708      2.3117   1.4006461885e+01   5.9283651100e+01    0.1961523      0.16112  25.03 0.0005491067    1.287    0.223
        48 -10.2972     73.4760      1.5192   1.8059713205e+01   6.3005970098e+01    0.2292953    0.1091953  54.62  0.001006182    1.662    0.398
        49  -9.9973    230.2420      1.3890   3.5695326702e+02   2.8614403212e+01    0.1899344    0.0843371  74.72 0.0007096975    1.958    0.489
        50  -9.3010    121.0552      1.4852   8.0077316112e+00   5.2634660086e+01    0.1937858   0.09787706  65.85  0.001021182    1.561    0.359
        51  -9.4117    126.2043      2.7468   7.5710986310e+00   5.1356149373e+01    0.1625168    0.1183097  50.44 0.0004721966    1.300    0.231
        52 -10.2278     30.4195    214.4231   8.3989128913e+01   2.4774522059e+01    0.2176546    0.1545903  85.34 0.0006977373    1.279    0.218
        53 -12.1867    247.7374    247.8051   4.0952820325e+01  -1.2552158817e+01    0.6496725     0.409486  -8.46  0.004212087    1.388    0.279
        54 -12.3000    225.9756    246.5964   4.4646673387e+01  -9.9025438362e+00    0.6974025    0.3748406 -21.98  0.003814014    1.850    0.459
        55 -10.8466    182.9579    246.5295   5.3081553102e+01  -4.2412682462e+00    0.2658577    0.1673195  23.28  0.001379873    1.432    0.301
        56  -9.1717    168.6939    250.6669   5.6708161155e+01  -2.8926519573e+00    0.1334109   0.09106241  -3.72 0.0002387413    1.665    0.399
        57  -9.2907    149.3250    250.3219   6.0817021791e+01   2.7255252329e-02    0.1348388   0.09538057  -1.78 0.0007047264    1.683    0.406
        58  -9.2033    110.3375    250.2971   6.9436288319e+01   5.9269294640e+00    0.1299045    0.1003437  -0.34 0.0005350303    1.655    0.396
        59  -9.9397     72.1728    250.1029   7.7872037870e+01   1.1504162034e+01    0.1778647    0.1723009  -0.29 0.0008243712    1.302    0.232
        60  -9.1074     38.2895    250.3286   8.5122390555e+01   1.5848947519e+01    0.1089197   0.09458558 -40.51 0.0007015749    1.619    0.382
        61 -11.4077     22.0651    248.8940   8.8337461322e+01   1.8022716992e+01    0.4871376    0.1909769  45.68  0.002438796    2.004    0.501
        62 -10.1129     11.7343    248.8669   9.0386521570e+01   1.9138167321e+01    0.3788775    0.1267316  54.19  0.001600758    2.475    0.596
        63 -10.3073     66.4196    214.4746   7.5369167049e+01   2.0223021809e+01    0.2183335    0.1497007  64.49 6.477817e-05    1.471    0.320
        64  -9.5990     63.1534    212.3987   7.5927949189e+01   2.1169942622e+01    0.2082256    0.1308187  35.58 0.0002877244    1.530    0.346
        65  -9.4332    169.8401    213.1732   5.0308008186e+01   3.8353916433e+00    0.2035621      0.15894 -10.15  0.001080143    1.357    0.263
        66  -9.7638     20.1288    211.8391   8.6153825140e+01   2.6492916910e+01    0.2149074    0.1422311  64.93   0.00121709    1.351    0.260
        67 -11.7217     11.1942    209.0604   8.7984044534e+01   2.8036592246e+01    0.3828954    0.3091176 -68.32  0.001726989    1.295    0.228
        68 -11.0480      4.9137    210.0327   8.9461452343e+01   2.8394402030e+01    0.3403863    0.2310398  69.05  0.001185116    1.259    0.206
        69 -11.3177      4.7462    204.6698   8.9139341297e+01   2.9667498861e+01    0.3775346    0.2986532 -40.56  0.002371396    1.669    0.401
        70  -9.3520    106.6810    211.3245   6.4957860989e+01   1.4820028810e+01    0.1525723    0.1074882  65.64 0.0007045413    1.675    0.403
        71 -10.6128    217.2271    208.7315   3.9756474372e+01  -2.6711095123e+00    0.3758561    0.1798024 -34.17  0.001459661    1.980    0.495
        72  -9.2292    193.5285    210.4861   4.4760712501e+01   5.5763940929e-01    0.1383712    0.1195069  -6.30 0.0002959178    1.037    0.035
        73  -9.8434    201.6112    207.6564   4.2601705854e+01  -1.6729309800e-01    0.2640691     0.116653 -38.84  0.001130954    2.165    0.538
        74  -9.3943    247.4289    206.3153   3.3940618462e+01  -6.3251175337e+00    0.1694225    0.1019912 -44.38 0.0006648859    1.651    0.394
        75  -9.8228     18.5629    205.0977   8.5980550300e+01   2.8255757019e+01    0.3466948   0.08685772 -67.20  0.001277478    3.243    0.692
        76 -10.9463     21.6033    198.8264   8.4727496306e+01   2.9465027334e+01    0.4291641    0.2707627 -32.59  0.001696364    2.403    0.584
        77 -10.1928     28.0122    205.2847   8.3754449256e+01   2.7223210218e+01    0.1806929    0.1532322  67.57  0.000407861    1.059    0.056
        78  -9.6786     72.4266    208.5044   7.3145114200e+01   2.0796693756e+01     0.248293     0.140949  18.32  0.001028166    2.388    0.581
        79  -9.3299     68.5510    203.4793   7.3481636082e+01   2.2573129082e+01    0.2977466    0.1363777  31.84  0.001210594    2.170    0.539
        80  -9.4626    174.2981    201.9814   4.7293199821e+01   5.3283330858e+00    0.1979743    0.1752497 -15.88 0.0004935079    1.079    0.073
        81  -9.2597    238.4490    200.9345   3.4499328561e+01  -4.2841843567e+00    0.1843339    0.1060719 -38.26   0.00047697    1.501    0.334
        82  -9.7371    120.3055    199.9087   5.9714351814e+01   1.5169794814e+01     0.250879    0.1798877 -58.50 0.0008898025    1.486    0.327
        83 -10.0564    177.4879    198.0589   4.5860279775e+01   5.5795565770e+00    0.3006054    0.1395037 -52.08  0.001098656    2.450    0.592
        84  -9.6820    193.3134    197.6421   4.2423819017e+01   3.0243123767e+00    0.1331915    0.1136215 -88.18 0.0004794043    1.744    0.427
        85 -10.1161    134.9055    196.5745   5.5496120596e+01   1.3374920397e+01    0.2613163    0.2138809 -57.41 0.0005433779    1.306    0.234
        86  -9.2351     50.4919    197.4818   7.7366239433e+01   2.6493238845e+01    0.1415677    0.1241683  74.92 7.597277e-05    1.028    0.028
        87  -9.7033     40.3805    196.8001   7.9868791006e+01   2.7903175595e+01    0.2367319    0.1558395 -65.40 0.0007513779    1.451    0.311
        88 -11.9306     15.3777    192.2202   8.5674872294e+01   3.1692815902e+01    0.3993406    0.3576635 -34.81   0.00155731    1.415    0.293
        89  -9.1427    209.6378    193.1564   3.8313037136e+01   1.2638786017e+00    0.1839618    0.1130447 -31.97  0.000233368    1.542    0.352
        90  -9.6572     61.6156    192.6632   7.3871806137e+01   2.6229200150e+01    0.2821322    0.1223218 -60.16  0.001126505    2.192    0.544
        91  -9.0124      2.4822    193.4628   8.8878045297e+01   3.2537089428e+01    0.1272442    0.1038434  84.55 7.482887e-05    1.006    0.006
        92  -9.8490    224.3802    189.7133   3.4906095033e+01  -3.6042150626e-01    0.3993075     0.211106 -14.30  0.001510123    3.486    0.713
        93 -10.2500    244.4310    188.7318   3.1260304511e+01  -3.0456912483e+00      0.26568    0.2039543 -67.13  0.001509778    2.051    0.512
        94  -9.2636    145.2056    189.8415   5.1734974721e+01   1.3046172722e+01    0.2042778    0.1737436  -2.61 0.0005307905    1.290    0.225
        95  -8.6720    232.2976    188.2820   3.3232756002e+01  -1.2684249432e+00    0.1283078   0.08974322 -11.72  0.000235191    1.543    0.352
        96  -9.2512      2.3039    187.3360   8.8470556095e+01   3.4036022616e+01     0.126873   0.08457867 -51.23 0.0007038519    1.667    0.400
        97 -10.0515     62.0641    184.7245   7.2673981730e+01   2.8180658696e+01    0.2746108    0.2064975 -61.60 0.0008550502    1.301    0.232
        98 -11.8260     15.3629    182.0137   8.4771634543e+01   3.4223895819e+01    0.4926274    0.2892877  62.60  0.002441091    1.712    0.416
        99  -9.0587      5.3352    184.2821   8.7492188068e+01   3.4534447457e+01    0.1238014   0.08895667 -46.60 0.0007008464    1.618    0.382
       100 -10.7283     23.2070    180.4438   8.2583699519e+01   3.3873860087e+01    0.3573616    0.1963672  59.19  0.001695949    1.905    0.475
       101  -9.7914      1.4848    180.4592   8.8144337149e+01   3.5783814884e+01    0.1560399    0.1263546   0.82 0.0009625607    1.652    0.395
       102  -9.6584    175.8253    178.7462   4.2457433567e+01   9.8661410043e+00    0.2508489    0.1571748  -6.35 0.0009480263    2.755    0.637
       103  -9.2282    216.6055    173.3864   3.3171379768e+01   3.8478396873e+00    0.2625661     0.113139 -53.84 0.0009555067    3.116    0.679
       104 -11.8475      7.7359    172.6178   8.5888410591e+01   3.7232751040e+01    0.3685562    0.2209941 -88.45   0.00193586    1.513    0.339
       105 -10.5267    187.6773    189.4707   4.2031228242e+01   5.5693208106e+00    0.2514907    0.1628505 -24.32 0.0007557755    1.739    0.425
       106 -11.2255     17.3254    172.1503   8.3298995350e+01   3.6529494062e+01    0.4237383     0.212365  68.96   0.00184167    2.345    0.574
       107  -9.0004    155.3108    172.2954   4.5834053064e+01   1.5114966307e+01    0.1540565     0.119476  -6.98 0.0002600986    1.594    0.373
       108  -9.1850    117.9575    169.7461   5.4779604208e+01   2.2829449692e+01    0.2082699    0.1335478  36.08 0.0008826088    1.554    0.357
       109  -9.7999    177.0276    167.9946   3.9991270012e+01   1.1921841920e+01    0.2459544    0.1802859  -9.73  0.001131421    1.750    0.429
       110  -9.8515    206.9923    166.6739   3.3620237093e+01   6.7511743121e+00    0.2217344    0.1111714  20.86 0.0007051409    4.342    0.770
       111  -9.6590    185.6628    165.5243   3.7633060820e+01   1.0823210903e+01     0.267903    0.1307165 -44.86  0.001081878    1.945    0.486
       112  -9.3359     67.7671    165.5969   6.8151137160e+01   3.2318048697e+01    0.2099928    0.1325045  44.41 0.0004667606    1.602    0.376
       113  -9.2867    240.0304    162.7479   2.7090458023e+01   2.0884046749e+00    0.1449222    0.1129169  39.80  0.000489755    1.517    0.341
       114  -9.1056    133.8395    162.6525   4.9143323315e+01   2.1516812021e+01    0.2133897    0.1410502  49.47 0.0009064729    1.590    0.371
       115  -9.1687    117.0381    161.9518   5.3451307618e+01   2.4919829185e+01    0.1835788    0.1817466  87.17 0.0003466448    1.008    0.008
       116  -9.5853     55.4437    159.5040   7.0783968470e+01   3.5612131670e+01    0.2319575    0.1224097 -55.01 0.0002361241    1.772    0.436
       117 -10.0164      1.9638    157.4964   8.6040089598e+01   4.1461401887e+01    0.1680053    0.1306813  20.66 0.0005993244    1.541    0.351
       118 -10.1752    216.0146    154.2811   2.9447541608e+01   7.5725571204e+00    0.3549729    0.2771021 -33.21  0.001233464    1.185    0.156
       119  -9.8607    158.6576    153.6972   4.1080466912e+01   1.8641508157e+01    0.2808394    0.1921994  29.66  0.001236533    1.647    0.393
       120 -10.2926     11.0574    152.7587   8.2982393393e+01   4.1988610581e+01    0.3717755    0.2092511  31.96  0.001893935    1.925    0.480
       121 -12.2075     13.7807    147.9480   8.1629229461e+01   4.3000091195e+01    0.2807998    0.2227336 -82.24 0.0003403161    1.129    0.115
       122  -9.7013    234.5068    151.4847   2.5782581459e+01   4.9752969712e+00    0.1334625    0.1129593 -36.36 6.462247e-05    1.028    0.027
       123  -9.2545    222.8143    151.5990   2.7726372283e+01   6.9045077830e+00     0.173252    0.1311684  61.47  0.000939151    1.681    0.405
       124  -9.8016     35.1121    150.4616   7.5526625982e+01   4.0383003063e+01    0.2403567    0.1661756 -56.83  0.001229104    1.324    0.245
       125  -9.7866     26.5356    151.5224   7.8268549052e+01   4.0969081604e+01    0.1386561    0.1224729 -75.63 7.122389e-05    1.004    0.004
       126  -8.9062     54.9876    149.9775   6.9343514016e+01   3.8161947415e+01    0.1723945    0.1639199 -74.21            0    1.017    0.017
       127  -9.4801    143.6429    149.1241   4.3699954992e+01   2.2740053006e+01    0.2355564    0.1417362 -38.59 0.0009478058    1.774    0.436
       128  -9.1771     50.6521    148.6718   7.0462666099e+01   3.9057371048e+01    0.1555308     0.105403 -32.35 0.0007049476    1.757    0.431
       129  -9.2770    233.6414    146.7874   2.4993373622e+01   5.9680215455e+00     0.188273    0.1073022 -48.27 0.0005004957    1.577    0.366
       130  -9.2177    133.5099    147.4844   4.5919551919e+01   2.5190849786e+01    0.1572456    0.1543618 -14.41 0.0001653457    1.039    0.037
       131  -9.8065     23.3124    146.5967   7.8584133478e+01   4.2538502773e+01    0.2437099    0.1243274  30.15  0.001055192    2.092    0.522
       132 -11.0325      6.5139    145.3319   8.3484753164e+01   4.4207827481e+01     0.300675     0.204048  23.21  0.001207309    1.709    0.415
       133 -10.2784      2.5181    144.5234   8.4576303725e+01   4.4683105621e+01    0.2212309    0.1807794  76.90 0.0005575422    1.218    0.179
       134 -10.9778    217.5936    144.9944   2.7271040152e+01   9.0613251340e+00     0.363673    0.1884729  39.27  0.001398825    2.302    0.566
       135  -9.1345    155.5501    144.5103   3.9758035866e+01   2.1337744633e+01    0.1540684    0.1503232 -43.70 0.0002253441    1.008    0.008
       136  -9.7353     30.7379    144.5752   7.6010785056e+01   4.2356820197e+01    0.1945243    0.1229931  40.57 0.0009547948    1.690    0.408
       137 -11.0362     17.4015    142.9914   7.9916489332e+01   4.3973263463e+01    0.2943539    0.1924161  66.40  0.001214445    1.739    0.425
       138 -11.0824     13.9784    140.0344   8.0589231781e+01   4.5000315289e+01    0.3357404    0.1955124 -35.09  0.001546109    1.976    0.494
       139 -10.5336    239.6678    140.3207   2.2793872958e+01   6.1359381416e+00     0.232574    0.1929893 -34.38 0.0005085703    1.118    0.106
       140  -9.3754    189.0143    140.0742   3.1492261411e+01   1.5441130422e+01     0.225086    0.1771677 -81.17 0.0005953323    1.610    0.379
       141  -9.6873    235.2841    138.0143   2.3000271594e+01   7.2783492727e+00    0.1917174    0.1478402 -44.69  0.000399378    1.099    0.090
       142 -10.6101     44.2245    136.9896   7.0493687192e+01   4.2866677107e+01    0.2860022    0.1748931 -53.83  0.001342215    1.487    0.327
       143  -9.9805     47.0436    133.6974   6.8979768888e+01   4.3380499239e+01    0.2400659    0.1945917 -14.95  0.000752459    1.415    0.293
       144 -12.9270     37.5076    134.8582   7.2313255842e+01   4.4165944177e+01    0.5422894    0.2859407 -68.98  0.001203374    1.826    0.452
       145  -8.9794    143.7069    136.7061   4.0830816686e+01   2.5583197316e+01    0.1544977    0.1257157  -5.39 0.0001991945    1.556    0.357
       146  -9.2972      9.4500    136.5035   8.1546822711e+01   4.6230766596e+01     0.132978    0.1135878 -75.29 6.561256e-05    1.039    0.037
       147 -10.8334    241.0463    134.3968   2.1430165848e+01   6.9587398363e+00    0.3003989    0.2291382  61.45  0.001666065    1.613    0.380
       148  -9.7808    207.5246    135.5500   2.7046660603e+01   1.2729626555e+01    0.1416384    0.1275391 -51.41 3.533581e-05    1.032    0.031
       149  -9.7754     20.5358    134.9832   7.7835327886e+01   4.5756274826e+01    0.2171897    0.1203359 -69.41 0.0008525541    1.596    0.373
       150 -11.3138     16.2062    131.4945   7.8730966005e+01   4.6993450285e+01    0.3964852     0.277229  20.16  0.002187426    1.640    0.390
       151 -10.5914     67.4986    127.9582   6.1071613030e+01   4.2082417947e+01    0.3578787    0.1432185 -57.29  0.001275347    2.395    0.582
       152 -10.5398     53.3439    132.4859   6.6675103649e+01   4.2905281810e+01     0.345818    0.2235621 -52.87 0.0008860812    1.428    0.300
       153 -10.1006     59.0133    131.6485   6.4641020577e+01   4.2363992089e+01    0.2517042    0.1951664 -73.65 0.0006481769    1.353    0.261
       154  -9.3830     64.3070    131.0665   6.2782349745e+01   4.1765835030e+01    0.2143752    0.1814668 -52.52 0.0006600547    1.121    0.108
       155 -11.7483      4.8505    129.7935   8.2153255040e+01   4.8224574744e+01    0.3166983      0.21185 -66.08 0.0003494653    1.241    0.194
       156 -10.2211    216.9637    129.1884   2.4095034048e+01   1.2159045129e+01    0.2421621    0.1804651 -43.57 0.0004034893    1.192    0.161
       157 -10.6350     73.5900    128.9591   5.9299463460e+01   4.0894233948e+01    0.3420796    0.2769147 -57.27 0.0007683668    1.203    0.169
       158 -10.8429     24.9935    128.0228   7.5316387262e+01   4.7138196524e+01    0.3800359    0.2697563  83.55  0.001971926    1.620    0.383
       159 -10.0819    229.7421    124.6180   2.1148755212e+01   1.0656464428e+01    0.1837781    0.1506655 -42.93 0.0006849371    1.089    0.082
       160 -11.5549     47.0949    124.1618   6.7134843592e+01   4.5802130353e+01      0.28033    0.2375675  11.25 0.0003945135    1.287    0.223
       161 -10.3765     82.8919    124.5132   5.5280877605e+01   4.0469782789e+01    0.3075224    0.2286862 -55.44  0.000767159    1.332    0.249
       162 -10.7764     57.2812    121.6763   6.3136757892e+01   4.5118305031e+01    0.3628452    0.2744502  76.11  0.001383234    1.710    0.415
       163 -10.0687     61.0736    121.4804   6.1802342365e+01   4.4640448907e+01    0.2537661    0.1930653 -43.37 0.0005438766    1.267    0.211
       164 -11.5648      9.5768    121.5502   7.9494649506e+01   4.9967285279e+01    0.4461643    0.2636445  70.68   0.00101627    2.212    0.548
       165 -10.6366     68.1619    121.6598   5.9450750537e+01   4.3555267819e+01    0.2563906    0.2002013 -66.51 0.0007577703    1.344    0.256
       166  -9.6303     20.0627    121.7495   7.5969519545e+01   4.9137483043e+01    0.2891864    0.1671646 -37.14  0.001401634    1.799    0.444
       167  -9.4186     35.2951    121.6177   7.0702471773e+01   4.7764333617e+01    0.1736051     0.134281   2.31 0.0004376431    1.475    0.322
       168  -9.0175    228.3180    119.6674   2.0353449416e+01   1.1803699551e+01    0.1381738   0.09516513 -69.09 0.0003200026    1.692    0.409
       169  -9.6496     85.4592    117.7477   5.2823632750e+01   4.1666508901e+01    0.3875231    0.1184601 -43.86  0.001118615    3.589    0.721
       170 -10.2031     25.0147    118.6894   7.3745018432e+01   4.9480938145e+01     0.262675    0.1917664 -74.46  0.001039406    1.350    0.259
       171 -10.9691      2.7873    117.0307   8.1148410441e+01   5.1505685868e+01    0.4473211    0.2163786 -43.50  0.002171232    1.925    0.480
       172 -10.1970    248.4891    118.1714   1.7251031839e+01   8.5332204708e+00    0.2148769     0.153711  22.85  0.001166314    2.322    0.569
       173  -9.7973    119.9922    117.5400   4.2378109654e+01   3.4976291450e+01    0.2469726    0.1537966  41.46  0.001032246    1.605    0.377
       174  -9.1360    153.4752    115.9651   3.3465275373e+01   2.8022344881e+01      0.23151    0.1304054 -65.35 0.0008098694    2.693    0.629
       175 -10.4942     16.1538    115.4620   7.6296507741e+01   5.1004505918e+01    0.2514682    0.2095744 -84.96 0.0004657546    1.249    0.199
       176 -11.6810     12.4167    109.7520   7.6676392251e+01   5.2671611916e+01    0.3708968    0.3435151  55.87 0.0007353058    1.257    0.204
       177 -10.7195     20.1348    108.1616   7.3599773543e+01   5.2480290793e+01    0.4538401    0.2240985   3.80  0.001874316    2.675    0.626
       178  -9.8768    182.0515    115.0399   2.7192037111e+01   2.1937883315e+01    0.2243616    0.2026708 -68.71 0.0004369909    1.073    0.068
       179 -10.6019     70.6569    114.4990   5.6927976209e+01   4.4920353899e+01    0.3089954    0.2574129  81.88  0.001222294    1.488    0.328
       180 -11.4212     55.2446    109.8316   6.1180539942e+01   4.8300379380e+01    0.3120264    0.2686477 -32.26 0.0006362427    1.120    0.107
       181 -11.7911     30.9869    107.5583   6.9498355933e+01   5.1664619396e+01    0.4906411    0.3430967  87.49  0.002364602    1.892    0.471
       182  -8.8393    206.7185    110.6308   2.1804876095e+01   1.7615420356e+01    0.1361308    0.1100394 -11.14 0.0007014378    1.693    0.409
       183  -9.8224     44.2932    108.6876   6.4864759804e+01   4.9961764285e+01    0.2309108    0.1734542  25.02 0.0008942421    1.412    0.292
       184 -10.5921     62.9093    107.0157   5.7779285659e+01   4.7889337424e+01    0.2465968    0.1708114 -20.96 0.0007955668    1.727    0.421
       185 -10.3500      3.9382    105.8375   7.9097353191e+01   5.4151336978e+01    0.3551928    0.3271407  15.15  0.002388794    1.270    0.212
       186  -9.4707    123.1809    106.6304   3.8658383863e+01   3.6703367213e+01    0.2275928    0.1428061  34.87 0.0005881605    1.743    0.426
       187  -9.1010    109.3995    105.8419   4.2334930890e+01   3.9798742204e+01    0.2055712    0.1450921 -34.19 0.0004940295    1.545    0.353
       188 -11.8365     74.9846    104.1905   5.2850792104e+01   4.6650949751e+01    0.3638893    0.2893822  55.19 0.0002803981    1.456    0.313
       189  -9.9889     50.5378    103.9143   6.1479056136e+01   5.0333219229e+01    0.2630172    0.1904684  43.85 0.0009093938    1.556    0.357
       190  -9.4798     42.4668    103.9469   6.4466306625e+01   5.1312011147e+01    0.2055356    0.1283773 -55.78 0.0004886596    1.479    0.324
       191  -9.6904    105.8606    103.1726   4.2657826117e+01   4.1110441117e+01    0.2044267    0.1784204   6.79 0.0003601144    1.271    0.213
       192 -10.6561     76.1714     98.5326   5.0928450332e+01   4.7733856845e+01    0.7633136    0.4066115  14.29  0.002589244    3.365    0.703
       193  -8.7727    101.3122    102.3208   4.3797374519e+01   4.2217529834e+01    0.1563574    0.1210517  -4.72 0.0007037825    1.651    0.394
       194 -10.2395     92.0610    101.3666   4.6427338063e+01   4.4235602262e+01    0.3024465     0.271569  72.30  0.001167348    1.281    0.219
       195  -8.9981    120.2947    101.3374   3.8024531735e+01   3.8454919638e+01    0.1554063    0.1232763  -1.46 0.0005635248    1.649    0.394
       196  -9.7491     22.2758    101.9954   7.1624349685e+01   5.3787283659e+01    0.2879175    0.1566807 -37.26   0.00137627    1.799    0.444
       197 -10.9233     61.8827     99.0216   5.6110368842e+01   4.9900163321e+01    0.4290231    0.2571759 -37.95  0.001540828    1.697    0.411
       198 -10.7035    248.8380     98.9421   1.3515998263e+01   1.1688566143e+01    0.2565582    0.1840127 -37.19  0.001265343    1.397    0.284
       199  -9.8791     33.3481     98.5335   6.6674674528e+01   5.3581762111e+01    0.3159067    0.2062668 -27.21  0.001595801    1.611    0.379
       200  -9.3891     10.2003     99.1507   7.5652309550e+01   5.5359890732e+01    0.1590795    0.1395933 -86.66 0.0002563518    1.272    0.214
       201 -10.3019     51.9050     97.3599   5.9352798256e+01   5.1682044625e+01    0.2907964    0.1918594 -34.68 0.0007186086    1.520    0.342
       202  -9.7718     42.0397     97.7637   6.3175510823e+01   5.2815418498e+01    0.2816348    0.1838933  86.30  0.001058708    2.684    0.627
       203 -11.1400     15.1701     96.7101   7.3292637333e+01   5.5591427447e+01    0.3396622     0.202186 -45.84  0.001486744    1.434    0.302
       204 -10.5817     14.6325     91.9566   7.2552936595e+01   5.6735485564e+01    0.3796904    0.1719261 -50.83  0.001799282    1.782    0.439
       205 -11.9736     57.4898     90.8566   5.5542897674e+01   5.2375199418e+01     0.518427     0.324125 -36.67 0.0006445179    1.596    0.373
       206  -9.3163    226.7876     93.7855   1.5264499531e+01   1.6605188012e+01    0.1872385    0.1346024 -67.84 0.0006268715    1.357    0.263
       207  -8.9104     63.2637     93.3267   5.4083055302e+01   5.0974623887e+01    0.1470632    0.1047622 -22.05 0.0004330185    1.566    0.361
       208  -8.7429    159.5438     92.5338   2.6230970955e+01   3.1324074482e+01    0.1507212    0.1374005 -84.59 1.949314e-05    1.072    0.067
       209 -10.6064     35.6459     90.7234   6.3940291519e+01   5.5143590484e+01    0.3124794    0.2446032  65.60  0.001690428    1.762    0.432
       210  -9.9658      7.0123     92.3437   7.5628021281e+01   5.7149611684e+01    0.2019399   0.06400936  40.21 0.0007050676    4.457    0.776
       211  -9.7065    231.5223     91.4541   1.4173823168e+01   1.6084814400e+01    0.1301744    0.1092561 -60.80 5.472255e-05    1.015    0.015
       212  -8.6343     42.3289     91.2887   6.1460254047e+01   5.4264143283e+01    0.1443907   0.09659517 -22.85   0.00038102    1.618    0.382
       213 -10.2217     22.7846     89.2498   6.8719073495e+01   5.6714512238e+01     0.450193    0.3488365  87.64  0.002533515    1.714    0.416
       214 -10.7008     48.8433     89.9004   5.8572475294e+01   5.3768462852e+01    0.2364762      0.20659  38.66  0.001359859    1.280    0.219
       215  -9.4763     74.0823     88.9245   4.8958635941e+01   5.0183083687e+01    0.2005282    0.1953837  86.58  0.001148233    1.188    0.159
       216 -11.2912    184.7834     85.2599   1.9688348255e+01   2.6887247623e+01    0.2420396    0.2126864 -72.31 0.0002671137    1.049    0.047
       217 -11.0687    108.3261     85.4220   3.6917433146e+01   4.4264184731e+01    0.4123322    0.2462022  63.27  0.001540853    2.271    0.560
       218 -10.6036    239.6399     84.8361   1.1869165190e+01   1.5633280228e+01    0.1933729    0.1721314  71.00 0.0008386101    1.313    0.238
       219  -9.4413     31.4585     92.3179   6.5976183579e+01   5.5212255044e+01    0.1736172    0.1264784 -67.78 0.0009274786    1.488    0.328
       220  -9.8569      8.3930     85.0260   7.3641705574e+01   5.8734731832e+01    0.2089664    0.1701609  51.89  0.001193195    1.574    0.365
       221  -9.3054      4.0546     85.5280   7.5507016335e+01   5.8878076003e+01     0.169152     0.120555   9.60 0.0009147337    1.552    0.356
       222  -8.9828     26.3760     84.2534   6.6083994813e+01   5.7518298406e+01    0.1384479   0.08731631 -23.28 0.0006962388    1.649    0.394
       223  -9.1938    173.6539     82.7764   2.1038207751e+01   2.9843557768e+01    0.1963754    0.1244655 -51.20 0.0005519016    1.562    0.360
       224  -9.2175     42.5001     83.5401   5.9349964968e+01   5.5957973474e+01    0.1395798    0.1195592 -22.47 0.0002671174    1.058    0.055
       225 -11.0735    119.8046     80.0438   3.2166779870e+01   4.2771473118e+01    0.4240536    0.3357363  26.98  0.001028472    1.414    0.293
       226  -9.7463     77.2522     82.2027   4.5864302611e+01   5.1023651491e+01    0.3701687     0.106553  41.64  0.001168276    3.433    0.709
       227  -8.9578     68.6766     82.2533   4.8934546158e+01   5.2483167874e+01    0.1340586    0.1117851  62.93 0.0001929806    1.543    0.352
       228 -10.3881     64.2892     80.7457   5.0098780609e+01   5.3502115700e+01    0.3548738    0.2086307 -40.56  0.001184042    1.675    0.403
       229 -11.5182     21.6549     77.3601   6.6343728170e+01   5.9447915625e+01    0.7366064    0.3805432 -22.37  0.002421015    2.255    0.557
       230  -9.8329     25.7684     70.5397   6.2759744097e+01   6.0517849995e+01    0.3280051    0.2258578  55.28  0.001711137    2.259    0.557
       231 -10.0327      1.8025     80.5382   7.5449068378e+01   6.0116755166e+01    0.3160375   0.09445611 -48.31  0.001348202    2.415    0.586
       232  -9.6329    249.6893     80.6664   9.9487450078e+00   1.4455613203e+01    0.1085655   0.09569892 -14.84 0.0004936043    1.677    0.404
       233 -12.3200     88.4731     77.1734   4.0539750687e+01   4.9917702221e+01    0.3752913    0.3071444  22.17 0.0003410901    1.231    0.187
       234  -9.9085     50.0739     78.0792   5.4778435128e+01   5.6145492936e+01    0.2085499    0.1650712 -21.14 0.0003359122    1.211    0.174
       235 -10.2445    168.5436     75.2506   2.0093285287e+01   3.2310712404e+01    0.4247977    0.2157799 -50.71  0.001787336    2.046    0.511
       236 -10.5701     99.8982     76.6215   3.6781997361e+01   4.7716502713e+01    0.2640477    0.2166391 -47.20 0.0005621894    1.310    0.237
       237  -9.5471     37.0807     76.5114   5.9612646512e+01   5.8092429345e+01     0.211989     0.159999 -21.55 0.0005515627    1.255    0.203
       238  -9.2136    211.8843     76.1937   1.3557158069e+01   2.2517583707e+01    0.1616694    0.1503511 -44.80 0.0004980027    1.267    0.211
       239 -10.3536     55.8301     74.8859   5.1550193931e+01   5.5982970927e+01    0.2593296    0.1564434  23.18  0.001240201    1.722    0.419
       240  -9.3301     76.0288     74.4745   4.3913188080e+01   5.2762488083e+01    0.2209075    0.1340358  40.20  0.001029759    1.605    0.377
       241  -9.8219     44.6631     74.5173   5.5906673009e+01   5.7591818848e+01    0.2087403    0.1862095  28.49  0.001265294    1.235    0.190
       242 -10.5816     45.0117     70.8678   5.4663508473e+01   5.8284672344e+01    0.2065413    0.1756494 -32.24  0.000363805    1.114    0.102
       243 -10.5785      8.4539     73.5454   7.1106662256e+01   6.1258019507e+01    0.5051594    0.2335914  15.39  0.001583607    2.322    0.569
       244 -13.6349     16.4979     67.3383   6.5990249602e+01   6.1989332750e+01    0.4609308    0.3143231 -43.03 0.0006776343    1.242    0.195
       245  -9.1357    207.1994     73.4401   1.3591544431e+01   2.3948559764e+01    0.1730367    0.1185404  83.88 0.0003600575    1.527    0.345
       246  -9.1956    124.1305     72.8074   2.8941881533e+01   4.3086277281e+01    0.1927225    0.1675918  22.34  0.000342858    1.282    0.220
       247 -11.7986    102.9386     69.7468   3.3759331965e+01   4.8313381525e+01    0.3609709    0.2817451 -43.16 0.0009745718    1.375    0.273
       248  -9.8423    160.0215     71.9033   2.0821354003e+01   3.4858884226e+01    0.2094182    0.1943762  81.13 0.0003657812    1.031    0.030
       249  -9.5055      1.3406     71.8853   7.3837896553e+01   6.2028562689e+01    0.1915532    0.1026215 -59.17 0.0004319481    1.588    0.370
       250 -11.5933      4.9735     61.1773   6.9647791758e+01   6.4059509653e+01      0.66906     0.308585  -4.43  0.002838109    2.541    0.606
       251 -11.3608      6.3809     67.8251   7.0665311110e+01   6.2601937313e+01    0.2296321    0.1884373 -18.96 0.0002725602    1.129    0.114
       252  -9.9204      2.3695     67.7652   7.2453231548e+01   6.2848241128e+01    0.2491785     0.142514 -56.21  0.001242711    1.482    0.325
       253  -8.9434    175.5376     70.4534   1.7681103097e+01   3.1480741406e+01    0.1407685    0.1257835 -86.07  0.000110297    1.007    0.007
       254  -8.9793    167.7855     69.4221   1.8761015179e+01   3.3446880499e+01    0.1874706    0.1259685  51.61 0.0004355569    1.509    0.337
       255 -11.0916     92.5415     67.8084   3.6292642610e+01   5.0819530544e+01    0.2682193    0.2427057  24.93 0.0002800693    1.039    0.038
       256  -9.6676     79.2322     69.3720   4.1172463654e+01   5.3131994999e+01    0.2053792    0.1267095  48.38  0.000953551    1.711    0.416
       257 -11.4913     50.4960     68.1130   5.1559627764e+01   5.8083914981e+01    0.3346527    0.2460801   0.84 0.0005613457    1.410    0.291
       258  -9.5752     74.6500     67.7023   4.2231071739e+01   5.4273946296e+01     0.277351    0.1948204   0.13  0.001038766    1.781    0.439
       259 -10.9605    129.4749     66.1752   2.5709713648e+01   4.2970494597e+01    0.3474595    0.2618685  35.15 0.0006972082    1.453    0.312
       260 -11.6959    122.3421     62.9092   2.6459666467e+01   4.5143986794e+01    0.4969235    0.4004559 -83.48  0.001398616    1.499    0.333
       261  -9.8388    115.0053     60.0148   2.7425142202e+01   4.7272258035e+01     0.260932    0.1854433  50.56 0.0003146095    1.287    0.223
       262 -10.2263     60.4760     66.3665   4.7042312088e+01   5.6921162805e+01    0.3338916    0.2020109 -56.88  0.001545622    2.202    0.546
       263 -12.6358     30.0571     63.1712   5.8712399603e+01   6.1570990442e+01    0.4933239    0.4108084 -13.54   0.00121132    1.042    0.040
       264  -9.4408    148.8776     66.1453   2.1475421215e+01   3.8421622136e+01    0.1942266    0.1685865  32.13 0.0009790466    1.343    0.256
       265 -11.2406    115.6773     55.2373   2.5777959051e+01   4.7853426941e+01    0.3288944    0.2422845  69.88 0.0006984504    1.479    0.324
       266  -9.5707    150.2494     60.2955   1.9619584788e+01   3.9012308090e+01     0.193987    0.1544372 -79.94  0.001016523    1.336    0.252
       267  -9.4933    153.5823     58.7604   1.8573753124e+01   3.8456055202e+01    0.2309634    0.1889163 -84.61  0.001276848    1.240    0.193
       268 -11.1883    160.8214     63.1525   1.8401503033e+01   3.6073966718e+01    0.4152042    0.2943216  21.63 0.0008168748    2.286    0.563
       269 -10.2443    155.1021     63.2139   1.9474020900e+01   3.7414017012e+01    0.2915196    0.2468145 -54.85 0.0008144259    1.208    0.172
       270 -10.2097    109.1426     64.3536   3.0326362514e+01   4.7882022016e+01    0.2250323    0.1971057 -11.63 0.0005225809    1.271    0.213
       271 -10.2425     81.2333     64.7841   3.8994323727e+01   5.3574802762e+01    0.3204793    0.1819074  43.55  0.001249404    1.681    0.405
       272 -11.2430    209.8763     62.9327   1.0971021269e+01   2.5010035131e+01    0.2328562    0.1830231 -55.96 0.0003380105    1.156    0.135
       273  -9.7548     45.3023     64.3049   5.2479073506e+01   5.9526001038e+01    0.1990102    0.1278721  23.82 0.0004693435    1.524    0.344
       274 -11.8474     46.5866     60.4834   5.0686631833e+01   6.0067202053e+01    0.3826361    0.3448136 -13.83  0.000795573    1.099    0.090
       275  -8.7727    193.6703     62.6820   1.3056467646e+01   2.8580410505e+01    0.1260486    0.1056096  31.47 0.0006989911    1.685    0.406
       276 -10.0945     90.4547     61.0593   3.4759183487e+01   5.2392229728e+01    0.3067141    0.1864441  49.11 0.0008081653    1.592    0.372
       277 -10.4924    189.2589     60.0491   1.3073698887e+01   2.9967531549e+01    0.2233485    0.1738277  81.96 0.0002992491    1.190    0.160
       278  -9.8207    167.6906     59.6797   1.6316910809e+01   3.4991293663e+01    0.2874551    0.1753188 -71.89 0.0009478315    2.060    0.514
       279 -10.7458    135.7119     58.5596   2.2105352707e+01   4.2711254356e+01    0.3715523    0.2555268  79.66  0.001447786    1.702    0.412
       280 -10.5929     58.1001     59.6874   4.5736751631e+01   5.8509434318e+01    0.3021097    0.1911802  47.90  0.001501394    1.893    0.472
       281  -9.2104    159.5295    249.4871   5.8486068797e+01  -1.3460951641e+00    0.1321825    0.1123595  18.21 0.0001982577    1.002    0.002
       282 -10.0610    128.3346     52.9628   2.2092402314e+01   4.5271238771e+01    0.5055222    0.2822396 -68.70   0.00179584    3.388    0.705
       283 -11.4485     89.6051     54.1558   3.2724551556e+01   5.3670246719e+01    0.5457394    0.3962182 -44.55  0.002914271    1.568    0.362
       284  -9.4531     15.0808     58.5131   6.4173413046e+01   6.3879465308e+01    0.1728428    0.1123408   7.94 0.0004946019    1.533    0.348
       285  -9.4897    177.3571     56.6978   1.4032369514e+01   3.3185120660e+01    0.2421791    0.1512974  78.49 0.0007539267    1.643    0.391
       286  -9.8666    110.4724     57.0026   2.7669352227e+01   4.8757123165e+01    0.2598951     0.190819  68.80 0.0006671243    1.528    0.346
       287  -9.0354     38.6707     57.7306   5.3159718826e+01   6.1611616508e+01    0.1328087   0.08866305  -9.74 0.0003949445    1.581    0.368
       288  -9.7458    172.1766     56.0536   1.4679195263e+01   3.4482457378e+01     0.197279    0.1815967  48.66 0.0005498365    1.277    0.217
       289  -9.9998     80.9711     55.5844   3.5993460212e+01   5.5165052068e+01    0.4006579    0.2051271  23.64  0.001508471    3.026    0.670
       290 -11.3402     16.8810     42.4062   5.8139780057e+01   6.6714634023e+01    0.6676343    0.2756442 -40.23  0.003308859    2.107    0.525
       291 -11.7897      3.3419     53.1336   6.8272111026e+01   6.5758367776e+01    0.7471274    0.2591919 -55.65  0.003484457    2.413    0.586
       292 -10.8416      7.8889     51.5446   6.5582918366e+01   6.5768295766e+01    0.3244571    0.2520078 -83.30 0.0008299552    2.009    0.502
       293 -11.4065     13.0867     53.1383   6.3524433612e+01   6.5078019894e+01    0.4552446    0.2361475 -19.22  0.001542421    2.051    0.512
       294 -11.6459     27.8561     37.6535   5.0956382699e+01   6.6366453688e+01    0.2300161      0.18198  -1.46 0.0003139321    1.038    0.037
       295 -11.1976     24.1809     34.7994   5.1658011295e+01   6.7238555662e+01    0.3146894    0.2229626 -12.11  0.000604655    1.232    0.188
       296 -13.0707     12.5542     47.9677   6.2170762047e+01   6.6089635844e+01    0.3638015    0.2436639  16.66 0.0004946552    1.488    0.328
       297 -12.2443     10.0494     43.5326   6.1988357524e+01   6.7095122070e+01    0.6441072    0.3011259  22.00   0.00344878    2.120    0.528
       298  -9.2830     98.8407     55.3984   3.0369103831e+01   5.1546293349e+01    0.2137772     0.116196  39.66 0.0009495726    1.786    0.440
       299 -10.6045    137.6127     52.6532   2.0015411456e+01   4.3136484552e+01    0.6247579    0.2034846  61.14  0.002122481    3.113    0.679
       300 -11.5294    105.2924     52.4654   2.7608497465e+01   5.0588723650e+01    0.3510162    0.2336057  42.00 0.0001978069    1.399    0.285
       301  -9.9550    105.5959     47.4471   2.5899538559e+01   5.1244041324e+01    0.2858117    0.2077793  88.93  0.001410647    1.985    0.496
       302 -10.4713     39.0557     50.6645   5.0559978906e+01   6.2825026472e+01      0.54739     0.272158 -30.96  0.002605031    2.107    0.525
       303 -12.0730     54.9479     49.1610   4.3282510302e+01   6.0790612653e+01     0.691012    0.4966699  23.73  0.003972999    1.277    0.217
       304 -11.9323     52.5243     42.8703   4.1931579179e+01   6.2162528597e+01      1.52666    0.4848085  29.78  0.004915352    4.471    0.776
       305 -11.2361     56.7171     35.7391   3.7502770160e+01   6.2518262387e+01    0.6660502    0.3758402  26.49  0.003413861    1.763    0.433
       306 -12.6107     44.4364     43.7781   4.5681259617e+01   6.3236886496e+01    0.4623699      0.34767 -43.49 0.0003032942    1.540    0.351
       307 -10.0790     83.4732     50.4944   3.3415894318e+01   5.5465999801e+01    0.1884297    0.1298985 -45.01 0.0009772741    1.691    0.408
       308 -10.2396     76.2138     50.3845   3.5796723174e+01   5.6891807184e+01    0.1973562    0.1590889  27.37 0.0003388567    1.123    0.110
       309 -10.4632    201.8503     48.9889   8.9374662082e+00   2.8769106600e+01    0.2038899    0.1628495  81.32 0.0002696677    1.148    0.129
       310  -8.8553    185.2378     49.3454   1.1143360622e+01   3.2430662217e+01    0.1156394     0.104307  21.28 0.0002162384    1.561    0.359
       311 -10.7844    180.2758     47.1757   1.1316730849e+01   3.3867099946e+01    0.2430572    0.1850876 -80.00 0.0002099844    1.230    0.187
       312  -9.1587    163.8331     48.2023   1.4034276385e+01   3.7556271640e+01    0.1673038    0.1537848  49.85 0.0004791692    1.252    0.201
       313  -9.9361    126.9744     43.4546   1.9556249511e+01   4.6905228317e+01    0.3293716    0.1976332  71.99 0.0007432337    1.816    0.449
       314 -11.6355    121.3912     46.8582   2.1823239386e+01   4.7745565320e+01    0.2857187    0.2242037  63.22 0.0003278747    1.182    0.154
       315 -10.9277    121.5018     42.4847   2.0457579149e+01   4.8305652568e+01    0.6811754    0.3861823  89.84  0.002511326    3.589    0.721
       316 -10.3649    240.7066     34.4354   2.1790519276e+00   2.2723954267e+01    0.3316877    0.1614179 -78.76   0.00173174    2.206    0.547
       317  -9.6624    247.7401     46.9559   3.8808064870e+00   1.9737047682e+01    0.2076295    0.1464263 -53.69 0.0007048236    1.198    0.165
       318 -11.1806    246.0755     41.5731   3.0417923680e+00   2.0772429191e+01    0.3415839     0.222656 -55.59  0.000822135    1.231    0.187
       319 -11.0655    247.7874     36.0179   1.9030022813e+00   2.1180047471e+01    0.2833675    0.2229196  74.12  0.001377104    1.434    0.303
       320 -11.1974    142.8058     44.0622   1.6568912501e+01   4.3094278831e+01    0.5952778    0.4248405  37.60  0.003150741    1.638    0.390
       321  -9.7886    237.3716     44.3815   4.3116123548e+00   2.2057782790e+01    0.1812946    0.1599457 -73.33 0.0006001192    1.241    0.194
       322  -8.8591    222.3202     45.7318   6.0054090087e+00   2.4878764856e+01    0.1270736   0.07699056 -72.37 0.0001974001    1.561    0.359
       323 -10.4143    110.6591     34.0442   2.0278338223e+01   5.1846302042e+01    0.3540022    0.2370849  34.24  0.001873202    1.604    0.377
       324  -9.2866    112.2541     45.3561   2.3526065176e+01   5.0041542196e+01    0.1973771    0.1656004  55.25 0.0004131601    1.072    0.067
       325 -11.5880    108.8347     42.1597   2.3348824600e+01   5.1239839558e+01    0.4004948    0.3051576  13.04  0.001467827    1.619    0.383
       326  -9.4884     92.0000     44.9775   2.8871093428e+01   5.4523528045e+01    0.2513575    0.1597985 -31.10 0.0007035011    1.745    0.427
       327  -9.5632     90.0445     41.5480   2.8261751505e+01   5.5402410851e+01    0.2656074    0.1667009  62.55  0.001299628    1.845    0.458
       328 -10.2687     97.8837     41.2086   2.5906757133e+01   5.3780697215e+01     0.455791    0.3018652  77.36  0.002027933    2.218    0.549
       329  -9.9834    102.7565     40.6167   2.4398811311e+01   5.2794194564e+01    0.2423592    0.2281515 -26.20 0.0002914881    1.197    0.164
       330 -10.7823     72.8575     43.0976   3.4335795136e+01   5.8605854727e+01    0.3161275    0.2235254  23.79  0.001299202    1.388    0.279
       331 -10.7961     68.4830     41.5313   3.5300864495e+01   5.9640085046e+01    0.3091417    0.2563403 -51.12  0.001477878    1.583    0.368
       332  -9.7531    131.1089     42.3067   1.8350834710e+01   4.6086869803e+01    0.2180133    0.1885654 -18.21  0.001114479    1.388    0.280
       333 -11.0464    149.1910     40.2169   1.4365404484e+01   4.2081452647e+01    0.3118048    0.2285717 -63.31  0.001132789    1.466    0.318
       334 -11.9777     84.0547     36.9865   2.8450456056e+01   5.7238816704e+01    0.6673415    0.4208881  15.32  0.002665006    2.090    0.521
       335  -9.5795    233.2489     39.4011   3.7368390882e+00   2.3529352961e+01    0.2058959    0.1264871  89.58   0.00096548    1.519    0.342
       336  -9.8242    130.8816     57.8471   2.2960182273e+01   4.3952143479e+01    0.2067836    0.1897051  66.36 -0.000430966    1.016    0.016
       337 -10.1677    225.5107     37.5508   4.0802302831e+00   2.5319959565e+01    0.1218585   0.09512638 -74.62 6.563227e-05    1.007    0.007
       338  -9.4887    136.3368     36.0522   1.5508349731e+01   4.5644070486e+01    0.1770242    0.1648376 -86.82  0.000578546    1.112    0.100
       339  -9.4026    129.4681     35.5822   1.6695029766e+01   4.7317122322e+01    0.1356993    0.1147377  56.30 7.700359e-05    1.077    0.071
       340 -10.5896     93.9546     33.0279   2.4171824671e+01   5.5658154757e+01     0.478832    0.2573843  33.61   0.00223524    2.057    0.514
       341  -9.5404    200.2968     34.6541   6.0068216588e+00   3.1017246035e+01    0.1344074   0.07859467 -68.67 0.0003298056    1.673    0.402
       342 -10.1525    101.6873     34.0201   2.2466622932e+01   5.3856013682e+01    0.1871407    0.1704593  81.90 0.0003703534    1.235    0.190
       343 -10.3867     75.8881     33.3017   2.9682191510e+01   5.9339406723e+01    0.3038559    0.1999725  46.58  0.001117031    1.356    0.263
       344  -9.9390     34.2689     33.2046   4.6144282360e+01   6.6257337038e+01    0.2046478    0.1616426  -7.18 0.0008471181    1.085    0.078
       345 -10.0300    119.0453     31.8874   1.7717414863e+01   5.0181263486e+01    0.3520912    0.1799186  32.90    0.0014159    2.782    0.641
       346 -10.5605     17.5215     31.4885   5.3755584148e+01   6.8466466047e+01    0.4358871    0.1952515  14.31   0.00183245    2.449    0.592
       347 -10.1391      2.7856     29.6750   6.1031678956e+01   7.0032374540e+01    0.3548249    0.1294128 -52.36   0.00120483    2.739    0.635
       348 -10.0951     12.1704     29.0961   5.5652941910e+01   6.9358144823e+01    0.2410144    0.1463876  13.72 0.0005605759    1.501    0.334
       349 -10.6932      1.7121     23.0127   5.9097081589e+01   7.1186228908e+01    0.3061271      0.13893 -40.94  0.001754886    1.860    0.462
       350  -9.4795      6.8695    249.2043   9.1351316595e+01   1.9568476255e+01    0.1816928    0.1183883  65.32 0.0005455873    1.205    0.170
       351  -9.7481     83.9195    248.3142   7.5097553673e+01   1.0217789747e+01    0.1872295    0.1470597  42.63 0.0005480314    1.101    0.091
       352 -11.0596     13.1795     23.7031   5.2915766489e+01   7.0090598053e+01    0.5194745    0.2099523  13.61  0.002025218    3.033    0.670
       353  -9.4847    203.7438    250.6013   4.9535880266e+01  -7.7199957348e+00    0.1715808    0.1031751  35.18 0.0009594094    1.667    0.400
       354 -11.0473     72.9075    244.8827   7.7187378885e+01   1.2490806785e+01     0.289662    0.2639757  54.99 0.0008912631    1.099    0.090
       355 -12.5577     74.6891    240.0895   7.6288298125e+01   1.3261056104e+01    0.6657485    0.5139499 -63.24  0.003325911    1.428    0.300
       356  -9.9746    196.5128     31.5049   5.7355349137e+00   3.2243352819e+01    0.1798154    0.1020007  61.94 0.0009700682    1.702    0.412
       357 -10.8101    198.5043     28.4588   4.8647858175e+00   3.2177404624e+01    0.3181526    0.1762873  89.54  0.001679279    1.767    0.434
       358  -9.7097    167.3596     30.7725   9.1211355950e+00   3.8967317077e+01    0.1925872    0.1671779 -24.89 0.0007914656    1.477    0.323
       359 -12.1503    231.8690     27.0090   1.5176695433e+00   2.5380190798e+01    0.3951023    0.2651435  86.02  0.001191956    1.306    0.234
       360  -9.0607     55.8119     30.3626   3.5722763280e+01   6.3392534094e+01    0.1734467    0.1001979  33.07 0.0003553908    1.531    0.347
       361 -10.0504     49.4699     28.0121   3.7309939247e+01   6.4747201623e+01    0.4860657    0.2578884  -0.73  0.001680979    3.303    0.697
       362 -11.2455    213.4365     27.2260   3.1458634872e+00   2.9117782296e+01     0.320353    0.2175658 -38.98  0.001966232    1.620    0.383
       363  -9.6182    125.3033     29.1719   1.5601082239e+01   4.9039420978e+01    0.2303999    0.1445266  56.62 0.0004900498    1.355    0.262
       364 -11.4888    111.9535     27.0599   1.7727909687e+01   5.2350775602e+01    0.3919177    0.2767151  43.42    0.0022342    1.324    0.245
       365  -9.8202     79.9871     27.9790   2.6392490812e+01   5.9164996275e+01    0.2680438    0.1701737  -0.95  0.001378363    2.083    0.520
       366 -10.6667     48.3444    244.6783   8.2553102889e+01   1.5802566865e+01    0.2320407    0.1412906  56.41 0.0009705042    1.432    0.301
       367 -10.6299     70.1349     26.1571   2.8852820421e+01   6.1315704842e+01    0.3906605    0.2390463  52.36  0.002129885    1.592    0.372
       368  -9.4872     61.0469     26.9490   3.2361231610e+01   6.2907218648e+01    0.2099923    0.1585238 -15.97  0.001301685    1.385    0.278
       369  -8.9892    187.6296     27.4906   5.8295382198e+00   3.4709460083e+01    0.1239103    0.1023385 -82.46 3.752018e-05    1.036    0.035
       370 -10.6441    176.5546     26.5609   6.9139710529e+00   3.7334953447e+01     0.263537    0.1930702 -66.43  4.69388e-05    1.293    0.226
       371 -10.2315    119.4725     27.2247   1.6178193901e+01   5.0608451962e+01    0.2450324    0.1648525  65.77 0.0006123987    1.326    0.246
       372  -9.2280    116.5721     23.4725   1.5601268719e+01   5.1677825846e+01    0.1644517    0.1209476 -41.64 9.839022e-06    1.575    0.365
       373 -10.2071    162.7958     29.1441   9.3463965381e+00   4.0225019132e+01    0.2651978     0.174784 -24.30  0.001027274    1.984    0.496
       374  -9.7393    218.9422     25.4470   2.2996440842e+00   2.8185775275e+01    0.1696658   0.09966879  77.81  0.000368397    1.522    0.343
       375  -9.7270     90.5580     24.9096   2.2226534634e+01   5.7310620235e+01    0.3204909    0.1511885  47.28  0.001537162    1.766    0.434
       376  -9.2432     55.1210     24.8276   3.3734248604e+01   6.4203970221e+01    0.1637177    0.1208452  11.85            0    1.274    0.215
       377 -10.1975     45.4675    244.4900   8.3155578168e+01   1.6203571635e+01    0.2347587    0.1258917  44.98 0.0005426533    1.558    0.358
       378 -10.5817    192.9761     21.3159   3.8914618794e+00   3.4234172754e+01    0.2324593    0.1797767 -31.12  0.001031588    1.644    0.392
       379 -10.3415    160.1559     21.6372   7.8131591810e+00   4.1684559847e+01    0.2842703    0.2228765  22.69  0.001226392    1.851    0.460
       380 -10.1783    156.5113     21.5492   8.2886046926e+00   4.2545470899e+01     0.211334    0.1630732  73.42 0.0007684939    1.089    0.082
       381  -9.5206    102.1570    243.8578   7.0482579603e+01   8.4466890037e+00    0.2131124    0.1668142  56.99  0.001220927    1.249    0.200
       382 -11.9354     34.1172     22.6822   4.1804688616e+01   6.7746471250e+01    0.2265942    0.1675449   6.70 0.0002173949    1.137    0.121
       383 -11.2351     58.8257    241.9491   8.0024692817e+01   1.5031963682e+01    0.4430415    0.2949152 -23.51  0.002113801    2.808    0.644
       384  -9.3414      4.4409    243.9327   9.1548451289e+01   2.0911108341e+01    0.1635773   0.09713195 -87.10 0.0004535279    1.491    0.330
       385  -9.9240     45.0969     19.8449   3.5673979102e+01   6.6459307802e+01    0.2031794    0.1638367  53.91  0.001307145    1.706    0.414
       386 -10.6916    228.6338     20.4228   5.4188569617e-01   2.6816459639e+01     0.375989    0.1333572  65.98   0.00185817    2.620    0.618
       387 -10.4425    122.3092     19.8634   1.3353739287e+01   5.0723163604e+01    0.3042507    0.1825634  43.12  0.001323126    1.678    0.404
       388  -9.1567     59.0512     21.2080   3.0753770410e+01   6.3935927464e+01    0.1662367   0.08440745  43.94 0.0005307388    1.685    0.407
       389  -9.1504     88.7754     20.1873   2.1003926273e+01   5.8184030601e+01    0.2048012    0.1347199 -76.97 0.0009614665    2.861    0.650
       390  -9.2024    210.7871     19.3475   1.8000846729e+00   3.0607810270e+01    0.1595908   0.09135095  67.82 0.0004461328    1.637    0.389
       391 -11.0519     88.8642    241.1160   7.3180029501e+01   1.0997622970e+01    0.2878002    0.2106681 -45.46  0.001333511    1.651    0.394
       392  -9.5645     33.6713    241.9423   8.5468723856e+01   1.8177290667e+01    0.1758816    0.1393749  73.11  0.000554927    1.072    0.067
       393  -9.6100    131.8385    241.4085   6.3418523048e+01   4.3714987251e+00    0.1947257    0.1193197  23.53 0.0004447192    1.656    0.396
       394  -9.2739    115.6552    240.7814   6.7011347825e+01   7.0102031648e+00    0.1776758    0.1302704 -73.06 0.0009465358    1.684    0.406
       395 -10.1669    149.9916    240.0537   5.9151917784e+01   1.8098021470e+00    0.1640898    0.1420272  22.43 0.0003691687    1.011    0.011
       396 -10.3284    196.3077    238.3504   4.9026890059e+01  -4.7589816968e+00    0.2302029    0.2088189   0.25 0.0009250435    1.178    0.151
       397 -10.2288      3.8015    238.3700   9.1380354183e+01   2.2154421077e+01    0.2161798    0.1413134 -81.95 0.0006963635    1.393    0.282
       398 -11.3958     39.4049    236.6522   8.3826877262e+01   1.8648000366e+01    0.4718683    0.2075533  54.77  0.002188726    2.106    0.525
       399 -10.1315    109.2785     16.9071   1.5013190840e+01   5.3995388169e+01    0.2446412    0.1462966  55.01 0.0007319481    1.366    0.268
       400 -10.8136     34.7589    237.5894   8.4907326925e+01   1.8995743333e+01    0.3024206    0.1788356  54.59  0.001112245    1.448    0.309
       401  -9.4397    193.2325     16.3407   2.7906094110e+00   3.4732684084e+01    0.2057966    0.1230919  86.11 0.0008702438    1.448    0.309
       402 -10.8401     30.7671    234.1308   8.5503754858e+01   2.0221896177e+01    0.4204514    0.2420065 -85.19  0.001780898    1.680    0.405
       403 -10.2676     66.9407    236.9425   7.7716778017e+01   1.5023309252e+01    0.3180555    0.2066641  37.59  0.001711862    1.396    0.284
       404  -9.2342     99.2174     15.0407   1.6597063035e+01   5.6418812965e+01    0.1429348     0.104727 -19.92 0.0006090503    1.635    0.388
       405 -10.2473     91.9072    235.6720   7.1833054142e+01   1.1704404553e+01    0.2110913    0.1890212 -46.54 0.0005064697    1.300    0.230
       406 -11.1555    183.2561    234.3763   5.1053138166e+01  -2.2074087708e+00    0.4080501    0.2139814  33.75  0.001538341    1.770    0.435
       407 -10.7633    161.2318    234.4611   5.5797387209e+01   1.1148989321e+00     0.287553     0.244636  -6.42  0.001711332    1.159    0.137
       408  -9.0776    127.3003    233.3342   6.3292500440e+01   6.6961189140e+00    0.1386444    0.1052924  -8.96 0.0004492613    1.654    0.396
       409 -10.3568     54.9216    232.1630   7.9973051540e+01   1.7695004246e+01    0.2843289    0.2054457  83.73  0.001617474    1.364    0.267
       410 -10.6924    180.7899    249.6243   5.4015437086e+01  -4.4478777147e+00    0.2849039    0.2002806  19.59  0.001669067    1.249    0.200
       411 -10.0519     59.0828    229.4611   7.8753485101e+01   1.7752833188e+01    0.1980417    0.1657998  85.73 0.0005686433    1.146    0.128
       412  -9.1053    129.5608     11.4779   9.5832937523e+00   4.9838948396e+01    0.1264254    0.1040326  69.13  9.22273e-05    1.007    0.007
       413 -10.0920    248.4026    229.2331   3.7755631337e+01  -9.9723737834e+00    0.1577859   0.09802134 -41.52 0.0009474995    1.658    0.397
       414  -9.6477     39.7637    229.5577   8.3156675089e+01   2.0187064180e+01    0.1876461   0.09875125  46.28 0.0009426853    1.645    0.392
       415  -9.8657    192.9584    227.0742   4.7808435345e+01  -2.3542733578e+00    0.2210629     0.145405  -7.30  0.001130725    1.733    0.423
       416 -10.7452     78.5080    224.0294   7.3580184118e+01   1.6269738327e+01     0.408976    0.2860334 -40.52  0.002081956    1.812    0.448
       417 -10.3529      5.1982    225.6452   9.0376812858e+01   2.4803526064e+01    0.3191823    0.1985571  35.50  0.001913863    1.625    0.385
       418  -9.9637    226.4612    224.5896   4.0848745109e+01  -6.5793809496e+00    0.2214228    0.1821079 -70.50  0.001299917    2.221    0.550
       419 -10.0700     16.0037    222.0652   8.7833988444e+01   2.4543713028e+01    0.1909749    0.1565617  72.44 0.0004557386    1.025    0.024
       420  -8.9177    188.3259    221.2874   4.7764814244e+01  -6.2810515697e-01    0.1385454   0.09589317  -3.40 0.0004098829    1.609    0.378
       421  -9.6757    126.2009    220.3753   6.1598866661e+01   9.5899680555e+00    0.2612394     0.185322  82.26  0.001204635    2.096    0.523
       422  -8.8850    118.6655    221.6815   6.3598760547e+01   1.0542696242e+01    0.1446055    0.1103466  -8.49 0.0003228918    1.698    0.411
       423 -10.3443     41.9560    220.5149   8.1852780776e+01   2.1996585452e+01    0.2589835    0.1892911  67.16  0.001012934    1.233    0.189
       424 -11.4709     48.4042    218.6544   8.0163536782e+01   2.1632355904e+01    0.6130466    0.2367319  32.56  0.002541759    2.462    0.594
       425 -10.3471     38.5513    217.2144   8.2341865283e+01   2.3178270792e+01    0.2569898     0.178472  57.23 0.0005844152    1.290    0.225
       426  -9.4807    250.3725    219.2180   3.5708226187e+01  -8.6970117646e+00    0.1629309    0.0969348 -42.48 0.0007190874    1.671    0.401
       427  -9.6657    212.1865    219.0043   4.2563734768e+01  -3.7252145691e+00    0.2153911    0.1614228  40.80  0.001048226    1.589    0.371
       428  -9.1211    198.4633    219.4587   4.5359837098e+01  -1.8214471859e+00    0.1325007    0.1159589  -3.45  7.53377e-05    1.036    0.034
       429  -9.4014    175.9988    219.2244   5.0024155886e+01   1.6702764672e+00    0.1838685    0.1063295  33.07 0.0003514632    1.641    0.391
       430 -10.5008      8.6524    216.2975   8.9050314293e+01   2.6594049814e+01    0.2774851    0.1136165  49.18  0.001328505    2.130    0.530
       431  -9.2791    204.5094    216.5184   4.3625980392e+01  -2.1917666274e+00    0.1347487    0.1127039  -7.17 0.0002680247    1.043    0.041
       432  -9.2400    135.6776    216.6870   5.8757979369e+01   8.8060500620e+00    0.1465135     0.110174  -7.01 0.0007039702    1.656    0.396
       433 -10.2036     23.9428    215.9949   8.5610035560e+01   2.5114965386e+01    0.1932629    0.1567922  73.58 0.0002997017    1.028    0.027
