#   1 NUMBER                 Running object number                                     
#   2 MAG_AUTO               Kron-like elliptical aperture magnitude                    [mag]
#   3 X_IMAGE                Object position along x                                    [pixel]
#   4 Y_IMAGE                Object position along y                                    [pixel]
#   5 X_WORLD                Barycenter position along world x axis                     [deg]
#   6 Y_WORLD                Barycenter position along world y axis                     [deg]
#   7 A_WORLD                Profile RMS along major axis (world units)                 [deg]
#   8 B_WORLD                Profile RMS along minor axis (world units)                 [deg]
#   9 THETA_WORLD            Position angle (CCW/world-x)                               [deg]
#  10 FWHM_WORLD             FWHM assuming a gaussian core                              [deg]
#  11 ELONGATION             A_IMAGE/B_IMAGE                                           
#  12 ELLIPTICITY            1 - B_IMAGE/A_IMAGE                                       
         1 -16.5204     41.1016    132.9924   1.3036877923e+02   4.3875077990e+01     6.887437     3.873951  30.61   0.03525821    2.080    0.519
         2 -11.4727     16.1472      8.7924   1.0515742316e+02   7.0172199641e+01     1.026095     0.438001   3.72  0.004134794    4.875    0.795
         3 -10.6891      9.3501      4.3515   1.0640557070e+02   7.1345550574e+01    0.4182158    0.3618737 -66.98  0.002974724    2.876    0.652
         4 -10.5527      3.0704      5.3633   1.0993155562e+02   7.1735555995e+01    0.3891719    0.2448107 -39.31  0.002851644    1.613    0.380
         5 -10.4649     15.0714      2.0876   1.0264370967e+02   7.1082241699e+01    0.3672005    0.2242714  15.87  0.002641978    1.433    0.302
         6  -8.3329     90.5122      7.9485   7.8106210151e+01   5.9179080863e+01    0.1772317    0.1393844  39.37 0.0004135839    1.070    0.065
         7  -9.4142    189.7650      8.4170   6.1024373441e+01   3.6853140618e+01     0.186573   0.09755394  61.76 0.0009567583    1.669    0.401
         8  -9.1175    185.9807      6.8369   6.1076442015e+01   3.7897285592e+01    0.2171979    0.1148774  49.24  0.001087143    2.040    0.510
         9  -9.3034     43.5743      3.2141   9.1000609713e+01   6.7545573058e+01    0.1998904   0.09373638 -29.82  0.001148702    2.145    0.534
        10  99.0000      8.2478    221.4689   1.4717704716e+02   2.6923022143e+01    0.1447538    0.1309963 -10.74  0.001079037    1.960    0.490
        11 -10.3372    160.8002    214.7204   1.1538536602e+02   5.5404206830e+00    0.3313181    0.2468241  53.76 0.0002778137    1.350    0.259
        12 -14.0663    187.5860    231.7598   1.1276398949e+02  -2.3327585947e+00     3.706472     3.398468 -49.00   0.02367066    1.282    0.220
        13  99.0000     40.8271    189.0285   1.3802917719e+02   3.0549354413e+01     2.357697     1.019501  39.64   0.01133396    2.339    0.572
        14 -15.3265     83.3241    211.3373   1.3152852413e+02   1.9681071634e+01     1.150934    0.8663755  14.72   0.00608568    2.091    0.522
        15 -15.0322    107.4273    228.2907   1.2865933992e+02   1.2220889295e+01     1.006586    0.6361697 -57.27  0.005368773    1.715    0.417
        16 -18.4379     69.0998    240.6471   1.3760907605e+02   1.5596846024e+01     5.465108     2.718924  53.32   0.02903793    1.716    0.417
        17 -15.7330     85.4550    227.9097   1.3308430956e+02   1.5792819511e+01     1.025855    0.4787356  56.10  0.004725663    2.095    0.523
        18  99.0000     12.3159    220.4116   1.4638611180e+02   2.6733469681e+01    0.1996852     0.137379 -40.34  0.001206223    2.605    0.616
        19  99.0000     17.2645    216.3011   1.4519911524e+02   2.7088170085e+01    0.2953267    0.2102144  -3.15  0.001656127    3.256    0.693
        20 -10.2537    163.5881    201.4142   1.1244119471e+02   7.6669421126e+00    0.3847502    0.3191729 -69.74 0.0005494528    1.392    0.282
        21 -12.5580    192.8740    195.3493   1.0508925420e+02   3.2867667555e+00     1.313267    0.8644059 -61.01  0.006035315    2.037    0.509
        22  -7.6598    133.2914    219.1441   1.2194942824e+02   9.6499806780e+00    0.1235188   0.08951173  32.39            0    1.455    0.313
        23 -10.4916    122.8199    213.2788   1.2330197759e+02   1.2720089883e+01     0.227658    0.1856353  62.40 0.0003217443    1.150    0.130
        24 -10.7118    109.7316    202.7109   1.2456728854e+02   1.7299102351e+01    0.3706579     0.222589 -53.48  0.001073288    1.740    0.425
        25 -12.1780    106.6657    212.7917   1.2672031667e+02   1.5606538959e+01    0.3085983    0.2234982  75.59  0.001246748    1.449    0.310
        26 -11.1014    108.5725    209.5336   1.2583922774e+02   1.5992430638e+01    0.2321671    0.2013155  89.72  0.001084465    1.107    0.096
        27  99.0000     11.3860    213.2561   1.4605726104e+02   2.8333642424e+01    0.1724895     0.142038 -81.82  0.001251608    1.276    0.216
        28  99.0000     10.3136    210.2096   1.4603768440e+02   2.9088527434e+01    0.2253104    0.1105024  50.84  0.001313557    1.858    0.462
        29  99.0000     16.3781    210.3508   1.4491953748e+02   2.8451349808e+01    0.2293748    0.1333717  46.11   0.00141744    1.693    0.409
        30  -9.4737    117.9209    209.2366   1.2375359034e+02   1.4444185464e+01    0.1844946    0.1589364  67.90 0.0002558829    1.073    0.068
        31 -11.1782     53.5743    208.2270   1.3740047751e+02   2.4598920999e+01    0.1598936    0.1179682 -81.19 0.0003181001    1.185    0.156
        32  -8.7207    129.0000    205.6352   1.2075319021e+02   1.3246819229e+01    0.3039712   0.08093677 -54.07 0.0009373808    3.956    0.747
        33 -11.6646    118.0054    201.2338   1.2248950945e+02   1.6180723292e+01    0.3396505    0.1919171 -60.79  0.000244735    1.854    0.461
        34 -12.3868    115.1736    198.1142   1.2262766298e+02   1.7377803231e+01    0.3287031    0.2659507 -86.46  0.000468378    1.272    0.214
        35 -10.3766     10.5909    204.9360   1.4560165728e+02   3.0195865331e+01   0.09105317   0.05655077  30.71 0.0004156549    2.089    0.521
        36 -11.7205     98.2802    201.7617   1.2697506390e+02   1.9443771967e+01    0.2212148    0.1938897  72.61 0.0003464065    1.020    0.019
        37 -10.8405     10.3713    201.1536   1.4535902499e+02   3.1038979116e+01   0.08663341   0.08409392  20.60 0.0004268224    1.572    0.364
        38  99.0000      3.7859    196.5029   1.4627193122e+02   3.2661494528e+01    0.1694111   0.08685508  69.42 0.0009570591    1.790    0.441
        39  99.0000     25.7309    194.0254   1.4171467603e+02   3.1082474769e+01    0.4297582    0.2118509  76.93  0.002114868    2.162    0.537
        40  99.0000     22.6617    194.8175   1.4241267701e+02   3.1223783774e+01    0.1545146    0.1354455 -74.58 0.0003088947    1.294    0.227
        41 -13.5259    119.2968    220.8662   1.2517274328e+02   1.1746713087e+01     1.587291    0.8634958  75.77  0.005910405    3.433    0.709
        42 -10.6620    102.4804    194.0640   1.2487144512e+02   2.0495708562e+01    0.3482786    0.2000255  34.64 0.0009804501    1.918    0.479
        43 -14.1731     79.8941    198.5407   1.3060923932e+02   2.3089916907e+01     1.892376     1.383632  39.38   0.01046029    1.463    0.316
        44 -13.5277     45.2169    200.5498   1.3832586948e+02   2.7383654074e+01     1.690657    0.7501827  35.78   0.00809949    2.440    0.590
        45 -10.4112    209.0911    181.1202   9.8941577018e+01   2.9292669644e+00    0.3949548    0.2885281   3.39  0.001916078    1.725    0.420
        46  -8.7204    108.3241    188.0977   1.2256692970e+02   2.0868573678e+01    0.1797464    0.1573816 -87.93 0.0002670095    1.089    0.082
        47 -10.9826    181.4453    180.1446   1.0445152800e+02   8.5359507328e+00    0.6503388    0.4270965 -21.68  0.002443634    2.053    0.513
        48 -10.4970    179.6950    175.4608   1.0386031185e+02   9.8601322351e+00    0.4896334    0.3923393   4.37  0.002152388    1.532    0.347
        49 -10.3363     20.7205    184.8816   1.4189979239e+02   3.3669618235e+01    0.1361766    0.1000006 -86.03 0.0002248578    1.065    0.061
        50  -8.4575    156.7361    183.9550   1.1065468232e+02   1.2668637874e+01    0.1991918    0.1938785 -65.01  0.000417313    1.050    0.047
        51  -8.6702    151.9007    181.2089   1.1121183070e+02   1.4228715767e+01    0.2969001    0.2018697  36.27  0.001363878    1.515    0.340
        52  -8.1056    147.0408    180.0423   1.1209626345e+02   1.5450985457e+01    0.2235139     0.177108  81.79 0.0004110274    1.510    0.338
        53  -9.5843     63.0694    179.9017   1.3190517464e+02   2.9888066383e+01    0.1813112    0.1538997 -89.34            0    1.011    0.011
        54 -10.1257    196.7387    172.2950   9.9594778102e+01   7.0685479492e+00    0.3600188    0.2915469 -30.99 0.0008688608    1.241    0.194
        55 -10.0129     27.3283    176.1290   1.3959219456e+02   3.5026404150e+01    0.1578512    0.1192012 -79.68 0.0002836288    1.071    0.067
        56 -11.0690     30.8652    174.4983   1.3862376358e+02   3.5042550111e+01    0.1899673    0.1518709 -72.32 0.0003533594    1.138    0.122
        57 -11.3157     61.7904    173.3378   1.3129069169e+02   3.1633655470e+01    0.2167122    0.1844746 -75.04 0.0002909806    1.072    0.067
        58 -11.9185     48.0944    171.6699   1.3431066712e+02   3.3776918935e+01    0.2564176    0.1691365 -70.11  0.000379617    1.302    0.232
        59  -8.8894     24.8648    172.7599   1.3977998703e+02   3.6059098737e+01    0.1074248   0.06695288 -65.42 0.0005986993    1.375    0.273
        60  -8.9337    178.2335    166.4881   1.0227667652e+02   1.2052399198e+01    0.4235676    0.3163951  -9.24   0.00191016    1.815    0.449
        61  -8.2057    143.8723    169.5403   1.1073559826e+02   1.8454033127e+01    0.2366356    0.1494743  41.02  0.001019463    1.592    0.372
        62 -12.7012     40.4521    168.1237   1.3565515318e+02   3.5512430064e+01    0.2960255    0.2228667  78.02 0.0005729868    1.261    0.207
        63 -11.8724    122.8286    248.7734   1.2817677635e+02   5.7242681038e+00    0.2090939    0.1826924  41.87 0.0002859952    1.176    0.149
        64  -7.7476     97.1055    164.4944   1.2117466354e+02   2.8418694105e+01    0.2046602     0.142481  44.81 0.0007663484    1.466    0.318
        65  -9.4453    143.4585    146.8424   1.0593740181e+02   2.3763057748e+01    0.3397112    0.2598372 -32.47  0.001230247    1.469    0.319
        66  -9.0746    221.3730    146.8333   8.9217248341e+01   7.1322406228e+00    0.2351557    0.2254508  28.06 0.0003482046    1.114    0.103
        67  -8.0812    149.8532    146.9271   1.0441445372e+02   2.2390648293e+01    0.2298044    0.2116226  -6.01 0.0003546121    1.231    0.188
        68  -9.3874    240.0905    128.3702   8.1897253505e+01   6.8716627957e+00    0.2283902    0.1790292 -33.31 0.0002697848    1.221    0.181
        69  -9.1317    161.2402    127.8844   9.7198501609e+01   2.4157523991e+01    0.4776066    0.3332894 -86.08  0.001587262    2.172    0.540
        70  -8.8555     22.0187    168.1314   1.3992203721e+02   3.7415092513e+01    0.2214582    0.1321001  53.46  0.001254114    1.745    0.427
        71  -8.6024    168.2407    114.2961   9.2204216992e+01   2.5464369838e+01    0.3672632    0.2400945 -66.92  0.001478886    2.013    0.503
        72  -9.9344    124.9262    106.9416   1.0080290442e+02   3.6694584298e+01    0.4027626    0.3401796  12.04  0.002000688    1.391    0.281
        73  -9.1080    196.4580    106.8141   8.4523210797e+01   2.0412451465e+01    0.3053039    0.2546923 -86.43   0.00102378    1.313    0.238
        74 -10.0624    135.0921    106.5401   9.8055104565e+01   3.4607117353e+01    0.3236257    0.2828251  68.97  0.001088705    1.236    0.191
        75  -9.9818    119.2163    103.5571   1.0142109505e+02   3.8605342824e+01    0.3828323    0.2608042 -56.58  0.001408517    1.585    0.369
        76  -8.6893     76.8794    167.5754   1.2674635261e+02   3.0892160405e+01    0.2317661    0.1269239  45.35  0.001049565    1.869    0.465
        77  -8.4706    156.1439     77.8295   8.5101033719e+01   3.5419531674e+01    0.2003382    0.1770092  21.71 0.0002852911    1.283    0.221
        78  -7.4204     94.9210     77.2644   1.0081327123e+02   4.8660775583e+01     0.213726    0.1078096  60.02 0.0006978103    3.966    0.748
        79  -7.8812    155.4419    168.3188   1.0778476702e+02   1.6376100776e+01    0.1996959    0.1482965 -59.91 0.0005352197    1.433    0.302
        80  -8.3026    235.1174     73.0422   7.0344734040e+01   1.7651932039e+01    0.2069583    0.1754347 -62.56 0.0003629685    1.030    0.029
        81  -8.2758    121.8331     67.1599   9.0129015665e+01   4.5102758425e+01    0.2015885    0.1927603  69.92 0.0003258137    1.133    0.118
        82  -9.4898    164.2252     64.9967   7.9828850269e+01   3.5663685775e+01    0.2234417    0.1652865 -87.96  0.001064288    1.634    0.388
        83 -11.3678    159.4597     53.2639   7.7464623105e+01   3.8626787513e+01    0.5248171    0.4653903  17.22  0.002201537    1.313    0.238
        84 -11.0274    166.5422     42.4966   7.3146958774e+01   3.8434329125e+01     0.542441    0.3212661 -46.45  0.002601796    1.796    0.443
        85 -11.3380    171.7990     38.0604   7.1051965003e+01   3.7748604767e+01    0.7309669    0.5616585 -53.71  0.004074656    1.361    0.265
        86 -10.3127    176.2411     30.5318   6.8352313591e+01   3.7620570884e+01     0.423587     0.320775 -10.48   0.00104781    1.772    0.436
        87  -7.6334    132.6495     38.1900   7.8470814398e+01   4.7002767446e+01    0.1702272    0.1287785 -12.57 0.0002050161    1.540    0.351
        88  -8.4766    228.5915     23.6890   6.0356802473e+01   2.6206727510e+01    0.2567599    0.1531385 -31.31  0.001189763    1.980    0.495
        89  -7.9582    174.5494    152.1189   9.9912495901e+01   1.5922832157e+01    0.2287961    0.1504727 -45.31 0.0004595236    1.497    0.332
        90 -13.6965    108.4513    244.9576   1.3051814338e+02   8.7728555331e+00     0.405137    0.3875629  62.97  0.002781293    1.233    0.189
        91  -9.7707    115.4648    246.7850   1.2936879247e+02   7.2946824757e+00    0.1523304    0.1237236 -64.59  0.000718571    1.388    0.280
        92  99.0000    125.4417    241.3811   1.2671845995e+02   6.6567619944e+00    0.1293748    0.1097201  50.64 0.0002079117    1.051    0.048
        93 -10.5335    116.2112    241.1825   1.2853034859e+02   8.2279509574e+00    0.1888886    0.1482577  65.94  0.000287934    1.174    0.148
        94 -11.7803    114.0564    237.3531   1.2847660581e+02   9.3209531128e+00    0.2045895    0.1756155  89.38  0.000215263    1.179    0.152
        95 -11.7607    248.1033    236.3165   1.0211695978e+02  -1.2564480731e+01    0.2054835    0.1771515  -0.07 0.0001794858    1.148    0.129
        96  -8.2386    150.2618    231.1509   1.2023448936e+02   4.3021470061e+00    0.1985033    0.1685191  32.12  0.001053381    1.160    0.138
