#   1 NUMBER                 Running object number                                     
#   2 MAG_AUTO               Kron-like elliptical aperture magnitude                    [mag]
#   3 X_IMAGE                Object position along x                                    [pixel]
#   4 Y_IMAGE                Object position along y                                    [pixel]
#   5 X_WORLD                Barycenter position along world x axis                     [deg]
#   6 Y_WORLD                Barycenter position along world y axis                     [deg]
#   7 A_WORLD                Profile RMS along major axis (world units)                 [deg]
#   8 B_WORLD                Profile RMS along minor axis (world units)                 [deg]
#   9 THETA_WORLD            Position angle (CCW/world-x)                               [deg]
#  10 FWHM_WORLD             FWHM assuming a gaussian core                              [deg]
#  11 ELONGATION             A_IMAGE/B_IMAGE                                           
#  12 ELLIPTICITY            1 - B_IMAGE/A_IMAGE                                       
         1 -14.0582    167.6428     36.2520   7.8312235308e+01   3.8914689613e+01     1.502825     0.994272   0.75  0.004728242    1.748    0.428
         2 -13.1114    182.2325      4.9373   6.5023566696e+01   3.8446236732e+01    0.9594387    0.7061123  65.20  0.004812413    1.339    0.253
         3 -11.4177     13.7274    243.7533   1.4635313066e+02   2.6426737914e+01    0.1340427   0.07353839 -83.98 0.0007730206    1.769    0.435
         4 -19.8485     64.2156    167.8142   1.3336468333e+02   3.3562963774e+01     15.59516     3.656437 -68.39   0.05994718    4.543    0.780
         5 -12.4038    136.6414    197.8508   1.2293131602e+02   1.8411733137e+01    0.4433769    0.2651359  55.78  0.002237184    1.621    0.383
         6 -11.2178    169.8553    195.8013   1.1671110003e+02   1.3419042566e+01    0.1968354    0.1638986 -60.85  0.000805943    1.618    0.382
         7 -11.4003    180.0135    192.5965   1.1444317128e+02   1.2164492667e+01       0.2915    0.2145305  73.89   0.00130447    2.192    0.544
         8 -11.0634    157.8168    192.6696   1.1841114611e+02   1.5808433593e+01     0.186454    0.1716121 -80.47 0.0006612329    1.353    0.261
         9 -12.1656    209.2694    180.6047   1.0739372588e+02   8.6940986983e+00    0.6258477    0.3343381  22.33  0.003123639    2.156    0.536
        10 -11.9988    197.9063    175.6873   1.0850822839e+02   1.1282004425e+01    0.3601842    0.2963604 -39.50  0.001263166    1.508    0.337
        11  -9.5402    185.5012    174.5466   1.1053086255e+02   1.3621092884e+01    0.1261741    0.1054842  31.50 9.002326e-05    1.011    0.010
        12 -13.4331    138.0903    171.2645   1.1897452226e+02   2.2306875215e+01    0.7669402    0.3674158  50.04  0.003767856    1.963    0.491
        13 -11.6878    204.0229    167.8468   1.0601349083e+02   1.1201220415e+01     0.469247    0.3206521  39.01  0.001883903    1.268    0.211
        14  -9.2077     21.8904    167.0000   1.4163086283e+02   3.8091167027e+01    0.1434054   0.05284983  33.07  0.000784682    2.821    0.645
        15 -10.8997     27.8763    158.2481   1.3986777792e+02   3.9203074424e+01    0.2343953    0.1813916 -66.13  0.001797929    1.439    0.305
        16 -10.5883     23.7216    156.1357   1.4055513216e+02   3.9982156126e+01    0.2424614    0.1674738  38.40  0.001091714    1.588    0.370
        17 -13.0424    133.7858    145.2648   1.1553844084e+02   2.7525660236e+01    0.8756749    0.3403365 -58.25  0.003147355    3.881    0.742
        18 -10.0718    175.1286    149.1675   1.0780492428e+02   1.9228139990e+01    0.1774915    0.1574422  65.23 0.0005206289    1.326    0.246
        19 -12.1885    159.3148    235.5970   1.2351163796e+02   1.0129605880e+01    0.2882845    0.1521349  41.32  0.001780983    1.396    0.284
        20 -10.8316     21.1951    235.4855   1.4501156033e+02   2.6912758288e+01    0.1058184   0.06550857  49.79 0.0003450792    1.285    0.222
        21 -12.3487    115.9010    138.5279   1.1825171485e+02   3.1849901317e+01    0.4357726    0.2626196 -39.78  0.002181823    1.996    0.499
        22 -12.4678    106.3596    138.7011   1.2043473353e+02   3.3366501078e+01    0.3856496    0.2542066  58.69  0.000738431    1.585    0.369
        23 -11.1634      7.0355    140.0077   1.4293527576e+02   4.4483585049e+01    0.1632292    0.1228453  82.43  0.000493932    1.020    0.020
        24 -12.3884    105.9927    130.6779   1.1911551295e+02   3.5013620188e+01    0.3932172    0.3112326  75.20  0.001351432    1.363    0.266
        25 -12.1314    119.9696    129.5585   1.1566148440e+02   3.2896016746e+01    0.2932904    0.2636652  66.22 0.0009336816    1.099    0.090
        26 -10.9293    176.4197    234.1956   1.2063346521e+02   7.8053429427e+00    0.1149069    0.1033434 -67.56 0.0004233648    1.640    0.390
        27 -10.0044     25.8447    232.1482   1.4420214695e+02   2.6959441925e+01    0.1014996   0.08052326  73.09 0.0003610191    1.259    0.206
        28 -11.3832    109.0999    125.5344   1.1742602931e+02   3.5537128396e+01    0.2409441    0.2382504  59.12 0.0005734485    1.093    0.085
        29 -11.4598    185.0318    229.1063   1.1864585982e+02   7.0802916089e+00    0.1647954    0.1239804  35.53 0.0006354098    1.025    0.024
        30 -11.3457    135.5813    122.9833   1.1073864980e+02   3.1331489227e+01    0.3899831    0.1752073 -55.78  0.001490698    2.860    0.650
        31 -11.1107    114.0379    118.7668   1.1489584477e+02   3.6061916106e+01    0.2253913    0.1931722 -56.09 0.0004600185    1.160    0.138
        32 -10.6264    170.7163    116.4925   1.0158786586e+02   2.5434725291e+01    0.3223957    0.2413212 -79.94 0.0008055519    2.154    0.536
        33 -11.0260      3.0963    112.4405   1.4190620481e+02   5.0385800826e+01    0.1787083    0.1477988 -51.97  0.001322831    1.476    0.323
        34 -10.3422    132.0385    250.5283   1.2923822085e+02   1.2186945650e+01    0.1543534   0.07099999  43.22 0.0003592866    1.546    0.353
        35 -10.1028    205.8208    110.1800   9.3209499736e+01   1.8867331427e+01    0.2059743    0.1575899  17.29 0.0006361902    1.305    0.234
        36 -11.8468    164.5249    205.4466   1.1899010050e+02   1.3010828140e+01    0.2576662    0.2272281 -54.13 0.0007834382    1.467    0.318
        37 -13.0061    155.6131     52.1043   8.6229133256e+01   3.9708639266e+01     0.566322     0.478847  57.29  0.001090989    1.259    0.206
        38 -10.0627    150.4454    248.7157   1.2625130504e+02   9.9064536756e+00    0.1067617   0.09440248  -4.53 0.0009369663    1.555    0.357
        39 -11.9282    171.1526     28.9300   7.5106890664e+01   3.8914256283e+01     0.442164    0.3304407   0.20  0.001030585    1.405    0.288
        40 -10.1423    170.4046    205.2782   1.1795243792e+02   1.2102207559e+01    0.1343353    0.1106392 -62.30 0.0009445322    1.691    0.409
        41 -13.2977    193.0748    192.8379   1.1220705011e+02   9.9596847726e+00    0.7261611    0.4986686 -58.88  0.004188296    2.513    0.602
