#   1 NUMBER                 Running object number                                     
#   2 MAG_AUTO               Kron-like elliptical aperture magnitude                    [mag]
#   3 X_IMAGE                Object position along x                                    [pixel]
#   4 Y_IMAGE                Object position along y                                    [pixel]
#   5 X_WORLD                Barycenter position along world x axis                     [deg]
#   6 Y_WORLD                Barycenter position along world y axis                     [deg]
#   7 A_WORLD                Profile RMS along major axis (world units)                 [deg]
#   8 B_WORLD                Profile RMS along minor axis (world units)                 [deg]
#   9 THETA_WORLD            Position angle (CCW/world-x)                               [deg]
#  10 FWHM_WORLD             FWHM assuming a gaussian core                              [deg]
#  11 ELONGATION             A_IMAGE/B_IMAGE                                           
#  12 ELLIPTICITY            1 - B_IMAGE/A_IMAGE                                       
         1 -11.2876     39.3603     19.7480   7.8432520416e+01   6.7789627067e+01    0.3745053    0.3103278  20.00  0.002541067    1.313    0.239
         2 -11.5787      2.1111     22.2909   9.8922419196e+01   7.0877459278e+01    0.3961886    0.1698153 -51.76 0.0006453345    1.921    0.480
         3 -11.4561     44.1226     27.1699   7.9622072958e+01   6.6054541311e+01    0.4408985    0.4039673 -32.49  0.002994624    1.456    0.313
         4  -9.9600     20.6210     17.1088   8.6601709176e+01   7.0324117601e+01    0.2764015    0.1706717 -12.85  0.001326007    1.450    0.311
         5  -8.9410      8.2808      5.3004   8.7857408677e+01   7.3231945672e+01    0.1158546   0.06440028 -17.87 0.0006963141    1.546    0.353
         6 -10.8994     14.1488     16.1392   8.9675106828e+01   7.1068143973e+01    0.2715065    0.2138001  25.59  0.001233689    1.618    0.382
         7 -10.3072     15.0657      9.0376   8.5783026708e+01   7.2079014848e+01    0.4376786     0.178614 -20.12  0.001418753    3.311    0.698
         8  -9.7985     11.4480      7.4470   8.7067994102e+01   7.2642731870e+01    0.2968001    0.1365814 -41.13  0.001042671    1.913    0.477
         9 -11.4097     66.7759     13.7730   6.4174182728e+01   6.4267461265e+01    0.3605938    0.2555758  51.42  0.001209453    1.632    0.387
        10  -9.7950     22.5070      9.9656   8.2135943915e+01   7.1195439680e+01    0.3884686    0.2331502   8.46  0.002380624    1.577    0.366
        11 -11.6282     30.3961      7.2586   7.6614380252e+01   7.0641674944e+01    0.3994676    0.2865673  15.43  0.002697671    1.224    0.183
        12 -11.4085     34.7985     12.6347   7.7172535714e+01   6.9374028567e+01    0.3457342    0.2530144 -28.79  0.001168785    1.365    0.267
        13 -11.3353     37.2795      7.8637   7.3546247646e+01   6.9660566094e+01    0.4580716    0.2879516  20.74  0.002664916    1.416    0.294
        14 -10.6761    208.1542     12.9975   3.6513198648e+01   3.2074664795e+01    0.2016959    0.1635803  88.52 0.0003119022    1.108    0.097
        15 -10.2522     85.9676     11.4759   5.6876080088e+01   6.0802537049e+01     0.249982    0.1977873 -19.27  0.001533354    1.339    0.253
        16 -10.4013    134.9496     11.6174   4.5699453454e+01   4.9745085002e+01    0.2031429    0.1734514  25.20 0.0003459214    1.218    0.179
        17 -10.5625    125.9987     11.0339   4.7153121962e+01   5.1928127016e+01    0.1970946    0.1686936  45.37            0    1.042    0.040
        18  -9.8385      3.7798     10.7471   9.3169996236e+01   7.2734592570e+01    0.1294365    0.1084824 -10.41 0.0003317847    1.280    0.219
        19  -9.3985    104.3641     10.1372   5.1456900078e+01   5.6984374716e+01     0.165853    0.1160135 -32.59 0.0006071792    1.618    0.382
        20  -9.6546     93.0093     10.0050   5.4275643736e+01   5.9470833846e+01    0.2031208    0.1271756  26.99 0.0003412586    1.558    0.358
        21  -9.0375     93.2496      6.7191   5.2833026439e+01   5.9715043943e+01    0.1599621   0.09955429 -16.07 0.0001949147    1.713    0.416
        22 -10.7330     57.4959      8.4503   6.5108047509e+01   6.6475919942e+01    0.2994679    0.2334891 -32.44  0.001913127    1.561    0.359
        23 -11.4266     57.4682      2.7558   6.2279259006e+01   6.7062267796e+01    0.4569013     0.266703  10.53  0.001085166    1.760    0.432
        24 -10.6088    188.0600      6.9532   3.7016952751e+01   3.7357683676e+01    0.2007747    0.1386862  41.47 0.0006102333    1.703    0.413
        25  -9.6385    204.6474      6.7049   3.5324817796e+01   3.3513356450e+01    0.1241165    0.0872201  46.04 0.0007032763    1.685    0.407
        26  -9.7489      2.5731      6.5247   9.1921950559e+01   7.3486570235e+01    0.1959909   0.09607659  15.23 0.0007166768    2.046    0.511
        27  -9.5670    151.3013      5.7259   4.1180472836e+01   4.6315909669e+01    0.1274283   0.09314907 -72.13  0.000197714    1.536    0.349
        28  -9.3464    120.5246      4.4579   4.5846634088e+01   5.3772671167e+01    0.1319927    0.1113988  47.42 0.0001012989    1.026    0.025
        29 -10.5324    101.9897      2.3937   4.8924825183e+01   5.8164260527e+01    0.3093583    0.2475232  75.74  0.001253046    1.432    0.302
        30 -10.1059     23.8558      3.2765   7.7905214755e+01   7.1944634036e+01    0.2672788    0.1296305 -23.10  0.001440092    1.891    0.471
        31 -10.8157     18.9552      1.7365   7.9756548206e+01   7.2696893582e+01    0.2589264    0.1608913  41.63  0.001544611    2.459    0.593
        32 -10.1149    230.2355      2.9121   3.2370231387e+01   2.8211379227e+01    0.2187942    0.1446642 -29.49  0.001337243    1.650    0.394
        33  -9.7274    176.0635      2.7272   3.7187881251e+01   4.0597125720e+01    0.1825252    0.1458195  72.35 0.0004200678    1.108    0.098
        34  -9.5059    129.9768      3.4620   4.3783494814e+01   5.1625379790e+01    0.1941766    0.1139696  64.73 0.0003105573    1.499    0.333
        35 -11.0821     80.3490      1.6235   5.4150015269e+01   6.2835250593e+01    0.2794228    0.1458746  52.56 0.0007609794    1.691    0.409
        36 -10.5510     11.8097      1.9234   8.3985324411e+01   7.3399728956e+01    0.1799311    0.1375112  10.82 0.0004242184    1.322    0.244
        37  -9.6859      1.3942      2.2305   9.0531492239e+01   7.4225374275e+01    0.1409723   0.09023748 -44.36 0.0008929772    1.628    0.386
        38  -9.9158     71.1011      6.5466   5.9288527596e+01   6.4216724837e+01    0.3066579    0.2703121  11.52  0.002073584    1.147    0.128
        39  -9.5304     74.4956      4.5678   5.7265828096e+01   6.3746884499e+01    0.1288428    0.1011151  25.66 6.196632e-05    1.043    0.041
        40 -11.2335     13.6678    192.5069   1.2271805704e+02   3.1837584357e+01    0.2495728    0.1502339  62.51 0.0006450924    1.480    0.324
        41 -12.0041     17.7019    249.2191   1.2522732544e+02   2.0079664326e+01    0.3427641     0.231969  26.49  0.002411503    1.943    0.485
        42 -12.4254      5.3436    240.2025   1.2690213709e+02   2.2914953896e+01    0.5040196    0.2770697  43.30  0.003474905    1.597    0.374
        43 -11.2435      3.0037    248.8937   1.2765472924e+02   2.1541458953e+01    0.4277615     0.223713  58.39  0.002983226    1.424    0.298
        44 -12.1001      9.9483    246.0464   1.2638512646e+02   2.1409233342e+01    0.4447345    0.2459135  62.48  0.003079856    1.379    0.275
        45 -10.9286      6.0851    191.9025   1.2424531543e+02   3.2608496386e+01    0.1813463    0.1410967  84.35  0.001290387    1.022    0.021
        46 -10.0087      1.2677    191.3097   1.2519056450e+02   3.3120959441e+01    0.1939739    0.0811331 -82.79 0.0007681109    1.984    0.496
        47 -10.8102     13.5828    181.1910   1.2192724407e+02   3.4359890247e+01     0.554184    0.1829542  79.43  0.001752499    5.473    0.817
        48  -9.5673     22.3288    179.9720   1.1988965216e+02   3.3873005511e+01    0.1708565    0.1331307 -84.81 0.0004626029    1.077    0.071
        49 -11.1339      5.0469    167.3667   1.2280134814e+02   3.8175706675e+01    0.2522836    0.1762138  69.29  0.001134836    1.301    0.231
        50  -9.5370    226.4683    163.9758   6.9902319894e+01   4.7113784461e+00    0.2093299     0.123485 -33.82 0.0007741035    1.537    0.349
        51 -11.0377      3.1577    153.4378   1.2215910945e+02   4.1534494402e+01    0.2953156    0.1409402  25.68  0.001586301    2.469    0.595
        52 -10.6114     15.7914    150.5268   1.1876295312e+02   4.1318956622e+01    0.1903357    0.1283533  14.04 0.0008102405    1.961    0.490
        53  -9.4274     37.2047    146.1275   1.1262512085e+02   4.0528833808e+01    0.1764057    0.1352552  82.18 0.0002711249    1.288    0.224
        54  -9.3574    237.7139    149.6765   6.4842550519e+01   5.1766145252e+00    0.1396388   0.09752378  -6.13 0.0003045237    1.601    0.376
        55  -8.9793     12.2694    141.6636   1.1877745871e+02   4.3700615728e+01    0.1265082   0.08037028  75.13 0.0006660759    1.596    0.373
        56 -10.1184    212.5178    133.9332   6.5796215994e+01   1.2635767820e+01    0.2480309    0.2092464  67.61 0.0008247101    1.515    0.340
        57 -10.5357      2.5305    133.5224   1.2054602466e+02   4.6276246196e+01    0.2871338     0.190719  66.22  0.001740775    1.572    0.364
        58 -11.3145    248.9992    131.2437   5.8996057531e+01   6.2608687091e+00    0.4599839    0.1260866 -42.49  0.001548205    3.389    0.705
        59  -9.3068     96.2991    133.6910   9.3667153749e+01   3.5858996586e+01    0.1495499    0.1174866  79.76 0.0004665832    1.597    0.374
        60 -10.4986     12.1511    129.8486   1.1752554837e+02   4.6553102644e+01    0.1923274    0.1477138  84.05 0.0007128874    1.249    0.199
        61 -10.3216     28.6987    128.0365   1.1255165150e+02   4.5745996962e+01    0.1849825    0.1435167 -68.82 0.0003117965    1.077    0.072
        62 -11.6117     24.0218    121.4762   1.1300114929e+02   4.7732096291e+01    0.3791097    0.2399839  75.77  0.001469238    1.876    0.467
        63  -9.1883     17.6076    122.1434   1.1500476821e+02   4.8044942295e+01    0.1811537   0.09097764 -59.25 0.0003374687    1.591    0.372
        64 -11.4337      8.5183    121.1994   1.1755007155e+02   4.8868821048e+01    0.2821924    0.2541289  46.15  0.001185528    1.328    0.247
        65  -9.3133     76.0140    120.7023   9.6848404333e+01   4.2184104646e+01    0.1899426    0.1850584 -26.05 0.0002336781    1.076    0.070
        66 -10.2123     69.0565    116.9828   9.8197717539e+01   4.4068767701e+01    0.2235557    0.1982277 -51.22 0.0003052811    1.022    0.022
        67  -9.8804      1.9661    114.0456   1.1863106688e+02   5.0948312306e+01    0.1496067    0.1153641 -71.05 0.0003378093    1.014    0.014
        68 -10.9286     65.8882    110.8459   9.7847340559e+01   4.5987644572e+01    0.3240361    0.2596181  74.56  0.001382666    1.565    0.361
        69 -11.2295      2.6798    109.2532   1.1783878297e+02   5.2051738308e+01    0.2419748    0.1970983  28.60  0.001013778    1.530    0.346
        70 -10.0384     28.4629    106.4590   1.0921928156e+02   5.1037938172e+01    0.3046628    0.1404244 -51.39            0    1.788    0.441
        71 -11.1081     16.1236    105.4849   1.1308089763e+02   5.2173827625e+01    0.3482738    0.1407417 -32.61  0.001172487    3.338    0.700
        72 -10.0021     88.9953    104.9990   8.9023444049e+01   4.3928484655e+01    0.1871993    0.1721392 -37.27 0.0005874611    1.011    0.011
        73 -11.1701     57.7553    107.6882   9.9793983349e+01   4.7785115933e+01    0.2659714    0.2320631 -29.94 0.0006922807    1.153    0.133
        74 -10.0398    186.8861    102.9950   6.3105881770e+01   2.3842088671e+01    0.2296123    0.2166005 -36.82 0.0005879462    1.023    0.023
        75  -9.7843    113.6580    102.7096   8.0917660973e+01   3.9957982566e+01    0.1586231    0.1204726  -3.03 0.0007025082    1.650    0.394
        76  -9.7401     66.6684    102.2934   9.5587260211e+01   4.7936036328e+01    0.1393847    0.1118777  75.03 0.0004192684    1.634    0.388
        77  -9.4245    246.6401    101.6847   5.2782048532e+01   1.1502764946e+01    0.1348623    0.1018167   4.40 0.0004343489    1.755    0.430
        78  -9.7282     55.9391     97.1040   9.7969596015e+01   5.0537452262e+01    0.2301492    0.1469426 -31.70 0.0008014283    1.664    0.399
        79 -11.1806     10.9509     93.4001   1.1287639747e+02   5.5364314320e+01    0.5024079    0.1627464 -73.23  0.001919608    3.083    0.676
        80 -10.5160      3.3389     95.5201   1.1578216259e+02   5.5265719855e+01    0.2482615    0.1615502 -48.82 0.0007409646    1.317    0.241
        81  -9.9032     29.0680     92.2645   1.0632456007e+02   5.4386051596e+01    0.2323332     0.185817  16.11 0.0008448415    1.462    0.316
        82 -11.0617     24.6880     87.8265   1.0698659431e+02   5.5770155522e+01    0.4213999    0.2327311 -51.26  0.001292596    1.444    0.308
        83 -12.1455     20.6974     92.8521   1.0939434706e+02   5.4877671046e+01    0.3730694    0.2272245 -38.76 0.0004900051    1.555    0.357
        84 -10.3072     19.4045     87.2504   1.0878555986e+02   5.6281129404e+01    0.3052821    0.1775026 -75.54  0.001464072    1.775    0.437
        85  -9.6591    146.1689     94.6014   6.9842330464e+01   3.4741004955e+01    0.2285967     0.143329  35.81 0.0009479736    1.740    0.425
        86 -11.9612    125.2013     93.3165   7.4950740407e+01   3.9608557602e+01    0.2745445    0.2654704   7.87 0.0002255533    1.032    0.031
        87 -10.8635     78.1761     94.1191   8.9623171167e+01   4.8173190547e+01    0.4327412     0.218413  25.17  0.001505746    2.430    0.589
        88 -11.5354     57.5835     91.9002   9.6109584078e+01   5.1555479706e+01    0.3284912    0.2614377  -7.06 0.0006441154    1.382    0.277
        89 -12.2856     55.4423     85.8354   9.5295290812e+01   5.3213262256e+01    0.2550106    0.2440605 -44.42 0.0002703629    1.139    0.122
        90 -10.5683     44.1143     90.3707   1.0052513487e+02   5.3443952450e+01    0.4099524    0.2897674 -78.85  0.001542236    1.735    0.423
        91  -9.0990     84.7642     88.0349   8.5703499031e+01   4.8477484046e+01     0.184776    0.1171485 -47.03            0    1.489    0.328
        92 -10.1905     64.4654     88.0064   9.2657254635e+01   5.1555936940e+01     0.254858    0.1998143  51.03  0.001350022    1.582    0.368
        93 -11.3169     11.1955     86.4282   1.1159114230e+02   5.6981361263e+01    0.3525092    0.2131176  85.90  0.001819881    2.159    0.537
        94  -9.9225    123.3752     86.6190   7.3458766256e+01   4.1365902818e+01    0.3995217    0.1403165  40.64  0.001265889    3.049    0.672
        95  -9.6414     72.4715     85.5427   8.9160598673e+01   5.0968705540e+01    0.1440476    0.1306716 -31.62 0.0001682387    1.028    0.027
        96  -9.2200     76.6752     82.7132   8.6873146956e+01   5.0947358556e+01    0.1481356     0.106374 -13.99 0.0003500089    1.605    0.377
        97 -10.2515      2.5217     82.0557   1.1395966696e+02   5.8430595918e+01    0.1955222   0.09738293 -67.59 0.0009482283    1.595    0.373
        98 -10.2347     89.4966     80.5984   8.1892299097e+01   4.9261391829e+01    0.3147657    0.2564978  79.01 0.0005789768    1.808    0.447
        99 -11.0577     64.2447     80.3647   9.0580270138e+01   5.3292346612e+01    0.3237013    0.2250996 -39.02 0.0009614937    1.291    0.226
       100  -9.1860    250.3221     80.7188   4.7606459722e+01   1.4062929934e+01    0.1321164    0.0906678 -62.79 0.0004381325    1.589    0.371
       101  -9.8586     24.1537     79.3496   1.0536399279e+02   5.7768282759e+01    0.2655671    0.1632751 -35.50 0.0008884337    1.512    0.339
       102  -9.5858     28.0450     77.2338   1.0338187727e+02   5.7946826616e+01    0.1694563    0.1468469 -31.69 0.0003720954    1.110    0.099
       103  -9.7107    124.5124     79.1788   7.0853308769e+01   4.2582658030e+01    0.2200348    0.1480156 -38.60 0.0006526912    1.469    0.319
       104 -11.3820     10.8553     78.4592   1.1022289702e+02   5.8835737323e+01    0.3158917    0.1220549  14.17  0.001442975    3.157    0.683
       105  -9.9776    176.6561     76.8502   5.8035993389e+01   3.0897721818e+01    0.2592241    0.2035307  44.03 0.0008862839    1.319    0.242
       106 -10.4514     55.7807     75.8478   9.2382826303e+01   5.5396716024e+01    0.2999939    0.2455918  -5.12  0.001259182    1.248    0.199
       107 -10.1844     41.4827     75.0994   9.7633308381e+01   5.7194532051e+01    0.4298954    0.2807521 -89.24  0.001905989    2.887    0.654
       108 -10.4032     37.1458     75.1667   9.9334428601e+01   5.7609275780e+01    0.3123155    0.2052157 -54.25 0.0005235257    1.329    0.248
       109 -10.2181     33.4630     73.3174   1.0029075595e+02   5.8362206745e+01    0.3765706    0.2087614   8.25  0.001855184    2.223    0.550
       110 -10.6375     15.0734     75.5009   1.0800632481e+02   5.9260984438e+01    0.2589876    0.1904108 -58.91  0.001581803    1.139    0.122
       111  -9.3866     70.3635     75.2024   8.6814080855e+01   5.3523672875e+01    0.2023379    0.1278167 -54.38 0.0004693222    1.686    0.407
       112  -9.3432     81.4338     73.5375   8.2378104381e+01   5.2109789379e+01     0.145381    0.1302071 -18.95 4.283988e-05    1.006    0.006
       113 -10.3027     20.9381     72.0130   1.0492273770e+02   5.9657781792e+01     0.317983    0.1294583 -53.09  0.001497129    1.845    0.458
       114  -9.4003    216.9672     72.0203   4.9994436491e+01   2.2356242409e+01    0.1689358    0.1449028 -43.46 0.0003506563    1.076    0.071
       115 -11.5925    106.3375     71.3036   7.3558793678e+01   4.7916466256e+01    0.3743653    0.3148409  61.38  0.001244256    1.439    0.305
       116 -10.2856     46.0080     69.5763   9.4299098649e+01   5.7913965517e+01    0.2780644    0.1529769  20.43  0.000963192    2.055    0.513
       117 -11.0499     10.1337     69.3581   1.0862682140e+02   6.0925735518e+01    0.3745451     0.140355 -54.92   0.00129587    1.896    0.473
       118 -11.2515      5.4668     68.6750   1.1034513515e+02   6.1317479296e+01     0.338371    0.2206956  81.87  0.001345305    2.177    0.541
       119 -11.1433      1.3634     66.6124   1.1156615300e+02   6.1959960030e+01    0.2118976   0.09321687 -64.87  0.001076505    1.801    0.445
       120  -9.2666     92.4753     72.4718   7.8314717585e+01   5.0377566850e+01    0.1477013    0.1348891 -11.26 0.0002854029    1.000    0.000
       121  -9.5750     52.0150     67.1935   9.1214191822e+01   5.7713662324e+01    0.2787501    0.1783821 -73.62  0.001213811    2.758    0.637
       122 -10.0057     16.5310     67.5245   1.0562776537e+02   6.0950468081e+01    0.2276934    0.1671115  67.65 0.0008191005    2.028    0.507
       123 -10.3299     14.0848     63.7557   1.0572662191e+02   6.1929250542e+01    0.3509434    0.2275215   7.23  0.001866844    1.769    0.435
       124 -10.7535     80.5424     66.9950   8.0529701948e+01   5.3568343178e+01    0.2730276    0.1960985  12.24  0.001190391    1.551    0.355
       125  -9.3162    166.9939     65.5397   5.6682730963e+01   3.5082749393e+01    0.2115051    0.1440478  56.76 0.0003310168    1.465    0.317
       126  -9.6240     97.0034     64.2571   7.4085663019e+01   5.1085966049e+01    0.2000134    0.1798456  20.40 0.0001858739    1.084    0.078
       127  -9.4339     72.7907     63.7330   8.2190301096e+01   5.5480171315e+01    0.1758463    0.1612998 -54.45 0.0004875998    1.321    0.243
       128 -10.6140      6.6045     63.1737   1.0869867115e+02   6.2472390853e+01    0.2833358    0.2159206  39.92  0.001843632    1.740    0.425
       129 -10.2594     10.4486     59.0268   1.0609989985e+02   6.3164282991e+01    0.3545898    0.1191966 -41.74  0.001581869    2.360    0.576
       130 -10.3537     62.8700     62.3093   8.5413219811e+01   5.7262314500e+01    0.2841009    0.1767054 -35.68  0.001113524    1.463    0.316
       131 -10.9318     38.6643     61.9184   9.4959882149e+01   6.0320513946e+01    0.3180172    0.1835988 -26.62  0.001597289    1.774    0.436
       132 -13.1867     20.4219     58.0535   1.0155176475e+02   6.2727565198e+01     0.422195    0.2524462 -60.91  0.001175644    1.602    0.376
       133 -10.3838      1.3722     59.8774   1.1015223273e+02   6.3430890315e+01    0.2293615    0.1022367 -58.29 0.0004116824    1.643    0.391
       134 -11.0002      4.5136     57.5298   1.0828393486e+02   6.3793794781e+01    0.2117029    0.1327849 -38.79   0.00106034    1.299    0.230
       135 -11.0091     84.1411     56.9619   7.5776434882e+01   5.4819262805e+01    0.3718211     0.268334 -57.35  0.001825934    1.885    0.470
       136 -11.2422     88.0899     53.0019   7.2992559952e+01   5.4784272045e+01    0.4063164    0.3111403  -3.31  0.001420952    1.352    0.260
       137  -9.3614     33.6830     59.3229   9.6249709113e+01   6.1351640743e+01    0.1934585   0.09779389 -45.57 0.0009591315    1.611    0.379
       138 -10.3996     33.0214     55.6567   9.5393531606e+01   6.2168422078e+01    0.4749751      0.17587 -35.90  0.001850399    2.723    0.633
       139  -9.2445    193.2905     58.6652   5.0110920903e+01   2.9830003812e+01    0.1486039    0.1030942 -64.08 0.0003016556    1.634    0.388
       140  -9.0469     77.7386     58.2432   7.8482556978e+01   5.5707330455e+01    0.1180042    0.1123738 -88.59  0.000675075    1.422    0.297
       141 -10.0465     71.6875     56.8545   8.0185556408e+01   5.6965063106e+01     0.239513    0.1442229 -37.45  0.001163566    1.549    0.354
       142 -10.0974     26.7141     56.9809   9.8523443296e+01   6.2459973740e+01    0.2602706     0.157563  -9.73  0.001398373    1.853    0.460
       143 -10.0139    104.4454     56.4450   6.9047206919e+01   5.0965222404e+01    0.2406056    0.1392883 -33.10 0.0005472471    1.728    0.421
       144 -10.9966    105.5955     52.6595   6.7354805072e+01   5.1349677844e+01    0.2658587     0.235858  10.02  0.000320817    1.058    0.055
       145 -11.5408    114.2512     53.8300   6.5289484604e+01   4.9304149965e+01    0.3267066    0.3060666  -7.25 0.0006369828    1.058    0.055
       146  -9.0065    164.9783     54.1810   5.3712760548e+01   3.7321623519e+01     0.189838    0.1078788  59.12 0.0008210689    1.728    0.421
       147 -12.0398     65.4998     52.5466   8.0952745732e+01   5.8729161392e+01    0.4905716    0.2352893  35.31  0.001484532    2.150    0.535
       148 -10.1080    149.4818     51.9964   5.6126918997e+01   4.1406059262e+01    0.2620897    0.2031105  76.14   0.00057614    1.464    0.317
       149  -9.7530    121.8837     51.5324   6.2436525990e+01   4.7965023244e+01    0.2095706    0.1896764 -17.48 0.0003941673    1.112    0.101
       150 -11.4101     77.7564     46.8879   7.4265738972e+01   5.7693900064e+01    0.5311345     0.324776  -6.51   0.00145042    2.172    0.540
       151 -10.0374     82.5112     47.0962   7.2674890558e+01   5.6805674644e+01    0.2362406    0.1922214  39.51 0.0003245446    1.296    0.228
       152 -10.4300      4.2978     50.3600   1.0661107407e+02   6.5316998373e+01    0.2804016    0.1259899 -33.07  0.001275696    1.978    0.495
       153 -11.9827      9.3751     47.0037   1.0337088473e+02   6.5737256560e+01    0.5183507    0.3932519 -34.72  0.003519933    1.058    0.054
       154  -8.9020    161.3271     50.2641   5.3226007263e+01   3.8780371477e+01    0.1460692    0.1065126  31.54 0.0001581868    1.567    0.362
       155 -10.3449     38.3826     48.6526   9.0721154773e+01   6.3010558331e+01    0.2564873    0.1729907   4.48  0.001454161    1.553    0.356
       156  -9.7679    101.8273     48.1643   6.6843280134e+01   5.2851329838e+01    0.1946106    0.1889782  21.87 0.0003878159    1.152    0.132
       157  -9.8092     57.9392     48.1507   8.2290752166e+01   6.0645039403e+01    0.1838015    0.1689006 -31.90  0.000370934    1.265    0.209
       158 -10.0947     53.6526     47.4463   8.3773232527e+01   6.1370491653e+01    0.3532245    0.1869992 -21.30  0.001559769    2.306    0.566
       159  -9.5007    154.5335     47.4935   5.3687338951e+01   4.0828731560e+01    0.2152473    0.2123446  37.51 6.303013e-05    1.029    0.028
       160  -9.4801    152.3886     44.5995   5.3203972234e+01   4.1751997778e+01    0.2045916    0.1959659 -75.12 7.052875e-05    1.095    0.087
       161  -9.6456    136.0191     46.9584   5.7436282849e+01   4.5361996354e+01     0.225733    0.1758581 -73.64  0.001115986    1.685    0.407
       162  -9.6900    119.4507     47.4556   6.1648334049e+01   4.9130558634e+01     0.145663    0.1314367  21.02 0.0001068866    1.046    0.044
       163 -10.6335     26.1046     44.6474   9.4855481641e+01   6.4987418450e+01    0.3450525    0.2166444 -64.40   0.00183345    2.134    0.531
       164 -10.1162     30.9324     45.6133   9.2978565818e+01   6.4355904262e+01     0.261558    0.1640636 -43.73 0.0007664881    1.354    0.261
       165 -11.4789     16.1036     42.8661   9.8947479885e+01   6.6130667198e+01     0.440211    0.3763951  69.60  0.002686293    1.865    0.464
       166 -12.5314    141.3997     41.8769   5.4571213970e+01   4.4781614539e+01    0.3353553    0.2756008 -75.20 0.0003396588    1.471    0.320
       167 -10.0958     48.5311     58.7406   8.9883749770e+01   5.9870071849e+01    0.2607028    0.2404419  79.75  0.001325615    1.562    0.360
       168 -10.6633     69.4553     42.2282   7.5492024680e+01   5.9879572807e+01    0.2529283    0.2136556  46.49 0.0006773219    1.477    0.323
       169 -10.1069     59.4849     41.8943   7.9246408877e+01   6.1508799623e+01    0.2227464    0.1764449  42.00 0.0006867546    1.545    0.353
       170 -10.5508     35.0502     22.6604   8.1828994456e+01   6.7896396837e+01    0.2796766     0.183706 -25.16 0.0008457504    1.286    0.222
       171 -10.4299     35.9485     41.2437   8.9111287859e+01   6.4662527390e+01    0.3569606    0.1923985 -39.67  0.001525491    1.568    0.362
       172 -11.9610     39.3784     32.8399   8.4214584824e+01   6.5744042049e+01    0.4785389    0.3083335 -22.58    0.0010687    1.374    0.272
       173 -10.4353    225.0408    247.6209   8.5747075751e+01  -7.6536781146e+00    0.2412744    0.1553649 -26.17  0.001537288    1.561    0.359
       174 -10.1720      3.7605     42.0445   1.0459229434e+02   6.7041102143e+01    0.2095231    0.1254101 -19.32  0.001175394    1.605    0.377
       175  -8.2608    183.3135     41.6656   4.6999193466e+01   3.4599757646e+01    0.1474265    0.1000815 -65.86 0.0004016997    1.685    0.407
       176 -10.0595     43.0803     40.4459   8.5606716905e+01   6.3986745035e+01     0.211724     0.150804 -23.30  0.001249825    1.203    0.169
       177  -9.8110    152.3644     39.0224   5.1452708698e+01   4.2499709037e+01    0.1910297    0.1836976 -41.06 0.0004660525    1.094    0.086
       178 -10.0508    128.1055     38.7615   5.6468864583e+01   4.8355998007e+01    0.1982921    0.1876355  79.19 0.0004041973    1.172    0.147
       179 -11.7230    121.4496     37.2926   5.7538273818e+01   5.0095543386e+01    0.3929985    0.3709481  20.74  0.001150929    1.042    0.040
       180  -9.5058     87.1580     39.1798   6.8027672149e+01   5.7161858630e+01    0.1714097      0.16042  50.74 0.0002971402    1.309    0.236
       181 -10.1058     22.0515     38.0559   9.4451396933e+01   6.6590163072e+01    0.1955176    0.1577786  -4.72 0.0005814824    1.202    0.168
       182 -10.8803     26.6362     34.7292   9.0992775381e+01   6.6788088255e+01    0.3929749     0.234474   9.00  0.001302634    1.756    0.431
       183 -11.0414     18.7067     32.0831   9.3887297334e+01   6.7966367828e+01    0.5608528    0.2442188  -2.04   0.00233079    3.644    0.726
       184 -11.1814      2.3559     34.8366   1.0311519267e+02   6.8530065496e+01    0.2753713    0.1931361 -61.97   0.00180603    1.508    0.337
       185  -9.1205    223.7150     36.3346   4.0495582306e+01   2.5871483381e+01    0.1375336   0.08476733 -61.09 0.0002611524    1.623    0.384
       186 -10.6339     90.3451     35.2555   6.5442756510e+01   5.7096866959e+01    0.4104799    0.2314466  -9.01  0.001092673    2.380    0.580
       187  -8.9199    240.2906     39.6969   3.9571113031e+01   2.1871341944e+01    0.1314726   0.08125702 -61.58  0.000281481    1.569    0.363
       188  -9.2518    185.6300     35.2916   4.4901997321e+01   3.4853060501e+01    0.1457483   0.09744955 -70.92            0    1.719    0.418
       189 -10.7602     73.8540     33.9938   7.0515893694e+01   6.0394136427e+01    0.3803791     0.280891 -49.82  0.001384488    1.847    0.458
       190  -9.4233    134.0392     34.4702   5.3664026644e+01   4.7504164166e+01    0.2022248   0.09882415  38.12  0.000804705    2.284    0.562
       191 -10.6617    127.9570     30.8739   5.3750395392e+01   4.9385555278e+01     0.377958    0.2752917 -74.31  0.001592274    1.938    0.484
       192 -10.2657      7.0722     20.8847   9.5630194992e+01   7.0816197904e+01    0.1649717    0.1442872  11.93 0.0003411376    1.457    0.314
       193 -10.0299    229.6454    247.9308   8.4967284813e+01  -8.3001884666e+00     0.199701    0.1418411  25.30  0.000517857    1.257    0.204
       194 -11.6207     10.5608     30.0749   9.7294487035e+01   6.8942305076e+01     0.357668     0.241896  40.50 0.0008171971    2.233    0.552
       195  -9.3836      5.5315     25.4981   9.8259651569e+01   7.0099584672e+01    0.1774002   0.07837249 -42.48 0.0009738794    1.667    0.400
       196  -9.1788    187.9908     31.0302   4.3418550295e+01   3.4803675229e+01    0.1603844    0.1493877 -65.99 0.0003627072    1.058    0.055
       197  -9.0055    166.4682     31.4310   4.6671791775e+01   3.9987498341e+01    0.1369588    0.1266487  81.98 0.0001106826    1.039    0.037
       198  -9.2724     77.3033     31.2668   6.8152260361e+01   6.0157106883e+01    0.1350051   0.09169513  13.68            0    1.527    0.345
       199  -9.2970     58.9961     30.9890   7.4932569728e+01   6.3320987616e+01    0.1553625    0.1277678   5.91 0.0003748349    1.052    0.050
       200 -11.0713     68.5859     26.4678   6.9242479034e+01   6.2377990954e+01    0.2944284     0.249457 -42.66  0.001802339    1.539    0.350
       201  -9.7376     57.9935    247.9998   1.1801260624e+02   1.5871093278e+01    0.1394043    0.1091834  61.40 0.0004889071    1.000    0.000
       202 -11.3774      8.2166     34.6309   1.0009003730e+02   6.8242435737e+01    0.4703337    0.2214227  34.74  0.002042325    2.908    0.656
       203 -10.2417    113.8819     25.9726   5.5252009896e+01   5.3219363061e+01    0.2437906    0.1892224 -25.25   0.00104223    1.367    0.269
       204  -9.8713     77.0724     26.8035   6.6345381488e+01   6.0800658837e+01    0.2493462    0.1722108 -14.33  0.001373986    1.427    0.299
       205  -9.7951    100.9159     26.2689   5.8736871388e+01   5.6056117933e+01    0.2008606    0.1678827  30.75  0.001177476    1.060    0.056
       206  -8.9492     18.9323     25.5646   9.1189646519e+01   6.9094664455e+01    0.3047582    0.1059349 -35.22  0.001300015    2.539    0.606
       207 -10.9134     14.1785     21.7116   9.2094047137e+01   7.0148258817e+01     0.369064    0.2114999  19.36   0.00225483    1.815    0.449
       208 -10.6443     59.5022     22.9888   7.1194508400e+01   6.4378560584e+01      0.33931    0.2189207 -16.68  0.001718272    1.477    0.323
       209 -10.2054     58.7002     19.5603   6.9944193241e+01   6.4960843143e+01    0.2704745    0.2184955  47.89  0.001056428    1.602    0.376
       210  -9.7728     52.7554     24.6486   7.4720241031e+01   6.5204514380e+01    0.2413786    0.1355086 -22.60  0.001255348    1.726    0.420
       211 -10.6030     91.0366     22.5338   6.0060838234e+01   5.8577917316e+01    0.3108737     0.208491  47.26  0.001370867    1.390    0.280
       212  -9.3805     81.2789     23.3384   6.3447894862e+01   6.0437013197e+01    0.2036909   0.09441444  29.92 0.0005318463    2.477    0.596
       213  -9.5598     84.4859     21.4793   6.1624136893e+01   6.0028401195e+01    0.2137285    0.1177694  46.60 0.0008661984    1.669    0.401
       214 -10.4061     75.1452     21.8326   6.4858933505e+01   6.1789002361e+01    0.2777118    0.1828764  13.39 0.0005824291    1.562    0.360
       215 -10.3390     74.7059     18.6616   6.3609287218e+01   6.2250198949e+01    0.3349623    0.1866052  23.97  0.001636307    1.913    0.477
       216 -10.8531     30.4587     21.2598   8.3439383622e+01   6.8646503674e+01     0.238101    0.1831819  12.97 0.0009852647    1.261    0.207
       217  -9.7689    181.4182     20.8107   4.1494895147e+01   3.7548424117e+01    0.1730465    0.1305632  -6.83 0.0007707472    1.673    0.402
       218  -9.8015    164.9783     21.2811   4.3893592820e+01   4.1495126013e+01    0.1892494    0.1633842  69.28 0.0004820697    1.061    0.057
       219  -9.4126    119.0911     19.5106   5.1642961583e+01   5.2727807934e+01    0.1934107     0.123824  59.45 0.0003347735    1.462    0.316
       220  -9.3345    141.5152     18.5206   4.6838017653e+01   4.7501169806e+01    0.1339354    0.1232446  71.24 -4.398798e-05    1.074    0.069
       221 -10.2499    114.9582     17.4311   5.1799930220e+01   5.3892857415e+01    0.2090389    0.1858317 -46.36 0.0005504789    1.327    0.246
       222  -9.3569    170.8068    247.1302   9.5929896684e+01   1.3004084264e-01    0.1716873    0.1273827  10.10 0.0007235105    1.351    0.260
       223  -9.2349    116.2774    246.3543   1.0663067912e+02   8.3628865232e+00    0.1129612   0.09200215  -5.29 0.0002110502    1.650    0.394
       224  -9.3199    136.3227    245.6864   1.0256212717e+02   5.5226831320e+00    0.1236462   0.08591078  59.20 0.0002862757    1.658    0.397
       225  -9.2263     86.3584    245.2724   1.1239958911e+02   1.2746236960e+01    0.1082189   0.09046559   7.47 0.0007000982    1.649    0.393
       226  -8.9371     74.2765    243.6781   1.1459104484e+02   1.4630377461e+01    0.1204022   0.07370423  64.60 0.0003934991    1.579    0.367
       227  -9.9531     82.8225     16.0950   5.9830020480e+01   6.0964361979e+01     0.178228    0.1660376   3.38 0.0002975107    1.194    0.163
       228  -8.7997     27.2940     16.6967   8.2915208104e+01   6.9693592718e+01   0.09874834   0.09337097 -21.11   0.00022183    1.576    0.365
       229 -10.4137    234.9270     15.0522   3.4634215080e+01   2.5939456431e+01    0.1825569    0.1520339 -67.88 0.0003468486    1.010    0.010
       230  -9.9982    154.5136     15.0558   4.3586964736e+01   4.4684411361e+01    0.2200117    0.1600884  66.86 0.0004853392    1.242    0.195
       231  -9.4638    202.4015    240.2490   8.8778859171e+01  -3.5258244965e+00     0.143505    0.1152517 -37.02 0.0009322728    1.525    0.344
       232  -9.0717     45.2781     15.3658   7.3623390889e+01   6.7578051120e+01     0.129939   0.07963644  -1.27 0.0003960014    1.678    0.404
       233 -10.1499     43.1734     12.7741   7.3298073116e+01   6.8216717631e+01    0.1766539    0.1303339 -14.56 0.0006117414    1.175    0.149
       234  -9.0394     60.9850    241.0000   1.1691166562e+02   1.6802561320e+01    0.1832771   0.05701999  35.26 0.0007812115    2.880    0.653
       235 -10.0229     35.9373    240.3232   1.2153105812e+02   1.9829093419e+01    0.1562675    0.1192296  58.55 0.0005629837    1.091    0.083
       236  -9.9215    148.4154    238.7656   9.9219718423e+01   4.8397930068e+00    0.1595559    0.1176932 -32.43 0.0006368828    1.606    0.377
       237 -10.1609    117.6071    239.2144   1.0553456580e+02   9.4158506185e+00    0.1545034    0.1159867 -44.41 0.0006996561    1.611    0.379
       238 -11.4093     14.0295    238.6178   1.2533717525e+02   2.2395690614e+01    0.2051505    0.1299282  86.87 0.0005861991    1.327    0.247
       239  -9.0961     89.5104     13.4655   5.6705007865e+01   5.9873610463e+01    0.1324856    0.1106416  27.34 0.0001984401    1.011    0.011
       240  -9.9210     91.0945    237.3643   1.1068372633e+02   1.3552428805e+01    0.1809198    0.1596995 -62.16 0.0004879121    1.324    0.245
       241 -11.8610     25.6549    235.8626   1.2312583992e+02   2.1763784736e+01    0.2845272     0.196342  35.64  0.001036766    1.564    0.361
       242  -9.9187    249.3581    233.8855   7.9165942287e+01  -9.1003567398e+00     0.178459    0.1338318  18.70 0.0004270893    1.244    0.196
       243  -9.0718    100.2821     11.3637   5.2946249029e+01   5.7773623561e+01    0.1399591   0.08581007  25.85 0.0007016287    1.682    0.405
       244 -12.0179      4.0346    232.6437   1.2679049548e+02   2.4457262594e+01    0.2737084     0.156571  59.61  0.001886692    1.360    0.264
       245  -9.0949    191.3167     13.6835   3.8414251508e+01   3.5926824069e+01    0.1366964   0.08671733 -65.73 0.0004490162    1.651    0.394
       246 -12.8702      9.8372    227.4179   1.2551680406e+02   2.4939050550e+01     0.594837    0.3262762  69.94  0.001806884    1.491    0.329
       247  -9.0540    243.4749    230.4552   7.9602832180e+01  -7.9050522658e+00    0.1217619   0.09132507   2.20 0.0002896684    1.011    0.011
       248  -9.8494     47.7623    229.9967   1.1859139892e+02   2.0496935850e+01     0.159374    0.1248983  73.03  0.000376967    1.062    0.059
       249  -9.5251    209.5000    229.5159   8.5673002076e+01  -3.0327744368e+00    0.1271443     0.102205   9.87 -5.038099e-05    1.005    0.005
       250 -10.7385    140.5373    228.6049   9.9425586597e+01   7.8077126638e+00    0.2453191    0.1295465 -51.59  0.001209657    2.182    0.542
       251 -10.1509    223.5763    226.4191   8.2498241635e+01  -4.6337320721e+00      0.25233    0.1469455   0.29 0.0006947368    1.991    0.498
       252 -10.8279      1.4578    224.9469   1.2689206618e+02   2.6171294781e+01    0.2663521    0.1084669 -86.45 0.0009296797    2.125    0.529
       253 -11.2747      2.2790    220.4614   1.2653520655e+02   2.6984099607e+01    0.3094037     0.145705  79.68  0.001524547    1.827    0.453
       254  -9.3096     41.3273    222.3179   1.1926534541e+02   2.2762057020e+01    0.1052318   0.08850172 -41.88 0.0007046087    1.679    0.404
       255  -9.1422    126.5355    220.5702   1.0126451676e+02   1.1484465692e+01    0.1312425    0.1152355  42.13 0.0002046852    1.016    0.016
       256 -10.9947      8.7494    217.9560   1.2522403975e+02   2.6916488949e+01     0.247626    0.1977084  30.74  0.001845197    1.580    0.367
       257  -9.1742      7.3283     14.3007   9.2695923155e+01   7.1906096609e+01    0.1218059   0.06468362 -21.93 0.0007031028    1.642    0.391
       258  -9.9335    205.6870    212.6016   8.3473409741e+01   1.0088949065e-01    0.2272303    0.1450724 -22.40 0.0008805367    1.603    0.376
       259 -10.1333     15.4770    213.4851   1.2370040831e+02   2.7213168435e+01    0.1855818   0.07709975  45.27 0.0007207223    2.042    0.510
       260  -9.5301    249.4608    211.4569   7.5178055281e+01  -6.1749232302e+00    0.1257908   0.09525933  -3.18 0.0001681239    1.034    0.033
       261  -9.1582     56.4354    210.5561   1.1518084848e+02   2.3453761327e+01    0.1207769    0.1055508  75.06 0.0001042394    1.057    0.054
       262 -10.2783     20.1882    209.8608   1.2255604317e+02   2.7521606111e+01    0.1849716     0.119476  66.18 0.0006737047    1.302    0.232
       263 -11.0177      3.0313    206.2035   1.2567433520e+02   2.9818882818e+01    0.2020874    0.1197549 -68.58  0.001301479    1.617    0.382
       264 -10.1311     10.2035    203.2084   1.2410928522e+02   2.9835376318e+01      0.16718    0.1035778  68.66 0.0006622768    1.354    0.261
       265  -9.0704    193.3485    201.7362   8.3958346169e+01   3.8835977996e+00    0.1255299    0.1066355  58.89 0.0003507707    1.610    0.379
       266 -10.1169     23.6436    196.6534   1.2092800175e+02   3.0019237772e+01    0.2355244    0.1724842 -47.99  0.001499448    1.739    0.425
