#   1 NUMBER                 Running object number                                     
#   2 MAG_AUTO               Kron-like elliptical aperture magnitude                    [mag]
#   3 X_IMAGE                Object position along x                                    [pixel]
#   4 Y_IMAGE                Object position along y                                    [pixel]
#   5 X_WORLD                Barycenter position along world x axis                     [deg]
#   6 Y_WORLD                Barycenter position along world y axis                     [deg]
#   7 A_WORLD                Profile RMS along major axis (world units)                 [deg]
#   8 B_WORLD                Profile RMS along minor axis (world units)                 [deg]
#   9 THETA_WORLD            Position angle (CCW/world-x)                               [deg]
#  10 FWHM_WORLD             FWHM assuming a gaussian core                              [deg]
#  11 ELONGATION             A_IMAGE/B_IMAGE                                           
#  12 ELLIPTICITY            1 - B_IMAGE/A_IMAGE                                       
         1 -12.4366    140.5927     38.0602   3.7153181076e+01   4.4393760285e+01    0.7075586    0.4136712  70.03 0.0004872355    1.608    0.378
         2 -11.4382     83.7915     49.7080   5.4280788934e+01   5.5812859578e+01     1.499564    0.6717628 -21.85  0.004865409    4.370    0.771
         3 -10.8811     15.5451     19.4227   7.1789312829e+01   7.2164791060e+01     1.044783    0.3508911 -50.61  0.003784395    5.050    0.802
         4  -9.8846     39.6021      9.2481   5.3352187413e+01   6.9780745433e+01    0.3576205    0.1729222  36.67 0.0002014444    1.798    0.444
         5  -9.8862     24.0068      7.3923   6.0210588228e+01   7.2599048668e+01    0.4429113    0.1743189  30.65 0.0007703315    2.552    0.608
         6 -11.6640      7.1671     22.2855   7.8648394403e+01   7.2635169099e+01    0.9166436    0.5953134 -30.77  0.005690524    1.372    0.271
         7 -10.3804     32.9694     25.8435   6.4968554222e+01   6.8812527553e+01     1.570569    0.5310465  38.35  0.006568532    2.698    0.629
         8 -11.0545      9.2972     15.0061   7.3600011625e+01   7.3556618382e+01    0.4110668     0.294957  22.82  0.002636715    1.311    0.237
         9 -11.1699     17.4245      6.8949   6.3809712483e+01   7.3630898382e+01    0.5754657     0.345577 -48.72  0.003128885    2.763    0.638
        10 -11.6801     16.5229     13.6759   6.8173020314e+01   7.2869796040e+01     0.363998    0.2069635  38.30 0.0006091469    1.823    0.451
        11 -10.7739     24.6479     13.1370   6.3033973789e+01   7.1801625233e+01    0.3701541    0.2345679  -6.22 0.0006065047    1.708    0.414
        12 -10.3160     28.1924     18.8729   6.4074351634e+01   7.0515566730e+01    0.4081128    0.2497767  -1.41  0.002186321    1.938    0.484
        13 -11.3825     31.1111     11.7944   5.8812416785e+01   7.0955613112e+01    0.5974248     0.312288 -22.19  0.001694241    2.144    0.534
        14 -10.4206      8.5613      8.5742   7.0593272897e+01   7.4562959300e+01    0.4008889    0.2458473 -23.58  0.001163029    1.542    0.352
        15 -12.2999     45.6670      9.4791   5.0853910635e+01   6.8639081981e+01    0.5354313    0.3034225   9.32 0.0001238168    2.378    0.579
        16 -10.1256     48.0501      2.3161   4.6252968946e+01   6.8848299889e+01    0.1804567    0.1490743  38.18 0.0003197646    1.050    0.047
        17 -10.7194     41.0355      2.6787   4.9232658407e+01   7.0161123623e+01    0.3479548    0.2180745  58.75   0.00201012    1.746    0.427
        18 -11.1407     34.3478      2.6231   5.2173766128e+01   7.1384890129e+01    0.3328481    0.2633207  44.58  0.001146527    1.264    0.209
        19 -11.5284      2.6554      3.5169   7.1898736212e+01   7.5923577818e+01    0.3612207    0.3088219 -55.48  0.002532779    2.031    0.508
        20 -10.8690      6.8332      2.8371   6.8425158242e+01   7.5530133313e+01    0.2241874    0.1735434   0.78 0.0002954725    1.054    0.051
        21 -11.2045     54.4625     34.6804   5.8992443410e+01   6.3901101499e+01    0.5681492    0.4165124 -48.82  0.001600006    1.745    0.427
        22 -11.2457    180.0257     22.2769   2.7974119800e+01   3.7288988846e+01    0.7453747    0.3357793 -67.72  0.003408327    2.567    0.610
        23 -12.4542    239.2622     19.5592   2.2891066455e+01   2.5866685690e+01    0.9104941    0.4079559 -50.24  0.001368853    1.662    0.398
        24 -10.2789    246.9931     14.0178   2.1471096357e+01   2.5130594180e+01    0.3343952    0.1765884  82.71  0.002243935    1.839    0.456
        25 -10.6970    227.5958     18.8213   2.3472785221e+01   2.8066929202e+01    0.3730901    0.2883555  87.88  0.001873929    1.273    0.215
        26 -10.1798    232.0835     15.6591   2.2601425921e+01   2.7591452125e+01    0.2992505    0.1469441 -52.86  0.001169877    1.551    0.355
        27 -11.9048    132.2366     29.7545   3.6103276142e+01   4.7359432915e+01    0.3961737     0.292083 -60.91            0    1.423    0.297
        28 -10.7212     81.1891     20.1842   4.3721109018e+01   6.0219889287e+01     0.481149    0.2215644 -38.13  0.001212224    2.486    0.598
        29 -10.0939     75.9497     13.3701   4.2382508794e+01   6.2051483136e+01    0.4668668     0.226401  -8.89  0.002036192    3.202    0.688
        30  -9.9754     77.5105      6.9642   3.9298522962e+01   6.2277897765e+01    0.4427911    0.2988163   7.82  0.002552361    1.846    0.458
        31 -11.8217    111.3443     18.9563   3.6383334578e+01   5.3438790858e+01    0.4279173    0.3083639  36.87  0.001176622    1.543    0.352
        32 -11.0527    112.1491     15.1524   3.4963015847e+01   5.3619960949e+01    0.1894566    0.1706233  79.01            0    1.069    0.064
        33 -10.4147    136.2998     16.2716   3.1499513374e+01   4.7844512213e+01     0.554444    0.3513767  29.07  0.002149846    2.351    0.575
        34 -10.5911     67.2903     21.9002   4.8651063576e+01   6.3018749501e+01    0.5024267    0.2639495  30.99  0.001852728    2.173    0.540
        35 -12.0272     55.5600     19.3527   5.1705019066e+01   6.5676020642e+01    0.4113738    0.2547936  27.03 0.0007441468    1.648    0.393
        36 -11.2501     58.2353     12.7446   4.7649896763e+01   6.5851464817e+01    0.6874809    0.3337486  60.18  0.003266115    2.180    0.541
        37 -10.0828     63.0130      9.9881   4.4768945638e+01   6.5134806270e+01    0.1842537    0.1657286  35.17 0.0003753925    1.096    0.088
        38 -11.6070    192.9192     17.7832   2.5790381537e+01   3.5032188644e+01    0.2965859    0.2561623  80.47  0.002139913    1.252    0.201
        39 -10.6060    151.3593      4.5382   2.6441943808e+01   4.5459645017e+01    0.6030611    0.2426047  61.75  0.002944201    2.157    0.536
        40 -11.7594    151.6651     18.4674   3.0113559474e+01   4.4056329704e+01    0.5241405    0.3669398  56.59  0.003135518    1.454    0.312
        41 -10.0051    149.6777     11.9475   2.8597180763e+01   4.5162269422e+01    0.2417248    0.1719341  80.78 0.0005321449    1.197    0.164
        42 -10.3605    156.8785     10.7990   2.7500610910e+01   4.3628935960e+01    0.2935477    0.1903529 -58.13 0.0008103899    1.475    0.322
        43 -10.4952    153.1595      9.8050   2.7638820383e+01   4.4569123284e+01     0.260921    0.1991868 -82.86 0.0003752039    1.131    0.116
        44 -11.1512    100.3161     16.5662   3.7745375826e+01   5.6243337400e+01    0.4927697    0.3526964  55.91  0.002024078    1.198    0.165
        45  -9.4700    102.6749     13.3056   3.6107342008e+01   5.6002758445e+01    0.2349274    0.1817963  81.59 0.0006457071    1.261    0.207
        46 -10.0527     85.9068     15.5171   4.0638656389e+01   5.9636804581e+01    0.5983114     0.318429 -64.55  0.002383994    3.775    0.735
        47 -10.0817     39.4428     16.6959   5.7259833913e+01   6.8967626693e+01    0.3727722    0.2007226  33.41  0.001157444    1.658    0.397
        48 -11.0098    221.5783     15.3826   2.3199182675e+01   2.9575843681e+01     0.263039    0.2017229  68.88  0.001922467    1.528    0.345
        49 -10.6224    116.6535      8.6144   3.2058954549e+01   5.3154911088e+01    0.2508523    0.1818125 -80.14 0.0005599901    1.428    0.300
        50 -10.2252    131.2078     13.3312   3.1348519419e+01   4.9319404359e+01    0.3217122    0.2024659 -71.48 0.0006647147    1.732    0.423
        51 -12.1595    129.1586      4.5292   2.9001778616e+01   5.0578714201e+01    0.8112283    0.3297527  61.65  0.003909327    2.005    0.501
        52 -11.5712    123.1319     11.1548   3.1866143443e+01   5.1412900144e+01    0.4743102     0.249084  63.78  0.001328397    1.586    0.369
        53 -10.2563    176.3135     12.2699   2.5971273771e+01   3.9157814465e+01    0.2621094    0.2246302 -65.01  0.000292136    1.150    0.130
        54 -12.5764    187.1069     13.6985   2.5367187990e+01   3.6690020939e+01    0.3501473    0.3174607 -29.49  0.000398868    1.452    0.311
        55 -12.1921    182.6882     12.1253   2.5382090743e+01   3.7794340216e+01    0.3323956    0.2589743 -43.54  0.001234825    1.351    0.260
        56  -9.7294    144.0367     12.1905   2.9332166639e+01   4.6439397442e+01     0.344758     0.232917 -62.89  0.002040685    1.472    0.321
        57 -10.6180    204.4292      3.2371   2.1877838074e+01   3.4179122993e+01    0.3753898    0.2349864  88.29  0.002000924    1.364    0.267
        58 -11.1245    198.2549      3.4265   2.2314043349e+01   3.5405861622e+01    0.6801897    0.2526802 -89.40  0.003169727    2.834    0.647
        59 -11.6121    208.7172     10.2599   2.3026177944e+01   3.2615607098e+01    0.5041785    0.3904088   8.77  0.001652408    2.439    0.590
        60 -10.9341    216.0471      7.4563   2.2003334375e+01   3.1474076799e+01    0.3463168    0.2178142 -45.73  0.001192713    1.411    0.291
        61 -10.8974    218.2054      2.8101   2.0978506245e+01   3.1531509235e+01    0.3473872    0.1800506  79.04 0.0005862503    1.764    0.433
        62 -10.2788     90.9619      9.9830   3.7322712070e+01   5.8996807468e+01    0.3995615    0.3077899  61.77  0.002081758    1.096    0.088
        63 -11.1722     89.3416      3.3444   3.5134701691e+01   5.9908605810e+01    0.4832025    0.2661857  75.67  0.002507301    1.807    0.447
        64  -9.9176    249.2614      6.8560   2.0118708032e+01   2.5509670653e+01     0.315161   0.09497623 -48.26  0.001751224    2.207    0.547
        65 -10.9966    167.7613      6.5833   2.5381452715e+01   4.1590985230e+01    0.3531349    0.2518297 -51.47 0.0007087672    1.342    0.255
        66  -9.4804    170.6364      2.7191   2.4203843013e+01   4.1315888628e+01    0.2267637    0.1608247  64.56 0.0007631477    1.428    0.300
        67  -8.9158     98.2158      7.1524   3.4777349542e+01   5.7570788486e+01    0.2118185    0.1584762  69.38 0.0009238485    1.151    0.131
        68 -10.2899    104.0253      7.7689   3.3908719941e+01   5.6173938117e+01    0.3226052    0.1907971  57.34  0.001505178    1.412    0.292
        69 -10.3595    105.9865      2.5053   3.1747613796e+01   5.6139963945e+01    0.5004364    0.2403723  82.36  0.002340764    2.249    0.555
        70  -9.6453    225.5110      7.1214   2.1387602733e+01   2.9714952445e+01    0.2226233     0.143552 -83.61 0.0009236481    1.300    0.231
        71  -8.8429    137.7476      8.1894   2.8980652893e+01   4.8265806482e+01     0.196992    0.1292305 -59.41 0.0008903079    1.557    0.358
        72  -9.2813     71.6344      7.1166   4.0920179775e+01   6.3552821680e+01    0.2410264    0.1808342 -88.47  0.001325823    1.729    0.422
        73  -9.5819    237.6933      6.3764   2.0600799880e+01   2.7573382118e+01    0.2568657     0.109798 -62.65  0.001524293    1.888    0.470
        74 -10.4763    176.9476      4.0943   2.4010987166e+01   3.9816161702e+01    0.4241854    0.1835308 -60.43  0.001139136    2.241    0.554
        75  -8.5936    185.1006      4.5066   2.3472774145e+01   3.8033488294e+01    0.1655883   0.09590308  82.52 0.0004444344    1.486    0.327
        76  -9.6469    120.3958      2.6983   2.9620976013e+01   5.2769442543e+01    0.2536389    0.2038025 -39.66  0.001671632    1.420    0.296
        77  -9.6814    246.3025      1.7362   1.9377559035e+01   2.6545589179e+01    0.1846713    0.1198173  78.35  0.001395722    1.600    0.375
        78  -9.1086     63.4260      1.7665   4.0871916795e+01   6.5748449957e+01    0.3102792    0.1662512  71.39  0.001550044    2.160    0.537
        79  -8.8227     24.1816      2.1544   5.7070496507e+01   7.3149799119e+01    0.1403549    0.1281293  16.27  0.000368896    1.313    0.238
        80  -9.2963    229.9650      2.0669   2.0214093509e+01   2.9409512119e+01    0.1638639    0.1129092 -67.24 0.0002893394    1.049    0.047
        81  -8.8068    114.9277      1.1430   2.9905649127e+01   5.4164355325e+01    0.1720712    0.0722969  71.39 0.0004557582    1.990    0.497
        82  -9.2318     61.7263    103.0984   7.9284740802e+01   4.9045704893e+01    0.2187877     0.186039 -48.83  0.001127151    1.145    0.127
        83  -9.1111    127.1278    101.9813   5.8225458290e+01   3.6732156180e+01    0.2186612    0.2161905 -72.07 0.0003839834    1.007    0.007
        84 -11.9985     80.9188    103.2164   7.2392091220e+01   4.5791943192e+01    0.3536081    0.2982582  28.69 0.0003451482    1.197    0.165
        85 -10.7911    117.6053     96.8206   5.9317238944e+01   3.9855073598e+01    0.4782738    0.3682558 -38.65  0.001305128    1.329    0.248
        86 -11.5157    101.6563     97.9204   6.4199915549e+01   4.2975136507e+01     0.299275    0.2759171  34.92 0.0002639642    1.082    0.076
        87 -10.7454    107.9342     96.1502   6.1838072340e+01   4.2052607000e+01    0.5298935    0.2976351  54.49  0.001082989    2.005    0.501
        88  -9.6659     63.8999     98.6718   7.7293331733e+01   4.9772845463e+01    0.2575819    0.1848495  40.81 0.0006490017    1.448    0.309
        89 -10.3757     16.8807     96.9780   9.6140844026e+01   5.5831077163e+01    0.4501616    0.2087025 -70.10 0.0007236335    2.163    0.538
        90  -9.6792     95.9823     96.1691   6.5453965963e+01   4.4507853650e+01    0.2972022    0.2390068  32.19 0.0007882763    1.268    0.211
        91  -9.1295     51.2196     97.1795   8.1827625960e+01   5.2032445827e+01    0.1887989    0.1711369  61.96 0.0002934026    1.278    0.218
        92 -12.6420     34.7720     89.5558   8.6725533077e+01   5.5963469768e+01    0.6191847    0.3680264 -72.54  0.002714763    2.106    0.525
        93  -9.7879     26.8857     96.9147   9.1851636054e+01   5.4974993100e+01    0.2285149    0.2121127 -37.58 0.0004069002    1.033    0.032
        94  -9.5957      9.3348     90.7792   9.8235858284e+01   5.7926803617e+01    0.6814706    0.1817782 -66.16  0.001775168    3.202    0.688
        95 -10.1640     12.9579     88.0865   9.6080764422e+01   5.8344666317e+01    0.2194606    0.1919366 -24.00 0.0002847826    1.101    0.092
        96  -9.3612    137.5647     92.6546   5.3172648060e+01   3.6324812435e+01    0.2682532    0.2034084 -42.61  0.001329463    1.311    0.237
        97  -9.2588    139.1063     88.6367   5.1733161909e+01   3.6749800538e+01    0.2614534    0.1994389 -56.26  0.001303952    1.343    0.255
        98 -10.0840    112.9296     91.6698   5.9143994915e+01   4.1922027659e+01     0.335601    0.2724592  27.65  0.001117544    1.358    0.263
        99  -9.6206    110.0095     88.0039   5.8899644924e+01   4.3294091929e+01    0.2562987    0.2195577 -43.04 0.0005709861    1.185    0.156
       100  -9.6330     41.3650     91.1628   8.4313634888e+01   5.4791306212e+01    0.2928507    0.2155092   3.66  0.001063388    1.475    0.322
       101  -9.8900     53.9963     89.1460   7.8531745555e+01   5.3542475156e+01    0.3888401    0.2141637  20.64  0.001124256    2.082    0.520
       102  -9.6057     45.8250     92.7689   8.2868364860e+01   5.3831786842e+01    0.3491628    0.2235728  -8.17  0.001522333    2.026    0.506
       103  -9.7887     48.2905     89.4481   8.0953958941e+01   5.4289000015e+01    0.3964682    0.2814732  51.56  0.000948085    1.725    0.420
       104  -9.7062    127.7757     91.3981   5.5170163284e+01   3.8733777860e+01    0.4005808    0.2480161  64.29 0.0009502032    1.960    0.490
       105  -9.4114     90.4001     92.2114   6.6096639087e+01   4.6481543556e+01    0.3535124    0.1992369  27.19  0.001369964    2.227    0.551
       106  -8.3003     21.3083     92.2758   9.3251581169e+01   5.6643823148e+01    0.1452573   0.09309617 -31.88 0.0004226483    1.552    0.356
       107  -9.4430     65.7692     90.9755   7.4434927535e+01   5.1265845554e+01    0.3424633    0.2324998  66.66  0.001272434    2.293    0.564
       108  -8.8254     22.6722     95.3510   9.3319138651e+01   5.5757074612e+01    0.1433439    0.1049587  63.95 5.275887e-05    1.764    0.433
       109 -10.9751    111.9803     82.9408   5.6859601487e+01   4.3865096603e+01    0.4060264    0.2655678  40.78            0    1.557    0.358
       110 -12.2597    105.9270     80.3295   5.7771565212e+01   4.5689425036e+01    0.9506504    0.7076121 -15.16  0.001677349    1.743    0.426
       111 -10.3479     86.2035     87.9539   6.6222170806e+01   4.8222079785e+01    0.4538816    0.4036435  34.45   0.00241536    1.105    0.095
       112 -10.1920    127.1297     80.5623   5.2265557935e+01   4.0941219166e+01    0.4045073    0.2665387 -10.73  0.001521907    2.634    0.620
       113 -10.6007    121.0437     82.2840   5.4270448521e+01   4.1985410674e+01     0.311437    0.2899227 -83.68 0.0003203845    1.109    0.099
       114  -9.9320    119.7938     87.4043   5.6072091276e+01   4.1278484524e+01    0.3759136    0.3118249  86.42  0.001187569    1.411    0.291
       115  -9.6486    124.4409     86.5545   5.4640168160e+01   4.0414834545e+01    0.3431578    0.2093943 -45.38  0.001243041    1.651    0.394
       116  -8.7513     72.2985     83.6367   6.9800446552e+01   5.1763276285e+01    0.2883661    0.1377018  43.40 0.0008537415    2.138    0.532
       117  -9.9476     76.5498     85.5772   6.8849393738e+01   5.0569143284e+01    0.5256459    0.2523175 -54.36  0.001282504    2.391    0.582
       118 -10.4032     79.9576     80.9887   6.6225366409e+01   5.0897453342e+01     0.264461    0.2251229  12.80 0.0003083505    1.234    0.190
       119 -10.1820    156.8631     85.8857   4.7294173963e+01   3.3308338671e+01    0.2488018    0.1982282  45.88 0.0005940049    1.362    0.266
       120  -9.4507    131.2437     86.0921   5.2849136064e+01   3.8986071259e+01    0.2391985    0.2027321  54.21 0.0003169791    1.172    0.146
       121  -9.3696     59.4988     85.0879   7.5146270704e+01   5.3622221581e+01    0.3563462    0.2079166  28.18   0.00156595    1.767    0.434
       122  -8.6048     95.3579     84.1553   6.2103779472e+01   4.7171790339e+01     0.201266    0.1401591 -54.12 0.0003639546    1.576    0.366
       123  -9.9000    187.9386     83.0217   4.1288688915e+01   2.7143079364e+01    0.1967421    0.1741353 -60.79  0.001199346    1.017    0.017
       124  -9.6570      1.8664     83.0543   1.0016697246e+02   6.0267860095e+01    0.2033773     0.167873 -43.28 0.0006955299    1.039    0.038
       125  -9.4925    146.9255     81.6007   4.8146772666e+01   3.6286488183e+01    0.2157705    0.1983206 -33.21 0.0003750188    1.174    0.148
       126 -11.1419     53.9662     80.8325   7.6110135933e+01   5.5435758164e+01    0.2832385    0.2596297 -41.83 0.0002733554    1.116    0.104
       127 -10.4018     56.3854     73.1838   7.2705925945e+01   5.6706051171e+01    0.5371555    0.3244362 -17.46  0.002221931    2.378    0.579
       128 -11.5632     46.2844     73.3981   7.7081004448e+01   5.8198594802e+01     1.002566    0.7197312 -25.86  0.001003818    1.433    0.302
       129 -11.5062     51.2812     70.1408   7.3859370068e+01   5.8146524876e+01    0.3352007    0.2694461 -51.43 0.0004419594    1.340    0.253
       130  -8.8670     22.3655     81.2286   9.0207641675e+01   5.9232862898e+01    0.1815951    0.1271229 -69.96 0.0003839025    1.572    0.364
       131 -11.2943    151.7712     74.6497   4.5321532796e+01   3.6396902705e+01    0.6890842    0.2925524 -31.95  0.002056496    2.923    0.658
       132 -12.2810    138.4945     71.2634   4.7052156025e+01   3.9992509408e+01     1.291388    0.7797826  29.40  0.005253216    2.657    0.624
       133 -10.6276    166.4838     62.7623   3.9657501174e+01   3.4989602985e+01    0.3982821    0.2746248 -19.71 0.0005505625    2.007    0.502
       134 -12.1483    159.0292     67.2813   4.2052820276e+01   3.5961541782e+01    0.8348596    0.5991641 -15.80  0.003233558    1.987    0.497
       135  -9.7176    147.1358     61.8187   4.2707264909e+01   3.9530778835e+01    0.2269743    0.1946099 -47.42 0.0004932313    1.181    0.154
       136 -12.5214    150.7033     57.4929   4.0879530893e+01   3.9366039657e+01    0.3628493    0.2811987 -60.91  0.000527473    1.281    0.219
       137 -11.4004    161.2095     56.6542   3.8913838285e+01   3.7088696420e+01     0.394071    0.3098778 -74.83 0.0005743816    1.246    0.197
       138 -10.0471    161.9995     52.2961   3.7656087224e+01   3.7537176956e+01    0.2404408    0.1985513  80.07 0.0003067695    1.132    0.116
       139 -10.8393    165.1772     70.1104   4.1742117654e+01   3.4133811509e+01    0.3516846    0.3196359  21.31  0.002077968    1.402    0.287
       140  -9.9949     87.1663     80.1696   6.3511923335e+01   4.9649689782e+01    0.3764331    0.2054237  41.93            0    1.788    0.441
       141 -10.2245    153.0121     64.8508   4.2464670463e+01   3.7710411131e+01    0.3169146    0.2656988 -25.08  0.001780968    1.404    0.288
       142  -8.8839    187.2711     76.2181   3.9802568459e+01   2.8387752671e+01    0.1814788    0.1365173 -69.46 0.0003414719    1.311    0.237
       143 -11.1112    123.6247     75.6111   5.1674860973e+01   4.2632173457e+01    0.4938384    0.3640423  54.82  0.001196577    1.324    0.245
       144  -9.9255    117.6960     76.0448   5.3285176702e+01   4.3891525674e+01    0.2059283    0.1869943 -41.27 0.0005458115    1.138    0.121
       145 -10.2986     78.2409     66.8052   6.2190746194e+01   5.4028033050e+01    0.4812613    0.3484129  75.33  0.002194692    2.149    0.535
       146  -9.9454     78.3285     75.3273   6.4993564036e+01   5.2363540527e+01    0.4999565    0.2688271  35.67  0.001612255    1.882    0.469
       147  -9.7444     83.6188     73.2291   6.2479800472e+01   5.1735648036e+01    0.3669522    0.2920148 -63.07  0.001838106    1.522    0.343
       148  -9.7640     60.8853     76.1508   7.1833675264e+01   5.5343161867e+01     0.275869    0.1952489  34.44 0.0006760841    1.390    0.280
       149 -11.6568      7.7593     73.9797   9.5466101510e+01   6.2093998235e+01    0.3914002    0.2766061   2.86 0.0008410389    1.462    0.316
       150  -9.7790     24.0465     72.6157   8.7142124954e+01   6.1072209664e+01    0.2802348    0.1638414 -43.79 0.0006634968    1.533    0.348
       151  -9.0785    183.0862     72.1223   3.9445895628e+01   2.9918535764e+01    0.1811005    0.1786252   4.74            0    1.266    0.210
       152 -10.0435     73.4680     67.9091   6.4276463109e+01   5.4746455907e+01    0.4218609    0.2644514  34.19  0.001023469    1.578    0.366
       153 -10.7973     63.2038     70.5854   6.9088850753e+01   5.6095955501e+01    0.3789729    0.2993007  44.48  0.001028548    1.331    0.249
       154  -9.7772     60.5456     65.5897   6.8451450040e+01   5.7547664478e+01    0.4728926    0.2982762  29.23  0.002260954    1.584    0.369
       155 -10.0129     61.0118     60.7288   6.6549269128e+01   5.8394581126e+01    0.2323153    0.2012844  36.30 0.0002991902    1.155    0.135
       156 -10.9724     61.2683     57.3053   6.5203254215e+01   5.8978365175e+01    0.5133765    0.2507837  34.03  0.001359889    2.045    0.511
       157  -9.7962     26.8795     56.5462   8.0751211609e+01   6.4235413491e+01    0.2378706     0.208326 -23.45 0.0006456104    1.066    0.062
       158 -11.7478     31.5579     52.9586   7.7093614822e+01   6.4384767026e+01    0.5557654    0.4585349 -27.10  0.003355732    1.122    0.109
       159 -11.0964     30.5835     70.9851   8.3531549857e+01   6.0743086826e+01    0.2941712      0.27008  45.15 0.0001264921    1.309    0.236
       160  -9.0030     26.7276     65.6014   8.3771019674e+01   6.2349810337e+01     0.250796    0.2208889  44.79 0.0007948385    1.389    0.280
       161 -10.8239     34.6712     67.6058   8.0546987463e+01   6.0995424157e+01    0.3444527    0.2797115  46.28 0.0007435333    1.491    0.329
       162 -10.0971     34.2933     63.0563   7.9251902021e+01   6.2004417713e+01    0.4724782    0.2441473 -31.32  0.002063619    2.150    0.535
       163 -10.8994     17.4134     70.5118   8.9818461307e+01   6.2165157281e+01    0.3303221    0.2460814 -25.93  0.001264545    1.235    0.190
       164  -9.3950     11.0006     67.4126   9.2233652006e+01   6.3382848959e+01     0.396634    0.1966264  32.59  0.001539722    2.227    0.551
       165 -12.0383    111.0311     65.8706   5.1889375598e+01   4.7185206329e+01    0.5910568    0.3679147  26.82 0.0002975615    2.300    0.565
       166  -9.4687     42.0708     67.2986   7.7001705862e+01   6.0089456813e+01    0.2531918    0.2355884  19.64 0.0008727331    1.146    0.127
       167 -11.4702     43.6508     60.3250   7.3899737551e+01   6.1285109015e+01    0.4431931    0.3067281 -30.99 0.0009902962    1.434    0.302
       168 -10.8489    180.9617     63.7975   3.7761930024e+01   3.1655481777e+01     0.383742    0.2453387 -37.49 0.0005448674    1.567    0.362
       169 -10.0067    177.1060     64.0648   3.8377091533e+01   3.2449585452e+01    0.1980116    0.1759257 -74.38 0.0002739355    1.016    0.016
       170  -9.7034    194.6931     65.6629   3.6360292217e+01   2.8481258006e+01    0.2335452    0.1784432 -51.67  0.000201577    1.157    0.135
       171 -10.0351    190.9866     61.5783   3.5898371274e+01   2.9856261343e+01    0.4498124    0.2112399  54.38  0.001963973    2.328    0.570
       172  -9.7728    137.0338     65.0319   4.5584450318e+01   4.1355668253e+01    0.2157194    0.2030723  86.33  0.000492624    1.008    0.008
       173  -9.4813     88.7002     64.8602   5.8026493467e+01   5.2248203536e+01    0.2376426    0.2234639   2.64 0.0005748127    1.085    0.078
       174  -9.4965     10.2703     51.9558   8.8188906002e+01   6.6800680383e+01    0.2878957    0.2362578 -82.40  0.001705224    1.688    0.408
       175 -10.6268     18.0635     41.4670   8.0047606477e+01   6.8150460239e+01    0.4076828    0.2951047 -81.07  0.002093098    2.648    0.622
       176  -9.9538      2.5673     62.5633   9.5403444651e+01   6.5033705810e+01    0.5824042    0.1753791 -47.08  0.002335951    2.506    0.601
       177  -8.9752      9.3052     61.4053   9.1510610517e+01   6.4849783490e+01    0.3101595    0.1463421  32.68 0.0009792356    2.352    0.575
       178 -10.2299      8.3069     56.9333   9.0787357811e+01   6.5897095658e+01     0.366868    0.2680148 -18.36 0.0006968363    1.243    0.196
       179 -11.0974     22.1298     60.9056   8.4629751576e+01   6.3839952114e+01    0.2787131    0.2086549  -8.94            0    1.280    0.219
       180 -10.0561     26.5402     48.2346   7.7949872976e+01   6.5914624915e+01    0.3575161    0.2257139   4.97  0.001326805    1.683    0.406
       181 -10.7923     20.1317     55.1053   8.3801531651e+01   6.5256242437e+01    0.4478879    0.2241633 -38.27  0.001031714    1.857    0.461
       182 -11.0432     18.6145     49.4063   8.2674445692e+01   6.6562437405e+01    0.6422393    0.3725514  -5.69  0.003179858    1.950    0.487
       183  -8.8993    172.4884     62.9713   3.8788754583e+01   3.3625967003e+01    0.1948508    0.1253368 -40.37 0.0004973552    1.517    0.341
       184 -10.1948    218.7389     59.6183   3.2311231922e+01   2.4596646735e+01    0.2609537     0.188597 -48.63 0.0008613018    1.181    0.154
       185  -8.4946    200.3749     61.1530   3.4650409797e+01   2.7982860032e+01    0.1735022   0.09891064 -49.74 0.0003470432    1.526    0.345
       186  -9.6050    131.8817     60.6551   4.5387266976e+01   4.3244642005e+01     0.276647    0.2006535 -50.05  0.001429916    1.421    0.296
       187  -9.3549    109.0718     61.1201   5.0891077390e+01   4.8421569031e+01    0.2523838    0.2093316 -21.74  0.000735159    1.370    0.270
       188  -9.2772    205.9593     52.7217   3.2179566646e+01   2.8046461149e+01    0.2288111    0.1413312 -51.67 0.0005576285    1.378    0.274
       189 -10.0106    201.5215     49.8884   3.2034660675e+01   2.9328934490e+01    0.3091874    0.2169543 -78.20   0.00122987    1.348    0.258
       190  -9.7454    196.8410     58.1654   3.4401426436e+01   2.9135055514e+01    0.2349103    0.1957764 -41.31 0.0005203914    1.264    0.209
       191 -11.0579    200.4936     55.1742   3.3312241311e+01   2.8810094817e+01    0.3057603    0.2337069 -74.67  0.001442613    1.182    0.154
       192 -10.6905    185.1519     57.1803   3.5622603035e+01   3.1729760450e+01    0.4018296    0.2019338 -39.10 0.0006708089    1.884    0.469
       193  -9.6576    183.7754     51.4150   3.4435802021e+01   3.2839020091e+01    0.3536316    0.1859933  48.38  0.001470298    2.392    0.582
       194 -10.5694    179.0649     51.9165   3.5157691100e+01   3.3790161136e+01    0.3800386    0.3411774 -38.77  0.001496427    1.272    0.214
       195 -10.0214    174.3655     53.2565   3.6114076149e+01   3.4633068442e+01    0.3921731    0.2021425 -43.03  0.001518256    1.811    0.448
       196  -9.6868    172.1440     49.8355   3.5570781894e+01   3.5602753095e+01    0.2147634    0.1619203  79.32  0.001250641    1.259    0.206
       197 -10.1639    106.2126     57.3906   5.0431582632e+01   4.9671009935e+01    0.4948909    0.2461111  51.98  0.002118468    1.871    0.465
       198 -10.4607     92.2545     57.0016   5.4241121078e+01   5.2832093804e+01    0.3876737    0.3074404 -25.47 0.0008986865    1.388    0.280
       199  -9.8854     95.4894     56.0137   5.2943303344e+01   5.2285709304e+01    0.2969941    0.2192764 -33.01 0.0008733374    1.463    0.317
       200  -9.5720    222.7789     56.1177   3.1197043743e+01   2.4322347082e+01    0.2963786    0.1779043 -36.39  0.001357125    1.642    0.391
       201  -8.2256    239.0000     55.9421   2.9697288499e+01   2.1411948898e+01    0.1873087    0.0537296 -38.45 0.0007966693    2.903    0.655
       202  -9.0453    106.9680    246.6727   9.1107713464e+01   7.4949574934e+00    0.2003725    0.1755254 -28.72  0.000807714    1.258    0.205
       203 -12.7739    137.8750     47.2759   4.0290446407e+01   4.3815045684e+01      1.12736    0.5932775  73.55 0.0008219234    2.125    0.529
       204 -10.2071    117.9328     51.3151   4.5592283038e+01   4.7906841595e+01    0.4110897    0.2578693  48.19  0.000217253    1.537    0.349
       205 -10.6697    128.0544     53.4841   4.4052876749e+01   4.5227669087e+01    0.4286389    0.3319533 -21.37  0.001281061    1.562    0.360
       206 -12.1173    122.5908     49.8607   4.4103259234e+01   4.7032225832e+01    0.6129702    0.4176403  44.71   0.00158175    1.506    0.336
       207 -11.0674    126.9385     34.0357   3.8330777829e+01   4.8102484197e+01    0.4416447    0.2203904 -35.50            0    2.131    0.531
       208 -10.7834    123.7898     30.6197   3.7847446966e+01   4.9249994986e+01    0.3353922    0.2281185  66.46 0.0003736745    1.310    0.237
       209  -9.4075     78.0168     55.4870   5.8294835717e+01   5.6080459236e+01    0.2549844    0.1988916  -0.28 0.0003365149    1.507    0.337
       210  -9.2912     79.0995     44.4909   5.3862276557e+01   5.7595849648e+01     0.307041    0.2207643  66.88  0.001125187    1.687    0.407
       211 -11.2852     76.8579    219.8175   9.5145772784e+01   1.7142968343e+01    0.7448903    0.4798088  -2.43  0.003388195    2.236    0.553
       212 -10.4759     91.2142     43.9508   4.9939488626e+01   5.5058864906e+01    0.3760656    0.2541706  49.12 0.0008824352    1.338    0.253
       213 -11.0396     89.2137     38.2666   4.8434414449e+01   5.6286256208e+01     0.295102    0.2578701 -48.89 0.0002002133    1.301    0.231
       214  -9.2464     44.5742     53.2592   7.0896561405e+01   6.2501143371e+01    0.2754183     0.193158 -41.73 0.0008798921    1.455    0.313
       215  -9.2862     45.5231     49.4864   6.9013931566e+01   6.3039793988e+01    0.2435507     0.187899 -14.31 0.0007481985    1.300    0.231
       216 -12.6444      2.1756     51.0678   9.2534031318e+01   6.7564027576e+01    0.4100471    0.1909064 -39.45 0.0007418951    1.814    0.449
       217  -9.0141     40.4999     52.1877   7.2405063122e+01   6.3309888714e+01    0.1964632    0.1285627 -43.85   0.00102071    1.559    0.358
       218 -11.7189    233.1168     48.2806   2.8721634200e+01   2.3474672758e+01    0.2374959    0.1753828 -59.97 0.0002906457    1.042    0.040
       219 -10.5028    211.7629     49.5055   3.0901387919e+01   2.7333021917e+01    0.2906723    0.1958781  85.57  0.001250657    1.478    0.324
       220  -8.3904     73.6363     50.3039   5.7916124038e+01   5.7819242219e+01    0.1366888    0.1108618  82.32 0.0007036972    1.734    0.423
       221  -9.9486    193.4965     47.5259   3.2385135998e+01   3.1304831366e+01     0.501944    0.1899324 -51.66  0.002172685    2.521    0.603
       222  -9.8067    110.9179     49.0811   4.6516758048e+01   4.9857929767e+01    0.2202896     0.183446  60.98 -0.0009232552    1.117    0.105
       223  -9.0603    103.9957     48.9275   4.8193898098e+01   5.1467962064e+01    0.2199483    0.1671152 -77.90  0.000799332    1.692    0.409
       224  -9.4808     62.7902     48.6866   6.1344306160e+01   6.0189506422e+01    0.2167576    0.1775406 -13.21 0.0006321934    1.267    0.211
       225  -8.9879    246.5138     47.9125   2.7591348162e+01   2.1174567615e+01    0.1685878   0.08853652 -42.11  0.001021211    1.558    0.358
       226 -12.2179    163.5832     42.7012   3.4939834695e+01   3.8485060085e+01    0.3868659    0.2877244 -80.90  0.002242984    1.296    0.229
       227 -10.2248     67.1777     44.3799   5.7985661521e+01   6.0035966785e+01    0.5445523    0.2666987  53.42  0.001905865    2.272    0.560
       228 -10.7073     34.0802     39.6606   7.0589472348e+01   6.6471299738e+01    0.7718701    0.4304827 -38.05  0.003960169    1.790    0.441
       229 -10.7320     69.2546    217.4345   9.6795808566e+01   1.8680854861e+01    0.4901887    0.2976379  66.66   0.00226218    2.024    0.506
       230 -10.3217     73.7267    214.0294   9.5252444284e+01   1.8891596736e+01    0.3660563    0.3392651 -65.34  0.001528804    1.150    0.130
       231  -9.9994      1.6320     21.3853   8.2037800125e+01   7.3290771359e+01    0.2937295    0.1472289 -43.54 0.0009504118    1.808    0.447
       232  -9.8643     55.9637    217.1434   1.0014447002e+02   2.0407295260e+01    0.3060744    0.1724671 -67.19   0.00108024    1.839    0.456
       233  -8.9001     91.2597    214.5660   9.0831602202e+01   1.6384441913e+01    0.2694684    0.1213825  34.46 0.0008463202    1.983    0.496
       234 -11.1843     31.1139     32.1533   6.8869840830e+01   6.8130107535e+01     0.283424    0.2367962 -48.47 0.0007607861    1.555    0.357
       235  -9.5269    123.9633    206.0019   8.1339792121e+01   1.3519688465e+01    0.1980593    0.1848883   9.56  0.001141751    1.015    0.014
       236  -8.5925     90.4767    205.9749   8.9853093183e+01   1.8480755586e+01    0.1953865     0.123734  81.18 0.0008084991    2.417    0.586
       237  -8.6485    133.0367    199.0071   7.7951022395e+01   1.3654230529e+01    0.1607908    0.1490673   0.53  0.000907933    1.005    0.005
       238  -8.7353    223.1151    188.1205   5.7307535555e+01   2.5499090626e+00    0.1488066    0.1260665 -34.50            0    1.212    0.175
       239  -9.7912      1.3833    184.6719   1.1167030271e+02   3.3882998224e+01    0.3775533    0.1149997 -79.80  0.001389041    3.012    0.668
       240  -9.9811    100.9914    176.0086   8.2240042658e+01   2.4144482772e+01    0.2114863    0.2063598  -1.62            0    1.016    0.016
       241  -8.9225      6.9713    168.5132   1.0891778957e+02   3.7634375105e+01    0.1912001    0.1346388  21.41  0.001027299    1.574    0.365
       242 -10.6115     20.6571    118.8754   9.8507897448e+01   4.9843790233e+01    0.4153165    0.2609309  18.86  0.001557841    1.733    0.423
       243 -11.8109     17.1286    140.7172   1.0288087902e+02   4.4273798537e+01    0.6201742    0.4311199  35.81  0.002529069    1.523    0.344
       244 -10.9268      4.8927    163.1057   1.0907853956e+02   3.9207312366e+01    0.5752316    0.2873309  15.90  0.001640857    2.305    0.566
       245 -10.7205      6.3932    158.0798   1.0818950489e+02   4.0429424043e+01      0.47651    0.1798323 -64.37  0.001944261    2.215    0.549
       246 -10.3473      8.1513    136.9170   1.0548492769e+02   4.5959111562e+01     0.414568    0.3037955  51.34  0.001012811    1.462    0.316
       247 -11.3821     11.3675    145.0818   1.0531727609e+02   4.3541965091e+01    0.4064009    0.3277704  50.74 0.0008079464    1.300    0.230
       248 -10.6286      1.8236    112.2278   1.0476848578e+02   5.2884366856e+01    0.5615746    0.1862629 -70.88  0.002058415    2.543    0.607
       249  -9.8153    179.8198     44.4787   3.3271523539e+01   3.4635925512e+01    0.3000119    0.2027532  87.17  0.001700545    1.449    0.310
       250  -9.0884    149.2458     33.6184   3.4558901223e+01   4.2921619160e+01    0.2231006    0.1719985  86.05 0.0004167966    1.188    0.159
       251 -10.6317    155.1540     43.7413   3.6432103670e+01   4.0274418902e+01    0.3737041      0.30152  37.17  0.002170724    1.561    0.359
       252 -10.5947    157.9120     38.7354   3.4696356428e+01   4.0289058160e+01    0.5142294    0.2284664  53.95  0.002312956    2.267    0.559
       253 -10.8369    154.5061     34.5055   3.4048067135e+01   4.1597236917e+01    0.4286941    0.3714705 -71.98   0.00141957    1.079    0.074
       254 -10.2395    108.3892     43.9646   4.5430654878e+01   5.1164990440e+01     0.524746    0.2714667  69.20  0.002076894    2.306    0.566
       255  -9.6741    209.9457     42.6354   2.9629132509e+01   2.8596174360e+01    0.3077238    0.1398714 -40.87  0.001596694    1.914    0.478
       256  -8.9837     55.4692     43.4006   6.2214152711e+01   6.2390230770e+01    0.2016919    0.1486156   2.27 0.0006514903    1.509    0.337
       257  -9.2909    218.3610     41.4280   2.8618044581e+01   2.7109576433e+01    0.1994334    0.1646642 -58.95 0.0006708173    1.122    0.109
       258 -10.3873    201.7253     38.1934   2.9460120988e+01   3.0816564239e+01    0.4765861    0.2026827 -49.15  0.001580507    2.014    0.504
       259  -8.9650    174.8634     42.0753   3.3300088170e+01   3.6039784972e+01     0.207325    0.1512079 -68.69 0.0008747265    1.272    0.214
       260  -8.9716     97.4100     41.6903   4.7419100876e+01   5.3988240031e+01    0.1812735    0.1581898  56.94 0.0006896193    1.059    0.056
       261  -9.2323     27.6523     41.9559   7.4910222340e+01   6.6940110839e+01    0.2218185     0.164393  13.85 0.0005739349    1.236    0.191
       262  -9.9671    250.5619     37.5231   2.5419629129e+01   2.1796061616e+01    0.3643638   0.09399269 -39.68  0.001482018    2.892    0.654
       263  -9.2916    239.4395     40.7531   2.6792138123e+01   2.3312427572e+01     0.203727    0.1692477 -51.89  0.001536964    1.241    0.194
       264 -11.4938    245.3979     32.7626   2.4903955102e+01   2.3255038964e+01    0.4914622    0.4164559   6.88  0.001552978    2.213    0.548
       265 -10.9422    229.9257     39.1231   2.7205989595e+01   2.5229202899e+01    0.3796695    0.2140007 -82.62 0.0008883789    1.814    0.449
       266  -8.9220     66.4775     38.4778   5.5887849597e+01   6.1054619835e+01    0.2388055    0.1895421  69.54 0.0008312763    1.636    0.389
       267  -8.8943     52.1361     28.1729   5.7102025740e+01   6.5234809375e+01    0.1752109    0.1570037  83.52 0.0003911664    1.600    0.375
       268 -10.5864     61.8763     36.9153   5.6975750337e+01   6.2180612310e+01     0.522575    0.3619456 -27.19  0.002866968    1.558    0.358
       269 -11.4937      6.5278    108.6550   1.0242273378e+02   5.3546317142e+01    0.8655966    0.4707302 -36.93  0.003678431    1.838    0.456
       270  -9.1425    110.2006     37.9267   4.2988964378e+01   5.1547132465e+01     0.259918    0.1900224   5.81  0.001015077    1.909    0.476
       271  -9.4827     75.3842     39.9701   5.3357472557e+01   5.9029224476e+01    0.2139934     0.169633  53.54  0.000350957    1.241    0.194
       272  -9.2576     80.7324     39.0513   5.1267075432e+01   5.8028346215e+01    0.1959117    0.1659687  22.96 0.0002911891    1.188    0.158
       273  -9.5104     84.4507     35.1366   4.8638427297e+01   5.7747371297e+01    0.4991883    0.1584577  46.31  0.001829055    2.834    0.647
       274 -10.0180     79.1723     33.1989   4.9482956946e+01   5.9142581863e+01    0.2311622    0.1903936  88.21 0.0006241872    1.564    0.361
       275 -10.4752    194.7679     37.1974   2.9925301744e+01   3.2378622078e+01    0.2699813    0.1749809 -71.45 0.0004223422    1.429    0.300
       276  -8.6388     48.4277     37.7428   6.2900510726e+01   6.4517165485e+01     0.174396    0.1199319 -21.82 0.0007060968    1.547    0.354
       277  -9.2281      2.3013     37.9192   8.8236797148e+01   7.0225825265e+01    0.2194618    0.1488783  -7.11 0.0002100648    1.336    0.252
       278 -10.3952     73.7448     35.3045   5.2062921880e+01   6.0015977029e+01    0.2479989    0.2358155  14.18 0.0006010563    1.102    0.093
       279  -8.5437     28.5164     36.4873   7.2166586921e+01   6.7780403391e+01    0.1314099     0.107129  -1.60 1.207983e-05    1.054    0.051
       280  -9.0613    185.8606     35.3834   3.0435344026e+01   3.4490848938e+01    0.2194855    0.1466685  68.10  0.001300386    1.464    0.317
       281  -8.6662    189.2265     25.6292   2.7864980502e+01   3.4934632023e+01    0.1891972    0.1228274  50.52 0.0008052483    1.959    0.489
       282  -9.2144    178.5729     33.7135   3.0836994044e+01   3.6275792806e+01    0.3676639    0.2334527  32.87  0.001809938    2.805    0.644
       283  -9.6406    180.5713     28.7435   2.9440296860e+01   3.6433119405e+01    0.3012646    0.1668084  67.97  0.001651025    1.693    0.409
       284 -11.4679      3.3481    152.2151   1.0860177175e+02   4.2195046020e+01    0.6119459     0.278606 -65.31  0.001690357    1.864    0.463
       285  -8.5555      1.4291     34.1892   8.7442180379e+01   7.1004034211e+01     0.158694    0.1154066 -67.13  0.000948962    1.813    0.448
       286 -11.5575    236.3489     29.8791   2.4978157470e+01   2.5192404572e+01    0.4068623    0.3143997 -36.20  0.002963307    1.507    0.337
       287 -10.9698      6.3636    147.9559   1.0724415745e+02   4.3127092533e+01    0.4398765    0.2289559  36.97  0.001368851    1.982    0.496
       288 -12.1816     13.5135    116.9152   1.0093013621e+02   5.0918004321e+01     1.295729    0.5546942 -32.82  0.003930818    2.852    0.649
       289 -11.3708     10.6758    112.2999   1.0133204497e+02   5.2329983385e+01    0.3076444    0.2361074 -63.70 0.0002498645    1.150    0.130
       290 -10.9914     12.4600    128.9081   1.0300265949e+02   4.7803219580e+01    0.6015902    0.2761769  30.94  0.001183672    2.262    0.558
       291 -10.8116     12.9073    134.9947   1.0361962749e+02   4.6138818281e+01    0.2912631    0.2481837  58.90   0.00035273    1.244    0.196
       292  -9.3208    208.8470     31.4356   2.7376246482e+01   3.0212499786e+01     0.265684    0.1536084 -41.60  0.001582056    1.573    0.364
       293  -9.3503    207.0948     26.2881   2.6445873305e+01   3.1172206005e+01    0.2803281    0.1439189 -37.97  0.001218276    1.844    0.458
       294  -9.2074    223.4956     30.7834   2.6071616344e+01   2.7449499023e+01    0.1899134    0.1381445  87.59  0.000685497    1.300    0.231
       295 -10.0203    216.5472     29.8327   2.6417262078e+01   2.8891832472e+01    0.3150321    0.1949372 -64.87  0.001492706    1.354    0.261
       296  -9.8741     45.9440     29.1130   6.0212412304e+01   6.6218712001e+01    0.5062835    0.2026747  34.93  0.001720097    2.462    0.594
       297  -9.2982     24.8202     30.9134   7.1750619660e+01   6.9194490560e+01    0.2070928    0.1603209 -35.37  0.000711273    1.350    0.259
       298 -10.4067    223.5176     22.2144   2.4395069713e+01   2.8447257104e+01    0.4549692     0.217875 -80.05  0.002506076    2.143    0.533
       299  -8.8700    201.0959     29.5117   2.7640188555e+01   3.2007556147e+01    0.1622104    0.1035513  83.07 0.0003465376    1.460    0.315
       300  -9.5704    146.9974     29.0488   3.3620641669e+01   4.3982408101e+01     0.186925    0.1636226  83.60  0.001192167    1.036    0.034
       301  -9.9840     75.6512     20.8124   4.5559661413e+01   6.1363975556e+01      0.34914    0.2657473  73.49 0.0006958404    1.497    0.332
       302 -10.2837     82.3953     27.5265   4.6292854747e+01   5.9138292325e+01    0.3886994    0.3053579  80.68  0.002226097    1.526    0.345
       303 -11.2170     17.3075    133.7335   1.0191938911e+02   4.6141174262e+01    0.4043124    0.3085593  72.81 0.0007514933    1.406    0.289
       304 -11.3494     19.0374    160.4916   1.0453772783e+02   3.8793143861e+01      0.48384    0.3132421   6.58  0.002357467    1.882    0.469
       305  -8.1927     46.7231    160.2631   9.5833748501e+01   3.6025132891e+01    0.1457053    0.1070412  62.91 0.0006864909    1.475    0.322
       306 -10.7158    115.6707     36.5127   4.1329883049e+01   5.0448304980e+01    0.6826135    0.5444022  53.39  0.003970165    1.166    0.142
       307 -10.0957     71.6263     26.3327   4.9100920511e+01   6.1597504291e+01     0.541066    0.1748359  44.89  0.001773968    2.737    0.635
       308  -8.9350    155.0913     26.2572   3.1766103753e+01   4.2428145749e+01    0.1713523    0.1391639  88.76 0.0002785197    1.066    0.062
       309 -10.8034    110.4653     22.5597   3.7764983749e+01   5.3275454723e+01    0.2974888    0.2466204  10.36 0.0004544122    1.496    0.332
       310 -11.2596     15.8072    154.7383   1.0493303719e+02   4.0605217316e+01    0.4486431    0.2292186  49.15  0.001967493    2.078    0.519
       311 -10.4473     29.1878    151.5635   1.0025591354e+02   4.0270289178e+01    0.4397483    0.2034557 -38.70  0.001251023    2.680    0.627
       312 -10.4240    212.1178     22.6481   2.5300902897e+01   3.0594118219e+01    0.2643526    0.1926567 -51.63 0.0007361168    1.211    0.174
       313  -9.2654     11.2406     33.0845   8.0764872841e+01   7.0378345000e+01    0.2735114     0.164589  30.20  0.001542893    1.730    0.422
       314  -9.4854    129.9340     19.4849   3.3383257271e+01   4.9015392277e+01       0.3031     0.207194  83.87 0.0009553467    1.384    0.277
       315  -9.4498     37.7662    147.7467   9.6896982760e+01   4.0424970426e+01    0.2584832    0.1500676  62.76  0.001062484    2.150    0.535
       316  -8.7188    103.8216     24.0251   3.9640614903e+01   5.4669491659e+01    0.1734565    0.1544987  60.38  0.001092723    1.027    0.026
       317 -10.3433     99.4282     23.7017   4.0498495992e+01   5.5721242125e+01    0.3009241     0.214334  62.66 0.0005802848    1.238    0.192
       318 -10.4184     23.2112    148.3405   1.0180048175e+02   4.1699187639e+01    0.2139024    0.1761544 -19.91  0.001077288    1.385    0.278
       319  -9.6618    248.7245     22.5359   2.2871515823e+01   2.3882808761e+01    0.1977035    0.1381959 -62.07 0.0005785796    1.021    0.020
       320  -9.9594    164.0381     22.6031   2.9737571775e+01   4.0795862378e+01     0.296431    0.1993344  60.21  0.001104611    1.488    0.328
       321  -8.7949    161.4113     19.0240   2.9122384523e+01   4.1773774600e+01    0.2748811    0.1371422  89.01  0.001318039    2.124    0.529
       322  -9.3130    143.3196     22.0365   3.2176771767e+01   4.5614996810e+01    0.2234585      0.16528 -74.00 0.0006062096    1.320    0.242
       323 -10.0656     28.9335    146.0357   9.9599171677e+01   4.1792090124e+01    0.2960496    0.2107718  53.64 0.0007582047    1.502    0.334
       324 -11.8093     29.0257    137.7385   9.8384290305e+01   4.4030491180e+01    0.8162792    0.3346375 -62.40  0.001063226    2.105    0.525
       325 -11.4045     30.5631    125.4070   9.5877362817e+01   4.7201476688e+01    0.5322746    0.3866411  42.71  0.002457842    1.488    0.328
       326  -8.6092    159.4382     22.4534   3.0231812595e+01   4.1854587690e+01    0.1245108    0.1061215 -89.07 0.0002691103    1.031    0.030
       327  -9.6520    201.1924     18.0677   2.5186058932e+01   3.3293553609e+01    0.4844149    0.1961888 -88.63  0.002207396    2.880    0.653
       328 -10.3612    188.4606     20.5735   2.6794868227e+01   3.5666125488e+01    0.2104328    0.1759164 -89.98 7.602839e-05    1.129    0.114
       329 -10.7230     26.9936    130.3274   9.7978037535e+01   4.6223014506e+01    0.4838387    0.3206788 -14.46  0.001498922    1.846    0.458
       330 -10.5897    170.9900     32.2957   3.1361291925e+01   3.8123213942e+01    0.4379711    0.3206163 -45.22  0.001886752    1.348    0.258
       331 -11.2087      2.7531    140.9113   1.0772217914e+02   4.5241430067e+01    0.7116553    0.3364963 -89.65  0.002998599    2.201    0.546
       332  -9.5518     44.4820    141.6533   9.3674962239e+01   4.1318481303e+01    0.2489035    0.2373547 -19.40 0.0006040261    1.104    0.095
       333 -10.4077      4.4669    131.5973   1.0615565499e+02   4.7618098861e+01    0.3871063    0.2387994  39.71  0.001943681    1.755    0.430
       334  -8.6631     68.1582    130.8238   8.3498443407e+01   4.1020938526e+01      0.20981    0.1758808 -22.18  0.001030004    1.296    0.228
       335 -10.4524     24.1921    124.7874   9.8129377451e+01   4.7964498734e+01    0.3508407     0.277737  58.79    0.0010469    1.405    0.288
       336  -9.2894    118.2446     19.2129   3.5216087564e+01   5.1792954022e+01    0.3031485    0.1766488  54.82  0.001058475    1.531    0.347
       337  -9.2655     63.2037    127.2926   8.4451874840e+01   4.2683510449e+01    0.2865554    0.1993504  82.98  0.001209377    2.001    0.500
       338 -11.4933     98.9407    126.1077   7.2421964309e+01   3.6968383119e+01    0.2762086    0.2744861   5.53 0.0002919376    1.019    0.018
       339 -10.5327     48.7182    126.6064   8.9459137000e+01   4.4840871336e+01    0.2805245    0.2512493  84.53 0.0002343526    1.205    0.170
       340  -8.9440     43.3415     18.7219   5.6476288630e+01   6.8036777390e+01    0.1800778    0.1652253  28.83 0.0005790898    1.212    0.175
       341  -9.3218     67.5054    124.3874   8.2316098937e+01   4.2793511463e+01    0.4358473    0.2790301  63.16  0.001159539    2.190    0.543
       342  -9.6035    230.3548    124.5340   4.4086509350e+01   1.2366632239e+01    0.2599404     0.210217 -66.65  0.001577818    1.373    0.272
       343  -9.1872     59.0245    125.1450   8.5465142346e+01   4.3847466879e+01    0.2390983    0.1949481 -24.18 0.0005733031    1.324    0.245
       344 -10.7463     39.6363    119.8144   9.1475177575e+01   4.7727829406e+01    0.3676738    0.3355471 -45.40  0.001629998    1.033    0.032
       345  -9.8173     67.3609    117.3728   8.0753566034e+01   4.4612917703e+01    0.4371849    0.2985324 -74.50  0.001632115    1.804    0.446
       346 -10.7132     57.2503    117.9033   8.4522485150e+01   4.5981853898e+01    0.6338151    0.2947261  42.35  0.002321993    2.328    0.570
       347  -8.5962     51.4037    119.2181   8.6961223465e+01   4.6439716731e+01    0.2410637    0.1455662 -60.15 0.0005451247    1.591    0.372
       348 -11.3571     46.6870    116.3161   8.8103718174e+01   4.7803518203e+01    0.4205187    0.2706217 -56.17 0.0002229424    1.448    0.309
       349 -11.3517     98.7443    117.4366   7.0332792613e+01   3.9096325045e+01    0.3631125    0.2931316  40.60 0.0003111083    1.251    0.200
       350  -9.3326     98.5759    113.5396   6.9383181734e+01   4.0050372799e+01    0.2301456    0.1868615  31.46 0.0001161768    1.265    0.209
       351  -9.6020     72.1113    117.3571   7.9077981401e+01   4.3859722259e+01    0.2544967    0.2394113  41.99 0.0004536802    1.104    0.094
       352  -9.3631     30.9262    117.9799   9.4432485460e+01   4.9141266767e+01    0.2238128    0.2103883 -69.13  0.000628911    1.064    0.060
       353  -8.9016     79.5665    115.1164   7.5960275971e+01   4.3166242317e+01    0.2273275    0.1501987 -53.74 0.0004289073    1.501    0.334
       354  -9.8464     40.1652    114.2631   9.0160466807e+01   4.9124207152e+01    0.4295701    0.2720593  79.37   0.00177073    2.357    0.576
       355  -8.5422     75.3679    114.1397   7.7157551823e+01   4.4124434646e+01    0.2105789    0.1468036 -65.16 0.0002838029    1.596    0.374
       356  -9.4449     71.7976    112.8454   7.8084529577e+01   4.5039246142e+01    0.2783962     0.214399   6.23  0.001292962    1.511    0.338
       357  -8.6268    117.0196    112.7000   6.3758816922e+01   3.6548337767e+01    0.2116023    0.2015476  34.55 0.0005203297    1.066    0.062
       358  -9.7710     84.0828    112.9910   7.3901062705e+01   4.2889433581e+01    0.2658948    0.2143213  37.45 0.0003754518    1.252    0.202
       359 -10.9955     62.1931    111.7795   8.1282902449e+01   4.6821266766e+01    0.4399849    0.3565144 -16.90   0.00218379    1.354    0.261
       360  -9.4770     50.1439    112.1070   8.5869702015e+01   4.8446332371e+01    0.2642914    0.2080275 -56.35 0.0004591312    1.217    0.178
       361 -10.2535     46.7116    108.9929   8.6483318598e+01   4.9689272303e+01     0.448229    0.2526678  37.20  0.001197817    1.850    0.459
       362 -11.6339     45.8924    102.9714   8.5400982296e+01   5.1317047791e+01    0.4049452    0.2985014 -66.65  0.001365619    1.432    0.302
       363 -10.1106     34.6014    111.2418   9.1708360151e+01   5.0529126938e+01    0.3115083    0.2155838 -43.71 0.0006072533    1.365    0.268
       364 -10.7153     34.9201    105.9753   9.0484542884e+01   5.1854279189e+01    0.6196965    0.3141044 -75.93  0.001483439    2.569    0.611
       365 -10.9976     20.5984    110.5170   9.7118972705e+01   5.2049496927e+01    0.5225821    0.2676083  25.46  0.002079344    2.051    0.512
       366 -10.9554     21.3442    104.8243   9.5778137458e+01   5.3463948417e+01    0.3541375    0.2949708 -58.05 0.0006317439    1.094    0.086
       367 -10.3087     28.3300    109.6305   9.3873316142e+01   5.1585465815e+01     0.356069    0.2496874 -38.71 0.0009612635    1.384    0.277
       368 -11.1507    120.0744    107.8647   6.1651222047e+01   3.6980016685e+01    0.3078646    0.2540674  40.80  0.001529582    1.231    0.188
       369 -10.3535    131.2026    105.0985   5.8026331808e+01   3.5206631291e+01    0.4229251    0.3345964  -4.37  0.001994246    1.684    0.406
       370  -9.1666     54.8021    105.1922   8.2451965909e+01   4.9556029155e+01     0.213908    0.1698315 -23.11  0.001060807    1.333    0.250
       371  -8.8433      1.4868    104.8921   1.0389586903e+02   5.4804010534e+01    0.2071961     0.117204 -68.33 0.0008927091    1.526    0.345
       372  -9.7048    114.4675    104.1699   6.2201461909e+01   3.8959413290e+01    0.2716082    0.2149625  44.67 0.0005244395    1.269    0.212
       373 -10.4516    107.5927    103.0311   6.3856048149e+01   4.0637676380e+01    0.3888258    0.2664898  30.17 0.0007976135    1.631    0.387
       374  -8.9160     91.2606    104.6238   6.9324611633e+01   4.3536092065e+01    0.2115122    0.1466232  29.16   0.00093557    1.543    0.352
       375 -10.1598    126.1193     14.8815   3.2565973295e+01   5.0365689164e+01    0.2188458    0.1795041 -44.07  0.001352534    1.343    0.255
