#   1 NUMBER                 Running object number                                     
#   2 MAG_AUTO               Kron-like elliptical aperture magnitude                    [mag]
#   3 X_IMAGE                Object position along x                                    [pixel]
#   4 Y_IMAGE                Object position along y                                    [pixel]
#   5 X_WORLD                Barycenter position along world x axis                     [deg]
#   6 Y_WORLD                Barycenter position along world y axis                     [deg]
#   7 A_WORLD                Profile RMS along major axis (world units)                 [deg]
#   8 B_WORLD                Profile RMS along minor axis (world units)                 [deg]
#   9 THETA_WORLD            Position angle (CCW/world-x)                               [deg]
#  10 FWHM_WORLD             FWHM assuming a gaussian core                              [deg]
#  11 ELONGATION             A_IMAGE/B_IMAGE                                           
#  12 ELLIPTICITY            1 - B_IMAGE/A_IMAGE                                       
         1 -12.2240     87.3952     23.3752   4.1132860827e+01   5.8667699876e+01    0.4095543    0.2581491 -37.43  0.002132456    1.743    0.426
         2 -12.1561     20.5938     17.8617   6.5335891312e+01   6.9053522361e+01    0.3814823    0.2604182 -16.34  0.002596294    1.242    0.195
         3 -11.4977     65.9381     16.6734   4.5538873016e+01   6.3407537490e+01    0.2802225    0.2135772  -5.63 0.0003950211    1.161    0.139
         4 -11.5229     49.4677     14.0577   5.0746833204e+01   6.6286595632e+01    0.2730968    0.1919827 -12.22 0.0009019044    1.233    0.189
         5 -11.1641     45.0327     11.9861   5.1643994750e+01   6.7176403323e+01    0.2028419    0.1550909  15.53  0.000922691    1.193    0.162
         6 -10.1334    204.0383     13.4946   1.4906047500e+01   3.1359951552e+01    0.1950137    0.1715568 -62.81 0.0003200339    1.119    0.107
         7 -11.5377    115.4607     13.5280   2.9524509750e+01   5.3771495513e+01    0.3721062    0.1436861  47.77  0.001062238    2.197    0.545
         8 -12.4578     34.0985     12.2650   5.6580216298e+01   6.8514687541e+01    0.3250966    0.2711081 -61.57  0.001973308    2.216    0.549
         9 -12.4936    123.6975      6.7802   2.5175103450e+01   5.2482631306e+01     0.392104    0.2897346  69.25  0.001225601    1.374    0.272
        10 -11.9969    162.2230     10.9405   1.9698409955e+01   4.2426045583e+01    0.3617455    0.1960822 -22.44  0.001656848    2.111    0.526
        11 -12.3687    104.4054     10.5310   3.1059837113e+01   5.6577547285e+01    0.3332544    0.2946416 -26.26  0.001855999    1.283    0.220
        12 -12.6348     98.6484      8.2715   3.1637886686e+01   5.8056090529e+01    0.4114738     0.335629  75.76  0.001644907    1.573    0.364
        13 -11.2888     27.0914     10.8104   5.9168943339e+01   6.9498457610e+01    0.2480315    0.1412443 -44.25  0.000827582    1.898    0.473
        14 -12.7486     71.2588      9.9042   4.0625158913e+01   6.3299822450e+01    0.4965088    0.2619911  53.02  0.001593841    2.198    0.545
        15 -12.1244     78.2192      8.4316   3.7660191036e+01   6.2179534818e+01     0.384903    0.1634646 -28.92  0.001341292    2.364    0.577
        16 -12.8905     56.0466      9.1114   4.5818582983e+01   6.5936198190e+01    0.4632501    0.3084053  23.94  0.001822458    1.356    0.262
        17 -11.3147     60.4762      4.4827   4.1946482596e+01   6.5753091417e+01    0.2033892    0.1583095  16.38 0.0008625994    1.061    0.058
        18 -10.7283    115.2035      8.8019   2.7780861143e+01   5.4298188954e+01    0.1964259    0.1382781  33.57 0.0008437455    1.323    0.244
        19 -11.8711      3.5724      8.3535   6.9888583515e+01   7.1874741688e+01    0.2795482     0.170115 -28.88  0.001015514    1.229    0.186
        20 -10.8464      7.8170      6.1167   6.6691056350e+01   7.1924281490e+01    0.1834902    0.1244926  -8.44  0.000592659    1.281    0.220
        21 -13.2851    174.9626      3.9435   1.5805074059e+01   3.9804147259e+01    0.6699426    0.3829293 -83.51  0.003029111    2.058    0.514
        22 -11.8943    120.2184      9.4064   2.6890063593e+01   5.3065700920e+01    0.5369461    0.2244794 -20.59  0.002231102    2.681    0.627
        23 -11.5172     23.0722      5.3246   5.8537881263e+01   7.0691177672e+01    0.1767442    0.1722003  25.66  0.001080197    1.786    0.440
        24 -11.1291     16.0218      5.0208   6.1931097142e+01   7.1411830214e+01    0.1441652     0.137972 -31.59 0.0008881757    1.710    0.415
        25 -11.3918    134.7967      4.1693   2.2073972097e+01   5.0013332625e+01    0.2763889    0.1718087  56.81 0.0004314317    1.365    0.267
        26 -11.7020    131.4811      3.5457   2.2470038656e+01   5.0883014971e+01    0.2615748    0.2319534  35.63 0.0007801598    1.093    0.085
        27 -12.1091    114.1558      2.0178   2.5412813809e+01   5.5149635406e+01    0.4858761    0.1941577  59.93  0.001610412    2.183    0.542
        28 -12.2274     38.6905      2.5398   4.9840916612e+01   6.9221840873e+01    0.3201386    0.2063961  37.30  0.001540163    1.714    0.417
        29 -10.7457    143.2996      1.9542   1.9832731193e+01   4.8084796780e+01    0.1857478    0.1684865  40.00 0.0005805827    1.108    0.098
        30 -13.0595     86.6475      6.1303   3.4071175195e+01   6.0766257571e+01    0.6553385    0.3507064  18.31  0.003076033    2.219    0.549
        31 -11.3217     79.5851      1.3696   3.4071420965e+01   6.2616522187e+01    0.3114406   0.08849943  48.67  0.001239922    2.844    0.648
        32 -16.0949     33.5715    240.9935   9.7971790661e+01   2.1368642346e+01     1.816789     1.358054  51.32    0.0115097    1.365    0.268
        33 -11.6850     65.8629    249.1640   9.3160918119e+01   1.5898374760e+01    0.3437243    0.2397531  56.39  0.002472603    1.118    0.106
        34 -16.6988     24.5027    162.0634   9.3756802131e+01   3.8167025343e+01     8.908664       1.2622  42.44   0.03020361    4.806    0.792
        35 -14.5959     10.9572    177.7192   9.7890459938e+01   3.6052381702e+01     1.357266    0.9951193  49.91  0.009832126    1.414    0.293
        36 -13.4309     71.5838    159.2160   8.2527742903e+01   3.3219435419e+01     0.383552    0.3232706  22.19  0.002012294    1.529    0.346
        37 -17.0074      7.6458    234.2402   1.0176359460e+02   2.5369279353e+01     2.878835     2.566376  63.67   0.02537856    1.543    0.352
        38 -11.6604      6.5965    147.1109   9.6368526301e+01   4.3010328244e+01    0.2337986    0.1329183  63.75 0.0007584608    1.735    0.423
        39 -11.2634    107.9864    146.6713   7.1375994208e+01   3.0201329545e+01    0.2065465    0.1889994  65.18  0.000622084    1.053    0.050
        40 -12.2305      5.0477    139.1139   9.6000969695e+01   4.4888615536e+01    0.2606762    0.2489554   0.56  0.002062182    1.467    0.318
        41 -14.4516     20.4697    248.7375   1.0046649184e+02   2.1501911465e+01    0.7446551    0.3175236  43.22  0.004742635    2.008    0.502
        42 -10.9266      6.1585    169.8633   9.8281914863e+01   3.8126244515e+01    0.1676915    0.1167604  77.22 0.0005160349    1.155    0.134
        43 -12.3755     11.0865    132.8571   9.3937242882e+01   4.5837491724e+01    0.2763878    0.1722631  81.66  0.001240651    1.520    0.342
        44 -12.5069     16.7965    137.6359   9.3056094717e+01   4.4313617297e+01    0.2631769    0.1760646 -81.10 0.0008416598    1.206    0.171
        45 -11.8054     47.0750    135.7589   8.5197817237e+01   4.1799364977e+01     0.220609    0.1892642 -12.35   0.00136921    1.584    0.369
        46 -10.3106     81.4914    132.4344   7.5509550539e+01   3.7981631089e+01    0.1395728    0.1294461 -76.72  0.000126454    1.023    0.023
        47 -12.3724     59.5531    130.2879   8.1028484131e+01   4.1578473107e+01    0.3266412    0.3112912 -20.04  0.001327548    1.272    0.214
        48 -10.4324     46.3897    131.1575   8.4687343471e+01   4.2949077564e+01    0.1850424    0.1093772 -78.51 0.0005392333    1.654    0.395
        49 -10.7348     25.2290    129.3882   8.9976894556e+01   4.5470328046e+01    0.1571698    0.1048144  47.92 0.0008382892    1.637    0.389
        50 -12.0548     17.2443    123.9548   9.1365254026e+01   4.7374126983e+01    0.2390894    0.1709254 -74.30 0.0004295116    1.111    0.100
        51 -13.0545      6.9308    121.7688   9.3776726009e+01   4.8620060242e+01    0.4798874    0.2568858 -86.12  0.002298909    1.685    0.406
        52 -10.7815     49.9975    122.9691   8.2396005442e+01   4.4453139063e+01    0.2162338    0.1466838  77.05  0.001138638    1.726    0.420
        53  -9.9596     69.4983    118.5765   7.6107842433e+01   4.3000722401e+01    0.1368592    0.1248917 -68.58  3.94456e-05    1.012    0.012
        54 -11.2103     13.4820    117.9799   9.1615626992e+01   4.9012335743e+01    0.1668686     0.151429 -84.18 0.0005376607    1.165    0.142
        55  -9.5922     53.4894    117.4830   8.0454689918e+01   4.5327546797e+01    0.1334983    0.1158764 -63.99 4.974328e-05    1.035    0.034
        56 -11.4751     21.1961    116.1081   8.9284468879e+01   4.8846774742e+01     0.327863    0.1610915 -61.95  0.001753618    1.607    0.378
        57 -12.4236      2.3584    112.4084   9.3913257038e+01   5.1001641685e+01    0.4302127    0.1497651 -66.55  0.001298168    2.052    0.513
        58  -9.6803    152.6436    113.8188   5.2581608232e+01   2.8183521379e+01    0.2186781    0.1463178 -52.78 0.0004152058    1.613    0.380
        59  -9.5152     61.6283    112.3010   7.7114752777e+01   4.5527106704e+01    0.1398517   0.09967217  73.52 0.0007030796    1.748    0.428
        60  -9.5050     79.3089    111.3306   7.1747468483e+01   4.3251083142e+01    0.1444086    0.1067546 -26.83 0.0007040822    1.666    0.400
        61 -10.1379     18.0163    108.7200   8.9127644676e+01   5.0774178631e+01    0.1561049    0.1425712 -77.24 0.0005249909    1.148    0.129
        62 -10.3815     91.7926    116.1681   6.9263000571e+01   4.0111770213e+01    0.2077452    0.1881522 -70.94 0.0004084029    1.077    0.072
        63 -12.4287      4.8283     96.0055   9.1131451208e+01   5.4497209205e+01    0.4178979    0.2546946  10.76  0.002594928    2.215    0.549
        64  -9.4682     63.3538     96.3020   7.3116068696e+01   4.8984805685e+01    0.1405091   0.09916533 -25.61 0.0007038873    1.705    0.413
        65 -10.6396    132.1709     92.8941   5.2030109265e+01   3.7235846659e+01     0.258608    0.2177249  47.50 0.0005071681    1.187    0.158
        66  -9.6758    107.5579     89.4621   5.7848078700e+01   4.3175085417e+01    0.1482829    0.1436638 -34.24 0.0003537996    1.017    0.016
        67 -10.9873      1.7693     87.4050   9.0811899134e+01   5.6555190712e+01    0.2257659    0.1175531 -79.35  0.001261177    1.770    0.435
        68  -9.9048     28.4824     87.4814   8.2345394396e+01   5.4732928332e+01     0.125856    0.1017487 -55.28 0.0001383816    1.024    0.024
        69 -10.7678     53.5275     77.9167   7.1768547542e+01   5.4297116129e+01    0.3805132    0.2208968  52.46  0.001790141    2.472    0.596
        70 -10.1247     29.3185     79.3385   8.0375680809e+01   5.6458323278e+01     0.132934   0.07666471 -37.64 0.0007049284    1.707    0.414
        71 -11.7949      6.1790     78.2395   8.7930584886e+01   5.8308603935e+01    0.2934502    0.1306179 -65.36  0.001198865    1.721    0.419
        72 -10.1909    215.9377     78.3051   3.0228878357e+01   1.9328311822e+01    0.1965756    0.1847945  58.15 0.0002987873    1.098    0.089
        73 -10.1422    196.2250     78.5925   3.3687457230e+01   2.4177980941e+01    0.2277272    0.1380639  46.80 0.0009563632    1.696    0.411
        74 -11.6741      2.0939     75.8992   8.8880731570e+01   5.9028084844e+01    0.3447319    0.1443316 -71.13  0.001766763    2.027    0.507
        75 -10.5939     40.7866     69.5978   7.4031043586e+01   5.7485152726e+01    0.1603448    0.1172855  39.00 0.0007146605    1.646    0.393
        76 -11.3769      7.7766     68.3958   8.5556189993e+01   6.0324136637e+01    0.2452221    0.1341978 -68.16 0.0009082775    1.573    0.364
        77 -11.4446      4.1291     64.3690   8.6053360159e+01   6.1366916140e+01    0.2569015    0.1643643 -54.28  0.000660554    1.170    0.145
        78 -12.3383      3.7985     59.8553   8.5249530997e+01   6.2321380135e+01    0.3059799    0.2863595 -81.84  0.002232499    1.300    0.231
        79  -9.7364    192.0469     65.9972   3.0969510650e+01   2.7333059318e+01    0.1784814    0.1698761  76.86 0.0003229635    1.022    0.021
        80 -10.1491    141.7258     65.0429   4.1166071782e+01   4.0296834280e+01    0.2100617    0.1950186 -20.46 0.0003298125    1.105    0.095
        81  -9.1761     67.2801     65.2900   6.3394840223e+01   5.5107974845e+01    0.1346945    0.0965724 -18.27            0    1.525    0.344
        82  -9.3886    126.3253     64.7221   4.4972548280e+01   4.4000175603e+01    0.1474639    0.1217512 -85.63 0.0005535084    1.589    0.371
        83 -10.4426     98.6609     61.0168   5.1666035786e+01   5.0569738623e+01    0.2945974     0.206699 -74.83  0.001244785    2.601    0.616
        84  -9.9022     43.5077     62.5322   7.1097418816e+01   5.8666098896e+01    0.1270325    0.1087403 -39.72 0.0001369827    1.046    0.044
        85 -10.3453     34.2924     61.6446   7.4271766251e+01   5.9773347169e+01    0.2303201    0.1325311 -10.46  0.001147922    2.394    0.582
        86 -10.4468    117.9217     61.5643   4.6214589561e+01   4.6452674609e+01    0.4512277    0.1474431  51.37  0.001430148    3.232    0.691
        87  -9.5816     56.7095     60.2699   6.5578088498e+01   5.7557217894e+01    0.1152178    0.1037493 -89.88 0.0002095851    1.509    0.337
        88  -9.6841     22.3521     58.1543   7.7854708968e+01   6.1499202212e+01    0.1638603   0.09921343 -65.83 0.0003808583    1.685    0.407
        89 -10.4378     96.5903     55.8962   5.0556304451e+01   5.1894373932e+01    0.1975184    0.1644803 -30.62 0.0004158595    1.167    0.143
        90  -9.8090     78.0349     55.9480   5.6623315800e+01   5.5233539304e+01    0.1612983    0.1461143  -1.36 0.0003203158    1.052    0.049
        91  -9.5649     82.9696     54.0422   5.4299485069e+01   5.4740093329e+01    0.1593337    0.1406782 -18.65            0    1.040    0.038
        92  -9.8965     23.5107     50.5152   7.5322768185e+01   6.2942497407e+01     0.121195   0.09525581 -39.58 0.0001619171    1.001    0.001
        93 -11.4853     94.0536     48.8295   4.8850065634e+01   5.3602147569e+01    0.2288147    0.1878857 -20.89  0.000240901    1.170    0.145
        94 -11.7569      6.1392     46.2738   8.1185574602e+01   6.4939566735e+01    0.3630806    0.1655799 -30.42  0.001660271    2.202    0.546
        95 -10.3149     20.7973     44.7722   7.4744486508e+01   6.4272443063e+01    0.1771518    0.1272252 -33.16 0.0004861901    1.151    0.131
        96 -10.6720     39.3028     43.7332   6.6833966856e+01   6.2774160563e+01    0.2316058    0.1731683  26.18  0.001250088    1.500    0.333
        97  -9.9848    119.4926     42.9467   3.9378096783e+01   4.9134760224e+01    0.2135346     0.142553 -29.88 0.0005279563    1.545    0.353
        98  -9.8520     69.2505     39.3648   5.3696220163e+01   5.9551895082e+01    0.1696323     0.120923  44.48 0.0004073324    1.625    0.384
        99 -10.4876    161.7433     36.9749   2.7917049202e+01   3.9526305775e+01    0.1940897    0.1906091  17.99 0.0002775683    1.085    0.079
       100 -10.7305     39.5509     36.3888   6.4132826649e+01   6.4067877088e+01    0.3343757    0.1946458   3.95  0.001755431    2.146    0.534
       101 -10.7168     12.6977     36.6978   7.5720994904e+01   6.6381812766e+01    0.2561643    0.1202855 -58.13  0.001384047    1.971    0.493
       102 -10.3155     82.0225     35.9867   4.7936979363e+01   5.7910074237e+01    0.2026284    0.1727675   1.47 0.0003135105    1.047    0.045
       103  -9.7370     57.4772     36.3843   5.6945610295e+01   6.1811468939e+01    0.1261035    0.1078935  -9.38 0.0007983361    1.042    0.040
       104 -10.5312    154.0676     32.0307   2.7801876596e+01   4.2153324270e+01    0.2231224    0.2009873  59.54 0.0004504534    1.030    0.029
       105 -10.4705     48.5383     31.7681   5.8676447621e+01   6.3775749649e+01    0.2341057    0.1039985 -37.09  0.001123282    1.998    0.499
       106 -10.6954     17.5076     31.6062   7.1941898456e+01   6.6971254787e+01    0.1957133    0.1495145 -34.78 0.0001983666    1.039    0.037
       107 -11.2066      4.1791     31.3685   7.7853445998e+01   6.7887986555e+01    0.2098215    0.1381958  25.92  0.001061674    1.903    0.475
       108 -10.3184    160.6193     26.9903   2.4982760306e+01   4.1082367303e+01    0.1923103    0.1819981 -31.23 0.0005106974    1.153    0.132
       109  -9.6051    153.3109     27.7120   2.6547993052e+01   4.2883274274e+01    0.1438325    0.1096597 -73.74 0.0001942197    1.579    0.367
       110 -10.4828    131.8674     25.8659   3.0303385289e+01   4.8492575895e+01    0.2994744    0.1710115  14.01  0.001189432    2.653    0.623
       111 -10.6089    110.7359     24.7462   3.4979266721e+01   5.3589299914e+01     0.233207    0.1824869  51.82  0.001282291    1.240    0.193
       112 -11.2152    244.2116    180.8161   4.9073364335e+01  -3.4796305737e+00    0.1966967    0.1503197 -75.93 0.0009490015    2.827    0.646
       113  -9.5043     49.3159     24.2828   5.5302659542e+01   6.4851257232e+01     0.125584   0.08216537  -4.02 0.0004459256    1.580    0.367
       114 -10.8838      2.9944     23.9498   7.6028120184e+01   6.9293143238e+01    0.1314993   0.09814429 -31.94 0.0009732647    1.056    0.053
       115 -10.9958     38.1649     22.8269   5.9398866548e+01   6.6470953621e+01    0.2038281    0.1778926  -9.16 0.0005308712    1.200    0.167
       116 -11.3761     35.2331     19.7776   5.9398405272e+01   6.7277624604e+01    0.2132208    0.1564947 -14.15 0.0006202892    1.119    0.107
       117 -10.5683     72.9188     22.3313   4.5497051718e+01   6.1479834016e+01    0.1796171    0.1474612  16.15 0.0005166797    1.075    0.070
       118  -9.5871    223.3037     21.6906   1.4857769282e+01   2.5606156442e+01    0.1437313   0.09038816 -65.48 0.0003080345    1.608    0.378
       119 -10.5387     59.2587    247.4291   9.4144344145e+01   1.7070863390e+01    0.2194662    0.1069988  59.06  0.001031172    1.616    0.381
       120 -10.5526     71.4771    246.5137   9.2000845795e+01   1.5584466767e+01    0.2164164    0.1333861  49.52  0.001423826    1.301    0.231
       121 -12.0515     10.8215     18.5899   7.0334165223e+01   6.9717017575e+01    0.4504855    0.1958723  -9.51  0.002048447    3.604    0.722
       122 -10.3742    147.3512     18.7582   2.4723152583e+01   4.5435248082e+01      0.18472    0.1351928  -5.49 0.0004522806    1.616    0.381
       123 -11.2896    183.5680     15.1464   1.7879877387e+01   3.6446338959e+01    0.2405974    0.1496472  63.38 0.0005903337    1.428    0.300
       124 -12.3705     96.4876     22.1342   3.7882825061e+01   5.6989790535e+01    0.3089027    0.2750837  54.34 0.0003701436    1.281    0.219
       125 -11.5065     77.0761    242.4875   9.0696936416e+01   1.5494534324e+01    0.2646824    0.2036538  60.37  0.001900507    1.079    0.073
       126 -12.1516     82.3281    238.3981   8.9404903407e+01   1.5454811534e+01    0.3546789    0.2463576  49.91  0.001039369    1.213    0.176
       127  -9.8278    212.4872     14.4868   1.4228142199e+01   2.9120968198e+01    0.1368925    0.1194616 -86.18 -4.892406e-05    1.005    0.005
       128 -11.5061     79.5965    232.7757   8.9386789085e+01   1.6849302891e+01     0.258004    0.1736531  89.50  0.001654422    1.477    0.323
       129 -10.0516    200.5366     11.4601   1.4772352265e+01   3.2470888968e+01    0.2014433      0.12163  86.99 0.0001125401    1.651    0.394
       130 -10.8876    128.1915     14.3694   2.6997614093e+01   5.0665105459e+01    0.1943839     0.125575  71.22 0.0004393975    1.672    0.402
       131 -15.9223     22.5534    200.4290   9.7280969661e+01   3.0253311429e+01     2.437191     1.341348  34.33   0.01497103    2.112    0.527
       132  -9.9177    102.3135    240.3079   8.5963454060e+01   1.2127351324e+01    0.1052691   0.09140418  22.01 0.0005016463    1.625    0.385
       133 -12.0729     92.7159    235.1312   8.7205208093e+01   1.4490648090e+01    0.4309708    0.1856445  34.30  0.001952038    2.808    0.644
       134 -13.3078     75.1843    228.2750   8.9782913994e+01   1.8301229725e+01    0.6132168    0.2940739 -56.83  0.003270136    2.499    0.600
       135 -13.1828     94.8113    229.3996   8.6233029499e+01   1.5191790306e+01    0.7577401    0.2634077  37.90  0.003202127    2.875    0.652
       136 -12.9532     97.0443    225.7968   8.5427382793e+01   1.5499709772e+01    0.4106483    0.3274949   1.45  0.002397687    2.312    0.568
       137  -9.9524    110.3066    228.3247   8.3169411252e+01   1.2940182676e+01    0.1112445   0.09708259  12.58 0.0007035187    1.647    0.393
       138 -11.4246     87.3010    224.7092   8.7169529708e+01   1.7189104534e+01    0.2358924    0.2112799 -36.97  0.001607998    1.696    0.410
       139 -13.5069     93.7085    223.0022   8.5765791020e+01   1.6530308619e+01    0.6392988    0.4029559 -31.61  0.002916711    3.802    0.737
       140 -12.2699     81.7875    218.2235   8.7560534661e+01   1.9230424797e+01    0.2997787    0.2163234 -74.52  0.001907755    1.428    0.300
       141 -11.7964    108.2669    216.0143   8.2106825995e+01   1.5515381861e+01    0.2798205    0.1491889 -78.61  0.001282243    2.689    0.628
       142 -10.9417    154.5009     10.5322   2.0792499475e+01   4.4455626756e+01    0.1402179    0.1248932  69.20 0.0001323477    1.043    0.041
       143 -12.2383     90.0678    215.5727   8.5664038791e+01   1.8491643913e+01    0.2138011    0.1919764  41.91  0.001442475    1.345    0.257
       144 -11.2210    113.6752    214.9924   8.0896299989e+01   1.4809981894e+01    0.1769387    0.1546763  75.45 0.0004741833    1.116    0.104
       145 -11.5128     78.4496    213.6612   8.7738545192e+01   2.0600935708e+01    0.2749128    0.1567752  79.32  0.001419439    1.961    0.490
       146 -12.3954     73.2537    209.5458   8.8334460681e+01   2.2160137631e+01    0.4651302    0.1628183  54.84  0.001933514    2.854    0.650
       147 -11.8328    110.4254    209.6800   8.0873072290e+01   1.6358495239e+01    0.2270903    0.1259007 -66.41 0.0009491926    2.078    0.519
       148 -12.8740     95.5535    201.7960   8.2932943734e+01   2.0341747342e+01    0.4841974    0.1237103 -60.10  0.001693289    4.144    0.759
       149 -12.7617     53.2174    198.4455   9.1212099318e+01   2.7118121325e+01    0.6353811    0.2631537  68.20  0.002649104    3.181    0.686
       150 -13.5692     99.9199    199.0451   8.1667272011e+01   2.0192336257e+01    0.5105556    0.2710986 -73.71  0.002384852    2.289    0.563
       151 -11.7524     65.6585    203.4525   8.9220441738e+01   2.4446811341e+01    0.2374565    0.1443738  61.44  0.001337911    1.444    0.307
       152 -14.7349      4.8682    202.8387   1.0062350739e+02   3.1507137924e+01     1.263494    0.4730038 -78.13  0.007059229    2.179    0.541
       153 -10.3870     39.4920     12.4660   5.4259758087e+01   6.7834327581e+01    0.1206286   0.09272672  -7.42 0.0001894638    1.020    0.020
       154 -12.0696    122.4688    190.6675   7.5633966070e+01   1.8015722701e+01    0.2482399    0.1990879  57.32 0.0005721064    1.119    0.106
       155 -13.5719     85.9868    154.2644   7.8245145869e+01   3.2195202300e+01    0.6107526     0.343255  69.64  0.002537141    2.487    0.598
       156 -15.1482     20.4806    215.2443   9.8622048007e+01   2.7562066090e+01     1.422433    0.5838328  53.59   0.00826764    1.949    0.487
