#   1 NUMBER                 Running object number                                     
#   2 MAG_AUTO               Kron-like elliptical aperture magnitude                    [mag]
#   3 X_IMAGE                Object position along x                                    [pixel]
#   4 Y_IMAGE                Object position along y                                    [pixel]
#   5 X_WORLD                Barycenter position along world x axis                     [deg]
#   6 Y_WORLD                Barycenter position along world y axis                     [deg]
#   7 A_WORLD                Profile RMS along major axis (world units)                 [deg]
#   8 B_WORLD                Profile RMS along minor axis (world units)                 [deg]
#   9 THETA_WORLD            Position angle (CCW/world-x)                               [deg]
#  10 FWHM_WORLD             FWHM assuming a gaussian core                              [deg]
#  11 ELONGATION             A_IMAGE/B_IMAGE                                           
#  12 ELLIPTICITY            1 - B_IMAGE/A_IMAGE                                       
         1 -14.4744    104.6325     91.5250   9.9438959049e+01   4.3528340333e+01     4.659955     2.745473 -73.10   0.01820012    3.090    0.676
         2 -14.5803     83.5700     92.9580   1.0549149715e+02   4.6707852394e+01     3.696673     2.640673  84.31   0.01921669    1.907    0.476
         3 -14.3891    123.8488     91.7224   9.4545525416e+01   3.9863760938e+01     2.614104     2.143866 -75.68   0.01383579    1.488    0.328
         4 -10.0120      9.4702      2.2676   1.0446655058e+02   7.2888893372e+01    0.2444095    0.1767027   1.87  0.001765562    1.526    0.345
         5  -8.9314    196.6232      2.8168   5.2071622149e+01   3.4343545801e+01    0.2092807    0.1212676 -32.08 0.0009502932    1.719    0.418
         6  -8.6739    156.7311    246.5239   1.1401120566e+02   9.5091120494e+00    0.2870734    0.2069697  -2.10  0.002030888    2.344    0.573
         7 -12.0370    239.1792    233.9995   9.9764658426e+01  -1.6396705848e+00     3.179368     1.955067 -48.08   0.01886142    3.627    0.724
         8  -7.8134    191.6083    249.7376   1.0900491844e+02   4.0418435070e+00    0.1037546    0.1019919 -38.51 0.0009375293    1.524    0.344
         9  -7.8067    141.0053    250.4872   1.1683646397e+02   1.1324335937e+01    0.1620552   0.07353213  43.57 0.0007260768    1.573    0.364
        10  -8.8575    124.2722    249.9979   1.1935914340e+02   1.3712322957e+01    0.1372703    0.1042472  52.32 0.0007437305    1.079    0.073
        11  -8.0672    113.3797    248.8353   1.2092836313e+02   1.5329777748e+01    0.1087669   0.09305416 -49.97 0.0009476808    1.728    0.421
        12  -8.2759    108.5584    248.7246   1.2165655673e+02   1.5984995066e+01    0.1456137   0.09426155 -57.02  0.001133382    2.097    0.523
        13  -8.8638    103.6366    247.7765   1.2233296258e+02   1.6751478639e+01    0.2118761    0.1196872 -56.68  0.001556401    2.381    0.580
        14  -8.2577    224.4790    247.3235   1.0376485882e+02  -5.7482060096e-01    0.1813622   0.09909543 -22.81  0.001245674    2.352    0.575
        15  -8.1261    211.8132    248.0595   1.0574950933e+02   1.2159621254e+00    0.1468942     0.113608  40.08  0.001051066    1.248    0.199
        16  -8.0714    197.2722    246.3912   1.0774470421e+02   3.5186927780e+00    0.1955007    0.1792434   1.27  0.001725441    1.414    0.293
        17  -7.6503    194.0000    243.4069   1.0788369655e+02   4.2925098888e+00    0.1668765   0.06143203 -37.44 0.0008669067    3.726    0.732
        18  -8.4039    194.4202    238.3000   1.0718738834e+02   4.7292199116e+00    0.2317399    0.1302537 -30.94  0.001121771    2.408    0.585
        19  -8.2180    187.1439    247.1968   1.0938915752e+02   4.9475755047e+00     0.226331    0.0702981 -44.64  0.001109143    4.970    0.799
        20  -7.8435    170.0383    247.7267   1.1208010007e+02   7.4268219295e+00    0.1493524    0.1033445  41.97 0.0009950721    1.022    0.021
        21  -8.7584    149.8930    247.0945   1.1513137307e+02   1.0438839719e+01    0.1825701    0.1497548 -30.82  0.001207065    1.780    0.438
        22  -9.1561    135.9617    247.5276   1.1733347764e+02   1.2379601782e+01    0.1624416    0.1433327  -5.17   0.00138854    1.701    0.412
        23  -7.8015      2.9891    249.0000   1.3695546698e+02   2.7586311069e+01     0.128682   0.03563005  38.65 0.0008095367    2.992    0.666
        24  -8.8928    119.4785    246.9661   1.1983201215e+02   1.4736281000e+01    0.1192445   0.09780604 -73.51   0.00102508    1.570    0.363
        25  -7.7239    174.6243    246.2046   1.1120285423e+02   6.9071697986e+00    0.1159052   0.09505643  -5.01 0.0009378208    1.619    0.382
        26  -9.5191    141.0688    244.4124   1.1623782907e+02   1.2018888500e+01    0.1968868    0.1893134  42.67  0.001407523    1.358    0.264
        27  -8.1440    228.1593    244.1740   1.0280542191e+02  -8.5261894675e-01    0.1674041    0.1352891  -4.11  0.001069478    1.447    0.309
        28  -8.0897    226.6653    239.9171   1.0245945056e+02  -2.7827639997e-01    0.1748288    0.1186416 -30.23 0.0009518997    1.976    0.494
        29  -7.1863    190.6687    245.3005   1.0862440664e+02   4.6075729599e+00   0.09961027   0.06918805  56.62 0.0007032672    1.648    0.393
        30  -8.5557    146.3278    243.6418   1.1533721047e+02   1.1350100853e+01    0.1944175   0.09529722 -42.88  0.001184267    2.983    0.665
        31 -13.5032    243.1257    192.7328   9.2666984349e+01   1.4310768565e+00     4.854147     2.330467 -43.96   0.02244244    3.939    0.746
        32  -9.1606    248.3051    240.1424   9.9286532695e+01  -3.4499767782e+00    0.2166719    0.1531475  42.53  0.001079738    1.487    0.328
        33  -7.8591    210.1300    243.6879   1.0545208112e+02   1.8519275536e+00    0.1459817     0.127623  20.34 0.0006856457    1.306    0.235
        34  -9.1434    177.5456    242.4455   1.1031976644e+02   6.8617750735e+00    0.2378544    0.1648769 -57.94  0.001712896    2.318    0.569
        35  -8.7965    112.8594    243.9742   1.2060014624e+02   1.6008790212e+01    0.1363371    0.1147399  -0.94  0.001083187    2.063    0.515
        36  -8.5926    133.2268    243.1823   1.1734650249e+02   1.3284711189e+01    0.1519338    0.1023938  14.20 0.0009452305    2.776    0.640
        37  -8.2363    182.8958    245.1526   1.0980424501e+02   5.7832219466e+00    0.2978033    0.1660479   6.47  0.001398881    4.711    0.788
        38  -7.1217    189.6928    242.3089   1.0841553750e+02   5.0479178969e+00   0.09853134   0.07078355  57.26  0.000486671    1.614    0.380
        39  -7.8995    153.2449    241.9742   1.1407756787e+02   1.0531676157e+01    0.1405449    0.1133233  44.59 0.0008801673    1.119    0.106
        40  -9.6036    126.9506    240.7954   1.1810759033e+02   1.4464556053e+01    0.2465404    0.1465248 -29.86  0.001403612    3.957    0.747
        41  -7.8825    201.2895    241.0725   1.0647209445e+02   3.4189899837e+00     0.144913    0.1113242  33.76 0.0008189901    1.097    0.088
        42  -7.6110    181.4489    239.9313   1.0941388930e+02   6.5348461187e+00    0.1200392   0.09072565 -86.85 0.0008075337    2.487    0.598
        43  -7.6744    208.8329    238.6246   1.0499817630e+02   2.5086088920e+00    0.1490332   0.07822252 -27.46 0.0009489375    2.525    0.604
        44  -8.5151    145.8901    237.9089   1.1481429543e+02   1.2089047761e+01    0.2003327    0.1503916 -29.61  0.001509103    2.017    0.504
        45  -7.9050    222.5759    237.8814   1.0280167719e+02   5.0549317899e-01    0.1163142    0.1005018 -35.66  0.000939824    1.766    0.434
        46  -8.4548    156.0957    238.1392   1.1321339152e+02   1.0549879760e+01    0.1646366    0.1171747  35.69 0.0007447201    1.233    0.189
        47  -7.8281    134.5275    237.7658   1.1661210634e+02   1.3761207211e+01    0.1521362    0.1034478 -47.16  0.001125642    2.041    0.510
        48  -8.7193    203.2575    232.5788   1.0506875493e+02   3.9370539466e+00    0.5213416    0.2116712 -42.51  0.002815285    3.651    0.726
        49  -8.1348    176.8566    229.7278   1.0890069756e+02   8.3370948126e+00    0.2372755    0.1353971 -49.76  0.001503568    2.558    0.609
        50  -8.5592    124.3511    236.1462   1.1808049404e+02   1.5418167248e+01    0.2336112    0.1513408  10.62  0.001196657    4.240    0.764
        51  -7.6943    216.4335    236.4770   1.0354828191e+02   1.5548094767e+00    0.1466778   0.08020942  45.32 0.0001526768    1.514    0.340
        52  -8.0182    213.5313    232.6447   1.0347760228e+02   2.3488340165e+00    0.1992505    0.1056051 -33.01  0.001275841    2.452    0.592
        53  -7.7741    199.3313    236.1685   1.0615108960e+02   4.1892016909e+00    0.1194614    0.1000163 -45.64 0.0009378495    1.782    0.439
        54  -7.9864    183.7591    236.2038   1.0859957612e+02   6.5719781560e+00     0.144107     0.102008  25.67  0.001046301    1.354    0.261
        55  -7.9414    162.5139    235.2494   1.1186552300e+02   9.9170716112e+00    0.1482702    0.1086036 -53.31  0.001105646    1.909    0.476
        56  -8.2259    214.0698    239.9579   1.0437098605e+02   1.5976092929e+00    0.2323733    0.1449511 -52.80  0.001423918    3.350    0.701
        57  -8.5218    171.3975    233.4471   1.1023188453e+02   8.7662075765e+00    0.3134744    0.1838913  16.55  0.001741115    2.830    0.647
        58  -8.3341    139.8496    234.4442   1.1542023949e+02   1.3398004775e+01    0.1699245    0.1388432 -15.47  0.001229831    1.897    0.473
        59  -7.3969    217.2036    220.1530   1.0114253772e+02   2.9670634292e+00    0.1767277    0.1417835 -29.66 0.0009462381    1.643    0.391
        60  -8.8788    219.0211    232.7144   1.0264001067e+02   1.5024709938e+00    0.2354801    0.2163642 -56.54  0.001909526    1.835    0.455
        61  -9.0945    153.0000    229.4649   1.1274315905e+02   1.2043513441e+01    0.2807062    0.0636438 -47.57    0.0011542    5.913    0.831
        62  -8.8456    195.3366    231.0656   1.0611700961e+02   5.3164062080e+00    0.2214304    0.1587426 -24.60  0.001218013    1.802    0.445
        63  -7.4838    166.0000    233.0187   1.1104758719e+02   9.6414081252e+00    0.1350426   0.06357326 -44.21 0.0007940414    2.885    0.653
        64  -7.9484    114.4884    233.0173   1.1937157822e+02   1.7208678978e+01    0.1271878    0.1008494 -68.85 0.0006606486    1.580    0.367
        65  -7.5037    209.3152    232.6445   1.0413193245e+02   2.9966633344e+00   0.09862068     0.077926  59.98 0.0007045174    1.743    0.426
        66  -7.9573    187.2124    231.8195   1.0750435266e+02   6.5005798274e+00    0.1471861    0.1046911  24.11 0.0005789901    1.362    0.266
        67  -8.4566    134.1137    230.5715   1.1594733098e+02   1.4726834802e+01    0.2553013    0.1168533 -60.64  0.001453224    3.208    0.688
        68  -7.8820    158.4861    230.4931   1.1196774574e+02   1.1083991034e+01     0.176449    0.1103857 -46.52  0.001072219    2.154    0.536
        69  -8.1871    218.2464    224.5541   1.0161501241e+02   2.3798673225e+00    0.2189525    0.2104544  36.93  0.001801747    1.506    0.336
        70  -7.4469    121.6855    231.6597   1.1807909352e+02   1.6378173695e+01   0.09603167   0.07546151  22.83 0.0007047495    1.702    0.412
        71  -8.0596    210.7141    227.2808   1.0318020317e+02   3.2953866600e+00    0.3390876    0.2027454   8.86  0.002071019    2.171    0.539
        72  -7.7149    181.2187    228.6543   1.0806238549e+02   7.7752945937e+00   0.09293315    0.0771876  65.96 0.0002683269    1.538    0.350
        73  -7.3834    138.3304    228.3440   1.1502176000e+02   1.4389777145e+01    0.1029163   0.07566369  22.07   0.00070507    1.752    0.429
        74  -8.4500    205.9718    224.3519   1.0352212220e+02   4.3298032430e+00    0.2740164    0.1492094 -28.54  0.001711203    2.351    0.575
        75  -7.6946    184.5863    227.2323   1.0733693715e+02   7.4029115853e+00    0.1283036    0.1012506  -6.01 0.0008285633    1.590    0.371
        76  -8.1146    174.5314    222.5145   1.0836679122e+02   9.5224356843e+00     0.149226    0.1128692 -37.34 0.0007656061    1.737    0.424
        77  -8.0434    167.4850    226.5780   1.1003374190e+02   1.0156711842e+01     0.181508    0.1119651 -44.26  0.001210376    2.169    0.539
        78  -7.9626    161.9891    227.0171   1.1098670908e+02   1.0958798703e+01    0.1619844     0.115071  21.97  0.000651021    1.633    0.388
        79  -7.7469    190.3179    226.2153   1.0628013344e+02   6.6099805085e+00    0.1207744    0.1030284 -45.27  0.000605255    1.653    0.395
        80  -7.8633    119.6945    226.3375   1.1788410694e+02   1.7372425452e+01    0.1080734   0.06678012  65.31 0.0005961224    1.674    0.403
        81  -8.0140    156.3768    224.9716   1.1166609813e+02   1.2074663977e+01    0.1748125     0.134779 -19.56  0.001254819    1.881    0.468
        82  -7.5644    136.3177    224.0245   1.1488628180e+02   1.5249513085e+01    0.1453779   0.08386406 -26.21 0.0007049054    4.325    0.769
        83  -7.1738    147.0000    222.9472   1.1298517756e+02   1.3771662429e+01    0.1413357   0.06430449 -49.29 0.0005538955    2.886    0.653
        84  -7.8132    190.1158    236.6574   1.0765500702e+02   5.5515893191e+00    0.1452343    0.1405651 -14.64   0.00125504    1.438    0.304
        85  -7.9245    202.9581    219.9541   1.0338635888e+02   5.2597467156e+00    0.1988898    0.1100564  58.60   0.00104028    2.654    0.623
        86  -8.0778    194.5837    220.2910   1.0478825158e+02   6.5677580434e+00    0.1639104    0.1105552 -38.43  0.001110023    1.956    0.489
        87  -7.5974    140.7713    220.9543   1.1379891274e+02   1.4980922303e+01    0.1181685   0.09308058 -53.34 0.0006861961    1.646    0.392
        88  -7.9077    164.0192    219.3759   1.0971032296e+02   1.1564775420e+01    0.2367497    0.1418626   7.67  0.001094021    4.042    0.753
        89  -8.7873    210.6904    217.7808   1.0183211103e+02   4.2424230908e+00    0.2203068     0.208431 -43.24  0.001539032    1.574    0.365
        90  -8.5718    190.6258    217.2243   1.0500923258e+02   7.5425747956e+00    0.4758346    0.2403365  15.80  0.001875942    4.877    0.795
        91  -7.2713    183.6858    219.6166   1.0647829921e+02   8.3934287949e+00    0.1154734   0.07450755  19.32 0.0007020927    1.817    0.450
        92  -7.4902    204.3969    217.1469   1.0275288468e+02   5.3216358560e+00    0.1317224    0.1070253 -48.16 0.0009399345    1.832    0.454
        93  -8.2962    179.5433    216.6725   1.0676632881e+02   9.4007146183e+00    0.1706319    0.1125636 -30.68  0.001117881    1.983    0.496
        94  -7.8987    154.4799    213.4850   1.1057833092e+02   1.3825165830e+01    0.1662865    0.1073981 -29.47  0.001023169    2.304    0.566
        95  -8.0780    169.7942    212.3726   1.0782448823e+02   1.1501119936e+01    0.2002898     0.151127 -22.78  0.001376595    1.758    0.431
        96  -8.0857    208.9031    210.2803   1.0100728855e+02   5.3112007042e+00    0.3979749    0.1576649 -22.63  0.001719944    4.325    0.769
        97  -8.5814    203.3119    209.1487   1.0175246584e+02   6.3556277477e+00    0.3014096    0.1451056 -45.44  0.001572996    3.146    0.682
        98  -8.0396    200.4011    215.2377   1.0312636706e+02   6.1724808708e+00        0.178    0.1087294 -24.37  0.001115427    2.082    0.520
        99  -7.4416    199.0000    210.8678   1.0271891245e+02   6.8791361301e+00    0.1468053   0.06632659 -35.12 0.0007478441    2.773    0.639
       100  -7.2274    183.4931    207.4848   1.0481918247e+02   9.8417274928e+00    0.1182277   0.09216543  38.95 5.097287e-05    1.029    0.028
       101  -7.6904    175.5033    203.9699   1.0567872329e+02   1.1608949420e+01    0.1479585    0.1183684 -35.90  0.001024602    1.565    0.361
       102  -7.8216    217.6525    202.5129   9.8373434113e+01   4.6816383583e+00    0.1620548    0.1074493 -25.92 0.0009454456    1.766    0.434
       103  -7.3859    198.3271    203.3018   1.0169370079e+02   7.8441087584e+00    0.1628238    0.1198422 -20.57 0.0006640708    1.623    0.384
       104  -8.3076    202.0000    201.9570   1.0087048177e+02   7.3767858931e+00    0.1559331   0.06756376 -34.47 0.0006409937    2.819    0.645
       105  -7.9016    193.4626    201.5171   1.0224096128e+02   8.8757244094e+00    0.1772487    0.1095452 -16.73  0.001012197    2.208    0.547
       106  -8.2766    210.2220    200.2757   9.9236397903e+01   6.1725518771e+00    0.1826675    0.1584073 -32.76 0.0006431062    1.510    0.338
       107  -8.1169    186.3872    200.7400   1.0332972664e+02   1.0171937528e+01    0.1809571    0.1156207 -39.83  0.001107976    1.963    0.491
       108  -7.8284    220.1072    195.9174   9.6897815631e+01   4.9687651525e+00    0.4252175    0.1484782 -40.98  0.001811649    4.162    0.760
       109  -8.8218    215.5324    196.5387   9.7752866005e+01   5.6802115769e+00    0.3068709      0.11725 -31.52  0.001464157    3.099    0.677
       110  -7.7011    214.6181    192.1794   9.7180938844e+01   6.3187209429e+00    0.1885206    0.1361696  17.12 0.0007888155    1.297    0.229
       111  -7.6585    180.4680    198.9873   1.0408701936e+02   1.1398030408e+01    0.1521404    0.1191953 -32.75  0.000752795    1.568    0.362
       112  -8.1374    201.9550    197.3462   1.0015133557e+02   7.9135230860e+00    0.1847338    0.1678453  84.25  0.001162296    1.634    0.388
       113  -7.9638    195.5392    195.9582   1.0102089760e+02   9.1821034697e+00     0.153672    0.1186486 -31.60  0.001017702    1.571    0.363
       114  -7.0706    144.3039    196.3422   1.1012660936e+02   1.7826737155e+01    0.1125168   0.08673653  16.06 0.0007040236    1.681    0.405
       115  -7.9486    209.5489    194.7570   9.8455212544e+01   6.9038239578e+00    0.1939994    0.1144924 -21.72  0.001110467    2.041    0.510
       116  -8.7191    205.6349    190.7014   9.8444845955e+01   8.0504202342e+00    0.5002939     0.113813 -31.96  0.001655457    6.131    0.837
       117  -8.0799    185.5417    193.9506   1.0243117557e+02   1.1160944563e+01     0.156036    0.1198867 -29.75 0.0009386091    1.566    0.362
       118  -7.9104    198.8432    191.6768   9.9765239238e+01   9.1224856571e+00    0.1936357    0.0878402 -32.33 0.0009594912    2.674    0.626
       119  -7.3840    194.0000    189.9429   1.0031758908e+02   1.0183833950e+01    0.1701234   0.07021074 -36.27 0.0007971651    2.906    0.656
       120  -8.1199    210.5915    188.7875   9.7284043659e+01   7.4050843199e+00    0.1425865    0.1152177 -38.88 0.0008558474    1.615    0.381
       121  -8.1586    216.2315    187.3591   9.6092326811e+01   6.5798161554e+00    0.2030499    0.1594774 -31.77 0.0008380811    1.558    0.358
       122  -7.3617    157.2942    186.3336   1.0632115200e+02   1.7098152193e+01    0.1182753   0.08904875  16.00 0.0005109538    1.640    0.390
       123  -8.2533    210.4366    183.8058   9.6454669175e+01   8.0137136756e+00    0.1907844    0.1180106 -35.05  0.000710152    1.918    0.479
       124  -7.1916    177.4308    184.4799   1.0235890046e+02   1.3826896041e+01    0.1241954    0.1028535  36.77 0.0001919465    1.010    0.010
       125  -7.6941    198.6747    181.9193   9.8156199469e+01   1.0351157777e+01    0.1527782    0.1130295 -43.35 0.0009259207    1.736    0.424
       126  -7.4071    213.5704    181.0500   9.5438303262e+01   7.7783537315e+00    0.1598556    0.1183291 -26.32 0.0009961271    1.532    0.347
       127  -7.7973    204.2387    181.1134   9.7048763012e+01   9.4480071243e+00    0.1681325     0.140973 -66.89 0.0006884481    1.885    0.469
       128  -7.8155    219.4886    178.8784   9.4050915584e+01   6.9708333217e+00    0.2178019    0.1191771 -29.68 0.0007559856    2.046    0.511
       129  -8.0795    218.9018    174.1279   9.3282915943e+01   7.6294340635e+00    0.3186017    0.2424977  66.84  0.001833182    1.991    0.498
       130  -7.5455    200.4230    176.4407   9.6890030942e+01   1.0724517193e+01    0.2323604    0.1414748   4.23  0.001134488    2.394    0.582
       131  -7.3601    205.2533    176.6782   9.6088036985e+01   9.8109415718e+00    0.1074298   0.09903979  81.25  0.000332854    1.540    0.350
       132  -8.0213    209.6327    173.9725   9.4839124361e+01   9.3427828531e+00    0.2382735    0.1169674 -22.34  0.001117678    2.578    0.612
       133  -7.4065    192.4261    172.4815   9.7603978061e+01   1.2715312673e+01    0.1300937    0.1057192  27.13  0.000171944    1.084    0.078
       134  -7.6597    212.5234    169.7087   9.3550724331e+01   9.3332434687e+00    0.1893095    0.1180835 -42.26  0.001013033    2.057    0.514
       135  -7.7461    211.6053    165.4643   9.2906389841e+01   1.0032136311e+01    0.3357989    0.1807718  22.80  0.001551091    2.252    0.556
       136  -8.5055    204.8235    164.9902   9.4005242365e+01   1.1373680659e+01     0.345912    0.1430701 -47.44  0.001303663    4.108    0.757
       137  -7.0100    193.4961    167.4712   9.6498188259e+01   1.3187883908e+01    0.1325566    0.1082899  28.07 0.0008090954    1.066    0.062
       138  -7.3519    190.0000    166.9101   9.7030013173e+01   1.3924242487e+01    0.1827973    0.0742958 -36.45 0.0007276193    2.810    0.644
       139  -7.6677    179.5343    166.7520   9.8932716481e+01   1.5919581824e+01    0.1594726    0.1258099 -52.79 0.0009402738    1.614    0.380
       140  -7.0667    196.3049    163.2930   9.5206906529e+01   1.3219802557e+01    0.1325444   0.09024702  19.66 0.0004898803    1.577    0.366
       141  -7.4616    182.5464    162.4988   9.7588494959e+01   1.5960374751e+01    0.1321491    0.1128796  31.80 0.0003449191    1.021    0.021
       142  -7.5650    207.4799    160.4563   9.2661620188e+01   1.1455432314e+01    0.2047136    0.1189704 -43.81  0.001015216    2.206    0.547
       143  -7.5800    197.0000    159.8826   9.4427037789e+01   1.3549708755e+01    0.1898066   0.07490297 -34.77 0.0007739909    2.832    0.647
       144  -8.0721    204.5026    155.7237   9.2257024253e+01   1.2654823669e+01    0.2860208     0.124396 -37.54  0.001256512    2.568    0.611
       145 -14.8398    245.7783    111.5450   7.5580981549e+01   9.9302812405e+00      8.70871     2.354185 -27.02   0.02960455    3.508    0.715
       146  -8.2527    170.0851    150.5219   9.7687517175e+01   2.0169497676e+01    0.2811039    0.2121278 -85.92  0.001436883    2.109    0.526
       147  -7.3502    192.2325    147.6431   9.2863481143e+01   1.6205631149e+01    0.1217386    0.1058306 -68.52 0.0004650021    1.576    0.365
       148  -7.5906    186.7804    146.0593   9.3563921039e+01   1.7532715472e+01    0.1725304    0.1111535 -35.06 0.0008767383    1.698    0.411
       149  -8.5714    208.1926    143.6192   8.9104559168e+01   1.3552352811e+01     0.228235    0.1813092 -56.89   0.00106446    1.789    0.441
       150  -6.8175    195.3937    143.8076   9.1477221199e+01   1.6119441104e+01     0.181798    0.1260887 -14.83 0.0009367594    1.647    0.393
       151  -8.0913    219.4271    239.9717   1.0355875335e+02   7.9401867194e-01    0.1670508    0.1015977 -27.51  0.001083748    2.112    0.527
       152  -9.7674    208.9854    136.6119   8.7449902191e+01   1.4346490792e+01    0.4567201    0.2329457 -28.77  0.002076839    2.077    0.519
       153  -9.5320    148.9892    136.1600   9.9115976806e+01   2.6678179160e+01    0.2436065    0.1967636 -44.01  0.001088305    1.336    0.252
       154  -7.6017    196.6102    135.1982   8.9398334190e+01   1.7113068668e+01    0.1819372    0.1287417 -15.19  0.000308475    1.565    0.361
       155  -7.1126    187.6673    135.7355   9.1205832080e+01   1.8895271967e+01    0.1424201   0.09876655  22.18 0.0003584423    1.579    0.367
       156  -7.9505    182.5206    133.9412   9.1807931312e+01   2.0240542746e+01    0.1995053    0.1377474 -32.41  0.001018834    1.551    0.355
       157  -8.4145    164.1755    134.1180   9.5517772306e+01   2.3996097742e+01    0.2172187    0.1850594  14.65  0.001231261    1.247    0.198
       158  -7.8658    200.4337    136.9536   8.9075505961e+01   1.6066234423e+01    0.1973113    0.1330282 -24.35 0.0006432302    1.580    0.367
       159  -9.0956    160.5978    130.3359   9.5441590466e+01   2.5359062971e+01    0.2485595    0.1339024 -44.70  0.001071332    2.028    0.507
       160  -7.9926    202.5863    249.6765   1.0733642800e+02   2.4296828098e+00    0.1565961   0.09839771 -21.14  0.001132746    2.171    0.539
       161 -10.0586    147.5204    129.8434   9.8110339788e+01   2.8075108821e+01    0.2814887    0.1772009  61.61  0.001310064    1.904    0.475
       162  -8.9459    211.3617    128.1432   8.5130779432e+01   1.5015173196e+01    0.1889543    0.1705609  -3.73  0.001114727    1.105    0.095
       163  -8.5178    201.8937    127.8766   8.6778775117e+01   1.7059038590e+01    0.2218254    0.1722767  17.36 0.0008209015    1.284    0.221
       164  -7.2631    186.2884    128.3118   8.9820885935e+01   2.0315369530e+01    0.1431938     0.103524  15.16  0.000398603    1.582    0.368
       165  -8.3700    164.0673    248.3262   1.1306608331e+02   8.2405513548e+00    0.1881939    0.1494688 -78.82   0.00149302    1.941    0.485
       166  -7.6931    162.3913    243.7791   1.1283645097e+02   8.9794487613e+00    0.1524516    0.1086863 -33.99  0.001155148    2.004    0.501
       167  -7.8591    162.4555    117.4725   9.2132891909e+01   2.7157315588e+01    0.1426771    0.1334865  28.43 0.0001023646    1.011    0.011
       168  -7.2374    203.2535    115.3865   8.3593249323e+01   1.8566813281e+01    0.1489914    0.1035313   9.38 0.0006960307    1.672    0.402
       169  -7.2963    195.3570    112.3095   8.4304969569e+01   2.0771179310e+01    0.1560454    0.1043796  20.34 0.0004462518    1.732    0.422
       170 -13.7876    245.3156     13.3737   5.0333955734e+01   2.1025525121e+01     3.279143     2.899037 -79.03   0.01606679    1.172    0.147
       171  -7.3962    202.6710    121.6915   8.5202918872e+01   1.7783058389e+01    0.1502779    0.1014536  19.11 0.0003240022    1.661    0.398
       172  -8.5835    168.6475    242.8122   1.1175139490e+02   8.1549894470e+00    0.1863051    0.1519748  21.70 0.0009861614    1.353    0.261
       173  -7.9361    205.8115    246.2031   1.0642335807e+02   2.2672028167e+00    0.2213718    0.1109688  30.42  0.001119557    1.723    0.420
       174  -8.1562    218.9150    249.3329   1.0484862616e+02   6.8207171092e-02    0.1546113    0.1334123  -2.05 0.0006616734    1.449    0.310
       175  -9.1442    157.1476    119.3174   9.3694535142e+01   2.7960506488e+01    0.2417277    0.1951363 -22.42 0.0007943743    1.362    0.266
       176  -7.9165    219.1112    245.0594   1.0427285829e+02   4.0092785806e-01    0.1413688    0.1308498 -34.72 0.0009230765    1.706    0.414
       177 -10.0782     59.8190    120.0396   1.1692055643e+02   4.4253348614e+01    0.2128446    0.1704537  50.32  0.001407409    1.291    0.226
       178  -9.4867    130.5703     49.7422   7.9915319368e+01   4.5865651784e+01    0.2649984    0.2396758  51.64 0.0006742813    1.168    0.144
       179  -8.1596    165.8104    239.1759   1.1178790306e+02   8.9773948974e+00    0.2693815    0.1590744  23.40  0.001660667    2.192    0.544
