#   1 NUMBER                 Running object number                                     
#   2 MAG_AUTO               Kron-like elliptical aperture magnitude                    [mag]
#   3 X_IMAGE                Object position along x                                    [pixel]
#   4 Y_IMAGE                Object position along y                                    [pixel]
#   5 X_WORLD                Barycenter position along world x axis                     [deg]
#   6 Y_WORLD                Barycenter position along world y axis                     [deg]
#   7 A_WORLD                Profile RMS along major axis (world units)                 [deg]
#   8 B_WORLD                Profile RMS along minor axis (world units)                 [deg]
#   9 THETA_WORLD            Position angle (CCW/world-x)                               [deg]
#  10 FWHM_WORLD             FWHM assuming a gaussian core                              [deg]
#  11 ELONGATION             A_IMAGE/B_IMAGE                                           
#  12 ELLIPTICITY            1 - B_IMAGE/A_IMAGE                                       
         1 -12.1973     96.3508     22.3283   2.5006091650e+01   5.8451688100e+01    0.4252888    0.3603512  60.65 0.0005019986    1.168    0.143
         2 -11.3621     20.9576     17.0386   5.6325757488e+01   7.6156558316e+01    0.4534349    0.2886454  32.75  0.001785132    1.505    0.336
         3 -10.3986     85.5260     15.4185   2.4274343345e+01   6.2073201580e+01    0.4285335    0.2589623  71.10  0.002055061    1.528    0.346
         4 -10.3553      6.5322     14.9820   6.9301188697e+01   7.8391148611e+01    0.3009025    0.2128425 -75.53 0.0009565215    1.815    0.449
         5  -9.8359    128.1714     14.5965   1.6564122903e+01   5.1093510184e+01    0.2393391    0.1630326 -53.98  0.001054632    1.345    0.257
         6 -11.0484     49.5529     13.8446   3.5440141045e+01   7.1092873203e+01    0.3388519    0.2763855  49.61 0.0008407561    1.127    0.112
         7 -10.3557     45.4979     12.0739   3.6209996243e+01   7.2237173610e+01    0.2411892    0.2290298 -27.29  0.001052378    1.139    0.122
         8 -10.3556     34.9168     13.6602   4.3369999372e+01   7.4248288567e+01    0.2792979    0.2292025  31.40 0.0009381612    1.176    0.149
         9  -9.9566     32.3725     10.2558   4.2502261180e+01   7.5257839465e+01    0.2513648    0.1781262 -39.92 0.0008318871    1.529    0.346
        10 -10.5831    119.1114      8.9361   1.5574446244e+01   5.4006619205e+01     0.256244    0.1982519 -45.10  0.001453904    1.268    0.211
        11  -9.5168    114.7433      9.0088   1.6167847667e+01   5.5132620447e+01    0.1919864    0.1618706  89.01  0.001121395    1.052    0.049
        12 -10.4175     79.3892     12.0629   2.4080677948e+01   6.4022028999e+01    0.3057281    0.2107628  87.38  0.000583165    1.484    0.326
        13 -11.0726     74.7450      9.2765   2.3782342884e+01   6.5502506392e+01    0.3456142    0.2579676  -0.78   0.00130096    1.700    0.412
        14 -10.7835     78.0836      7.8461   2.2176110639e+01   6.4792505017e+01    0.2920818    0.2275449  39.62 0.0005506789    1.403    0.287
        15 -10.1292     64.7945     11.6315   2.8047596322e+01   6.7744750272e+01    0.2657965     0.200739  27.32  0.001159612    1.552    0.356
        16 -10.9177     69.8138      8.5629   2.4723896235e+01   6.6825724173e+01    0.3863192    0.2354771  27.23  0.001774673    2.209    0.547
        17  -9.6603     27.7167     11.1761   4.6525049349e+01   7.6012897821e+01    0.2162021    0.1854199 -31.51  0.001317538    1.228    0.186
        18 -11.5341     56.6341      8.9266   2.9251966489e+01   7.0037478682e+01    0.4071229    0.3395476  31.34  0.001223917    1.275    0.215
        19 -10.3867    104.6080      8.3377   1.7339255193e+01   5.7841162350e+01     0.335297    0.2404893 -49.98  0.001589809    1.363    0.267
        20  -9.9772    213.0635      8.8692   8.5065959155e+00   3.2289935900e+01    0.1755246    0.1267687 -55.38 0.0004207213    1.009    0.009
        21 -10.7740     97.0814      6.5286   1.7738228838e+01   5.9981140856e+01    0.5255266    0.2082785 -51.75  0.001594106    2.757    0.637
        22  -9.1307     10.5019      8.9952   6.0696154220e+01   7.9120247836e+01    0.1818422   0.09495331 -28.98 0.0007691118    2.437    0.590
        23 -10.2642      3.4037      8.3360   6.8691315762e+01   8.0047725607e+01    0.2202099     0.200421  13.54 0.0006525433    1.118    0.106
        24 -10.2950    178.0459      7.5032   9.9788536751e+00   3.9778221985e+01    0.1929733    0.1439555 -45.15 0.0005402306    1.185    0.156
        25 -11.5282     86.8294      6.6474   1.9655760559e+01   6.2645750570e+01    0.5438128     0.243707  54.75  0.001856063    2.078    0.519
        26  -9.8577     22.1252      6.0250   4.6770779670e+01   7.7816898588e+01    0.2850268    0.1702705  -7.02  0.001235037    2.887    0.654
        27  -9.5427    242.8034      5.4106   6.6252198687e+00   2.7193377012e+01    0.1217913   0.09342665  82.31 0.0004510645    1.590    0.371
        28  -9.2121    203.1919      4.8301   7.9953040055e+00   3.4669443548e+01    0.1395898    0.1322488 -59.63 0.0003713328    1.350    0.259
        29  -9.5784     16.4012      4.7691   5.0900858864e+01   7.8987738292e+01    0.1680974    0.1157745 -27.03 0.0005823013    1.564    0.361
        30  -9.8926      8.1435      5.1533   6.0292117351e+01   8.0123427371e+01    0.1950681    0.1545052  -5.78 0.0006253949    1.252    0.201
        31 -10.3353    174.2799      2.9125   8.9379688897e+00   4.1079842270e+01     0.289859    0.1361097 -73.06  0.001070794    1.949    0.487
        32  -9.4418    131.4749      3.4860   1.2209608010e+01   5.1349082467e+01    0.1360548     0.113032 -74.73 0.0002963933    1.003    0.003
        33 -10.1975    178.9437      1.6529   8.3439140120e+00   4.0152708169e+01    0.1757811    0.1324628 -70.79 0.0007170423    1.095    0.087
        34 -11.1747    114.5870      1.8299   1.3317851155e+01   5.5830865907e+01    0.4092205     0.176757  78.41  0.001009226    2.070    0.517
        35  -9.7760     37.6863      1.8903   3.2602756045e+01   7.5201747820e+01    0.2282257    0.1605677  46.39  0.000870865    1.280    0.219
        36  -9.2881    229.9976      1.5223   6.2296112777e+00   2.9837454654e+01    0.1464832   0.09440577 -83.98 0.0006420246    1.527    0.345
        37 -11.0693    123.7558      6.4815   1.4091166264e+01   5.3043965196e+01    0.3024433    0.2005687 -75.48 0.0008948782    1.375    0.273
        38  -9.4883     15.3052     93.5530   8.5377123732e+01   5.7670311969e+01    0.2868074    0.1305868  25.55  0.001142441    2.160    0.537
        39  -9.4830    115.4967     89.9837   4.4684694353e+01   4.1768099628e+01    0.2112686     0.137393 -22.54 0.0006097244    2.430    0.588
        40  -9.7859    108.2552     89.9940   4.6689472373e+01   4.3365616342e+01    0.2303552     0.170687  78.23  0.001026618    1.622    0.384
        41  -8.5517    180.7316     89.3195   3.1235312784e+01   2.7891857560e+01    0.1381144   0.09309564 -61.11 0.0001378368    1.560    0.359
        42  -8.6850      2.2853     88.6664   9.1376231561e+01   5.9867650798e+01    0.1524228    0.0956265  58.74 0.0003447925    1.621    0.383
        43 -10.1599     12.0063     86.0292   8.5994904404e+01   6.0038618294e+01    0.2151219    0.2003204 -88.83 0.0003072437    1.018    0.018
        44  -9.0967      5.7992     85.6547   8.9220398002e+01   6.0532962046e+01     0.202103    0.1227643  28.95  0.000938663    1.678    0.404
        45 -12.2496     54.9258     78.9685   6.2756129038e+01   5.6762889932e+01    0.3531916    0.3182788  66.91 0.0004802747    1.120    0.107
        46  -9.3831     40.7415     78.7378   6.9486295417e+01   5.9029167008e+01    0.2058283    0.1683308  66.52 0.0005067396    1.306    0.234
        47  -9.1623    215.9785     78.0095   2.4090701606e+01   2.3055745099e+01    0.1472743    0.1146855 -45.38            0    1.008    0.008
        48  -9.8313     77.9022     77.9103   5.2882214147e+01   5.2665694446e+01    0.2199154    0.2108057   0.10  0.001147958    1.193    0.162
        49  -9.8130     83.8355     74.7732   4.9682459810e+01   5.2133020496e+01    0.2253816    0.2134147  25.97 0.0005440355    1.187    0.158
        50 -10.3287      3.1103     74.9105   8.9391405979e+01   6.3666142974e+01    0.3185887    0.2041544  41.12  0.001552855    1.618    0.382
        51  -9.3179    121.4764     74.5277   3.8502238586e+01   4.3584845664e+01      0.15334    0.1415117 -76.08 0.0008095603    1.002    0.002
        52 -10.5923    128.6267     71.3219   3.5845303935e+01   4.2516679219e+01    0.2536995    0.2416274  86.77 0.0004817312    1.086    0.079
        53  -8.9634     76.6748     71.2955   5.1126995398e+01   5.4451199548e+01    0.1596634    0.1205417  82.24  0.000421207    1.624    0.384
        54 -10.0859     83.1751     68.7776   4.7855855191e+01   5.3608402230e+01    0.3525992    0.2115161 -56.47 0.0009049408    1.774    0.436
        55  -9.9146     63.9417     69.4550   5.5653453437e+01   5.7462799755e+01    0.2389571    0.2051239 -70.71  0.001203704    1.199    0.166
        56  -9.4054      7.9093     68.6848   8.5606877273e+01   6.5111608312e+01     0.190233    0.1740517  23.92 0.0004414914    1.154    0.134
        57  -9.9281    140.4021     67.1693   3.2133315429e+01   4.0493598213e+01    0.2240641    0.1214352 -50.12 0.0009011637    1.765    0.433
        58  -9.3917    192.1659     65.8419   2.3924863082e+01   2.9325874420e+01     0.193077    0.1434499 -55.86 0.0003355689    1.160    0.138
        59  -9.3967    152.3059     66.3174   2.9720162180e+01   3.7871389129e+01     0.135002    0.1153398  13.48 0.0004335484    1.629    0.386
        60  -9.9746      4.3646     64.0950   8.7058812115e+01   6.6555495550e+01    0.2557095    0.1861782 -42.34 0.0008455611    1.344    0.256
        61 -10.7554      3.6075     59.2045   8.6724401506e+01   6.7903838031e+01    0.3607245      0.30927 -32.15  0.001125893    1.164    0.141
        62 -10.4947     70.4280     65.8521   5.1649782966e+01   5.6990308170e+01    0.3082778    0.2702087  -7.81 0.0007704445    1.413    0.292
        63  -8.9877    126.4772     64.4705   3.4160385963e+01   4.4288540032e+01     0.152182    0.1367149 -74.75 0.0005110626    1.024    0.023
        64 -10.1693     85.0497     63.9188   4.5451840100e+01   5.4227896172e+01    0.2477381    0.2160258 -56.52            0    1.145    0.127
        65 -10.7461     85.2315     58.3900   4.3320038225e+01   5.5318756607e+01      0.42805    0.3017757 -70.43 0.0008690815    1.710    0.415
        66  -9.0402     75.4316     64.5412   4.9190809969e+01   5.6222664035e+01    0.1539023    0.1454709  85.78 0.0008050904    1.025    0.024
        67 -10.6018     99.1458     61.8578   4.0210590560e+01   5.1361107901e+01    0.4512047     0.291169 -69.82  0.001873638    1.989    0.497
        68 -10.3630     43.5121     62.3661   6.2991719558e+01   6.2803832883e+01    0.2633066    0.2485011  -8.18 0.0005219151    1.128    0.114
        69  -9.6029    114.3378     60.9421   3.5809336919e+01   4.7869498086e+01    0.2107518    0.1850985 -53.80 0.0003369575    1.116    0.104
        70  -9.8965     34.8505     60.8537   6.7287552193e+01   6.4474921813e+01    0.2106353    0.1936395 -15.11 0.0003524093    1.148    0.129
        71  -9.7950     14.1270     61.3777   8.0214635401e+01   6.6634481021e+01    0.3087047    0.1360538  17.47  0.001228606    2.368    0.578
        72 -10.2110    232.8421     59.7381   1.8551440675e+01   2.2646961556e+01    0.2597001    0.1621006  38.95  0.001005425    2.731    0.634
        73  -9.9516     57.4301     59.9551   5.5116997796e+01   6.0923603342e+01    0.2756728    0.2099215  23.67 0.0004782511    1.528    0.345
        74 -11.7060     24.2104     57.0403   7.2525973337e+01   6.6783197212e+01    0.5634596    0.4965747 -66.64  0.003152503    1.127    0.112
        75  -9.5805     23.4878     50.4888   7.0842028515e+01   6.8504160523e+01    0.2269473    0.1756238 -50.42  6.77118e-05    1.250    0.200
        76  -9.6469     77.9790     55.7180   4.4848775380e+01   5.7515264018e+01    0.2191559    0.1906909  59.60 0.0004255815    1.113    0.102
        77  -9.4527     45.4624     56.5088   5.9794596296e+01   6.3884963559e+01    0.1457341    0.1434421  72.46 4.074033e-05    1.015    0.015
        78 -11.0865     70.6548     52.3726   4.6307416718e+01   5.9825519647e+01    0.5986126    0.2646346  57.34  0.002081021    2.703    0.630
        79  -9.9733     63.6918     51.6741   4.8933598110e+01   6.1467946762e+01    0.2566066    0.2360853  -0.42 0.0008560236    1.252    0.201
        80  -9.1042    111.7337     51.4310   3.3094385932e+01   5.0195180678e+01    0.2083776    0.1338713  49.68 0.0009345096    1.645    0.392
        81  -9.4479    130.2049     50.4153   2.8786969491e+01   4.5773240204e+01    0.2040462    0.1350573  80.26 0.0006466493    1.601    0.376
        82 -11.7443     94.0663     48.4988   3.6655546386e+01   5.5075052873e+01     0.281442    0.2493177 -47.27  0.001500622    1.165    0.142
        83  -8.8181     14.3647     48.2997   7.6534059281e+01   6.9987468157e+01    0.1517202   0.09551857 -30.32 0.0007033988    1.726    0.421
        84  -9.4186    148.7786     47.1781   2.4584769872e+01   4.1738177914e+01    0.2154865    0.1653589 -68.33 0.0005445142    1.207    0.171
        85 -10.8762     52.2743     46.3088   5.1965874496e+01   6.4902276440e+01    0.4600048    0.2717311  43.02  0.001684381    1.651    0.394
        86  -9.2175    141.7798     44.9783   2.4983271773e+01   4.3761891114e+01    0.1821032    0.1108174 -36.84 0.0004601512    1.596    0.373
        87 -10.8881     38.3867     43.6407   5.8461160201e+01   6.7990227632e+01    0.5457099    0.2893612  39.22  0.002374317    1.842    0.457
        88 -10.1637     32.8742     44.1151   6.2120286787e+01   6.8758386290e+01    0.2736568     0.201904  41.96 0.0006680547    1.369    0.270
        89  -9.5387      7.0057     45.0107   8.1132409655e+01   7.1388327165e+01    0.2143533     0.153668  59.29 0.0007168063    1.617    0.382
        90 -10.5630    118.8747     42.8316   2.8395975354e+01   4.9798009670e+01    0.3426924    0.2043999 -45.66 0.0004306636    1.612    0.379
        91  -8.5177     24.3027     44.2913   6.7973308737e+01   6.9900486301e+01    0.1432143    0.1031357 -24.36 0.0005116891    1.570    0.363
        92  -9.0510     71.5277     42.5183   4.1683537464e+01   6.1522875192e+01    0.1481184     0.139724  75.40 0.0001124346    1.018    0.017
        93  -9.2507    237.0305     41.5027   1.4390997889e+01   2.4213303289e+01    0.1440571   0.08533442  44.60 0.0008075096    2.875    0.652
        94  -8.9875    107.0128     41.0048   3.0308084030e+01   5.3085380824e+01    0.1757023    0.1578017  87.17 -0.007547014    1.026    0.025
        95  -9.5127      1.2671     39.7980   8.4418144976e+01   7.3027541356e+01     0.184571    0.1032771 -63.74  0.000387286    1.619    0.382
        96  -9.3813    159.1440     39.3961   2.0806456418e+01   4.0378358912e+01     0.186662    0.1192679 -87.68 0.0004837785    1.617    0.382
        97  -9.5974     89.9820     38.9959   3.3929247346e+01   5.7689496251e+01    0.2188918    0.2061751 -86.19 0.0003298324    1.034    0.033
        98  -9.8153     29.4704     38.6275   6.1920453750e+01   7.0490818012e+01    0.3675021    0.2014191  58.85  0.001225973    2.963    0.663
        99  -9.5164     96.1398     37.9510   3.1783364942e+01   5.6312206969e+01    0.2208157    0.1832937 -80.06 0.0003671871    1.206    0.171
       100 -10.9480     47.8918     34.2630   4.8396121133e+01   6.8157838166e+01    0.5868525    0.2884917 -36.06  0.002380727    2.369    0.578
       101  -9.9319     51.7829     33.3666   4.5899872810e+01   6.7528448039e+01     0.298414    0.2245858  35.01 0.0004845225    1.372    0.271
       102 -10.1471     13.0018     37.4788   7.3885436229e+01   7.2754788479e+01    0.2103084    0.1892127  68.91 0.0004050973    1.264    0.209
       103  -9.0954    156.8216     36.1937   2.0137511968e+01   4.1361394737e+01    0.2148072    0.1534553  30.61  0.001060111    2.172    0.540
       104 -10.8654     40.2765     36.0091   5.3640847212e+01   6.9267552121e+01    0.4864425    0.2062509  39.77  0.001909932    2.298    0.565
       105  -9.5288    119.1438     34.9245   2.5449486049e+01   5.0894870297e+01    0.2223459     0.175524 -67.28 0.0004580878    1.201    0.167
       106  -9.5017    173.9964     34.3371   1.7691209698e+01   3.7616879282e+01    0.1838967     0.146101 -75.48 0.0004466097    1.134    0.118
       107  -9.7316     24.9567     34.0480   6.2968060866e+01   7.2139537874e+01    0.2156617    0.1574713 -18.81 0.0005259339    1.594    0.373
       108  -9.7724    153.7536     32.0762   1.9258346925e+01   4.2637376462e+01    0.2255263     0.194451  -5.78  0.001043814    1.549    0.355
       109 -10.6095     17.6281     31.5490   6.7531267152e+01   7.3631498798e+01    0.2458723    0.2202493 -21.74 0.0002845227    1.077    0.071
       110 -10.2038      4.8724     31.6719   7.8801037221e+01   7.4796288517e+01    0.4320295    0.1525598  36.59  0.001627784    2.965    0.663
       111  -9.7745     64.8089     30.0309   3.8274977568e+01   6.5214930890e+01    0.2160918    0.1910595 -76.58  0.000728881    1.215    0.177
       112  -9.5118     59.2704     29.7338   4.0440496694e+01   6.6530518436e+01    0.1913505    0.1621532  24.37 0.0007236521    1.325    0.245
       113  -9.3586     60.6615     26.1732   3.7917642767e+01   6.6781475449e+01    0.2350515    0.1772255 -11.19  0.001177674    1.709    0.415
       114 -10.4597    161.3668     27.2477   1.6948498596e+01   4.1426916074e+01    0.3784156    0.1909517 -86.40   0.00169808    2.174    0.540
       115  -9.3289    153.2224     27.7714   1.7992549303e+01   4.3310612397e+01    0.1661751    0.1554322  62.90 0.0003145151    1.294    0.227
       116  -9.3020    104.0081     28.4226   2.5944913701e+01   5.5682014925e+01    0.2061541    0.1322241  69.96 7.130288e-05    1.464    0.317
       117  -9.2971     42.2085     28.5897   4.8473022443e+01   7.0325503725e+01    0.1881421    0.1271002  34.48 0.0003203528    1.509    0.337
       118 -10.2629     89.0437     26.2178   2.8520013343e+01   5.9824250248e+01    0.4512481    0.2300066 -62.66  0.001694682    2.781    0.640
       119  -9.8593     85.8135     21.2074   2.7009777251e+01   6.1305232038e+01    0.3308863    0.1872788 -59.56  0.001424049    2.116    0.527
       120 -10.8351     46.8349     26.6919   4.4784853832e+01   6.9730573969e+01    0.2511524    0.2327159  13.15 0.0002876219    1.127    0.113
       121 -10.0281    120.5045     25.8623   2.1830658393e+01   5.1754139784e+01    0.2932475    0.1595451  53.77  0.001309878    1.930    0.482
       122  -8.9321     21.2882    183.6804   9.1080933219e+01   3.2350529631e+01    0.1492808   0.08259738  54.84 0.0002550973    1.597    0.374
       123  -8.5583     32.2937     26.3374   5.3474990848e+01   7.2566869812e+01    0.1390668    0.1050361  -6.54  0.000526842    1.647    0.393
       124 -10.0107    111.7589     24.8025   2.2941488591e+01   5.4146721129e+01    0.2333062    0.1832504  84.21 0.0006365902    1.172    0.147
       125  -9.0139     83.6343     25.2706   2.9541140330e+01   6.1326457935e+01    0.1498625    0.1047787 -78.49 0.0006998212    1.661    0.398
       126  -9.3245    250.7242     23.8831   1.0042246137e+01   2.3938796725e+01    0.1594742   0.05990838 -40.31 0.0003919989    1.719    0.418
       127  -9.2920    239.2213     24.2542   1.0651961272e+01   2.5826568449e+01    0.1575774   0.08885785 -52.66  0.000446314    1.293    0.227
       128  -9.4870    128.9969     24.2964   1.9945711280e+01   4.9771194992e+01    0.1944639    0.1626653  89.52 0.0003707322    1.085    0.078
       129  -9.4857    195.8687     23.1065   1.2897700705e+01   3.4218621221e+01    0.1532152     0.146391 -40.81 0.0007842276    1.342    0.255
       130  -9.6975     72.8211     22.3781   3.1371775409e+01   6.4422062943e+01     0.219574    0.1878627 -56.72 0.0005112188    1.226    0.184
       131 -10.4092     38.3304     22.6711   4.7271427963e+01   7.2122512121e+01    0.2390154    0.2184167  22.09 0.0003229956    1.073    0.068
       132  -9.0219      2.9624     23.7484   7.7613680176e+01   7.6772028906e+01    0.1620423    0.1066821  10.60 0.0003771377    1.512    0.339
       133 -10.3529     24.3285     19.6868   5.5282392022e+01   7.5138948666e+01    0.1974405    0.1375169 -48.36 0.0004391807    1.518    0.341
       134  -9.3236     20.0660    174.5251   9.0911877782e+01   3.4772629160e+01    0.2094762    0.1256138  26.90  0.001017778    1.554    0.357
       135  -9.5676     66.5352     20.8316   3.2695302487e+01   6.6168495209e+01    0.2047909    0.1717809  63.63 0.0003954724    1.105    0.095
       136  -9.5089    159.2131     20.2470   1.5069757115e+01   4.2767986378e+01    0.1935424    0.1245534 -57.60 0.0006201959    1.333    0.250
       137  -9.6910     48.7149     19.6545   3.9570403367e+01   7.0458799633e+01    0.2034367    0.1895228 -44.43 0.0003548647    1.155    0.134
       138  -9.0579     30.6548     20.3081   5.0875217019e+01   7.3959659304e+01    0.1331221    0.1071971  76.67 0.0007043878    1.699    0.411
       139 -10.2993     12.5331     17.7202   6.4642406112e+01   7.7175195272e+01    0.4155221    0.1837869  23.79  0.001803407    2.340    0.573
       140  -9.7100      4.8096     19.3802   7.3644144163e+01   7.7608722214e+01     0.266358    0.1142949  26.46 0.0007736042    2.213    0.548
       141  -9.1530    147.5331     17.9703   1.5519540894e+01   4.5856866622e+01     0.186551    0.1249626 -34.30 0.0004297675    1.479    0.324
       142  -8.7986     70.6831     18.3288   2.9912095893e+01   6.5482624663e+01    0.1461656    0.1036017 -71.18 0.0007046124    1.680    0.405
       143  -9.7322    224.0022    173.2372   4.1851363625e+01   7.7124911484e+00    0.1313128   0.09028727  28.01 0.0008844979    1.631    0.387
       144  -9.1634     74.8904     16.1152   2.7432242024e+01   6.4704742588e+01    0.1894988    0.1544317  42.67 0.0003921937    1.289    0.224
       145  -9.4360     66.1572     16.1996   3.0235981713e+01   6.6864936367e+01     0.186683    0.1553476 -79.71 0.0003486488    1.296    0.228
       146  -9.5899     21.4988    170.0456   9.0189648924e+01   3.5801555964e+01     0.219495     0.171518  32.35 0.0006246085    1.214    0.176
       147  -9.6525    183.3023     15.0479   1.1673042776e+01   3.7819145909e+01    0.1767892    0.1355429 -57.21 0.0004599183    1.030    0.029
       148  -8.8151     28.6243    160.2974   8.7187473015e+01   3.7704774783e+01    0.1649347   0.08792093  52.97 0.0007025928    1.749    0.428
       149  -9.1076     17.3506    155.2690   9.0552206313e+01   4.0089855243e+01    0.1397787    0.1056942 -34.50 0.0004251746    1.625    0.385
       150  -9.0618     39.8036    147.5655   8.2152867746e+01   3.9979949453e+01    0.2161644    0.1212161  40.57 0.0004916783    1.629    0.386
       151 -10.2816     25.6182    146.0824   8.6972462644e+01   4.1865040536e+01    0.3099471     0.198506  25.71 0.0005144171    1.545    0.353
       152  -9.8317     91.9379    137.7447   6.3310604543e+01   3.5061923937e+01    0.2078632    0.1904623  52.51 0.0002325071    1.066    0.062
       153  -9.4645     28.7314    138.2436   8.5078863995e+01   4.3746103404e+01    0.1924661    0.1677793 -42.31 0.0003971361    1.298    0.230
       154  -9.5728     10.8817    133.1320   9.1309556550e+01   4.6722802101e+01    0.2320273    0.1739877  62.90 0.0007242406    1.224    0.183
       155  -9.2439     17.3537    132.0736   8.8755844755e+01   4.6519722020e+01    0.2057935    0.1711699  77.97 0.0004228959    1.104    0.094
       156  -9.3558     58.0367    129.7165   7.3105475508e+01   4.2568646999e+01    0.2141451    0.1897358  35.88 0.0004036285    1.137    0.120
       157  -9.4872     40.6099    126.3783   7.9095989694e+01   4.5791500774e+01    0.3104216    0.1345126  89.32 0.0009555058    3.379    0.704
       158  -9.2953      6.9463    118.6883   9.1801136181e+01   5.1080007151e+01    0.2019346    0.1803952  54.96 0.0005164435    1.084    0.078
       159  -9.7386     34.0277    116.1072   8.0200887121e+01   4.9461797480e+01    0.2289192    0.2057043  68.99 0.0003678789    1.055    0.052
       160  -9.2405     91.7455    116.4139   5.8750207337e+01   4.0463374316e+01    0.2114734    0.1533368  26.86 0.0005633308    1.574    0.365
       161  -9.8917     95.9539    111.8648   5.6316903685e+01   4.0788176532e+01    0.2653375    0.2162832 -55.60 0.0005269406    1.213    0.176
       162  -9.4110     19.0819    107.9617   8.5506918037e+01   5.3254554049e+01     0.234126    0.1658223 -34.80 0.0008327057    1.616    0.381
       163  -9.3476     12.7427    105.6931   8.8094665116e+01   5.4399303070e+01    0.3030955    0.1213779  41.50 0.0007291677    2.383    0.580
       164 -10.2815      1.8878    104.8811   9.2952901124e+01   5.5297246435e+01     0.333371    0.1663922 -63.26  0.001428463    1.858    0.462
       165 -10.3854     78.4158    101.4608   5.9560055128e+01   4.6762705266e+01    0.5087633    0.1958416 -61.93  0.001558218    3.119    0.679
       166  -9.3487     86.7234    103.0327   5.7070995390e+01   4.4776157606e+01    0.1994581    0.1380953 -57.16 0.0008710261    1.435    0.303
       167  -9.5331    117.3313    102.2769   4.7615347806e+01   3.8673699117e+01    0.1491542      0.12469   2.23 0.0003160316    1.599    0.375
       168 -10.0130     49.4503    101.2913   7.0947686425e+01   5.1663275641e+01    0.2910982    0.2519023 -35.89 0.0007243958    1.281    0.220
       169  -9.1067    108.3278    101.6523   4.9945293460e+01   4.0714335421e+01    0.1651727    0.1214725  89.02 0.0007049571    1.756    0.430
       170  -9.6771     26.0249    101.0093   8.1363381086e+01   5.4605288873e+01    0.1776813    0.1698745  61.13  0.000307535    1.052    0.049
       171  -9.1662    159.7986     98.3862   3.7025729175e+01   3.0510797886e+01    0.1825057    0.1352335  42.18 0.0004174339    1.559    0.358
       172  -9.9989    102.8289     96.8972   5.0254823760e+01   4.2971603742e+01    0.3235764    0.3082309   5.38  0.001264278    1.215    0.177
       173 -10.4431     64.1768     96.1511   6.3595638536e+01   5.0711535184e+01    0.3308735    0.3221845 -14.45  0.001324895    1.136    0.119
       174  -9.6431     60.8128     91.0659   6.3630789807e+01   5.2625372103e+01    0.3716003    0.1967515 -67.54  0.001395496    2.122    0.529
       175 -10.2260      3.9772     96.1556   9.1243439721e+01   5.7665908951e+01    0.2367876    0.1928872 -79.62  0.000332893    1.130    0.115
       176  -9.7004     94.1048     96.0134   5.2722003272e+01   4.5006515219e+01    0.2338913    0.2210188  86.15 0.0004013643    1.018    0.017
       177 -10.9716     41.5613     95.2427   7.3105932377e+01   5.4429714823e+01    0.5344967    0.1982903  28.47  0.001814864    2.684    0.627
       178 -10.1617     20.0432     95.0132   8.3263767722e+01   5.6866755442e+01    0.2494649    0.1597214  58.44 0.0005751734    1.639    0.390
       179 -10.7169    132.5707     92.7149   4.1204393351e+01   3.7419570740e+01    0.2683376    0.2532336  87.38 0.0004434328    1.059    0.056
