#   1 NUMBER                 Running object number                                     
#   2 MAG_AUTO               Kron-like elliptical aperture magnitude                    [mag]
#   3 X_IMAGE                Object position along x                                    [pixel]
#   4 Y_IMAGE                Object position along y                                    [pixel]
#   5 X_WORLD                Barycenter position along world x axis                     [deg]
#   6 Y_WORLD                Barycenter position along world y axis                     [deg]
#   7 A_WORLD                Profile RMS along major axis (world units)                 [deg]
#   8 B_WORLD                Profile RMS along minor axis (world units)                 [deg]
#   9 THETA_WORLD            Position angle (CCW/world-x)                               [deg]
#  10 FWHM_WORLD             FWHM assuming a gaussian core                              [deg]
#  11 ELONGATION             A_IMAGE/B_IMAGE                                           
#  12 ELLIPTICITY            1 - B_IMAGE/A_IMAGE                                       
         1 -14.3263    171.8121     53.8175   5.4930439728e+01   3.5230730851e+01     1.275164     1.027737  14.69  0.004333256    1.509    0.338
         2 -14.4051    189.6649     26.1030   4.3933661106e+01   3.4441815971e+01    0.9508511    0.8912737 -35.84  0.004239908    1.093    0.085
         3  -9.7724    129.0498    242.5179   1.0235100538e+02   1.0359676281e+01    0.1420743    0.1259143  30.33 0.0005196494    1.177    0.150
         4  -9.9971    115.1426    249.4667   1.0562754318e+02   1.1158859595e+01    0.1264479     0.113351  36.23  0.000168742    1.209    0.173
         5 -19.8624     59.3023    165.4975   1.0973493382e+02   3.3653594912e+01     15.75563     4.838095 -71.80   0.05825882    3.549    0.718
         6 -11.4181    179.0034    219.2903   9.0143859662e+01   6.7760016828e+00    0.1677479     0.124336  25.74 0.0005014882    1.074    0.069
         7 -11.6622    131.1998    217.3274   9.9161033975e+01   1.3797766992e+01    0.3460954    0.2360071 -83.88  0.001662042    2.485    0.598
         8 -12.6545    153.6230    210.5341   9.3785826309e+01   1.1624955556e+01    0.3742604    0.2618309 -28.91  0.001439858    1.697    0.411
         9 -10.5985     21.2006    215.3714   1.2191884530e+02   2.7480565162e+01    0.1289045   0.09183098  36.28 0.0004277498    1.322    0.244
        10 -10.9487     20.8801    211.5112   1.2183339327e+02   2.8230038689e+01    0.2310478     0.122651 -80.83  0.001307799    1.917    0.478
        11 -10.7961     25.0699    213.5605   1.2105421638e+02   2.7452116330e+01    0.1576617    0.1051614  57.11  0.001096873    1.131    0.116
        12  99.0000     19.3337    238.6606   1.2309303511e+02   2.3556096404e+01    0.2091107    0.1800068 -40.76  0.001708171    1.856    0.461
        13 -10.4054      9.5883    212.7431   1.2417893372e+02   2.9009317401e+01    0.1064909   0.08959533 -77.35 0.0007383388    1.460    0.315
        14 -12.6391    164.5452    206.1511   9.1015212419e+01   1.0675452394e+01    0.6311783    0.2406763 -53.91    0.0024851    4.616    0.783
        15  -9.7856     15.9118    202.9781   1.2254102898e+02   3.0312791828e+01    0.1755576    0.1152672 -77.72 0.0008283895    1.603    0.376
        16 -11.0327    187.4952    205.4762   8.6551507960e+01   7.4167965751e+00    0.2119932    0.1138663 -37.70  0.001185691    2.078    0.519
        17 -10.5264    182.4079    203.3027   8.7164153114e+01   8.4541846023e+00    0.2068782    0.1105632 -33.65  0.001127286    2.078    0.519
        18 -12.3160     11.3882    205.9464   1.2359578148e+02   3.0137401983e+01     0.243093    0.2030554 -80.11  0.001326467    1.406    0.289
        19 -11.1968    170.9555    197.8322   8.8513701309e+01   1.0949736019e+01    0.2032406    0.1693151 -20.35 0.0008089038    1.279    0.218
        20 -11.8936     13.2334    191.8104   1.2269109525e+02   3.2762623819e+01    0.1718587    0.1409327  64.39 0.0008914234    1.097    0.089
        21 -13.0296    147.9119    182.6429   9.0839452342e+01   1.7006333071e+01    0.3809968    0.2920393 -64.10   0.00129508    1.721    0.419
        22 -12.9472    180.7061    176.2995   8.3026510313e+01   1.2699988091e+01    0.5905049    0.3753575 -43.07   0.00158055    1.769    0.435
        23 -12.0807    155.7591    174.2164   8.7762791710e+01   1.7173519024e+01    0.4638326    0.2462395 -64.78    0.0017231    4.169    0.760
        24 -12.2252    144.5130    181.5166   9.1392305581e+01   1.7751927575e+01    0.2345672    0.2169456 -77.23 0.0008925445    1.333    0.250
        25  -9.8127    199.5831    173.7561   7.8993663381e+01   1.0036163611e+01    0.1630104    0.1157791 -42.66  0.000556355    1.662    0.398
        26 -11.2678    187.3599    168.7300   8.0359502836e+01   1.2779807513e+01    0.5326111    0.2140411 -45.07   0.00222508    2.921    0.658
        27 -12.2319    145.1811    170.2502   8.9381242106e+01   1.9657323650e+01    0.2532322    0.1950895 -61.77  0.000792666    1.611    0.379
        28 -10.7747    101.8986    240.2343   1.0733810585e+02   1.4162248886e+01       0.1631    0.1479545 -86.79 0.0003463643    1.381    0.276
        29 -11.1810    168.1044    236.7227   9.4433429903e+01   6.0046347153e+00    0.1814439     0.146828 -12.26 0.0006193954    1.367    0.269
        30 -12.0010    246.5546    162.5076   6.9088341426e+01   4.3966359184e+00    0.2320126    0.1809093 -32.50 0.0007543807    1.441    0.306
        31 -11.4255    245.6917    159.3278   6.8613987883e+01   4.9126659785e+00    0.1834901    0.1490808 -20.21 0.0007361755    1.210    0.174
        32 -10.8730    156.0930    152.1474   8.3621404831e+01   2.1066156649e+01     0.256393    0.2111159  53.90  0.000497291    1.334    0.250
        33 -12.6344    143.3196    145.9987   8.5299578833e+01   2.4586603438e+01    0.4495885    0.2520883 -53.91  0.001787337    2.058    0.514
        34 -10.9480      5.2689    137.9974   1.2225928409e+02   4.5253996996e+01     0.222922    0.1571958 -87.49 0.0009678092    1.214    0.176
        35  -9.7145      1.4724    139.9913   1.2342141459e+02   4.5032379993e+01    0.1697512    0.1007183 -86.80 9.877436e-05    1.430    0.301
        36 -10.5652     13.7003    137.1398   1.1979486025e+02   4.4859838002e+01    0.1967548    0.1452949  48.63 0.0003588969    1.272    0.214
        37 -12.1995      8.2131    125.1212   1.2063761520e+02   4.8152228196e+01    0.4092563    0.1792787  84.51  0.001895678    2.122    0.529
        38 -10.9313    150.4658    119.9020   7.7892087797e+01   2.8345981191e+01    0.3136434     0.204914  54.67 0.0007736371    1.686    0.407
        39 -11.0160    135.2225    232.1803   1.0007617186e+02   1.1010642138e+01    0.4386395    0.1721733 -41.05  0.002104233    3.604    0.723
        40 -11.9816    120.7741    229.9318   1.0265918613e+02   1.3280394646e+01    0.4761396    0.2323247 -44.38  0.002612832    2.723    0.633
        41 -12.1713    129.5229    227.6956   1.0069114428e+02   1.2439770109e+01    0.8398861    0.3124873  27.04  0.003540341    3.090    0.676
        42 -10.5917    167.4788    112.3552   7.2261725330e+01   2.6224498958e+01    0.3075038    0.2297678 -72.79 0.0009552319    1.921    0.479
        43 -10.9809    137.1447    222.8321   9.8626778643e+01   1.2122312433e+01    0.1684051    0.1287636  32.71 0.0006377418    1.037    0.035
        44 -10.4695    205.4560    110.2295   6.4542530617e+01   1.8738562111e+01    0.2319466    0.1931479  41.27 0.0005438573    1.274    0.215
        45 -12.2631    150.0922    220.1270   9.5747762036e+01   1.0711064043e+01    0.2917426    0.1635132  20.71 0.0009183467    1.901    0.474
        46 -11.2333     13.9693    109.5624   1.1756590017e+02   5.1618919054e+01    0.2374496    0.1603171  20.22 0.0006994654    1.717    0.418
        47 -12.2336    149.0499    227.7585   9.6897890174e+01   9.7631375507e+00     0.358895    0.1965027  39.83  0.002125708    1.506    0.336
        48 -11.3696    146.8959    223.2935   9.6768185661e+01   1.0698439252e+01    0.1859697    0.1648763 -87.75 0.0006246602    1.602    0.376
        49 -11.3541    126.1070    102.6327   7.9643264296e+01   3.7000982830e+01     0.273078    0.2442576 -75.27  0.000487054    1.217    0.178
        50 -10.5704     20.3918     91.2627   1.1319021440e+02   5.5803293984e+01    0.2421164    0.1947316  30.91 0.0006242639    1.386    0.279
        51 -10.7333    186.6936     86.6965   6.1835236926e+01   2.6495970023e+01    0.2581234    0.2241358   5.21  0.001174807    1.250    0.200
        52 -12.5408    146.5166    218.9634   9.6301206715e+01   1.1386165829e+01    0.4318137    0.2435052  14.43  0.002190035    2.376    0.579
        53 -12.9871    160.0301    221.6411   9.4024169248e+01   9.1011342635e+00    0.3688036    0.3110706  35.66  0.002088029    1.195    0.163
        54 -13.0801    158.6879     66.6591   6.1354461075e+01   3.6438168099e+01    0.4678855    0.4514381 -25.08 0.0008934607    1.044    0.042
        55 -12.1514    187.6949    241.8133   9.1589878346e+01   2.8642925068e+00     0.307335    0.1820848 -31.23  0.002077095    1.973    0.493
        56 -12.6686    177.3103     45.9724   5.1621605127e+01   3.4991521031e+01    0.4706856    0.4495959  77.05 0.0009192438    1.077    0.071
        57 -11.5353    128.5374    222.0488   1.0025050819e+02   1.3434114841e+01    0.2348077    0.1446141  22.81  0.001283094    1.622    0.383
        58 -10.0904     19.9562     48.4882   1.0536517639e+02   6.6559441432e+01    0.1731043    0.1306714  14.19 0.0004013835    1.506    0.336
        59 -10.7057     16.6871     36.5704   1.0386037850e+02   6.9626300607e+01    0.2682916    0.1881094 -17.40   0.00153235    1.559    0.358
