#   1 NUMBER                 Running object number                                     
#   2 MAG_AUTO               Kron-like elliptical aperture magnitude                    [mag]
#   3 X_IMAGE                Object position along x                                    [pixel]
#   4 Y_IMAGE                Object position along y                                    [pixel]
#   5 X_WORLD                Barycenter position along world x axis                     [deg]
#   6 Y_WORLD                Barycenter position along world y axis                     [deg]
#   7 A_WORLD                Profile RMS along major axis (world units)                 [deg]
#   8 B_WORLD                Profile RMS along minor axis (world units)                 [deg]
#   9 THETA_WORLD            Position angle (CCW/world-x)                               [deg]
#  10 FWHM_WORLD             FWHM assuming a gaussian core                              [deg]
#  11 ELONGATION             A_IMAGE/B_IMAGE                                           
#  12 ELLIPTICITY            1 - B_IMAGE/A_IMAGE                                       
         1 -14.2007    217.1043      5.1150   4.0832228468e+01   2.9817540431e+01     2.031021    0.9804972  67.90  0.005899191    1.912    0.477
         2 -15.0875    192.0223     35.2400   5.2007757333e+01   3.2659732807e+01     3.071637     1.941119  16.77   0.01267565    2.538    0.606
         3 -10.1063    169.0224    235.7494   1.0269413837e+02   2.5767188173e+00    0.1715724    0.1643253  26.42  0.000431259    1.199    0.166
         4 -12.1414    247.7004    248.7397   9.0909750872e+01  -1.1098690124e+01    0.5195577    0.2856819  21.91  0.003275598    1.536    0.349
         5 -11.3962     56.9810    213.4151   1.2129592110e+02   2.3714218507e+01    0.2985898    0.1928836  69.67  0.001141066    1.281    0.219
         6 -11.4236     53.0112    210.0556   1.2176261580e+02   2.4873739389e+01    0.2819532    0.1406581  63.20 0.0008290818    1.800    0.444
         7 -12.1128     61.5213    234.8262   1.2216966541e+02   1.9136612923e+01    0.2051552     0.146016  74.56  0.000455019    1.133    0.117
         8  -9.2433     43.7508    212.6707   1.2368976412e+02   2.5487715024e+01    0.1373908    0.1121135  67.81 0.0002364783    1.174    0.148
         9  -9.5060     43.2972    209.6831   1.2354968940e+02   2.6127293356e+01    0.2166191    0.1072258  70.73 0.0007059207    1.882    0.469
        10 -11.3494     39.2958    212.0372   1.2445881826e+02   2.6132788885e+01    0.2761921    0.1417157  81.56  0.001293371    1.799    0.444
        11  -9.5248     72.0830    230.9805   1.2000034613e+02   1.8426264190e+01    0.1620382    0.1095444  68.11 0.0004698639    1.204    0.169
        12 -10.7965     30.6994    210.7437   1.2592920746e+02   2.7352912736e+01    0.1534867   0.09640002  53.92 0.0004146335    1.344    0.256
        13 -12.1892     70.7681    207.0498   1.1808078824e+02   2.3142248815e+01    0.5317785    0.2922486  27.80  0.002384859    2.683    0.627
        14 -11.8457    193.8911    196.1046   9.1684863135e+01   4.2868516714e+00     1.288471    0.6565263 -60.91  0.004258964    5.275    0.810
        15 -12.3881    204.0656    199.4261   9.0340058145e+01   1.9301173768e+00    0.6262552    0.2825221  31.88  0.002672306    2.347    0.574
        16  -7.3076     32.1733    227.7117   1.2673341383e+02   2.3972932170e+01    0.2189914   0.07837589  53.25  0.001193085    2.125    0.529
        17 -13.4998     58.3128    201.7248   1.2001741429e+02   2.5870725506e+01     0.526373    0.3286585 -78.68  0.003169073    1.481    0.325
        18  -9.7287     33.2862    206.0578   1.2513890036e+02   2.7991363603e+01    0.1591041    0.1371988 -66.77  0.001189128    1.536    0.349
        19 -11.5619     97.1223    200.5380   1.1207307897e+02   2.0576209634e+01    0.3759321    0.2977079 -34.10  0.001165523    1.894    0.472
        20  -9.8599     87.6644    202.7794   1.1426594922e+02   2.1572557799e+01    0.1959853    0.1581514  42.44 0.0006532429    1.325    0.245
        21 -12.2360    152.7172    198.1356   1.0025563867e+02   1.1520847564e+01    0.5131763    0.2702011 -52.66  0.002410883    2.193    0.544
        22  -9.5304     58.2549    227.1954   1.2216576720e+02   2.0939911572e+01     0.089018   0.07736272  54.28 0.0006499055    1.366    0.268
        23  -9.8630    159.6026    196.7476   9.8622250809e+01   1.0508571813e+01    0.1691282    0.1307297 -63.81   0.00042631    1.566    0.362
        24  -9.7361     82.3833    195.5213   1.1451435940e+02   2.3830749869e+01    0.3778143    0.2023393  72.81  0.001782668    2.254    0.556
        25  -8.8206     78.5297    193.4690   1.1507817669e+02   2.4817112213e+01    0.1289515    0.1046607  73.07 0.0008090139    1.022    0.022
        26 -10.5802     44.8106    195.5812   1.2213006512e+02   2.8799266090e+01    0.1897098    0.1342473  76.32 0.0004437588    1.133    0.117
        27 -11.1615     96.9124    192.6050   1.1111622138e+02   2.2220284382e+01    0.3383072    0.2633331 -25.19  0.001098991    2.111    0.526
        28 -17.9436     32.3697    243.2883   1.2758138015e+02   2.1174286089e+01     7.641645     3.460246  37.81   0.04007945    2.273    0.560
        29 -10.9597     71.0088    178.5390   1.1492963237e+02   2.9078116301e+01    0.3674656    0.2412711  89.94   0.00131456    1.488    0.328
        30 -12.6914     68.2093    187.4852   1.1656615816e+02   2.7528223625e+01    0.6779895    0.5905549 -74.51  0.002917497    1.256    0.204
        31  -9.7547     40.1830    193.1613   1.2283932882e+02   2.9840000127e+01    0.1602625    0.1052514  69.73  0.001014992    1.257    0.204
        32  -9.4585     61.9250    220.0721   1.2093320773e+02   2.1796824320e+01    0.1578183    0.1235697  80.85 0.0005506197    1.112    0.100
        33 -11.2327    153.8199    185.4801   9.7902884732e+01   1.3661598757e+01    0.3271524    0.2278688 -66.80  0.001184334    1.817    0.450
        34 -12.4893    146.7531    184.0203   9.9149652145e+01   1.5273405090e+01    0.5387771    0.3482072  71.61  0.001750012    2.200    0.545
        35 -19.1482     11.4551    104.8554   1.2047216053e+02   5.2406286308e+01     15.90393    0.7311538 -70.67   0.02871564   14.286    0.930
        36 -11.6189     99.4494    180.7650   1.0895500135e+02   2.4303126252e+01    0.2711866    0.2418174  80.86 0.0005326655    1.047    0.045
        37 -10.6827    204.3953    176.2899   8.5873909809e+01   5.5478117304e+00    0.4119063    0.2738619 -45.79   0.00171303    1.705    0.414
        38 -10.4717     73.5486    189.5857   1.1567769901e+02   2.6342146250e+01     0.178475   0.09866834  51.34  0.000935056    1.622    0.383
        39  -9.8223     51.0919    172.8463   1.1864790866e+02   3.2929932727e+01    0.2088356    0.1384156  59.82 0.0007059852    1.381    0.276
        40 -10.5224     43.6992    171.7000   1.2014357464e+02   3.4055886184e+01    0.5133156    0.1453599  40.63  0.002168934    3.119    0.679
        41 -11.0303    230.2846    166.8137   7.9098513900e+01   2.1706751083e+00     0.212376    0.1707953 -44.94 0.0008434136    1.455    0.313
        42 -10.0464    162.0254    167.0360   9.2711491740e+01   1.5628729343e+01     0.216486    0.2049671  56.81 0.0004352853    1.054    0.051
        43  -9.7552     48.3048    217.3024   1.2320405165e+02   2.4044274521e+01    0.2259791    0.1163764  50.16  0.001352279    1.593    0.372
        44 -10.1561     51.2999    162.9389   1.1749146098e+02   3.5131875371e+01    0.3305489    0.1569219  63.39  0.001205365    2.409    0.585
        45 -10.2516    236.5257    158.4874   7.6229318995e+01   2.3047730952e+00     0.138834    0.1203495  -1.77 -3.431357e-05    1.030    0.029
        46 -12.6959     95.9538    153.2127   1.0543995999e+02   3.1015113279e+01    0.6368095    0.5196189 -23.03  0.003382598    1.721    0.419
        47 -10.2476    187.4870    154.3917   8.4667922447e+01   1.2817684599e+01    0.4269969    0.1704721  40.53  0.001528556    2.555    0.609
        48 -10.2526    113.4831    151.4813   1.0084990169e+02   2.8371454246e+01    0.3309425    0.2084312  80.38  0.001208237    2.377    0.579
        49 -11.7194    133.9615    145.7242   9.4746880341e+01   2.5748747308e+01      1.26658    0.3240001 -55.01   0.00308648    5.672    0.824
        50 -10.4499    174.4918    149.0073   8.6221364007e+01   1.6602852373e+01    0.2962207    0.2515113  62.73 0.0008619016    1.283    0.220
        51 -11.3511    144.1922    146.6830   9.2528465015e+01   2.3464974301e+01    0.4780914    0.2637049 -63.51   0.00181789    2.469    0.595
        52  -9.4619    117.6723    146.3058   9.8820526908e+01   2.8772781966e+01    0.1527394    0.1116096  78.55 0.0004187013    1.652    0.395
        53 -10.7491    107.6814    145.9648   1.0122417503e+02   3.0674585148e+01    0.2690864    0.1914642  60.74 0.0003522184    1.479    0.324
        54 -12.1189    107.7828    139.1772   9.9860616197e+01   3.2224599932e+01    0.5917965    0.4164922 -35.95  0.002799778    1.735    0.424
        55  -8.8217     51.4284    215.4831   1.2249346494e+02   2.4010976630e+01    0.2017174    0.1246615 -77.40 0.0005608714    1.521    0.343
        56  -9.9704     49.4230    205.9346   1.2210268917e+02   2.6135929906e+01    0.2695692    0.1637184 -60.04  0.001634629    1.883    0.469
        57 -12.5381     95.6228    138.7953   1.0289955550e+02   3.4427353259e+01    0.2851559    0.2798759 -81.70  0.000529809    1.131    0.116
        58 -11.4009    105.9152    131.1382   9.8674368650e+01   3.4431936777e+01    0.4936689    0.3166479 -53.73  0.001973733    1.498    0.332
        59 -11.2873    135.9169    127.9047   9.0285817691e+01   2.9298272420e+01    0.9882563    0.1777487 -48.69  0.002250919    5.817    0.828
        60 -11.1289    114.8058    129.6793   9.6043940758e+01   3.3123076032e+01    0.3517633    0.3045291 -22.08 0.0007542825    1.390    0.280
        61 -10.3577    161.7209    128.4449   8.4273272389e+01   2.3577475406e+01    0.4264109    0.3145866  78.87  0.001862149    1.847    0.458
        62 -11.2726    102.4013    125.6865   9.8426659431e+01   3.6337328444e+01    0.2836313     0.237411 -31.89 0.0004837244    1.381    0.276
        63 -11.1009    120.2810    123.1638   9.3131543117e+01   3.3556761392e+01    0.5439882    0.3431683 -17.55  0.001938337    3.148    0.682
        64  -9.3913    152.1339    119.2678   8.4224575437e+01   2.7658059492e+01    0.3094154    0.2043344 -69.53  0.001222475    2.151    0.535
        65 -10.2884    110.0424    118.9192   9.4836641850e+01   3.6513472698e+01    0.2209641    0.2084474 -74.90 0.0003455106    1.020    0.019
        66 -10.2541    167.8197    112.7012   7.8907953637e+01   2.5428601898e+01    0.3906491     0.286331 -82.03   0.00134925    1.960    0.490
        67 -11.6498    118.6173    110.4540   9.0447100598e+01   3.6779414472e+01    0.6099949    0.3985143  64.42   0.00229598    1.975    0.494
        68 -10.2188    205.5151    110.1962   7.0526132025e+01   1.7068699807e+01    0.3178155    0.2160946  42.54 0.0008337437    1.546    0.353
        69 -10.1057    134.6161    106.2780   8.5151153396e+01   3.4344859930e+01    0.3092373    0.1462997 -48.29  0.001130202    2.114    0.527
        70  -9.7150    185.0989     84.8038   6.7613935375e+01   2.6616804615e+01    0.2462318    0.2153546 -77.22  0.001224009    1.255    0.203
        71  -9.0431    154.6524     80.7373   7.2901083359e+01   3.4924015687e+01    0.1596895    0.1222134  21.25 0.0003637618    1.606    0.377
        72  -9.7510     68.8514     71.8394   9.4781220151e+01   5.4106929617e+01     0.196528    0.1679569 -31.55 0.0002543782    1.097    0.088
        73 -12.0502    162.1012     63.1524   6.5835235516e+01   3.6227673166e+01    0.7015994    0.4227508  75.70 0.0008768755    2.278    0.561
        74 -12.2735    163.2685     56.3694   6.3455920106e+01   3.7047420987e+01    0.8080704    0.5573829  71.22 0.0005058204    1.615    0.381
        75 -16.6886     70.8376    146.3701   1.1054341114e+02   3.6442647439e+01     8.774464     4.366506  74.03   0.03156362    3.596    0.722
        76 -13.2931    177.1172     49.6749   5.8735760947e+01   3.4507738527e+01    0.8281676    0.7771885   0.23 0.0009353844    1.160    0.138
        77 -11.3680    158.4192    237.4801   1.0487199725e+02   4.0684147561e+00    0.3588278    0.2453132 -59.66  0.002201269    1.939    0.484
