#   1 NUMBER                 Running object number                                     
#   2 MAG_AUTO               Kron-like elliptical aperture magnitude                    [mag]
#   3 X_IMAGE                Object position along x                                    [pixel]
#   4 Y_IMAGE                Object position along y                                    [pixel]
#   5 X_WORLD                Barycenter position along world x axis                     [deg]
#   6 Y_WORLD                Barycenter position along world y axis                     [deg]
#   7 A_WORLD                Profile RMS along major axis (world units)                 [deg]
#   8 B_WORLD                Profile RMS along minor axis (world units)                 [deg]
#   9 THETA_WORLD            Position angle (CCW/world-x)                               [deg]
#  10 FWHM_WORLD             FWHM assuming a gaussian core                              [deg]
#  11 ELONGATION             A_IMAGE/B_IMAGE                                           
#  12 ELLIPTICITY            1 - B_IMAGE/A_IMAGE                                       
         1 -16.1586    229.4834    146.2935   8.6940580688e+01   5.4701590589e+00     9.090878     4.514424 -34.18    0.0375961    2.055    0.513
         2 -14.2397    239.3616     23.1698   5.8834902012e+01   2.3755195817e+01     1.783477     1.379359  87.96   0.01169777    1.129    0.115
         3  -8.8116    170.2424    247.9944   1.1808133270e+02  -2.2630307249e+00     0.150272    0.1109645 -45.64 0.0005497205    1.583    0.368
         4  -9.1127    163.6495    247.8578   1.1936547007e+02  -1.1286006954e+00    0.1646264    0.1229192 -63.34  0.000946426    1.721    0.419
         5  -9.2761    156.0838    247.6838   1.2084158693e+02   1.8231270455e-01    0.2043488    0.1794743 -76.67 0.0009868942    1.373    0.272
         6  -9.1977    233.1621    246.7188   1.0582891372e+02  -1.2042130428e+01    0.1834613     0.155713 -26.38 0.0007545154    1.332    0.249
         7  -9.3807    197.1444    246.8978   1.1264631775e+02  -6.5361409695e+00    0.1898101    0.1650056  48.96  0.001227549    1.321    0.243
         8  -9.0882    149.6296    247.1760   1.2205331231e+02   1.3655214435e+00    0.1665713    0.1215039 -38.30 0.0009487244    1.691    0.409
         9  -8.5880    219.2690    245.5778   1.0821181508e+02  -9.8183792569e+00    0.1096759   0.09911124 -89.39 0.0004561709    1.796    0.443
        10  -8.7223    246.2891    244.6096   1.0310068962e+02  -1.3612354983e+01    0.1013888   0.09657462 -67.82 0.0007007626    1.766    0.434
        11  -8.7456    210.0000    243.9555   1.0969650783e+02  -8.1444468219e+00    0.1830583   0.07013122 -40.86 0.0007912182    2.865    0.651
        12 -10.4446    177.8841    243.0121   1.1580636669e+02  -2.7324064865e+00    0.2775003    0.1845762 -60.18  0.001453592    2.074    0.518
        13  -9.3606    162.8474    243.0427   1.1881124688e+02  -1.7625171327e-01    0.3804143    0.1675728 -34.38   0.00146948    3.702    0.730
        14  -9.2772    146.0000    244.0388   1.2233726196e+02   2.5363729031e+00    0.1897019   0.07601715 -52.08   0.00079634    2.900    0.655
        15  -9.2270    168.3475    243.0319   1.1770893913e+02  -1.1150999727e+00    0.1703702    0.1685705  23.31 0.0007630672    1.156    0.135
        16  -9.1308    248.0277    240.3374   1.0205579112e+02  -1.3279726484e+01    0.1666293    0.1288207  18.73 0.0006600569    1.148    0.129
        17  -8.9074    226.5200    239.9891   1.0591184402e+02  -1.0114081615e+01    0.1705849    0.1160066 -34.37  0.001011314    1.542    0.352
        18  -8.8687    219.4641    239.9589   1.0722929650e+02  -9.0304289687e+00    0.1531335    0.1123183 -65.07 0.0008089608    2.494    0.599
        19  -9.4142    194.5211    238.9743   1.1187088411e+02  -4.8682604690e+00    0.2613087    0.1220909 -36.48  0.001193376    2.458    0.593
        20  -9.4090    170.4943    234.6311   1.1596799822e+02  -4.0034952069e-02    0.2429558    0.1332982 -46.14 0.0009032657    2.058    0.514
        21  -8.5789    222.6675    238.3703   1.0635484560e+02  -9.2906133959e+00    0.1149353    0.1012731  76.39 0.0007029411    1.834    0.455
        22  -9.0362    156.5775    238.2126   1.1935094151e+02   1.7513967067e+00    0.1731821    0.1258412 -34.43 0.0009494663    1.680    0.405
        23  -9.2012    145.6312    238.1690   1.2157217849e+02   3.6606197368e+00    0.1768582    0.1234487 -39.91 0.0009522307    1.748    0.428
        24  -8.8706    231.4876    237.5107   1.0456360289e+02  -1.0503115780e+01    0.1259026    0.1020469   6.85  0.000179136    1.042    0.041
        25  -8.7977    199.4637    236.9787   1.1057064047e+02  -5.3690133710e+00    0.1780498    0.1269778 -44.09 0.0007807602    1.608    0.378
        26  -9.1722    189.8363    236.6330   1.1240963650e+02  -3.7041399028e+00    0.1946406    0.1525808 -45.48 0.0009649686    1.474    0.322
        27  -8.9179    243.7942    236.5705   1.0215671401e+02  -1.2167387614e+01    0.1555995    0.1066352  40.86 0.0009316642    1.634    0.388
        28  -8.5592    216.3112    236.6766   1.0726635211e+02  -8.0468450196e+00    0.1143577    0.1015442  68.72 0.0006812026    1.654    0.395
        29  -9.9996    202.5993    231.4296   1.0901480309e+02  -4.9988956030e+00     0.492395    0.1973803 -39.80  0.002106884    2.697    0.629
        30  -9.0406    162.5040    234.9972   1.1765203839e+02   1.2914864994e+00    0.1846702    0.1342675 -48.02  0.000881853    1.563    0.360
        31  -8.8546    139.6327    235.1896   1.2236839138e+02   5.2558722628e+00    0.1759786    0.1247988 -42.80 0.0009505193    1.690    0.408
        32  -9.9219    219.3256    232.9748   1.0605304773e+02  -7.9601690148e+00    0.3232194    0.2430148 -73.62  0.001671595    2.669    0.625
        33  -9.1496    213.4853    233.4726   1.0725478451e+02  -7.1056129380e+00    0.2294803     0.123115 -39.75 0.0007290198    1.988    0.497
        34 -10.1309    195.2929    231.4394   1.1045755141e+02  -3.7719160774e+00    0.3271542    0.2187252 -39.11  0.001133306    1.624    0.384
        35  -9.0815    240.9560    232.3486   1.0192599616e+02  -1.1160538735e+01    0.1703327    0.1378669  14.57 0.0007272561    1.089    0.082
        36  -9.4106    235.1302    231.1115   1.0277032599e+02  -1.0118091411e+01    0.2500905    0.1604484 -39.55 0.0009283333    1.678    0.404
        37  -9.2438    225.5822    231.2662   1.0457190465e+02  -8.6817776729e+00    0.2159612    0.1177048 -43.61 0.0009578741    2.073    0.517
        38  -9.2711    187.4799    231.9089   1.1209457882e+02  -2.5162183748e+00    0.2157159    0.1713242  12.85 0.0009766824    1.296    0.228
        39  -9.4917    176.9281    229.6546   1.1385131370e+02  -2.9302328195e-01     0.343803    0.1744461 -54.55  0.001518195    2.546    0.607
        40  -9.0337    158.5774    230.3679   1.1773375988e+02   2.8224636359e+00    0.2409999    0.1350307 -55.28  0.001138288    2.119    0.528
        41  -8.6528    145.6922    231.6657   1.2059978006e+02   4.8595642212e+00    0.1311383    0.1052815   1.90 0.0007041481    1.672    0.402
        42  -8.2814    250.4133    227.7886   9.9417338156e+01  -1.1872001586e+01    0.4122334    0.1496432 -28.90  0.001681084    3.200    0.688
        43  -9.0269    247.2894    226.6012   9.9759360048e+01  -1.1253602636e+01    0.2482558     0.153666 -12.84  0.001092163    1.715    0.417
        44 -12.3399    216.6721    209.2152   1.0225318632e+02  -3.6809411926e+00     2.499771     1.384689 -60.08  0.009745721    3.557    0.719
        45 -11.3083    213.3312    188.5293   9.8878709944e+01   5.9000666220e-01     1.456552    0.6098135 -50.95  0.005322791    3.036    0.671
        46  -8.7306    242.8941    248.9977   1.0445168696e+02  -1.3723791768e+01    0.1537513     0.142067  50.54 0.0008135376    1.675    0.403
        47  -8.7396    183.5685    207.0250   1.0851919161e+02   2.6458816397e+00    0.2049446    0.1381067 -44.39 0.0007839901    1.569    0.363
        48  -8.8495    185.3545    223.1837   1.1103891925e+02  -6.3771548012e-01    0.1785308    0.1282969 -54.63 0.0007021839    1.682    0.405
        49  -8.6902    183.5534    219.5132   1.1076818937e+02   3.3841917450e-01    0.1849105    0.1328958 -54.33 0.0007888456    1.650    0.394
        50  -9.1526    149.3933    205.5972   1.1559919694e+02   9.3561480197e+00    0.2733435    0.1337691 -65.72 0.0009567133    3.325    0.699
        51  -9.5295    124.0113    206.0489   1.2129254518e+02   1.3945787578e+01     0.203326    0.1842519  59.49  0.001165856    1.025    0.025
        52  -9.8496    193.2732    201.5567   1.0547917812e+02   1.8747871194e+00    0.2957091    0.1922128 -45.87  0.001156221    1.622    0.384
        53  -9.1134    188.7916    205.0526   1.0706580635e+02   2.0491326199e+00    0.2270798    0.1547133 -16.50  0.001060862    1.922    0.480
        54  -8.2691    171.0000    204.9034   1.1078717244e+02   5.4131072265e+00    0.2232309   0.08214752 -47.24 0.0007945014    2.888    0.654
        55  -9.5947    175.5513    203.8038   1.0961419566e+02   4.7690122908e+00     0.252308    0.1393047 -42.39 0.0008441946    1.924    0.480
        56  -9.7432    176.0000    197.5053   1.0833837214e+02   5.9293170887e+00    0.5537475   0.08278187 -46.58  0.001257734    6.991    0.857
        57  -9.1955    162.4668    227.0227   1.1639474330e+02   2.7472146939e+00    0.1941967    0.1367032 -49.79  0.001030491    1.592    0.372
        58  -8.8615    179.2015    189.3244   1.0606790773e+02   6.9547206577e+00      0.49248    0.1784308 -37.28  0.001561306    3.562    0.719
        59  -9.3949    177.4751    184.4326   1.0546762534e+02   8.2963856536e+00    0.3405514    0.1451302 -43.70  0.001119679    2.409    0.585
        60  -9.7993    180.7762    200.1884   1.0782942994e+02   4.4863305403e+00    0.5859303    0.1857448 -51.84  0.001792789    4.146    0.759
        61  -8.6748    181.0000    195.0059   1.0679174258e+02   5.4647477570e+00    0.2177155    0.1861825 -39.90 0.0006836053    1.207    0.172
        62  -9.4530    160.5401    203.0098   1.1270250094e+02   7.7784044821e+00    0.2683438    0.1399749 -45.09  0.001139189    2.051    0.512
        63 -10.0459    161.7919    192.8743   1.1055428878e+02   9.6344675172e+00    0.6093844    0.1952415 -51.89   0.00192513    3.558    0.719
        64 -10.1684    210.7044    217.8715   1.0502224393e+02  -4.1278078992e+00    0.3230322    0.2397844 -56.56  0.001498808    1.791    0.442
        65  -9.6557    186.4453    200.9973   1.0678986226e+02   3.2577085584e+00    0.3462529    0.1392956 -44.71   0.00127862    2.587    0.614
        66  -9.9416    167.8377    198.2953   1.1024870908e+02   7.3412269749e+00    0.5004649    0.2206622 -59.56  0.001668149    3.572    0.720
        67  -9.1880    239.7702    226.3017   1.0106148527e+02  -1.0103991697e+01    0.2022302    0.1423852  31.94 0.0006789815    1.368    0.269
        68 -12.8595    241.9783    190.0897   9.3808314316e+01  -4.6968381394e+00     1.737288     1.219576 -47.71  0.009496531    1.568    0.362
        69  -8.8457    156.5995    196.8270   1.1244198866e+02   9.8134126105e+00     0.203843    0.1405607 -62.95 0.0009498664    1.695    0.410
        70  -8.9559    138.5992    197.2059   1.1653903655e+02   1.3176489026e+01    0.2075755    0.1354919 -41.38 0.0009514301    1.750    0.429
        71  -9.9728    185.8562    194.2825   1.0562306930e+02   4.6737150233e+00    0.3763707     0.204769 -48.08  0.001315074    1.946    0.486
        72  -9.5188    144.4185    196.2440   1.1505651948e+02   1.2279008368e+01    0.2769418    0.1393939 -46.48  0.001131081    2.123    0.529
        73  -9.6448    194.8611    220.6368   1.0866697833e+02  -1.8651296282e+00    0.2750604    0.1935998 -46.61  0.001168854    1.587    0.370
        74  -8.6758    157.3212    193.3034   1.1162736561e+02   1.0416221498e+01    0.1466455    0.1170809   0.47 0.0003295506    1.632    0.387
        75  -8.6541    148.2996    191.3331   1.1328503745e+02   1.2594161602e+01    0.1468458    0.1184335  -7.44 0.0004608527    1.650    0.394
        76  -9.0212    174.3170    188.4906   1.0695924550e+02   8.0855820125e+00    0.2413485    0.1793681 -70.18 0.0008498025    1.739    0.425
        77 -10.2955    166.1387    187.2526   1.0851014110e+02   9.9611263334e+00    0.2580172    0.1994743 -34.81 0.0008069332    1.403    0.287
        78  -8.9987    150.8491    186.4312   1.1178376019e+02   1.3163135595e+01    0.2481475     0.176641 -45.05  0.001064655    1.473    0.321
        79 -11.8133    240.9833    210.3317   9.7897480523e+01  -7.8461948413e+00     1.580263    0.9743184 -65.25  0.005947898    4.750    0.789
        80 -10.0534    183.4388    186.0176   1.0450317264e+02   6.7918630016e+00    0.2575486      0.18529 -49.51 0.0007309011    1.455    0.313
        81  -8.9578    156.4797    224.9753   1.1731277197e+02   4.2041186289e+00    0.1957235    0.1371229 -48.00 0.0007301536    1.586    0.370
        82  -9.2759    157.4212    186.2609   1.1026335521e+02   1.1901291667e+01    0.2037912    0.1442191 -61.98 0.0009327334    1.599    0.375
        83  -9.6474    172.5697    184.0142   1.0645294716e+02   9.3610896774e+00    0.2238221    0.1454731 -45.35  0.001017157    1.576    0.365
        84  -8.8627    162.4904    184.0820   1.0869944100e+02   1.1360841660e+01    0.2246452    0.1481221 -47.42 0.0009977699    1.560    0.359
        85  -8.9548    134.0000    183.9518   1.1520321712e+02   1.7000367864e+01    0.2427551   0.08499499 -52.37 0.0007998585    2.925    0.658
        86  -8.7576    242.2345    222.7436   9.9969561401e+01  -9.9434011848e+00    0.2580816    0.2168146 -82.03  0.001504667    2.253    0.556
        87  -8.3666    166.2699    182.3377   1.0750953177e+02   1.0976669913e+01    0.1485762     0.118134  -9.61 0.0006986245    1.599    0.375
        88  -9.8508    211.1597    227.0834   1.0658701971e+02  -5.7175342308e+00    0.2732171    0.1894791 -31.52  0.001536085    1.489    0.328
        89 -11.1165    190.1174    178.0092   1.0145447585e+02   7.0884294376e+00    0.6703684    0.2674227 -55.29  0.002062042    3.840    0.740
        90  -9.4948    167.5309    226.8383   1.1531581760e+02   1.8764885016e+00    0.2933917    0.1372265 -50.93  0.001265575    2.463    0.594
        91 -11.0490    182.2102    179.5437   1.0345336853e+02   8.3581822335e+00    0.6577772    0.3936892   2.91  0.002005758    4.498    0.778
        92  -8.9917    175.4709    179.4769   1.0490087630e+02   9.7287532089e+00    0.2890781    0.1472948 -46.24  0.000700384    1.996    0.499
        93  -9.8618    188.4349    184.3272   1.0310270952e+02   6.1489004372e+00    0.3363551    0.1427462 -46.80  0.001250962    2.430    0.589
        94 -10.1865    170.1594    177.0526   1.0557476577e+02   1.1317991995e+01    0.4415462    0.2125054 -34.27  0.001568897    2.723    0.633
        95  -9.2377    163.8953    177.4935   1.0706471739e+02   1.2496695806e+01    0.2382519    0.2017999 -49.20  0.001077522    1.204    0.170
        96  -8.9905    152.2618    178.3704   1.0988881678e+02   1.4656585143e+01    0.1515111     0.119436 -16.04 0.0004300301    1.653    0.395
        97  -9.1694    174.7620    222.1570   1.1303752255e+02   1.4367425931e+00    0.2025936    0.1731381 -73.48 0.0009011425    1.465    0.317
        98  -9.2576    158.5336    175.4347   1.0786064433e+02   1.4036076280e+01    0.2751486    0.1402113 -37.61  0.001029651    2.326    0.570
        99  -9.4011    189.3411    218.7386   1.0944792104e+02  -5.5655967156e-01    0.3999653    0.2393608  -3.99  0.001535507    3.333    0.700
       100  -9.0146    173.9545    173.5193   1.0400398754e+02   1.1295990414e+01    0.2433841    0.1944824 -47.01 0.0008797592    1.266    0.210
       101  -9.0917    152.6038    174.2119   1.0897429661e+02   1.5512226409e+01    0.2174023    0.1428411 -39.06  0.000949124    1.666    0.400
       102  -9.5882    192.2223    172.3378   9.9826360695e+01   7.8168782287e+00    0.2963471    0.2393236 -59.13  0.001497581    1.375    0.273
       103  -9.1751    164.5328    172.7150   1.0593927665e+02   1.3404335696e+01    0.2780526    0.1481013 -43.15 0.0007630045    1.936    0.484
       104  -9.1779    142.4927    171.0303   1.1069625432e+02   1.8274216521e+01    0.2366002    0.1501312 -49.16  0.001030447    1.594    0.373
       105  -8.8297    143.3486    227.7328   1.2049374084e+02   6.0245223831e+00    0.1781659    0.1262355 -42.53 0.0006296614    1.652    0.395
       106  -9.1655    176.3187    169.5143   1.0264076288e+02   1.1661629364e+01    0.2920344    0.1451116 -40.93 0.0009029571    2.085    0.520
       107 -10.8060    179.6012    166.9048   1.0136599701e+02   1.1535126885e+01    0.3471197    0.2399809 -66.46  0.001112785    1.867    0.464
       108 -10.4327    176.6845    161.7978   1.0089952684e+02   1.3235484957e+01    0.4208646    0.2907308 -89.35  0.001671101    2.426    0.588
       109 -10.0824    171.5580    169.0103   1.0358641082e+02   1.2756228545e+01    0.2319797    0.1489304 -45.38  0.001017466    1.567    0.362
       110  -9.2040    164.6932    167.4764   1.0480360000e+02   1.4516781252e+01    0.2684598    0.1393453 -46.67 0.0008036921    1.940    0.485
       111 -10.1247    207.2147    207.3747   1.0376260835e+02  -1.7153158913e+00    0.4834958    0.2555167 -60.42  0.001762247    3.784    0.736
       112  -8.6913    157.0000    218.9664   1.1622310475e+02   5.2616908796e+00    0.2134658    0.0805551 -49.72 0.0007978861    2.911    0.656
       113  -9.5753    151.7676    165.9701   1.0746585241e+02   1.7533930263e+01    0.2076167    0.1282715 -48.50 0.0008773879    1.630    0.386
       114 -11.2745    182.9087    162.7244   9.9745244217e+01   1.1729338761e+01    0.5185143    0.2096301 -47.40  0.001817825    2.505    0.601
       115 -11.0554    184.1644    151.7477   9.7042169445e+01   1.3787489893e+01    0.5480687    0.2503085 -45.62  0.002035612    2.156    0.536
       116 -11.2968    182.3101    146.5073   9.6249837354e+01   1.5302746581e+01    0.6236324    0.2709455 -34.47  0.002050821    2.903    0.656
       117  -9.3650    158.4959    169.9494   1.0673870071e+02   1.5255048265e+01     0.234418    0.1511103 -47.61 0.0007920234    1.569    0.363
       118  -9.5987    159.5333    164.0340   1.0524977325e+02   1.6354336008e+01    0.3025185      0.14866 -43.58 0.0007906443    2.089    0.521
       119  -9.2875    159.4716    160.0193   1.0439728768e+02   1.7262865651e+01    0.2888483      0.19624 -40.99   0.00085508    1.522    0.343
       120  -8.9800    146.3539    163.7345   1.0827256893e+02   1.9157285731e+01    0.2191503    0.1420467 -41.16 0.0008300338    1.641    0.391
       121  -8.8586    169.6081    218.2452   1.1344260211e+02   3.0964371693e+00    0.1859204    0.1307396 -34.89 0.0009475939    1.617    0.381
       122  -9.1780    179.6836    216.8182   1.1109345200e+02   1.5280676560e+00     0.205174      0.16864 -23.92  0.001147882    1.334    0.251
       123 -11.9684    167.8831    157.4656   1.0191188064e+02   1.6044052377e+01      1.25507    0.2606621 -50.42  0.002734935    6.358    0.843
       124  -9.4025    153.0180    161.5383   1.0623021348e+02   1.8275986781e+01      0.25618    0.2035255 -49.67 0.0006715596    1.262    0.208
       125  -8.7938    143.2186    217.2017   1.1887692104e+02   8.1250201262e+00    0.2131629    0.1136344 -64.66 0.0008284131    2.507    0.601
       126  -9.7617    171.8152    154.8432   1.0044427174e+02   1.5776841248e+01     0.287873    0.2053991 -43.34 0.0006186723    1.398    0.285
       127  -8.8468    144.0000    158.9986   1.0782761404e+02   2.0729134860e+01    0.2532153   0.08809409 -49.18 0.0006787985    2.874    0.652
       128 -10.6751    175.8862    156.6921   9.9951381841e+01   1.4504077527e+01    0.2704699    0.2007975 -35.70 0.0007028964    1.406    0.289
       129 -10.5461    157.8608    154.9548   1.0365831251e+02   1.8739014757e+01    0.5005239    0.2484127 -33.45  0.001708526    2.766    0.638
       130  -9.1830    152.5780    156.2324   1.0518086237e+02   1.9570380356e+01    0.2200755    0.1476195 -37.87 0.0009450644    1.616    0.381
       131  -8.7013    160.0284    216.4835   1.1516493122e+02   5.1889579489e+00    0.2222568    0.1279868  41.73  0.001030977    1.587    0.370
       132 -11.0919    176.1475    151.0068   9.8618820681e+01   1.5675919505e+01    0.4601727    0.2444414 -35.61  0.001074224    2.126    0.530
       133 -10.1214    163.4259    151.1484   1.0151682162e+02   1.8396391747e+01    0.3439855    0.1499232 -46.32  0.001215833    2.281    0.562
       134  -8.8114    151.3910    151.8192   1.0448400474e+02   2.0824444227e+01    0.2244506    0.1460202 -37.72 0.0009425428    1.674    0.403
       135 -10.5554    205.8213    224.4578   1.0716478236e+02  -4.3983836730e+00    0.4208537    0.2079382 -45.17  0.001949407    2.248    0.555
       136  -8.2330    158.3099    148.3247   1.0206223449e+02   2.0131500090e+01    0.1582329    0.1268789  -4.38 0.0003990881    1.655    0.396
       137  -8.9647    133.0000    146.9702   1.0789223670e+02   2.5791386054e+01    0.2618732   0.08793516 -49.61 0.0008021393    2.940    0.660
       138  -9.3307    170.9536    144.5105   9.8287383786e+01   1.8219626020e+01    0.3023025    0.2172436 -30.22 0.0007744721    1.580    0.367
       139  -8.9178    155.3736    144.7873   1.0194128181e+02   2.1562211678e+01    0.2213204    0.1465035 -37.56 0.0005433716    1.620    0.383
       140  -8.9600    148.3577    142.7820   1.0315420783e+02   2.3531318595e+01    0.2302904    0.1443853 -38.26 0.0008358744    1.722    0.419
       141  -8.4982    159.4453    141.4758   1.0021539372e+02   2.1416731697e+01     0.155558    0.1532727 -38.63 0.0001100094    1.045    0.043
       142  -9.4411    180.0000    139.9334   9.5227152392e+01   1.7212293421e+01    0.2317729    0.1640068 -31.10 0.0006039944    1.567    0.362
       143 -10.2382    182.6098    134.9463   9.3493164370e+01   1.7690963739e+01    0.5553277    0.1512632 -42.47  0.001563706    3.631    0.725
       144  -9.5610    175.0232    139.9454   9.6317939050e+01   1.8312497938e+01    0.2885263    0.2206531 -22.27 0.0009560803    1.578    0.366
       145  -8.8615    172.3632    136.8762   9.6184103300e+01   1.9567198276e+01    0.2445275     0.154316 -44.20 0.0006362037    1.562    0.360
       146  -9.0263    167.0115    139.6615   9.8046138688e+01   2.0150152506e+01    0.2204255     0.207787  49.18 0.0006053669    1.076    0.071
       147  -8.8727    155.1683    134.8442   9.9651724080e+01   2.3837406818e+01    0.2190035    0.1865169 -22.47 0.0008759952    1.340    0.254
       148  -8.4567    149.3102    135.3589   1.0117746707e+02   2.5008119173e+01    0.1624414    0.1276252  -7.06  0.000624067    1.738    0.425
       149 -11.0630    170.1246    150.6777   9.9886319671e+01   1.7051729293e+01    0.5082757    0.3677942 -62.31  0.002288142    1.561    0.359
       150  -8.9054    178.6196    131.1203   9.3438831131e+01   1.9396412121e+01    0.2232706    0.1459294 -33.19 0.0009383648    1.685    0.406
       151  -8.5869    160.7622    130.9863   9.7408981934e+01   2.3446914590e+01    0.2093999    0.1314747 -45.10 0.0007262024    1.575    0.365
       152  -9.0934    173.5731    128.7803   9.3975618560e+01   2.1035099116e+01    0.2936178    0.1511204 -38.47 0.0008077568    2.034    0.508
       153 -10.5277    193.0431    210.6675   1.0723355237e+02   2.3186778769e-01    0.5977153    0.1954623 -48.18  0.002063949    3.543    0.718
       154  -8.8666    181.8486    124.5718   9.1168259520e+01   2.0040389266e+01    0.3096472    0.2002214 -27.35 0.0008397014    1.917    0.478
       155  -9.7967    170.0439    212.6473   1.1237854277e+02   4.0823057763e+00    0.3502888    0.2150843 -44.96  0.001403431    1.754    0.430
       156  -9.5041    154.5085    213.5997   1.1585729647e+02   6.7746914712e+00    0.2724512     0.140503 -49.08  0.001189835    2.100    0.524
       157  -8.3919    152.3292    121.3063   9.7005297604e+01   2.7459148839e+01    0.1587722    0.1276957   3.77  0.000466375    1.657    0.396
       158  -9.4524    176.4921    208.9597   1.1035801053e+02   3.5931806890e+00     0.205965    0.1403123 -45.54 0.0009995048    1.567    0.362
       159  -8.4205    164.2909    123.2956   9.4710148712e+01   2.4319563488e+01    0.1532419    0.1269188   1.82 0.0003617926    1.555    0.357
       160  -8.7374    162.4334    117.4992   9.3683394556e+01   2.5981393582e+01    0.1556018    0.1521692 -61.85 0.0001278933    1.023    0.022
       161  -9.3433    170.4945    121.9450   9.2981488086e+01   2.3189624902e+01    0.2428307    0.1531738 -43.54  0.001024077    1.564    0.361
       162  -9.6354    160.3532    210.7464   1.1411245838e+02   6.2562557066e+00    0.3057553     0.167863 -45.12  0.001280254    1.975    0.494
       163  -9.9044    199.1304    209.5525   1.0579055564e+02  -6.6319244632e-01    0.5284399    0.1492745 -42.32  0.001764698    3.687    0.729
       164  -9.8681    195.8160    196.2317   1.0392946073e+02   2.4059002408e+00    0.3239971    0.1926378 -52.83  0.001107763    1.967    0.491
       165 -10.2352    200.8420    216.6544   1.0675191079e+02  -2.2201101351e+00    0.4922144    0.2439809 -57.47  0.001869544    3.514    0.715
       166 -11.8351    245.2578    202.3296   9.5605683871e+01  -7.2412951810e+00      1.54086    0.5755464 -51.92  0.004280637    6.937    0.856
       167  -9.0147    184.4761    227.0797   1.1188548069e+02  -1.1666053483e+00    0.2432623    0.1302123 -38.44 0.0007474324    2.087    0.521
       168  -9.0851    132.9622     45.9553   8.0361464590e+01   4.5739891005e+01    0.1647874    0.1545045  43.19 0.0004138613    1.024    0.024
