#   1 NUMBER                 Running object number                                     
#   2 MAG_AUTO               Kron-like elliptical aperture magnitude                    [mag]
#   3 X_IMAGE                Object position along x                                    [pixel]
#   4 Y_IMAGE                Object position along y                                    [pixel]
#   5 X_WORLD                Barycenter position along world x axis                     [deg]
#   6 Y_WORLD                Barycenter position along world y axis                     [deg]
#   7 A_WORLD                Profile RMS along major axis (world units)                 [deg]
#   8 B_WORLD                Profile RMS along minor axis (world units)                 [deg]
#   9 THETA_WORLD            Position angle (CCW/world-x)                               [deg]
#  10 FWHM_WORLD             FWHM assuming a gaussian core                              [deg]
#  11 ELONGATION             A_IMAGE/B_IMAGE                                           
#  12 ELLIPTICITY            1 - B_IMAGE/A_IMAGE                                       
         1 -12.2576    172.9576     61.3284   2.3582168184e+01   3.4350293278e+01     1.407976    0.9696141  29.65  0.005569455    2.609    0.617
         2 -12.8073    188.7854     47.5603   1.8414556766e+01   3.3055564274e+01    0.8988299    0.6956708 -44.65  0.003506041    1.283    0.221
         3 -12.9538    212.6905     22.3425   1.0875847314e+01   3.1528093194e+01    0.7530295    0.5007915  81.64  0.003846723    1.468    0.319
         4 -12.3746    217.4201     18.2320   9.7338290639e+00   3.1110931378e+01     1.433319    0.2128726 -38.78  0.005742071    3.861    0.741
         5 -12.9067    211.6607     16.6107   9.7757807414e+00   3.2373582823e+01    0.7041487    0.5634392   3.68    0.0042055    2.334    0.572
         6 -11.7417      5.7243      5.9324   6.3127352122e+01   7.7278140860e+01    0.6048129    0.4216239  46.92   0.00367356    1.825    0.452
         7  -9.6285     95.8579      6.8704   2.0282710345e+01   5.9391644113e+01    0.1882243    0.1556275  61.78 0.0003392619    1.144    0.126
         8  -9.6578    112.2825      5.0460   1.6684606888e+01   5.5601817434e+01    0.1724887    0.1525607 -81.52 0.0007345559    1.121    0.108
         9 -11.2906    119.1446      9.8593   1.7239698317e+01   5.3463511784e+01    0.6259962    0.3646791  51.32  0.003052618    1.826    0.452
        10  -8.9822    144.6562      6.6814   1.2982700767e+01   4.7726041360e+01    0.1219966   0.08655773  50.27 0.0001406214    1.721    0.419
        11 -10.7771     54.1251    206.1396   8.0833855186e+01   2.3907999425e+01    0.2625626    0.1926688  51.19 0.0005045066    1.262    0.207
        12 -13.3293    245.3287    236.2902   4.4330295548e+01  -3.0980658988e+00     1.959308    0.5781307 -37.03   0.01063621    2.733    0.634
        13  -8.7445     48.1589    209.1308   8.2714964346e+01   2.3879786772e+01    0.5313418    0.1862942  38.00  0.002144401    2.235    0.553
        14 -10.5994     37.1072    203.0386   8.5272817454e+01   2.6467753022e+01    0.2339841     0.213769 -42.74 0.0003854162    1.291    0.225
        15  -9.4484    192.0082    193.2685   4.6590728207e+01   8.4103992860e+00    0.4255888    0.2470333 -67.58  0.001675785    4.821    0.793
        16  -8.8318     82.0045    196.0277   7.2128137873e+01   2.2826204699e+01    0.2111984    0.1809807  36.00 0.0005089776    1.046    0.044
        17 -10.1480     66.7841    194.6879   7.6182285102e+01   2.5086387933e+01    0.3265325    0.2391998  52.28  0.001692123    1.322    0.244
        18 -14.5967     11.6698    208.4911   9.2539076079e+01   2.7542901269e+01    0.9314707    0.5313402  31.95  0.004922037    1.477    0.323
        19  -8.2447    181.3139    194.3261   4.8726476290e+01   9.5779091495e+00    0.1272313   0.08482674 -12.72 0.0007019644    1.667    0.400
        20  -8.7775     72.7218    189.5817   7.3923068553e+01   2.5543220634e+01    0.3119869     0.221552 -39.00  0.001116253    1.654    0.396
        21  -9.4254     71.2402    186.4787   7.3971140907e+01   2.6476486102e+01    0.6542825    0.4188671 -22.30   0.00289245    2.217    0.549
        22 -11.8360     59.5914    187.6553   7.7467239124e+01   2.7657528303e+01    0.5374866    0.4117633  47.72  0.002417573    1.203    0.169
        23  -9.2708     86.7085    187.7338   6.9781802636e+01   2.4107919129e+01    0.2175734    0.2016418 -74.82 0.0007836355    1.179    0.152
        24  -9.2665     23.7008    186.3546   8.7922124091e+01   3.1826776881e+01    0.2193924    0.1304014  72.06 0.0006128519    1.723    0.420
        25  -6.0989     77.4924    187.4725   7.2317540650e+01   2.5417110035e+01    0.2802386    0.1570675  57.06 0.0004338933    2.094    0.522
        26  -9.3778    181.7016    181.0873   4.6500071428e+01   1.1812124738e+01    0.2783169    0.1545749 -46.73  0.001022914    1.753    0.430
        27  -9.6077     19.8511    181.5932   8.8749659185e+01   3.3364683265e+01    0.1864766    0.1430741  46.23 0.0009410103    1.152    0.132
        28  -9.8256    221.2389    175.6660   3.8913655105e+01   7.6440251260e+00    0.2133344    0.1238235 -47.92  0.001271106    1.717    0.418
        29  -9.5798    180.2855    174.8743   4.5718523622e+01   1.3102699632e+01    0.2785706    0.1818518 -60.37  0.001471443    2.001    0.500
        30  -9.3134    179.1730    170.3524   4.5150126435e+01   1.4068455449e+01     0.276457    0.2028634  -3.34  0.001020491    1.594    0.373
        31  -8.6271     54.3940    175.4266   7.7658273061e+01   3.1321588672e+01    0.3576344    0.1700396  45.89 0.0009053129    1.989    0.497
        32  -9.6250     10.9420    174.7799   9.1034463998e+01   3.5830013459e+01    0.4482008    0.1759447  29.31  0.001873334    2.167    0.539
        33  -9.5774      1.4892    190.4501   9.4575612740e+01   3.2630138752e+01    0.1753381     0.102501  66.44  0.000889826    1.572    0.364
        34 -11.4866    231.0339    169.9429   3.6545035493e+01   7.3495216358e+00    0.4863218    0.1775937 -42.09  0.002448158    2.268    0.559
        35 -10.0660     73.3069    205.8755   7.5607444947e+01   2.1695371038e+01    0.2339442    0.1812537  73.90  0.001031945    1.459    0.314
        36 -11.1249    144.6444    168.7618   5.2042492649e+01   1.9586263366e+01    0.4557925    0.3027816 -59.42 0.0008873658    1.713    0.416
        37 -10.8561    136.5537    155.6895   5.1556828536e+01   2.3622256949e+01    0.4886633    0.3160705 -75.79  0.001386628    2.390    0.582
        38 -11.3313    133.8485    145.9710   5.0350593119e+01   2.6166303910e+01     1.122629    0.3500475 -57.80  0.003129038    4.873    0.795
        39 -10.6403    144.7668    147.3232   4.8051168629e+01   2.3983792667e+01     0.396271    0.2749701  80.33  0.001774572    2.352    0.575
        40 -10.7406    139.6587    146.2751   4.9025860707e+01   2.5087660287e+01    0.5500297    0.3506787  85.61  0.002077534    3.315    0.698
        41 -10.6151    125.0367    141.0085   5.1560379791e+01   2.8809891766e+01    0.2677308    0.2326709  66.73 0.0007173158    1.238    0.192
        42 -18.1757     22.4696    231.2749   9.0813414812e+01   2.1512990507e+01     8.221539     5.995216  25.23   0.02296935    1.250    0.200
        43  -8.3507     64.2037    205.5100   7.8027046344e+01   2.2882765158e+01    0.1410044   0.09020887  66.88 0.0006696669    1.802    0.445
        44 -10.4344    115.2346    127.7963   5.1410658175e+01   3.3570268669e+01    0.4111448    0.2798935  21.07 0.0008013893    1.894    0.472
        45  -9.5032    120.8960    122.6850   4.8785611962e+01   3.3644193854e+01    0.2964448    0.2559957 -26.14  0.001019938    1.334    0.250
        46 -16.2892     66.2723    141.0724   6.9077234702e+01   3.8597604489e+01     7.809649     4.294023  54.59   0.03128884    2.061    0.515
        47  -8.7414    110.6529    117.8504   5.0489894107e+01   3.6696495743e+01    0.2022768     0.184827 -72.05 0.0004618135    1.109    0.098
        48  -9.6945    104.7399    117.3517   5.2072751746e+01   3.7943463392e+01     0.364666    0.2714187  66.03  0.001721891    1.520    0.342
        49  -9.9687     93.9018    115.4378   5.4923809763e+01   4.0430472242e+01    0.4058286    0.2316382  62.62  0.001524683    2.441    0.590
        50 -11.0647    118.3533    110.5470   4.6694348398e+01   3.6807304321e+01    0.5387312    0.3907208  70.00  0.002104312    1.626    0.385
        51  -8.3970    107.8707    100.8847   4.7247671707e+01   4.1030430960e+01    0.2004572    0.1691044  78.22            0    1.256    0.204
        52  -9.4200     37.0393    199.5370   8.5028723374e+01   2.7307491731e+01    0.3907645    0.1275094  44.66   0.00146826    2.606    0.616
        53 -10.6194     61.7168    200.0739   7.8164716472e+01   2.4436872510e+01    0.2777154    0.2204439 -55.83  0.001153038    1.409    0.290
        54  -9.6875     75.1684    250.3965   7.9302040744e+01   1.2281676339e+01    0.1430521    0.1277582 -32.23 0.0009709455    1.346    0.257
        55  -8.6029     80.8726     85.1033   5.1689017169e+01   4.9916585480e+01    0.1909942    0.1754133   4.47  0.001018268    1.255    0.203
        56  -8.9104     78.3567    246.7188   7.8247339227e+01   1.2624932297e+01    0.3445545    0.1554634  43.02  0.001375971    1.969    0.492
        57  -8.2136     87.1517    205.7319   7.1920668724e+01   1.9977348505e+01     0.308635    0.2250978  26.23   0.00063014    1.232    0.188
        58 -12.0277    194.5696     42.1485   1.6601401199e+01   3.2614899435e+01    0.4812757    0.3876136 -28.91  0.001922146    1.573    0.364
        59  -8.0599    131.7884     67.9909   3.2488584583e+01   4.2320742036e+01    0.1715728    0.1116301 -44.74 0.0008303659    1.568    0.362
        60  -8.9058     49.9255     67.8106   5.9239517025e+01   5.9287605326e+01    0.3461803    0.1677272  40.45  0.001118172    1.946    0.486
        61  -9.5460    171.0198     51.6224   2.1522718495e+01   3.6197503367e+01    0.2161728    0.1535074 -58.97  0.000464697    1.256    0.204
        62  -8.9566    145.6621     47.3251   2.4186788333e+01   4.2459237330e+01    0.1453442   0.09215157 -73.97 0.0005324825    1.723    0.420
        63  -9.6217    141.5237     42.1310   2.3437022719e+01   4.4161763708e+01    0.2102354    0.1750441  56.39 0.0006708925    1.323    0.244
        64  -9.6503     51.6184    246.4088   8.4574483501e+01   1.5547577247e+01    0.1217143    0.1118238  37.50 0.0002316015    1.145    0.127
        65 -10.3511     68.4062    244.6356   8.0435220150e+01   1.4115867142e+01    0.1328673     0.119711 -41.78 0.0003930042    1.346    0.257
        66 -10.3996     72.7856    230.6704   7.8183663496e+01   1.6416362847e+01    0.3110196    0.1956449 -51.10   0.00118853    1.860    0.462
        67  -9.0415     53.1474    197.9185   8.0350270905e+01   2.5946913839e+01    0.2709281    0.2089546  16.88   0.00147164    1.310    0.237
        68  -8.8770     90.4669    202.0822   7.0610167122e+01   2.0348861552e+01    0.2378632    0.2103701  14.79  0.000500384    1.106    0.096
        69  -9.9009     58.8641    217.7221   8.0586498140e+01   2.0757245080e+01    0.1856587    0.1720458 -89.89 0.0003647618    1.208    0.172
        70  -9.3205    189.7686     15.6064   1.1113404916e+01   3.6821713848e+01     0.161895   0.09215631 -85.74 0.0007330229    1.588    0.370
        71  -7.1129     57.6879    212.0625   8.0400216147e+01   2.2151909432e+01    0.4144589    0.2760795 -66.82  0.002015303    1.676    0.403
