#   1 NUMBER                 Running object number                                     
#   2 MAG_AUTO               Kron-like elliptical aperture magnitude                    [mag]
#   3 X_IMAGE                Object position along x                                    [pixel]
#   4 Y_IMAGE                Object position along y                                    [pixel]
#   5 X_WORLD                Barycenter position along world x axis                     [deg]
#   6 Y_WORLD                Barycenter position along world y axis                     [deg]
#   7 A_WORLD                Profile RMS along major axis (world units)                 [deg]
#   8 B_WORLD                Profile RMS along minor axis (world units)                 [deg]
#   9 THETA_WORLD            Position angle (CCW/world-x)                               [deg]
#  10 FWHM_WORLD             FWHM assuming a gaussian core                              [deg]
#  11 ELONGATION             A_IMAGE/B_IMAGE                                           
#  12 ELLIPTICITY            1 - B_IMAGE/A_IMAGE                                       
         1 -12.9455    202.7635     35.7731   5.7079377377e+01   3.1115566714e+01     0.795867    0.7315053  50.51  0.005088498    1.283    0.220
         2 -13.6459    219.9982     18.6000   5.1170877411e+01   2.9345019379e+01    0.9622478     0.744416  52.03  0.006043885    1.522    0.343
         3 -11.3577      2.1847      4.8876   1.0116701684e+02   6.9996923750e+01    0.5345662   0.08367382 -43.55  0.002178002    5.063    0.802
         4 -10.3627     15.9889      3.7569   9.4780722024e+01   6.9052680911e+01     0.123926   0.07128862  19.40 0.0004715133    1.595    0.373
         5 -11.1318     53.9849    243.4862   1.3013747103e+02   1.7213887931e+01    0.2271079    0.1330619  84.93 0.0007612566    1.573    0.364
         6 -13.6580    141.2460    249.6540   1.1457357299e+02   2.5538302346e+00     1.605773    0.3832936  46.65  0.005385167    3.720    0.731
         7 -12.3015    100.7477    249.6381   1.2228414974e+02   9.2259314612e+00    0.8345205    0.3979312  77.97  0.003030281    4.330    0.769
         8 -11.0042     72.2407    250.4545   1.2755296792e+02   1.3348411635e+01    0.3563715    0.1094243  39.13  0.001466202    3.293    0.696
         9 -11.0815     63.0244    249.9178   1.2912341650e+02   1.4740556015e+01    0.3664885    0.1050151  46.11  0.001606559    2.817    0.645
        10 -14.1425     59.1661    213.4958   1.2628799025e+02   2.2761458639e+01     2.236605    0.5463426  53.85   0.00208575    5.912    0.831
        11 -15.4730     12.9758    157.2250   1.2976726558e+02   4.0369615487e+01     8.778826     3.686704 -89.96   0.03717893    3.154    0.683
        12 -11.0382    103.8956    237.8838   1.2032583528e+02   1.1008811471e+01    0.1850554    0.1762015  58.97 0.0008570681    1.271    0.213
        13 -13.0240     40.9084    205.1920   1.2900121681e+02   2.6864092814e+01    0.8133683    0.5876664 -57.60  0.002740342    1.546    0.353
        14 -12.8158     23.8792    221.9835   1.3363521540e+02   2.5209877226e+01    0.3866815    0.2649429 -80.32 0.0007810157    1.216    0.178
        15  -9.7913    223.3044    196.2734   8.9168206671e+01  -2.4149567193e+00    0.3066906    0.2171471 -75.78 0.0009774697    2.535    0.606
        16 -13.9740     30.2702    214.8203   1.3190167683e+02   2.6007102074e+01    0.8418216    0.6144162  84.61  0.002458788    1.057    0.054
        17 -12.2405    133.5753    231.8112   1.1363387294e+02   7.2204921098e+00    0.3776843    0.2894121  53.95  0.002173976    1.156    0.135
        18 -11.4033     53.5815    190.8706   1.2487012266e+02   2.8525149885e+01    0.2859769    0.2165003 -52.06  0.000549463    1.512    0.339
        19 -11.6224     60.4094    183.4042   1.2246771689e+02   2.9365823819e+01     0.264079    0.2314158 -57.96 0.0004918553    1.281    0.220
        20 -10.7723     71.6984    171.7325   1.1827212308e+02   3.0571586020e+01     0.241783    0.2135478 -71.46 0.0003772122    1.091    0.084
        21 -12.9587     57.9191    168.9978   1.2107200992e+02   3.3040388313e+01    0.5076016    0.2571783 -47.22  0.001686961    2.212    0.548
        22 -11.5598     79.8762    163.5916   1.1504523216e+02   3.1327326285e+01    0.5142751    0.4859281 -38.96  0.003127608    1.245    0.196
        23 -15.0223      7.3075    241.2132   1.3770880768e+02   2.3108057436e+01     4.813511      3.26522  51.26   0.03595139    1.492    0.330
        24  -9.7294     93.7542    148.6609   1.0892804563e+02   3.2738788166e+01    0.2747224    0.2380212  88.10 0.0008550584    1.176    0.150
        25 -12.1008     67.7920    143.8452   1.1467674105e+02   3.7694313366e+01    0.6492832    0.4469849  70.03  0.002815925    1.779    0.438
        26 -11.7061     82.2561    147.4551   1.1162874423e+02   3.4807408648e+01     0.308801    0.2364541 -48.17 0.0005528098    1.290    0.225
        27 -13.7545     10.0900    206.8623   1.3490412937e+02   2.9775905230e+01     1.073175    0.7592694  72.08  0.003318246    1.200    0.166
        28  -9.4953    107.2875    134.5279   1.0253449325e+02   3.3774082878e+01    0.3097863     0.166765 -40.79   0.00126203    2.027    0.507
        29 -10.0470     94.0498    131.7967   1.0543521891e+02   3.6653182709e+01    0.2465512    0.1923769 -46.32 0.0003890791    1.235    0.190
        30  -8.8789    105.0436    122.2620   1.0037716699e+02   3.6981780972e+01    0.1855585     0.181524  44.69 0.0002939948    1.075    0.070
        31 -10.0334    177.3082    243.6441   1.0664800989e+02  -2.6134243527e+00    0.1293006   0.09854647  72.63 0.0007042385    1.725    0.420
        32  -9.4367    167.7616    112.8922   8.2491503037e+01   2.6157043806e+01    0.2969833    0.2038649  81.96  0.001216457    2.108    0.526
        33 -10.5738    242.7526     92.9901   6.4030276912e+01   1.3122185250e+01    0.1911649    0.1087211 -43.10 0.0008963122    1.625    0.385
        34 -11.5323      2.0500     62.0166   1.1786452471e+02   6.1040456883e+01    0.3724498    0.1272633 -61.24  0.001809058    2.615    0.618
        35  -9.9881    229.5053    249.0441   9.7509498743e+01  -1.2006235336e+01    0.1681531     0.115939 -34.77    0.0006175    1.554    0.356
        36 -12.2022    114.7123    249.5929   1.1965452995e+02   6.9968646419e+00    0.5985634    0.1998788  37.36  0.002275385    3.260    0.693
        37  -9.9052     23.5283     28.5103   1.0068665305e+02   6.5156352650e+01    0.1754467   0.08829428  35.22  0.001035796    2.496    0.599
        38 -10.9458     84.3092    248.0237   1.2514398633e+02   1.2057345939e+01    0.1776769    0.1414817  81.32  0.001131923    1.097    0.088
