#   1 NUMBER                 Running object number                                     
#   2 MAG_AUTO               Kron-like elliptical aperture magnitude                    [mag]
#   3 X_IMAGE                Object position along x                                    [pixel]
#   4 Y_IMAGE                Object position along y                                    [pixel]
#   5 X_WORLD                Barycenter position along world x axis                     [deg]
#   6 Y_WORLD                Barycenter position along world y axis                     [deg]
#   7 A_WORLD                Profile RMS along major axis (world units)                 [deg]
#   8 B_WORLD                Profile RMS along minor axis (world units)                 [deg]
#   9 THETA_WORLD            Position angle (CCW/world-x)                               [deg]
#  10 FWHM_WORLD             FWHM assuming a gaussian core                              [deg]
#  11 ELONGATION             A_IMAGE/B_IMAGE                                           
#  12 ELLIPTICITY            1 - B_IMAGE/A_IMAGE                                       
         1 -14.1577      5.5591     76.0630   1.1462838197e+02   5.9775271880e+01     2.300753    0.7614921 -66.34    0.0103748    2.297    0.565
         2 -13.8256     24.4913     49.5683   1.0057106125e+02   6.4262368912e+01     1.254366    0.7726616 -24.89   0.00722267    1.597    0.374
         3 -15.6462     11.5367     24.8149   9.8210470540e+01   6.9958925611e+01     3.037101     1.344665 -37.42   0.01666642    1.782    0.439
         4 -14.5725     44.3865     42.2242   8.9322121115e+01   6.3664884488e+01     2.101656     1.252238 -30.96  0.009965479    1.521    0.343
         5 -14.3138     80.2397     69.6233   8.5176859157e+01   5.3161726259e+01     2.283072     1.376493  -6.42  0.008765602    2.977    0.664
         6 -13.6719     69.6059     56.1443   8.4374609032e+01   5.7554889690e+01     1.219071    0.7603335 -51.45  0.002739052    1.762    0.432
         7 -12.9110    138.3391      4.2251   4.5799195875e+01   4.9792688298e+01      1.37097    0.3780912  63.94   0.00494045    2.919    0.657
         8 -11.5680     73.3732      1.5371   5.9679018320e+01   6.4649865810e+01    0.3186401    0.1705664  56.00 0.0006297894    1.924    0.480
         9 -13.3330     83.3509     22.7119   6.6133012740e+01   6.0426696991e+01    0.8645851    0.5743482  48.06 0.0006339042    1.494    0.331
        10 -13.9880    120.2948     10.7843   5.1506712872e+01   5.3593863957e+01     1.830775    0.8822801  60.59   0.00833857    1.851    0.460
        11 -13.6438    104.4554      4.9796   5.2723213274e+01   5.7792655799e+01    0.9237338    0.6988518  44.95  0.005476435    1.135    0.119
        12 -14.0662     86.3004     11.8941   6.0474890947e+01   6.1069844960e+01     1.331802    0.5520025  54.30  0.002734081    2.304    0.566
        13 -14.0781     86.1091      3.7062   5.6875941306e+01   6.1894186347e+01     1.555707    0.5233399  57.15   0.00630972    2.780    0.640
        14 -12.0375    151.1328     21.1781   4.9317104638e+01   4.4946069709e+01    0.6134855    0.4459919  50.95  0.003173908    1.287    0.223
        15 -12.2861    176.1500     12.9106   4.3059565805e+01   3.9482233794e+01     1.228243    0.6246743  20.07  0.004293107    4.319    0.768
        16 -13.2410    185.8231     12.5259   4.1766474652e+01   3.7091083012e+01    0.7977323    0.6287032 -28.50  0.004380368    1.408    0.290
        17 -12.7007    192.9113      5.8940   3.9194594233e+01   3.6000832194e+01    0.5785179    0.4150271 -47.09  0.002700818    1.381    0.276
        18 -11.4188    188.2154      5.3500   3.9541218671e+01   3.7214054746e+01    0.3836237    0.2601812 -29.69  0.001670541    1.608    0.378
        19 -11.7688     64.6833     17.8441   7.0492548278e+01   6.4485052090e+01    0.4504143    0.2933298  23.31  0.001471697    1.468    0.319
        20 -12.7765     75.9221     13.5120   6.4480033370e+01   6.2955790774e+01    0.5755859    0.3759452 -25.15  0.001515277    1.543    0.352
        21 -15.4943     48.0081     75.6262   9.8653781005e+01   5.6431931742e+01     3.906526     2.371797  -7.94   0.01825487    2.360    0.576
        22 -11.8278    169.6556     10.6907   4.3253491706e+01   4.1344877724e+01    0.3327478    0.2762617 -75.24  0.001522139    1.197    0.164
        23 -12.2431    149.3749      8.5148   4.5473894545e+01   4.6665951728e+01    0.7211678    0.3674571  76.29  0.002784646    2.017    0.504
        24 -10.8174    155.9210     10.2984   4.5054817409e+01   4.4852336775e+01    0.3021474    0.2008873 -71.43  0.001068217    1.762    0.432
        25  -9.4648     66.6088      8.2204   6.5201556902e+01   6.5266069747e+01    0.1649345     0.106424  -6.77 0.0008529796    1.540    0.350
        26 -11.6617    167.9835      2.5283   4.1054910543e+01   4.2527937105e+01     0.322795    0.2796332  69.23   0.00199315    1.059    0.055
        27  -9.9344    211.9536      1.4954   3.6307630419e+01   3.1830701831e+01    0.1910046    0.1116711  78.00 0.0005653045    1.537    0.349
        28  -9.5169    158.0088      1.2043   4.1922488692e+01   4.5144192181e+01    0.1833573   0.09404441  69.91 0.0004797513    1.702    0.412
        29 -12.7977     68.8351     91.6625   9.5587347267e+01   5.0117055552e+01     0.647178     0.483267 -63.50  0.003373462    1.372    0.271
        30 -11.8290    122.4302     90.3115   7.8562177487e+01   4.0655511402e+01    0.4594165     0.361283  13.77   0.00214609    1.545    0.353
        31 -11.1632    249.2104     86.2292   5.2421483726e+01   1.2068996645e+01    0.3886175     0.278734 -48.47  0.002099448    1.255    0.203
        32 -10.1844    235.9782     87.1290   5.4431411158e+01   1.4700644345e+01    0.2639439    0.1802149 -38.14  0.001343396    1.309    0.236
        33 -11.7573    128.0032     82.1775   7.4572137743e+01   4.1094853740e+01    0.4698158    0.4164904  55.88  0.001216187    1.179    0.152
        34 -12.7026    121.2840     81.0656   7.6070867832e+01   4.2810350481e+01    0.7531435    0.5501027  25.86  0.002596948    1.581    0.367
        35 -11.3738    113.0589     82.0771   7.8733778796e+01   4.4367355695e+01    0.4092546    0.3034222  60.39 0.0009528666    1.596    0.373
        36 -12.5813    115.7161     76.4603   7.6196074949e+01   4.4937764777e+01    0.6635007    0.4844765 -35.61  0.002384431    1.356    0.263
        37 -12.4515    141.0158     95.4785   7.5129309521e+01   3.5420041953e+01    0.8028895    0.6859638 -78.21  0.003312731    1.372    0.271
        38 -12.1091    145.2537     76.4806   6.8410205242e+01   3.8170862391e+01    0.7430573     0.556686 -69.25  0.003344117    1.706    0.414
        39  -9.2478    152.4805     88.4712   7.0280328286e+01   3.4142856260e+01    0.1557698    0.1538422 -62.10 0.0008095819    1.019    0.019
        40  -9.8019    250.1313     73.6408   4.9414572411e+01   1.3827323843e+01     0.249725    0.1575832 -45.78  0.001008773    1.374    0.272
        41 -10.9373    152.3477     73.1688   6.5730094797e+01   3.7055690697e+01    0.3516832    0.2563238  50.40  0.001477639    1.360    0.265
        42 -12.0729    125.8118     72.6711   7.2167417720e+01   4.3439210259e+01    0.7927238    0.3890321  58.40   0.00286961    2.535    0.606
        43 -10.5747    170.9302     72.3772   6.1510918902e+01   3.2592591839e+01    0.4551408    0.2913862  75.10  0.001883458    1.983    0.496
        44  -9.4847    182.5846     71.7837   5.9089397799e+01   2.9790048284e+01    0.2012128    0.1376803 -47.24 0.0002450632    1.459    0.314
        45 -11.1354    115.8894     68.6945   7.3618575051e+01   4.6398191781e+01    0.3575705    0.2929167 -26.41  0.001089732    1.230    0.187
        46 -10.5447    118.5294     65.0299   7.1651037272e+01   4.6492756774e+01    0.2849416    0.2686586 -29.65 0.0005706564    1.067    0.063
        47 -10.1292    146.3129     66.9842   6.5197780778e+01   3.9627807678e+01    0.2158955    0.1988594 -30.36 0.0004886888    1.101    0.091
        48 -11.5400    135.2660     98.0938   7.7361890702e+01   3.6177591083e+01    0.5870692    0.3444297  36.93  0.001412631    1.882    0.469
        49 -11.0019    214.2847     61.0986   5.1045665000e+01   2.3753968921e+01    0.3992548    0.2916406 -35.49  0.001242256    1.332    0.249
        50  -9.5050    210.1817     61.8148   5.1819265031e+01   2.4624694111e+01    0.1988264    0.1794164 -48.89 0.0002871742    1.061    0.058
        51  -9.4531    166.0032     62.7913   5.9650520594e+01   3.5442850914e+01    0.2027582    0.1759987  36.27  0.000296122    1.223    0.183
        52  -9.7615    189.9024     59.3083   5.4289500222e+01   2.9987586071e+01    0.2031052    0.1833192  79.81 0.0004402534    1.092    0.084
        53 -11.7049    124.8376     57.3074   6.7323766862e+01   4.6408626180e+01     0.411097     0.278642  44.08   0.00072653    1.444    0.307
        54 -10.1559    227.1668     57.1343   4.8331198222e+01   2.1335428897e+01    0.1996535    0.1923204   0.26 0.0005286845    1.242    0.195
        55 -11.1838    174.6284     56.4492   5.6113936236e+01   3.4274911805e+01    0.2678874    0.2456947 -79.26 0.0004023235    1.092    0.085
        56 -10.6774    169.9934     62.9970   5.8926700924e+01   3.4405035064e+01    0.2770607    0.2099657  59.84 0.0004373375    1.306    0.234
        57  -9.8711    137.4670     55.5140   6.3562289019e+01   4.3707958904e+01    0.3762427    0.1547429  42.19   0.00129588    2.684    0.627
        58 -11.5075    132.9595     53.5790   6.3998717926e+01   4.5104685372e+01    0.4096394    0.2674113  50.96 0.0008766036    1.478    0.323
        59 -11.0172    153.0040     53.5104   5.9435204998e+01   4.0190106316e+01    0.4560695    0.2531681  43.72  0.001519981    1.876    0.467
        60 -10.9979    233.4877    154.0087   7.0270069286e+01   3.8968006240e+00    0.2186185    0.1863206  29.66  0.001266643    1.222    0.181
        61 -11.3881    145.3370     50.4514   6.0090517624e+01   4.2571568368e+01    0.3808454    0.3036785 -43.49 0.0008931511    1.307    0.235
        62 -11.0573     97.4675     50.5336   7.2761854012e+01   5.3517341372e+01    0.5215636    0.2631221  59.14  0.001842935    2.924    0.658
        63 -10.2353    100.5063     49.4959   7.1437240531e+01   5.3066493087e+01    0.2707728    0.2143214  32.18 0.0007277122    1.233    0.189
        64 -11.2437    137.4971     48.2543   6.1120350753e+01   4.4833796027e+01    0.4022838    0.2807558 -51.12   0.00105408    1.631    0.387
        65 -10.6526    139.9472     43.8221   5.9069571948e+01   4.4885100154e+01    0.4452248    0.2602206  64.46  0.001452681    1.809    0.447
        66  -9.4543    126.5707     48.5057   6.3835312605e+01   4.7419937297e+01    0.1468795    0.1380528  22.08  0.000280922    1.030    0.029
        67 -10.6888    175.6281     45.2501   5.2627713975e+01   3.5678708022e+01    0.4361245    0.3316066 -16.72  0.002185455    1.538    0.350
        68 -11.4877    157.0615     43.5681   5.5454752934e+01   4.0637259548e+01    0.3710946    0.2565963  55.94 0.0007447274    1.369    0.269
        69 -12.3237    122.0811     43.8332   6.3317943461e+01   4.9178370055e+01    0.3093639    0.2718107  -1.90 0.0007495898    1.172    0.147
        70 -10.4619    203.3594     43.7474   4.8016808226e+01   2.8927320508e+01    0.3292355    0.2483534  55.97  0.001356644    1.372    0.271
        71 -11.2641    196.7787     40.5619   4.8060610027e+01   3.0991251903e+01    0.4450542    0.2868378 -55.21   0.00151885    1.582    0.368
        72 -12.3209    217.5327     38.5653   4.4891935213e+01   2.6199126292e+01    0.5238869    0.3179372  54.26  0.002592501    1.766    0.434
        73 -11.9699    203.4401     38.4455   4.6598807474e+01   2.9626418919e+01    0.8894261    0.4280988  75.03  0.003680261    2.276    0.561
        74 -10.6741    181.6351     43.2479   5.1060782655e+01   3.4433043132e+01    0.2747014    0.2435357  73.11 0.0005112489    1.080    0.074
        75 -11.0350    159.8345     36.1630   5.2596516512e+01   4.0937672694e+01    0.2384041    0.2114183  60.10 0.0002826741    1.067    0.063
        76  -9.9905    129.9881     37.0221   5.8968702022e+01   4.8262677895e+01     0.208963    0.1988576  60.05 0.0003288208    1.076    0.070
        77  -9.6270    140.7490     34.8140   5.5841449668e+01   4.5918889923e+01    0.2498943    0.1345312  28.25 0.0009427276    2.710    0.631
        78 -10.4050     29.5157    153.5125   1.1821954658e+02   3.9683054056e+01    0.1283656    0.1042273 -86.80 0.0008103517    1.002    0.002
        79 -12.6946     80.5011     32.0756   7.1069117176e+01   5.9713953874e+01    0.8613101    0.5825301  47.78  0.003706767    1.568    0.362
        80 -10.8406     19.2669    153.4571   1.2073389355e+02   4.0628748781e+01     0.200734    0.1272576  19.65  0.001148611    2.117    0.528
        81  -9.7110    138.8484    152.1914   8.9890284740e+01   2.3353375445e+01    0.2128015    0.1862992  -5.02  0.001075231    1.338    0.252
        82 -11.7942     58.5646    144.1794   1.0943536802e+02   3.8736866023e+01    0.6333738      0.34196  54.68  0.002894109    2.084    0.520
        83 -12.6936     47.2352    142.1256   1.1219135613e+02   4.0590530668e+01    0.5289533    0.4479278  18.54  0.003207167    1.484    0.326
        84 -11.5339    246.3042    146.1352   6.6381658839e+01   2.8695555969e+00    0.3074598    0.2682512  84.76  0.001791008    1.654    0.395
        85 -11.0402    214.6419    142.9378   7.1230796559e+01   9.4632869609e+00    0.3926575    0.2546398  50.40  0.001851933    1.700    0.412
        86  -9.9282    240.6618     34.0761   4.1361517950e+01   2.1470627263e+01    0.1842506    0.1510514 -48.03 0.0007226605    1.129    0.114
        87 -10.9360    176.3023     33.4131   4.9024112163e+01   3.7094789753e+01    0.3091069    0.2421899  67.73 0.0006941965    1.201    0.167
        88 -10.2592     97.3782     33.6213   6.6285674061e+01   5.6132908962e+01    0.2662594    0.2136663  18.92 0.0007666406    1.207    0.171
        89 -10.6117    150.8964     31.7230   5.2806855097e+01   4.3770109939e+01    0.4560504    0.2600329  59.12  0.002076892    1.609    0.379
        90 -10.2202    216.1236     29.0367   4.2668008702e+01   2.7762119489e+01    0.2094283    0.1825823 -66.30  0.001253654    1.034    0.033
        91 -10.2015    104.7390     29.4322   6.2507901801e+01   5.5108103884e+01    0.2799603     0.170215  41.66 0.0007291377    1.534    0.348
        92 -10.0646    108.9636     27.9961   6.0806109869e+01   5.4348959604e+01    0.2933481    0.1833375  44.27 0.0009488689    1.469    0.319
        93  -9.9269    167.8937     27.9123   4.8685441916e+01   3.9915914504e+01     0.268405    0.1826678  73.39  0.001057659    1.426    0.299
        94 -11.5775    241.6843     22.6350   3.8682282125e+01   2.2674540263e+01     0.411363    0.2481586 -65.82  0.001063101    1.562    0.360
        95 -10.5009    235.7044     21.4233   3.8928189628e+01   2.4150824519e+01    0.2989592    0.1486777  80.92  0.001434052    2.070    0.517
        96 -11.6168     76.4879    137.0213   1.0327827480e+02   3.8052209497e+01    0.4632176      0.18314 -50.65  0.001752104    2.418    0.586
        97 -10.2272    139.3866     20.9342   5.1357204758e+01   4.7916177603e+01    0.2348246     0.184222  72.56 0.0006268984    1.266    0.210
        98 -11.0032    208.9604     19.1303   4.0946727727e+01   3.0667720430e+01    0.3449048    0.2526516 -61.29  0.001420705    1.275    0.216
        99 -10.8740     34.4796    135.8780   1.1479117628e+02   4.3452604990e+01    0.2690848    0.1650256  37.95  0.001449875    1.791    0.442
       100 -11.0416     82.5062    134.4533   1.0109787505e+02   3.7773997048e+01    0.3196704    0.1348988 -57.95  0.001222032    2.205    0.546
       101 -10.4697    248.0088    129.5029   6.2445277007e+01   5.2786506797e+00    0.1760966    0.1246631  86.13 0.0008104828    2.551    0.608
       102 -10.9159    122.1286    127.2484   8.8539662791e+01   3.2437516912e+01    0.3785737    0.3554833  48.77  0.001354072    1.083    0.076
       103 -11.4217    203.3009    124.8566   6.9130105628e+01   1.5195259595e+01    0.2943124    0.1881904  65.16   0.00124037    2.089    0.521
       104 -10.5110    194.4894    248.5232   9.5015999084e+01  -4.0666866180e+00    0.1218814   0.09490089  23.71 0.0001092258    1.024    0.023
       105  -8.9824    246.3166    183.3313   7.4126322568e+01  -2.9442333045e+00    0.1363848   0.08868309   0.26 0.0007046852    1.685    0.407
       106 -10.3271     34.3081    177.4532   1.1950349029e+02   3.3607323067e+01    0.2509677    0.1857242 -37.96  0.001489271    1.944    0.485
       107 -14.3313     96.5823     71.4632   8.0363161567e+01   4.9836034383e+01     1.574833     1.179646  16.28  0.004453635    1.544    0.352
       108 -11.0173    203.1384    172.4394   7.9918704486e+01   6.3960360940e+00    0.3297807     0.157951 -26.19  0.001233186    2.771    0.639
       109 -10.9006    114.2252     97.2920   8.2916717354e+01   4.0876810885e+01    0.3378352    0.2761532 -48.92 0.0005356385    1.202    0.168
       110 -11.0852    134.7611     92.5321   7.5887229883e+01   3.7458276678e+01    0.3840206    0.3056506 -46.67 0.0004225462    1.254    0.203
       111  -9.4817    185.3188    167.3155   8.2507484893e+01   1.0802005769e+01    0.1512013    0.1121761   2.91 0.0007039194    1.654    0.395
       112 -10.9420    188.5142     94.4447   6.4219377999e+01   2.4312149780e+01    0.3419944    0.2682756 -71.15  0.001059784    1.508    0.337
