#   1 NUMBER                 Running object number                                     
#   2 MAG_AUTO               Kron-like elliptical aperture magnitude                    [mag]
#   3 X_IMAGE                Object position along x                                    [pixel]
#   4 Y_IMAGE                Object position along y                                    [pixel]
#   5 X_WORLD                Barycenter position along world x axis                     [deg]
#   6 Y_WORLD                Barycenter position along world y axis                     [deg]
#   7 A_WORLD                Profile RMS along major axis (world units)                 [deg]
#   8 B_WORLD                Profile RMS along minor axis (world units)                 [deg]
#   9 THETA_WORLD            Position angle (CCW/world-x)                               [deg]
#  10 FWHM_WORLD             FWHM assuming a gaussian core                              [deg]
#  11 ELONGATION             A_IMAGE/B_IMAGE                                           
#  12 ELLIPTICITY            1 - B_IMAGE/A_IMAGE                                       
         1 -13.3277     65.2674     52.6976   6.2278172513e+01   5.7615235730e+01     1.286162     0.602888 -31.63  0.005583895    2.148    0.535
         2 -14.9893      6.4941     70.9427   8.7615427398e+01   5.9669390434e+01     1.286755    0.5734197 -59.62  0.006747185    1.552    0.356
         3 -12.1359    194.6452     23.2218   2.1881010009e+01   3.3265085927e+01    0.5874746    0.3352957 -25.33  0.002684941    1.761    0.432
         4 -13.6752    188.5925     25.3305   2.3323260675e+01   3.4569525648e+01     1.552136     0.590102 -51.99  0.004936608    3.779    0.735
         5 -13.8663    187.6765     11.1781   1.9139345496e+01   3.6305704621e+01     1.092178    0.6748069 -34.28  0.005397093    1.604    0.377
         6 -14.5670    166.3311     28.2712   2.7616580022e+01   3.9917486294e+01     1.246436    0.9693182  67.31  0.005295486    1.314    0.239
         7 -14.3549    122.1573     36.5270   3.9445699767e+01   4.9593933178e+01     1.304127    0.5671536  41.04  0.005046478    2.413    0.586
         8 -14.7519    146.8542     29.7544   3.1606524673e+01   4.4622473299e+01     1.658402    0.9238334  52.66  0.007391925    1.711    0.416
         9 -13.5889      2.8071     10.1332   7.0143166465e+01   7.1639439003e+01     0.688054    0.3584929 -45.66  0.004087219    1.547    0.354
        10 -13.4289      9.1559      3.1850   6.3622697013e+01   7.2198401170e+01     0.592237    0.4397065  42.55  0.003869345    2.430    0.589
        11 -15.9483     12.1279     22.2750   7.1053170637e+01   6.8928956549e+01     1.802279    0.8604788 -30.12  0.008182356    1.816    0.449
        12 -14.1333     24.7440     13.4494   6.1489424300e+01   6.9209352634e+01    0.7274736    0.2953229  28.96  0.003776684    2.843    0.648
        13 -14.5016    218.0385     11.9763   1.6053548912e+01   2.8625585663e+01     1.343907     1.055575   1.43  0.005994335    1.547    0.354
        14 -13.0173    120.8437     25.6693   3.5543314560e+01   5.1284497208e+01     0.711735    0.5044568  30.89  0.003206663    1.385    0.278
        15 -11.7697     36.4571     23.2768   6.1092302696e+01   6.6418007604e+01    0.3230241    0.1561337 -36.82   0.00172937    1.646    0.392
        16 -15.2766     98.9532     11.1744   3.4788520629e+01   5.7645808582e+01     1.563839    0.8683255  54.29  0.007501315    1.824    0.452
        17 -12.9881     85.6518     13.8231   3.9529793515e+01   6.0040303764e+01    0.5760956    0.3208119 -34.49  0.002528019    1.871    0.466
        18 -12.4965     70.1157     15.9431   4.5258413923e+01   6.2617715987e+01    0.3452565     0.283125 -41.51  0.001762184    1.583    0.368
        19 -12.3055     59.0512     15.9802   4.9042955956e+01   6.4414235108e+01    0.3331541    0.2740669   2.86  0.002202226    1.103    0.094
        20 -11.9752     46.8511     12.6403   5.1930079428e+01   6.6640590690e+01    0.2485324    0.2142906  18.42  0.001439706    1.358    0.264
        21 -14.1964     40.5964      4.2999   5.0113526271e+01   6.8544776636e+01    0.7251183     0.484888  23.16  0.004309949    1.453    0.312
        22 -11.4192     74.9479      8.1804   4.0047614798e+01   6.2645295056e+01    0.3997014    0.1601356 -16.08   0.00117973    2.639    0.621
        23 -10.8520     59.7466      7.3815   4.4580165229e+01   6.5340988225e+01    0.1760111   0.09830617  31.18 0.0009541366    1.741    0.426
        24 -12.7422    119.6391      3.1038   2.6800651508e+01   5.3814854704e+01    0.5281546    0.3150446  88.05  0.002334032    2.676    0.626
        25 -10.8185     66.9997      3.7482   4.0350906128e+01   6.4508712228e+01    0.1727477    0.1388406  15.77 0.0004496726    1.096    0.087
        26 -12.8520    153.0531      8.5708   2.3035118498e+01   4.5309020907e+01    0.3028259    0.2700149  47.25 0.0009020317    1.046    0.044
        27 -11.7551    169.0874      1.7619   1.8512858383e+01   4.1866873246e+01    0.3229468    0.1555463  60.99  0.001103565    1.841    0.457
        28 -11.5132     81.0405      1.4024   3.5036825976e+01   6.2154981020e+01    0.4367773   0.07891472  51.53  0.001484798    4.190    0.761
        29 -11.4719     61.3012      1.4609   4.1043925890e+01   6.5707432124e+01    0.2999589    0.1118418  48.57  0.001368525    2.766    0.639
        30 -12.8116    124.2216    166.5359   7.5456927270e+01   2.3222464989e+01    0.6196359    0.3578484 -65.79  0.002798637    2.036    0.509
        31 -13.1548    107.5424    246.1451   8.9348688223e+01   1.1388900589e+01    0.6570718    0.4197783 -87.07  0.004284325    1.846    0.458
        32 -13.6979     97.8002    238.9638   9.0235412466e+01   1.3928872574e+01      0.64966    0.4158784  49.12  0.004361746    1.317    0.241
        33 -14.2251     92.0109    230.7737   9.0393872110e+01   1.6113410315e+01    0.5296488     0.481564 -84.70  0.004116877    1.303    0.233
        34 -12.5009     51.2591    248.7007   9.8318765597e+01   1.8455672636e+01    0.3271087    0.2532233  81.98  0.002738743    1.188    0.158
        35 -12.8370     57.9025    246.4109   9.7166463788e+01   1.8022696656e+01    0.4591635    0.1770873  40.43  0.002562686    2.575    0.612
        36 -12.6663      2.8784    248.8098   1.0517854555e+02   2.3638318754e+01    0.3929529    0.1976817  82.95  0.002634289    1.469    0.319
        37 -13.6870      9.6043    245.4808   1.0411598386e+02   2.3524956133e+01    0.6241179    0.2876248  69.02  0.003504681    1.613    0.380
        38 -12.6137     22.5148    165.8556   9.6734707785e+01   3.7339872056e+01    0.2834817    0.1519811 -76.14  0.000556398    1.453    0.312
        39 -11.4173      1.9800    159.1328   1.0016794424e+02   4.0544768189e+01    0.2564556    0.1151128 -72.43  0.001515519    1.646    0.393
        40 -12.5917    164.1992    195.3861   7.2449993286e+01   1.0428969074e+01    0.3286995    0.2149293 -73.54  0.001530243    2.551    0.608
        41 -12.0110     76.9766    156.6939   8.4129650058e+01   3.2971916583e+01    0.3174787     0.264057  32.25  0.001254725    1.503    0.335
        42 -13.1392     73.5046    153.2228   8.4365797473e+01   3.4234844247e+01     0.568456    0.4780929  34.47  0.002922744    1.465    0.318
        43 -12.0939    212.5031    154.4931   5.4930250495e+01   8.0168147937e+00    0.1452164    0.1313481  -0.59 7.632589e-05    1.005    0.005
        44 -11.5460    103.3994    149.8953   7.7000656641e+01   3.0419621203e+01     0.344311    0.2273028 -37.54   0.00166044    1.861    0.463
        45 -12.4979      7.2467    146.4145   9.8006694834e+01   4.2863891945e+01    0.5914825    0.2407394 -64.97   0.00324942    1.871    0.466
        46 -12.4886    245.1569    148.1700   4.7721728767e+01   2.5611553128e+00    0.3484898    0.2439998 -33.30  0.001840482    1.350    0.259
        47 -12.4107     60.7973    147.0906   8.6304461640e+01   3.7300346872e+01    0.3437625    0.2875728   2.98  0.001741462    1.810    0.447
        48 -11.3015    110.2869    153.8630   7.6181797688e+01   2.8377211573e+01    0.2324061    0.1717345 -76.23  0.001203644    1.443    0.307
        49 -12.7236    246.6451    135.6329   4.4551537883e+01   4.1920713777e+00    0.3603718    0.2824182  81.31  0.001827311    2.062    0.515
        50 -12.1302     45.2357    133.2967   8.7858447655e+01   4.2287609550e+01    0.4363714    0.2437344 -79.17  0.002247661    1.730    0.422
        51 -12.6742     84.5157    114.8422   7.4409586996e+01   4.1445880102e+01    0.7061478    0.4537007  24.82   0.00336322    2.113    0.527
        52 -11.8351     77.9651    109.8277   7.5008789477e+01   4.3581048989e+01    0.4760898    0.3144663  72.21  0.002208063    2.236    0.553
        53 -13.7642    107.9605    122.9235   7.0262277238e+01   3.5705125981e+01    0.8768528    0.7884831  58.10  0.004915521    1.197    0.165
        54 -13.1945    111.8574    116.7005   6.7793332085e+01   3.6398433691e+01    0.5462126    0.3436227  40.50  0.002208371    1.749    0.428
        55 -14.2323    106.3341    106.0346   6.6500916037e+01   3.9789948707e+01      2.13502     1.062113 -36.31   0.00827167    2.263    0.558
        56 -11.3063    135.0181    125.4951   6.4310256069e+01   2.9966131071e+01    0.2295978    0.1512762  44.95  0.001035065    1.596    0.374
        57 -12.0404      4.3335    119.4467   9.5817828219e+01   4.9037109142e+01    0.3941288    0.1287263  24.61  0.001873593    4.122    0.757
        58 -12.5042     42.4258     90.5423   8.0687275342e+01   5.2422849163e+01    0.3280202    0.2140782 -60.01 0.0001960869    1.237    0.192
        59 -12.5875     19.9523     85.8134   8.6422022075e+01   5.5490022767e+01    0.4887809    0.2778598 -16.73  0.001670657    2.792    0.642
        60 -14.4171     24.8931     93.5640   8.6468401591e+01   5.3357784290e+01     1.060579    0.8936775 -20.53  0.007324986    1.487    0.328
        61 -12.3415     36.8101     92.8482   8.2850742253e+01   5.2459075644e+01    0.3335778    0.2426214  -9.72  0.001344299    1.911    0.477
        62 -14.8736     15.7959    107.7376   9.1378618540e+01   5.0857310480e+01     1.354646    0.7979387  85.61     0.007231    1.893    0.472
        63 -11.1458    121.9362    112.1083   6.4099063459e+01   3.5497783681e+01    0.2310778     0.214041 -36.68 0.0005123361    1.057    0.054
        64 -11.7410     62.9757    110.7583   7.9264464252e+01   4.5418493292e+01     0.285505     0.211468  66.70  0.001575637    1.647    0.393
        65 -10.6304     46.3343    110.3144   8.3670283667e+01   4.7482018286e+01    0.1321236   0.08610084 -39.74 0.0007046388    1.687    0.407
        66 -11.0410     42.7022    106.7142   8.3969572835e+01   4.8697892199e+01    0.2137411    0.1224696  16.17  0.001058247    2.706    0.630
        67 -13.5511      2.4294     97.3256   9.3408600386e+01   5.4100271581e+01    0.7568097    0.2287632 -71.86  0.003219046    2.614    0.617
        68 -11.9178    136.4400    102.8344   5.8007987683e+01   3.4511955387e+01    0.5282845    0.2494954  48.99  0.001711955    2.294    0.564
        69 -13.3558     95.5879    110.4477   7.0450715653e+01   4.0673836129e+01    0.8903551    0.6921553 -73.48  0.004615797    1.418    0.295
        70 -12.1886     52.4539     97.7163   7.9363963707e+01   4.9699233765e+01    0.3885225    0.2442258 -19.31  0.001614759    2.507    0.601
        71 -11.8330     46.4754     98.5153   8.1253454832e+01   5.0183191339e+01    0.2556415    0.2183947 -65.63  0.001180974    1.086    0.079
        72 -11.9435     60.7705     97.4862   7.6920986070e+01   4.8749639668e+01    0.3559775    0.2619077  74.26  0.001910311    1.830    0.454
        73 -11.1339     90.1233     97.6826   6.8660504929e+01   4.4453074135e+01    0.2635226    0.1851061 -58.48 0.0008988773    1.385    0.278
        74 -12.2318    136.0024     94.7559   5.5791364821e+01   3.6279412920e+01     0.382504    0.2925119  49.55  0.001830146    1.410    0.291
        75 -12.2882     49.0092     93.4302   7.9395594701e+01   5.1064892661e+01    0.3534538    0.2592323 -75.36  0.002031134    1.422    0.297
        76 -10.5449     81.3342     93.3276   6.9967999124e+01   4.6818093676e+01      0.14657    0.1035809 -23.63 0.0007051746    1.720    0.418
        77 -11.6380     35.2549     86.5311   8.1944273348e+01   5.4031390940e+01    0.2415141    0.1920011 -38.21 0.0007585943    1.270    0.212
        78 -12.1327    188.3219     84.1300   4.1247573016e+01   2.5999854404e+01      0.58951    0.2141126  43.76  0.001841466    3.183    0.686
        79 -13.3546    163.8439     71.5776   4.2296069042e+01   3.4203291959e+01     1.372612    0.5551326  49.62  0.004795746    2.501    0.600
        80 -13.7783    169.4258     76.9029   4.2803392090e+01   3.1907373868e+01     1.205331      0.48125  47.85  0.004139297    2.575    0.612
        81 -11.6814    158.4498     83.4845   4.7164996297e+01   3.3367291695e+01    0.3117314    0.2857397  70.81 0.0007624178    1.223    0.183
        82 -12.7044    161.2683     80.0635   4.5497185735e+01   3.3323008781e+01    0.5949196    0.4001268  27.42  0.002070413    1.834    0.455
        83 -13.4177     28.3870    246.1451   1.0150355638e+02   2.1474276125e+01    0.3854153     0.232141  73.23  0.003010428    1.198    0.165
        84 -13.5313     54.3847     67.7305   7.0919480038e+01   5.6071118012e+01     1.507257    0.7421143  32.89  0.007263648    2.447    0.591
        85 -12.9510     54.6513     81.8229   7.4834184571e+01   5.3013046070e+01    0.5473959    0.3497701 -57.89  0.002936887    1.374    0.272
        86 -12.2342     77.1828     73.0819   6.5319825676e+01   5.1817082820e+01    0.5419694    0.2825211 -31.11  0.001778758    2.161    0.537
        87 -14.0126     61.3856     75.5982   7.1001748972e+01   5.3524894417e+01    0.6685707    0.4480646 -30.16  0.001331278    1.533    0.348
        88 -13.2321     70.9463     75.0663   6.7855315235e+01   5.2328568935e+01    0.6105415    0.4208609  -4.46  0.002110257    2.017    0.504
        89 -12.5450    212.6558     78.2934   3.5290953558e+01   2.1032321572e+01    0.7950166    0.4731866 -82.38  0.002750667    3.352    0.702
        90 -12.3957    135.6734     79.6812   5.1263222613e+01   3.9347276068e+01    0.6111271     0.337822  46.49  0.002163366    1.910    0.476
        91 -11.7204    114.2018     79.5916   5.6735014317e+01   4.3916727695e+01    0.3972163    0.2997271 -49.61  0.001640647    1.330    0.248
        92 -12.3190    237.5419     80.1349   3.1992958984e+01   1.4881030115e+01    0.3429255    0.1810127  65.00  0.001423207    2.315    0.568
        93 -11.4360     41.6185     76.1882   7.7461839328e+01   5.5696241923e+01    0.2393474    0.1553054 -61.53 0.0007225409    1.387    0.279
        94 -13.7848    171.3482    242.5923   7.8336323331e+01   2.0329308872e+00    0.6880397     0.444884  31.43  0.004309165    1.477    0.323
        95 -13.8262      4.5286     63.6035   8.6695902553e+01   6.1356056532e+01    0.4988465    0.4151056  87.03  0.003647752    1.482    0.325
        96 -11.4892    117.8430     72.2628   5.3388336404e+01   4.4610136380e+01    0.2481959    0.2276409 -28.63 0.0004822583    1.031    0.030
        97 -13.1583    199.5754     69.5560   3.4954773900e+01   2.5650119558e+01    0.7705469    0.4283215  50.00  0.002938987    1.869    0.465
        98 -11.5408    158.5186     64.0073   4.0980914325e+01   3.6790875772e+01    0.4229428    0.2224703 -53.42  0.001513924    2.572    0.611
        99 -12.3296    134.6235     66.2578   4.7125924181e+01   4.2064579562e+01     0.547177    0.3278914  45.09  0.001959501    1.738    0.425
       100 -11.1896    100.0468     65.0702   5.5855873940e+01   4.9501824343e+01    0.2202386    0.1810643 -70.97  0.001119916    1.646    0.393
       101 -12.2804     31.3939     62.2755   7.7095271139e+01   5.9659319822e+01    0.5398445    0.2524476 -61.17  0.002593377    2.055    0.513
       102 -11.8828     24.9373     59.2795   7.8512158106e+01   6.0845024110e+01    0.4725535    0.2380942 -51.11  0.001952616    1.459    0.315
       103 -12.5232     79.1505     60.6183   6.0584006872e+01   5.3999960106e+01    0.4755552    0.3837181 -22.45  0.002102935    1.135    0.119
       104 -13.0598     82.2509     54.2945   5.7352150451e+01   5.4674033645e+01    0.5792304    0.4217763  10.45  0.002194639    1.588    0.370
       105 -11.8680    200.1325     61.1705   3.2397659463e+01   2.6817491927e+01    0.2382663    0.2076889  19.69 0.0008372461    1.256    0.204
       106 -13.4637    177.8460     57.1171   3.4981971498e+01   3.3064958127e+01    0.9258507    0.6012954 -43.59  0.003432451    1.551    0.355
       107 -13.3824     91.7440     57.8008   5.5725151000e+01   5.2382987425e+01    0.5339332     0.446353 -29.72   0.00282946    1.060    0.057
       108 -14.5573    120.1836     54.3091   4.6555768104e+01   4.7327920827e+01    0.9379938    0.6415877  30.83  0.002603126    1.592    0.372
       109 -11.5229     17.4635     55.7492   8.0201705778e+01   6.2159849756e+01    0.3348932    0.1407693 -54.64  0.001705174    1.721    0.419
       110 -13.4186     87.4962     65.0596   5.9545953351e+01   5.1757848007e+01    0.9846135    0.6055696   4.10  0.003996348    2.794    0.642
       111 -13.7252    103.1325     50.2846   4.9652483880e+01   5.1543464325e+01     1.022794    0.5575272 -51.12  0.002636624    2.445    0.591
       112 -13.0413     98.0105     50.0269   5.1015142336e+01   5.2585865067e+01    0.5349151    0.3552765 -45.31  0.001768327    1.600    0.375
       113 -11.9966     37.0033     53.5049   7.2448064376e+01   6.0913310268e+01    0.2375408    0.1664187 -19.99   0.00139612    1.490    0.329
       114 -11.7420    136.3477     49.5267   4.0913815488e+01   4.4437645479e+01    0.2859768    0.2476554  10.35 0.0006531411    1.153    0.133
       115 -10.7151     23.6050     50.1466   7.6303172484e+01   6.2816914907e+01    0.1756471   0.08156563 -45.17 0.0005070936    1.591    0.371
       116 -12.9910    157.2253     44.3753   3.4693215684e+01   4.0132165275e+01    0.9096069    0.5042861  31.71  0.003572511    2.267    0.559
       117 -12.8740      4.0400     43.1478   8.1686407723e+01   6.5590045081e+01    0.4295227    0.3064944 -21.40  0.003049763    1.471    0.320
       118 -12.1495     11.5696     43.4523   7.8831455251e+01   6.5053472514e+01     0.371984     0.199932 -17.81  0.002082498    2.308    0.567
       119 -14.0743    212.5256     41.1346   2.4762659379e+01   2.6552902508e+01     2.159173    0.7557655  73.86  0.006444531    4.319    0.768
       120 -12.1408    147.5864    238.8146   8.1868195392e+01   6.3694732368e+00    0.1447303    0.1089356 -73.37 0.0009512071    1.695    0.410
       121 -12.5153     24.7690    216.9559   1.0030948959e+02   2.6931636666e+01    0.4337474    0.2287013  75.53  0.002877794    1.562    0.360
       122 -11.4203     13.7131    222.4536   1.0235804252e+02   2.7059808457e+01    0.2990867     0.125579  80.36  0.001430784    2.142    0.533
       123 -14.3062     26.3908    226.4371   1.0065383311e+02   2.5051082633e+01    0.8006727    0.3378599 -57.40  0.004514505    3.174    0.685
       124 -12.4401    109.8143     41.8920   4.4626978782e+01   5.1511156867e+01    0.5401049    0.2353735  43.85    0.0015612    2.341    0.573
       125 -13.8807     20.6157    224.0376   1.0139563048e+02   2.6081316146e+01    0.4658339    0.3370508  88.44  0.002302522    1.167    0.143
       126 -13.9033     64.9492    223.1511   9.4221558653e+01   2.1116455618e+01    0.7606435    0.5055004  56.14  0.005288266    1.272    0.214
       127 -12.3447     75.9815     37.0203   5.2634432602e+01   5.8666251884e+01    0.3770668     0.250922  36.68  0.001121892    1.620    0.383
       128 -11.4068     70.6774     36.0152   5.3966401917e+01   5.9693080957e+01    0.2251683    0.2158503 -14.44 0.0006435525    1.307    0.235
       129 -12.6338    242.1180     35.8605   1.9857625896e+01   2.0082425032e+01    0.5569965    0.2861702  71.26  0.002019301    2.125    0.529
       130 -13.2412    132.2510     32.6371   3.5662145461e+01   4.7783558359e+01     0.631641    0.5187498  10.51  0.001938047    1.207    0.172
       131 -11.2190     34.9713     34.7022   6.6489499123e+01   6.4667048503e+01    0.1928539    0.1451865  -0.23 0.0006283607    1.391    0.281
       132 -12.8818     44.7429     33.2100   6.2094765807e+01   6.3811519799e+01    0.6135117    0.4646572  30.61  0.003927939    1.586    0.370
       133 -13.1111     59.4840    212.5318   9.4210376043e+01   2.3761217504e+01    0.4356722    0.3617899 -14.68  0.002687653    2.453    0.592
       134 -13.8853     64.5413    214.2447   9.3493538118e+01   2.2796972698e+01    0.4713057    0.3283115  77.15  0.002707032    1.196    0.164
       135 -12.8040     94.2410    218.2895   8.8711532463e+01   1.7969304069e+01    0.2575738    0.1750983  59.82  0.001279972    1.258    0.205
       136 -12.3274      4.3273    211.7704   1.0321150814e+02   2.9893563603e+01    0.3915367    0.1674424 -82.15  0.002489114    1.828    0.453
       137 -13.5008    216.4822     28.0472   2.0600615345e+01   2.7212367165e+01     0.526798    0.2507921 -42.66  0.002247106    1.976    0.494
       138 -10.9862    136.6150    210.8422   8.0088346653e+01   1.2611326453e+01     0.165686     0.115399 -70.08 0.0009456759    1.715    0.417
       139 -12.1469     63.4717     24.9731   5.1658002187e+01   6.2500873680e+01     0.443722    0.2755575   0.39  0.002053527    1.824    0.452
       140 -12.1362     72.4921    207.0719   9.1395221589e+01   2.3102517594e+01    0.2965097    0.2086337 -86.98  0.001956772    1.275    0.216
       141 -11.7184     30.9269     25.2571   6.4229035748e+01   6.6707368368e+01    0.3130327    0.1715594   8.63  0.001661811    2.396    0.583
       142 -12.5868     41.4501    206.3156   9.6780650522e+01   2.7106538367e+01    0.2315639     0.143804  78.78  0.001545326    1.337    0.252
       143 -12.0877     46.4217     20.2980   5.5776449183e+01   6.5636168083e+01    0.3524644     0.249152  13.99  0.002167235    1.422    0.297
       144 -12.5221     57.6334    202.6164   9.3618762253e+01   2.5889758262e+01    0.5918517    0.2349746 -76.02  0.002852906    2.610    0.617
       145 -13.1231     16.9186    195.5897   1.0016634626e+02   3.1779689633e+01    0.6494582    0.1362004 -63.42  0.002809491    3.879    0.742
       146 -13.4542     40.6535    195.1171   9.5975515274e+01   2.9387817375e+01    0.4406686    0.2241291  86.07  0.002475489    1.921    0.479
       147 -11.4052    250.4754    199.9771   5.7775043749e+01  -5.5316037418e+00    0.1584935    0.1016373 -48.40 0.0008100023    2.550    0.608
       148 -11.1799     51.5004     20.3584   5.3870504223e+01   6.4933634252e+01    0.2125978    0.1561491  31.89 0.0007851382    1.525    0.344
       149 -13.5746     30.1119    169.2654   9.5564508257e+01   3.5865419943e+01    0.7858151    0.4590677 -43.74   0.00435663    2.621    0.618
       150 -13.3833    139.8453     21.3182   2.9892564816e+01   4.7306171137e+01    0.9241853    0.3179196  58.36  0.002599092    2.675    0.626
       151 -13.9396     22.0489    181.0682   9.8157346162e+01   3.4195777193e+01    0.7840065    0.3136424 -60.91  0.004220133    2.333    0.571
       152 -15.0651      8.2718    183.2257   1.0080058104e+02   3.5040042344e+01    0.9203187    0.8216673 -57.95  0.007581904    1.636    0.389
       153 -15.4876     11.2765    175.1426   9.9665277353e+01   3.6421194752e+01     1.336725    0.8689823  76.35  0.009435477    1.253    0.202
       154 -11.9160    201.0551    191.8249   6.4856612019e+01   4.2095258432e+00    0.2388545    0.1951891  -5.85  0.001164627    1.255    0.203
       155 -11.6637     97.6582    187.6834   8.4314726867e+01   2.3288661186e+01    0.1172601    0.1021313 -18.89  0.000704861    1.711    0.416
       156 -11.7896    155.6034    185.1881   7.2341520182e+01   1.3816361372e+01    0.1884189    0.1270836 -34.99 0.0009565169    1.721    0.419
       157 -11.8889     49.0174    181.6718   9.3134261443e+01   3.1167670098e+01     0.311508     0.181294 -62.38  0.001854789    1.624    0.384
       158 -13.2495     55.5323     26.9729   5.5382780426e+01   6.3388259317e+01    0.5583563    0.3664475  37.58  0.002640817    1.762    0.432
       159 -12.4356    198.6185    181.4016   6.3282974842e+01   6.3099281576e+00    0.2776048    0.2635708  39.44  0.001643568    1.161    0.139
