#   1 NUMBER                 Running object number                                     
#   2 MAG_AUTO               Kron-like elliptical aperture magnitude                    [mag]
#   3 X_IMAGE                Object position along x                                    [pixel]
#   4 Y_IMAGE                Object position along y                                    [pixel]
#   5 X_WORLD                Barycenter position along world x axis                     [deg]
#   6 Y_WORLD                Barycenter position along world y axis                     [deg]
#   7 A_WORLD                Profile RMS along major axis (world units)                 [deg]
#   8 B_WORLD                Profile RMS along minor axis (world units)                 [deg]
#   9 THETA_WORLD            Position angle (CCW/world-x)                               [deg]
#  10 FWHM_WORLD             FWHM assuming a gaussian core                              [deg]
#  11 ELONGATION             A_IMAGE/B_IMAGE                                           
#  12 ELLIPTICITY            1 - B_IMAGE/A_IMAGE                                       
         1 -14.8587     70.0127    146.1852   8.7249243706e+01   3.7150210719e+01     3.378089     1.840274 -82.76   0.01147148    3.333    0.700
         2 -12.8234    185.0637     58.5338   3.5883324488e+01   3.1910970566e+01     1.585237    0.9067336  35.89  0.005663029    2.678    0.627
         3 -12.9865    206.9945     40.9396   2.9314903434e+01   2.9632389950e+01    0.6594855    0.6093177  68.95  0.001078277    1.250    0.200
         4 -13.1338    232.5800     18.9657   2.2829698247e+01   2.7215364207e+01    0.6238281    0.5592802  67.40  0.004375196    1.426    0.299
         5 -11.0021     58.4956      8.9869   4.8246029604e+01   6.6116334239e+01     0.233816    0.1647308  58.29 0.0008105406    1.530    0.347
         6 -12.5089    229.1673     14.2136   2.2176526355e+01   2.8325566043e+01    0.5442835     0.349127  43.74  0.002938246    2.496    0.599
         7  -9.0961     93.5628    243.9631   9.4656939571e+01   1.1320419188e+01    0.1721914    0.1318346 -60.25 0.0009751717    1.563    0.360
         8 -10.9384    150.4268    248.9471   8.2054857308e+01   3.2233007974e+00     0.265227    0.2337927 -24.97  0.001141812    1.311    0.237
         9 -11.6906    139.4513    248.6510   8.4486692456e+01   4.6554161520e+00    0.3970213     0.325542  87.30  0.002317915    2.120    0.528
        10  -9.6356     80.5308    250.0273   9.8376748378e+01   1.1715949662e+01    0.3989035    0.2061875  64.31  0.001700883    3.205    0.688
        11 -10.0507     74.7048    249.7977   9.9717006922e+01   1.2440218536e+01    0.2686179    0.1671922 -54.47  0.001111539    1.858    0.462
        12 -10.0075     76.0000    244.9600   9.8948453914e+01   1.3239417185e+01    0.3429204    0.1897147 -71.39  0.001277526    2.281    0.562
        13 -18.3902      8.8955    236.7294   1.1384963852e+02   2.1688479717e+01     10.60695     4.957061 -76.88    0.0258766    2.168    0.539
        14  -8.7911     68.2427    230.4133   9.9386536590e+01   1.7134928570e+01    0.1308754    0.0929165 -31.25   0.00044964    1.710    0.415
        15  -9.2430     90.1152    229.5253   9.3837273061e+01   1.4658803346e+01    0.2046832    0.1183714  27.10 0.0003759708    1.502    0.334
        16  -9.0178     84.7680    227.9695   9.4993745964e+01   1.5657093544e+01     0.173841    0.1652621  18.70 0.0003977611    1.088    0.081
        17  -9.7780    167.4658    224.0058   7.4468430980e+01   5.3364324311e+00    0.1889586    0.1246309 -38.87 0.0004666789    1.560    0.359
        18 -10.1704    142.1940    216.6064   7.9113503450e+01   1.0206275194e+01    0.2142222     0.187074 -46.74 0.0006106415    1.370    0.270
        19  -9.0211     73.5494    205.4898   9.5220231043e+01   2.2033972221e+01    0.2075809    0.1250845 -48.12 0.0006730105    1.774    0.436
        20  -9.7306     72.6187    201.7864   9.5009651700e+01   2.3011813092e+01    0.3588873    0.2577696 -20.16  0.001392945    1.663    0.399
        21  -8.6496    167.7846    205.0428   7.1184236633e+01   8.7512873076e+00    0.1690227    0.1068903 -41.38 0.0003692543    1.602    0.376
        22 -10.5748     83.3421    195.4938   9.1202000297e+01   2.3106479671e+01    0.4166806    0.3612795   9.53   0.00146578    1.123    0.110
        23 -10.5531     89.8570    201.6369   9.0280816844e+01   2.0801577069e+01    0.2854686    0.2569363 -65.03 0.0004326873    1.246    0.197
        24 -10.4593     85.3054    201.9999   9.1570411721e+01   2.1328565834e+01     0.357369    0.2595794  54.50 0.0007138533    1.550    0.355
        25  -8.4959     67.3032    202.2713   9.6523865354e+01   2.3550069772e+01    0.1370619    0.1039146 -18.89 0.0002212162    1.534    0.348
        26 -10.5988    192.3282    193.7526   6.3850792052e+01   7.2904019835e+00     0.667927    0.3446611 -60.16  0.002143019    5.513    0.819
        27 -11.8179    110.2321    197.9030   8.4213524468e+01   1.8768667921e+01    0.4283596    0.2656177  33.33  0.002002751    1.486    0.327
        28 -11.8919    117.5775    192.2793   8.1323458929e+01   1.8927293714e+01    0.4314178    0.2988727 -76.53  0.001925683    2.209    0.547
        29 -10.3439    164.1802    195.8421   7.0355263107e+01   1.1036746183e+01    0.2019264    0.1510226  -9.45 0.0008741157    1.292    0.226
        30 -15.2054     10.2760    206.4109   1.1190985096e+02   2.8203549269e+01    0.7827705    0.5015239  -0.15   0.00348011    1.972    0.493
        31 -10.4669    109.0193    189.4743   8.3160053936e+01   2.0853122522e+01    0.4192708    0.2162836 -13.54  0.001217605    4.565    0.781
        32  -9.1736     79.0797    189.9065   9.1604088690e+01   2.5001912788e+01    0.2208213    0.1862134  51.35 0.0004439232    1.248    0.199
        33  -9.1292     71.9141    186.3340   9.3151232002e+01   2.6798012529e+01    0.1982795    0.1763277  10.06 0.0006148007    1.108    0.098
        34 -11.4557    115.2303    183.3592   8.0407305015e+01   2.1299581802e+01     0.319603    0.2595279 -20.21   0.00118004    1.259    0.206
        35 -11.7884     73.8133    178.3344   9.1434191467e+01   2.8518869452e+01    0.7649321    0.5919969 -84.62  0.001375025    1.542    0.351
        36 -10.1203     73.1969    174.1901   9.0987418123e+01   2.9629607553e+01    0.2958212    0.2012865  28.98 0.0002335581    1.403    0.287
        37 -11.5241     98.8738    180.4115   8.4462191356e+01   2.4485837835e+01    0.4609365    0.3510711 -70.59  0.001393842    1.592    0.372
        38 -12.5431     59.3699    176.9076   9.5538381187e+01   3.0676185066e+01    0.9647971    0.7129208 -13.13   0.00406648    1.569    0.363
        39 -10.4289    121.0698    181.0489   7.8405144343e+01   2.0904560448e+01    0.2367847    0.1863005  63.75  0.001135456    1.724    0.420
        40 -10.5490    127.2618    179.1565   7.6395671476e+01   2.0335496523e+01    0.3400276     0.134286 -53.32  0.001190442    2.804    0.643
        41 -10.4214    181.1311    178.8634   6.3377392789e+01   1.1689057194e+01    0.2936859    0.1997163 -44.90  0.001155844    1.529    0.346
        42 -11.2858     86.0745    171.4684   8.6680197989e+01   2.8528687448e+01    0.6135876    0.3883861 -32.34  0.001940053    1.807    0.446
        43 -12.4103    103.2774    171.9706   8.1711774408e+01   2.5822945814e+01    0.7631004    0.3976716  34.00  0.002827666    1.807    0.447
        44 -12.6169     92.0341    163.3521   8.3451284450e+01   2.9643467857e+01     1.150381    0.7246917  37.72  0.002029025    1.557    0.358
        45 -12.6225     73.1516    163.5302   8.9292473616e+01   3.2313227995e+01     1.016814    0.5890172 -26.62  0.002702605    2.269    0.559
        46 -11.7665    125.4650    246.3434   8.7399570627e+01   6.8443279607e+00    0.4785317    0.3250092 -57.10  0.001801137    1.884    0.469
        47  -9.9002     71.8886    241.4955   9.9591889659e+01   1.4412978464e+01    0.2542806    0.1870324 -75.02  0.001492686    1.626    0.385
        48 -10.9459    111.4177    237.7403   8.9619767335e+01   1.0268201467e+01    0.2530209    0.2069092  26.49 0.0003282885    1.081    0.075
        49  -9.1800    100.7099    161.7552   8.0548942107e+01   2.8680539604e+01    0.2007876    0.1776523  62.68 0.0007261046    1.333    0.250
        50  -9.6084     55.6267    162.4404   9.4639015107e+01   3.4791642461e+01     0.275223    0.1302659  30.17  0.001110288    2.008    0.502
        51  -8.9852     90.4557    237.4554   9.4675033456e+01   1.2993612608e+01    0.1336135    0.1140393  24.19 2.037524e-05    1.004    0.004
        52 -10.8520     83.5058    153.8133   8.4307116329e+01   3.3293250323e+01     0.277635    0.2552246 -16.76 0.0004275759    1.064    0.060
        53 -12.3274     54.6411    147.5770   9.2638296634e+01   3.8744318922e+01    0.8631746    0.4745918 -67.56  0.003639252    1.924    0.480
        54 -10.9886    134.3091    147.3508   6.8011211761e+01   2.6220959390e+01    0.7816417    0.2568606 -51.14  0.002392857    3.437    0.709
        55 -10.4737    133.0000    141.0180   6.6940915496e+01   2.7861162133e+01      0.57248    0.2075304 -53.61  0.001737361    3.549    0.718
        56 -11.7870     90.1934    147.9920   8.1051977985e+01   3.3717191939e+01    0.6919973    0.4450306 -16.00  0.001877229    2.070    0.517
        57  -9.8051     82.2032    143.6749   8.2743975821e+01   3.6026759757e+01    0.2434399     0.183674  45.87 0.0007851611    1.433    0.302
        58 -11.3831    104.7842    132.7498   7.3164638305e+01   3.4945301265e+01     0.797571    0.4257646 -35.49  0.002856374    2.133    0.531
        59 -10.8104     38.5677    136.7287   9.6429541562e+01   4.3287732550e+01    0.3182032    0.2511886  20.72  0.001297073    1.299    0.230
        60  -9.6047    143.0071    135.6591   6.3095644022e+01   2.7120077480e+01    0.2084729    0.1892756  22.10 0.0004734589    1.075    0.070
        61 -11.6787     91.1305    134.4178   7.7869375471e+01   3.6898207850e+01    0.3218275    0.2791903 -23.10 0.0004550998    1.146    0.128
        62 -11.3780     43.7520    134.0188   9.4146805193e+01   4.3471805196e+01    0.3550663     0.284145  11.18  0.001858182    1.280    0.219
        63 -11.8932     44.5154    129.6467   9.3116143871e+01   4.4524482873e+01    0.6353918    0.2050417  33.50  0.002187005    2.942    0.660
        64 -10.1625    112.2852    127.3393   6.9605006085e+01   3.4825368174e+01    0.3225813    0.2650892  -4.20 0.0007519622    1.305    0.234
        65 -10.2574    121.6609    130.2750   6.7572276083e+01   3.2391136935e+01    0.3377506     0.228812  53.78  0.001059649    1.782    0.439
        66 -11.7259    116.4900    124.4267   6.7651933471e+01   3.4686433715e+01    0.6105909    0.5773866  84.58  0.002592604    1.256    0.204
        67 -11.0772     76.9524    124.9885   8.0523967056e+01   4.1476280339e+01    0.5830303    0.3734072   3.57  0.002405176    1.973    0.493
        68 -10.4830     99.3112    123.0950   7.2591327310e+01   3.8187579184e+01    0.3265803      0.25327 -21.27 0.0007327164    1.391    0.281
        69 -10.6621    135.7581    130.4152   6.3740141450e+01   2.9641147044e+01    0.3365698     0.253965 -50.95  0.001607689    1.421    0.296
        70 -10.8551    160.9155    117.8962   5.4628884591e+01   2.7184048553e+01    0.4971878    0.3272692 -70.59  0.002014625    2.559    0.609
        71  -9.5470    155.9623    111.2717   5.4130552392e+01   2.9462337041e+01    0.2694535    0.1977367 -58.21 0.0006003119    1.590    0.371
        72 -12.1137     59.5367    137.0125   8.9102804561e+01   4.0878046533e+01    0.5600299     0.474005  47.40 0.0005678348    1.289    0.224
        73  -9.2907    108.1749    117.1121   6.8322830565e+01   3.7913200101e+01    0.2268492    0.1992764  -0.35 0.0003123353    1.145    0.127
        74  -8.7436    183.5152    116.4772   4.9660381592e+01   2.2986828664e+01     0.137898    0.1291276 -27.14 0.0001279229    1.012    0.012
        75 -10.5154    135.0000    109.4523   5.8745116678e+01   3.4167227008e+01    0.5054913   0.08594331 -43.45  0.001159816    5.969    0.832
        76  -9.7343    205.4606    110.2220   4.4456244545e+01   1.9942476041e+01    0.2117817    0.1839866  49.95 0.0005738938    1.275    0.216
        77 -11.2881    114.2865    108.0728   6.4131163514e+01   3.8692505051e+01    0.3612463    0.2933603 -63.75   0.00175237    1.501    0.334
        78  -9.5074    108.3143    107.3131   6.5730966406e+01   4.0041040046e+01    0.1596712    0.1191574  -2.78 0.0003692503    1.638    0.390
        79 -11.1285    119.2345    103.3306   6.1423071090e+01   3.8679150233e+01    0.3094727    0.2324383  13.76  0.001435579    1.553    0.356
        80 -11.5999     60.8438    101.1941   8.0790515751e+01   4.9627676723e+01    0.6454845    0.2826874  46.57   0.00153916    3.158    0.683
        81 -10.5643    120.8707     98.3252   5.9598478737e+01   3.9353169787e+01    0.2525087    0.2148083 -54.17 0.0006449452    1.310    0.237
        82 -11.2571     20.4584     94.6008   9.6176430531e+01   5.5550975241e+01    0.2715913    0.2352217 -33.91 0.0005426151    1.007    0.007
        83 -11.1453     46.6738     91.0704   8.4007043667e+01   5.3879340887e+01    0.3486716    0.1696854  33.41  0.001270361    2.065    0.516
        84  -8.7856    184.6674     77.2932   4.0362886548e+01   2.9285640433e+01    0.1348494   0.09766626 -74.21 0.0004720265    1.635    0.388
        85  -9.4910    187.5162    170.0509   6.0301636817e+01   1.2338733162e+01    0.2150393    0.1264928 -40.62  0.001034307    1.599    0.375
        86 -10.8504    110.8576    167.6632   7.8731191759e+01   2.5636419051e+01    0.3834209    0.2889121  75.73  0.001321647    2.001    0.500
        87 -10.5649     44.8885    247.2539   1.0640085627e+02   1.6207256795e+01    0.2506018    0.1673635 -59.78 0.0006880534    1.711    0.416
        88 -13.3123    200.7069     46.6431   3.1215196994e+01   3.0202834409e+01    0.8360797    0.6785129  38.46  0.005064159    1.608    0.378
        89 -11.7555    110.8085    244.1243   9.0565428000e+01   9.1253570912e+00    0.4591378    0.3063112  46.79  0.001556524    1.647    0.393
        90 -15.9273      2.2925    207.6030   1.1392753622e+02   2.8520100656e+01     2.700543          nan -71.74  0.007013856    7.725    0.871
        91  -9.8677    229.6850    166.6707   5.1858346034e+01   6.6638855461e+00         0.13    0.0845532 -11.90 0.0003817127    1.677    0.404
        92  -9.8556     84.0605     46.9860   5.4750237453e+01   5.6209914097e+01    0.2118262    0.1827661  28.99 0.0003490143    1.011    0.010
        93 -10.9802     20.9569     40.7075   8.1300868566e+01   6.7384349780e+01    0.1898215    0.1473837   1.66   0.00070277    1.103    0.093
        94  -8.9083     72.8429     37.6222   5.5168814755e+01   5.9854207843e+01    0.1960119    0.1191046  53.41 0.0009406497    1.750    0.429
        95  -9.5583     33.3207     31.3366   7.0492659851e+01   6.7563066615e+01    0.1388321   0.08648611  -4.30 0.0007050004    1.708    0.415
        96 -11.1340    132.0790    245.7489   8.5786303767e+01   6.1053112229e+00    0.2589914     0.150663 -20.19  0.001251292    2.135    0.532
        97 -10.0698     60.2464     21.1011   5.3096042712e+01   6.4470290826e+01    0.1983937     0.149455  21.71  0.000473712    1.185    0.156
        98 -11.7448     29.1630     13.9010   6.4616311188e+01   7.0706821332e+01    0.4316961    0.1595485  41.11  0.001764132    2.727    0.633
        99  -9.5983     62.6246    246.3484   1.0222986935e+02   1.4491183924e+01    0.2522244    0.1418728  28.59  0.001340694    1.502    0.334
