#   1 NUMBER                 Running object number                                     
#   2 MAG_AUTO               Kron-like elliptical aperture magnitude                    [mag]
#   3 X_IMAGE                Object position along x                                    [pixel]
#   4 Y_IMAGE                Object position along y                                    [pixel]
#   5 X_WORLD                Barycenter position along world x axis                     [deg]
#   6 Y_WORLD                Barycenter position along world y axis                     [deg]
#   7 A_WORLD                Profile RMS along major axis (world units)                 [deg]
#   8 B_WORLD                Profile RMS along minor axis (world units)                 [deg]
#   9 THETA_WORLD            Position angle (CCW/world-x)                               [deg]
#  10 FWHM_WORLD             FWHM assuming a gaussian core                              [deg]
#  11 ELONGATION             A_IMAGE/B_IMAGE                                           
#  12 ELLIPTICITY            1 - B_IMAGE/A_IMAGE                                       
         1 -14.4956     11.1015    208.0749   1.3372248163e+02   3.2060827865e+01       2.5813     1.349846 -79.72  0.009991631    1.741    0.425
         2 -14.7653     18.4961    170.1258   1.3057515097e+02   3.8020742422e+01     4.351208      1.44473 -85.62    0.0220477    2.877    0.652
         3 -12.1402    186.8581     42.3773   6.5691824631e+01   3.3100915671e+01     1.581782     1.230664  71.16  0.007777625    1.373    0.272
         4 -12.8445    215.2116      7.7759   5.1192773562e+01   2.9610025555e+01     1.095367    0.9289151  38.70  0.002752445    1.255    0.203
         5 -12.2424    192.1926     32.7449   6.1782333865e+01   3.2938828495e+01    0.9566556    0.7181892  80.81  0.002378889    1.481    0.325
         6 -13.0384    200.3239     25.7901   5.8430048145e+01   3.1618992546e+01     1.278529     1.123825 -33.20  0.004492403    1.125    0.111
         7 -11.5795    206.9000     18.3704   5.5299895541e+01   3.0707480908e+01    0.5599188    0.4339624  31.89  0.001204213    1.405    0.288
         8  -9.4884    225.0746     31.6910   5.7049349376e+01   2.4546545489e+01     0.326906    0.2047356 -21.68 0.0009437781    1.569    0.363
         9  -9.5775    165.4881      5.0118   5.6396446146e+01   4.3119203425e+01    0.2209346    0.1434571 -19.26 0.0007421501    1.581    0.367
        10  -8.2646    161.6507      1.3250   5.5621992730e+01   4.4482970299e+01    0.1550748    0.1047601 -59.50 0.0007049029    1.752    0.429
        11 -11.9781    241.0099    242.5770   9.9950100430e+01  -3.6232941358e+00    0.1942617    0.1492157  25.56  0.001603838    1.155    0.134
        12 -10.1642    166.5582    249.6787   1.1205289000e+02   6.5523004247e+00    0.2183991   0.09666505  45.50   0.00134846    1.619    0.382
        13 -12.6054    138.4992    248.8978   1.1630130515e+02   1.0676823127e+01     1.118011     0.296535  42.18   0.00537769    2.813    0.645
        14  -9.8331     70.7207    250.3588   1.2671121769e+02   1.9372312647e+01    0.2121537   0.09671522  42.68 0.0008654436    1.757    0.431
        15  -9.1369     73.9276    247.4300   1.2605737921e+02   1.9388174165e+01    0.1781819   0.08569777  62.67   0.00065642    1.729    0.422
        16  -7.7831     62.4951    250.6067   1.2793576493e+02   2.0298751375e+01   0.09627075   0.06225171  59.08 0.0003010364    1.036    0.035
        17  -9.3814     27.2243    249.0321   1.3292595959e+02   2.4305570315e+01    0.1779592     0.118077  53.86 0.0008118118    1.236    0.191
        18 -12.0907      6.8086    247.9228   1.3571297647e+02   2.6405909851e+01      0.79014    0.2856763  48.82  0.005175149    1.788    0.441
        19 -10.8099     19.3781    242.7978   1.3380179775e+02   2.5958829059e+01    0.2237339    0.1028471  62.44 0.0004315992    1.479    0.324
        20 -10.1838     10.5965    239.4161   1.3492816008e+02   2.7274921492e+01    0.4006259    0.1191279  58.73  0.001732627    2.219    0.549
        21  -9.6344      5.4797    236.2343   1.3555122556e+02   2.8205050582e+01    0.2029748    0.1107498  48.09  0.001044376    1.463    0.316
        22  -9.5413     88.4084    243.2345   1.2358013354e+02   1.8171554369e+01    0.1488309    0.1162612  63.77 0.0004648532    1.144    0.126
        23  -8.7335     56.1280    241.1846   1.2836341093e+02   2.2342001204e+01     0.135369    0.1002831  59.19 0.0005662531    1.163    0.140
        24  -8.4089     29.2228    241.4089   1.3234003121e+02   2.5189036949e+01    0.1223068   0.05528278  53.08 0.0003491138    1.488    0.328
        25  -9.1675     21.7902    237.2731   1.3325163069e+02   2.6527465972e+01    0.1461984    0.1353376  81.12 0.0008181913    1.695    0.410
        26  -9.1167    102.9543    236.6887   1.2080646245e+02   1.7168263952e+01    0.1460401   0.09818159  54.07  0.000466004    1.075    0.070
        27 -10.7939    122.0339    248.7788   1.1883055174e+02   1.2988519630e+01    0.3962047     0.174851  55.41  0.002275589    1.957    0.489
        28 -12.6903     44.1037    217.2744   1.2889465859e+02   2.7287459804e+01    0.5516592    0.4456452 -60.19  0.004218945    1.839    0.456
        29 -14.5042     52.8286    205.9632   1.2674613407e+02   2.8150818526e+01     6.032483          nan  48.31  0.008763411    6.689    0.850
        30  -9.4881    193.7296    196.7349   1.0081193079e+02   8.4349502563e+00    0.4627067    0.2657182 -67.87  0.001472127    8.360    0.880
        31  -8.9948    189.9115    189.4406   1.0032637450e+02   1.0030194154e+01    0.4048573     0.191668 -54.88  0.001692305    4.153    0.759
        32  -7.9814     66.2271    233.3554   1.2635580304e+02   2.2304377746e+01    0.0774679   0.07151243 -84.56 0.0004879998    1.565    0.361
        33 -10.9968     68.4573    186.8142   1.2246299809e+02   2.9570038689e+01    0.2996579    0.2205578 -47.78  0.001320523    1.995    0.499
        34 -10.9787     73.1559    180.7394   1.2100559750e+02   3.0061708017e+01    0.2290709    0.1984657 -75.03 0.0005414735    1.324    0.245
        35  -8.4010    198.6093    179.3923   9.7136536748e+01   9.8055525680e+00    0.2130346    0.1074695 -51.52 0.0009521334    3.210    0.689
        36 -12.5332     69.5750    166.4510   1.2025426910e+02   3.3178721240e+01    0.4080917     0.261587 -52.98   0.00157651    1.901    0.474
        37 -12.4906     85.9253    162.4895   1.1644161257e+02   3.1738160406e+01      2.21806    0.6966349  54.79  0.003499179    4.084    0.755
        38 -13.0998     67.7930    144.6395   1.1810584421e+02   3.7711393068e+01     2.223181     0.994746  84.07  0.003148243    4.938    0.797
        39  -9.5524    230.7396    167.9781   8.9591435211e+01   5.4244797997e+00    0.2742461     0.138577 -43.39  0.001301164    2.721    0.633
        40 -10.0845    246.4618    164.9712   8.6483335182e+01   2.9762303284e+00    0.2873223    0.1725337  44.70 0.0009133893    1.589    0.371
        41  -9.8703    246.9137    160.1294   8.5469330687e+01   3.4416311686e+00    0.2108875    0.1805035  24.34 0.0002875338    1.143    0.125
        42  -9.0098    102.1568    161.9335   1.1299813282e+02   2.9450679299e+01    0.1738584    0.1533088  69.16  0.000337333    1.047    0.045
        43  -8.9450      8.5363    226.6471   1.3480181308e+02   2.9363487448e+01    0.1697328   0.09834034  63.59 0.0006400319    1.141    0.124
        44  -8.0380    168.4475    158.3452   9.8970444114e+01   1.8498057585e+01    0.1317937    0.1119572  42.64 7.779125e-05    1.046    0.044
        45  -9.8172    247.0589    155.0412   8.4435407297e+01   3.9976983596e+00    0.1920657     0.156079  15.49 0.0003185163    1.016    0.016
        46 -10.2999    215.0950    153.2835   8.9377045902e+01   1.0207032077e+01     0.221305    0.1958019  27.45 0.0002589098    1.068    0.063
        47 -10.5255     41.3263    148.6440   1.2434380688e+02   3.9969342446e+01    0.2410055    0.1800073  65.71 0.0009089297    1.167    0.143
        48 -10.1995    101.7414    145.8472   1.1072613621e+02   3.2616432801e+01    0.4210509    0.2928998 -28.17  0.001971471    2.409    0.585
        49 -11.4311     89.7501    145.8633   1.1338374240e+02   3.4442579251e+01    0.2402514      0.21764 -73.44 0.0005046696    1.174    0.148
        50  -8.7365    234.1547    135.3686   8.2393622723e+01   8.8425715503e+00    0.2109162    0.1617282  -4.28  0.000317741    1.263    0.208
        51 -10.6014     81.8523    170.0232   1.1816779705e+02   3.0879136034e+01    0.2292179    0.1954751  77.10 0.0003784458    1.068    0.064
        52  -8.9421    111.2891    134.0462   1.0659775943e+02   3.3401579761e+01    0.2211267     0.186929   9.47 0.0008558716    1.620    0.383
        53  -9.5751     53.5491    229.8835   1.2812240746e+02   2.4290486308e+01    0.2456113    0.1611656  78.94  0.001677755    1.295    0.228
        54  -9.8438     98.7576    130.6857   1.0890404317e+02   3.6144030334e+01    0.2344703    0.2144513 -10.65 0.0007462585    1.446    0.309
        55 -10.1008    153.3132    220.2256   1.1090320550e+02   1.2053693673e+01     0.194175     0.149433  45.57 0.0002226915    1.019    0.019
        56  -8.7639    107.8032    121.9178   1.0513746511e+02   3.6455337773e+01    0.1789337    0.1717613 -59.14 0.0002698159    1.132    0.116
        57  -9.5651    167.5402    112.8700   8.9573942500e+01   2.6419828735e+01    0.3520442     0.264114 -75.55  0.001233633    1.877    0.467
        58 -10.5049     52.7036    109.8644   1.1690216667e+02   4.6894497282e+01    0.4356548    0.1935329 -76.97  0.001938391    2.529    0.605
        59 -11.2801     43.4262    109.4889   1.1927722666e+02   4.7978210437e+01    0.3559915    0.2783619  76.48  0.001648672    1.213    0.176
        60 -10.1049    155.6417    228.1413   1.1143445121e+02   1.0683598049e+01    0.2705169     0.125533  54.49  0.001483825    2.110    0.526
        61  -9.3445     44.7164    247.4591   1.3036484240e+02   2.2713329311e+01    0.1513864   0.09672139  80.99 0.0007822391    1.359    0.264
        62  -8.5330    174.9718     88.9890   8.1877388550e+01   2.8883211084e+01     0.211443    0.2063413  21.07 -0.003769674    1.017    0.016
        63  -9.6701    230.8516     80.0697   6.9600934608e+01   1.6995542560e+01    0.2630247    0.1977227  47.66 0.0003936019    1.353    0.261
        64  -8.3051    156.6816     78.6898   8.2849480974e+01   3.4970002179e+01    0.1554228    0.1176703  14.66 0.0004152395    1.641    0.391
        65  -8.4189    235.3280     76.2917   6.7951584620e+01   1.6470590293e+01    0.1485797    0.1037467  21.69 0.0003462902    1.622    0.384
        66  -8.1376    117.2711     71.6431   9.0344784179e+01   4.4956904870e+01     0.181338    0.1361002  37.85 0.0002807763    1.423    0.297
        67 -10.3406    129.9043     49.4179   7.9797747131e+01   4.6278733028e+01    0.2583095    0.2208756 -28.70 0.0003591016    1.135    0.119
        68  -9.8101     45.7958    231.5601   1.2941269134e+02   2.4899873695e+01     0.297119    0.1451879  42.46  0.002108544    1.754    0.430
        69 -10.1140     48.0891    237.1100   1.2935482278e+02   2.3827868097e+01    0.2876182    0.1347048  59.83  0.001534115    1.563    0.360
        70 -10.4113     41.7318    236.0502   1.3025714451e+02   2.4672062007e+01    0.4624693    0.1348094  56.94  0.002642557    2.580    0.612
        71  -8.5397     36.7697    247.9806   1.3153131193e+02   2.3480731804e+01    0.1159448    0.1018398  58.32 0.0003757898    1.579    0.367
        72  -9.8284     40.4985    246.5043   1.3093064137e+02   2.3297346987e+01    0.1792068    0.1185613  72.69 0.0007863731    1.170    0.145
        73  -8.4588     35.5001     37.4544   1.0647645768e+02   6.4314985910e+01    0.1918158    0.1048126  43.38  0.001022664    2.389    0.581
        74  -8.9031     28.2049     35.0647   1.0870753657e+02   6.5471298238e+01    0.3038538    0.1374707  42.19  0.001511468    2.981    0.665
        75 -10.5513     37.8725    241.5478   1.3108807083e+02   2.4280015617e+01    0.3370539    0.2029706  89.90  0.002838128    1.540    0.351
        76  -9.9898    189.3182     15.5598   5.6654752188e+01   3.5672681750e+01    0.2545673     0.175879  14.46 0.0009557739    1.716    0.417
        77  -8.8577    170.6567     16.1917   5.9577759251e+01   4.0599133696e+01    0.2061815    0.1387549  -6.08 0.0004058069    1.652    0.395
        78  -9.5569     82.9801    246.7458   1.2464992448e+02   1.8375158662e+01    0.1626046    0.1152153  73.62 0.0004965824    1.262    0.208
