#   1 NUMBER                 Running object number                                     
#   2 MAG_AUTO               Kron-like elliptical aperture magnitude                    [mag]
#   3 X_IMAGE                Object position along x                                    [pixel]
#   4 Y_IMAGE                Object position along y                                    [pixel]
#   5 X_WORLD                Barycenter position along world x axis                     [deg]
#   6 Y_WORLD                Barycenter position along world y axis                     [deg]
#   7 A_WORLD                Profile RMS along major axis (world units)                 [deg]
#   8 B_WORLD                Profile RMS along minor axis (world units)                 [deg]
#   9 THETA_WORLD            Position angle (CCW/world-x)                               [deg]
#  10 FWHM_WORLD             FWHM assuming a gaussian core                              [deg]
#  11 ELONGATION             A_IMAGE/B_IMAGE                                           
#  12 ELLIPTICITY            1 - B_IMAGE/A_IMAGE                                       
         1 -13.8077    207.0966     29.8062   3.5578905237e+02   3.0241092796e+01    0.9137916    0.7233424 -53.07  0.003741394    1.042    0.040
         2 -11.3902     60.9088      2.6519   9.0628113095e+00   6.9362172355e+01     0.326362    0.1263161  51.90  0.001366102    2.144    0.534
         3 -11.7344     61.6373    246.2654   6.8934434697e+01   1.5104920848e+01    0.2027699    0.1632208 -11.18  0.001346468    1.636    0.389
         4 -13.6681    247.3945    244.2209   3.2657042455e+01  -5.2837568855e+00     1.067325    0.4974504 -26.64  0.007276557    1.781    0.438
         5 -10.9125     90.3538    184.7239   5.5845976821e+01   2.4060522579e+01    0.4321452    0.3324545 -66.01  0.001335201    1.438    0.305
         6 -10.0863     46.8573    185.5002   6.7910073923e+01   2.9554822617e+01    0.3065994    0.1836216 -56.39  0.001506643    1.860    0.462
         7 -10.6371     83.0494    183.0223   5.7593553718e+01   2.5494112572e+01    0.5389194    0.2463159 -48.96  0.002201823    2.481    0.597
         8 -12.4055    173.1076    175.5867   3.4549556456e+01   1.3046693671e+01    0.6469957    0.4407171 -45.46   0.00143033    1.554    0.356
         9 -12.1143    179.5962    169.2010   3.2060859182e+01   1.3161699183e+01    0.6259246    0.5480983 -31.56  0.002709799    1.162    0.139
        10 -11.0557    160.5419    177.7426   3.7570818971e+01   1.4612658694e+01    0.2618538    0.2430658 -42.65 0.0007410112    1.237    0.192
        11 -11.9403     71.4620    229.2032   6.5412280383e+01   1.7168100724e+01    0.1879209    0.1735273   6.23 0.0007016471    1.250    0.200
        12  -9.5971      4.8000    175.8428   7.9107780872e+01   3.5906176259e+01   0.09284984   0.09076941   1.65            0    1.270    0.213
        13 -10.7893    238.4731    169.4911   2.2086118011e+01   4.8108723559e+00    0.1169671   0.08987048 -18.18 6.018726e-05    1.001    0.001
        14 -11.6772    230.3210    167.3725   2.2914367798e+01   6.1484246646e+00    0.3465466    0.1688913 -48.50  0.001670265    2.752    0.637
        15 -12.8720     55.5337    227.4849   6.9029050505e+01   1.9345185993e+01    0.2520382    0.2235616  83.96  0.001432801    1.261    0.207
        16  -9.4441      3.2937    166.2741   7.9143831888e+01   3.8388616419e+01    0.1209888   0.09609789 -46.99 0.0004610951    1.522    0.343
        17 -10.0669      9.1631    166.9562   7.7451533584e+01   3.7784150677e+01    0.1700677    0.1424246  81.72 0.0003206707    1.099    0.090
        18  99.0000     42.0229    209.5494   7.1071370294e+01   2.4579065434e+01     9.475323      4.07567  34.36   0.02944309    1.836    0.455
        19 -10.9221     63.0100    197.9580   6.4690193153e+01   2.4732539732e+01    0.1896443    0.1678163  47.65  0.001151978    1.030    0.029
        20 -12.2933    133.7679    146.0539   3.7638229699e+01   2.5585462738e+01     1.327593    0.3246661 -53.85   0.00318612    6.005    0.833
        21  -9.1196    130.2745    154.6844   4.0273308877e+01   2.4336372664e+01    0.1418169    0.1167237  78.67 0.0002115489    1.563    0.360
        22 -11.7524    111.6848    150.4834   4.4360860931e+01   2.8579058711e+01     0.473107    0.3263043  67.71 0.0009303118    1.951    0.487
        23 -11.3638    151.9652    203.6611   4.3750362613e+01   1.1225218112e+01    0.2282913    0.1948449 -48.01 0.0006965909    1.401    0.286
        24 -10.7072    108.0530    140.8039   4.3442099687e+01   3.1516952436e+01    0.2625722    0.2209484 -43.49 0.0002210847    1.234    0.189
        25 -11.0811    161.2279    200.2974   4.1252690759e+01   1.0497547500e+01     0.250574    0.2171357   5.24 0.0004265592    1.029    0.028
        26 -10.3071    193.8018    196.0000   3.4122726048e+01   6.7169767099e+00    0.3151647    0.1774742 -54.91  0.001490639    3.029    0.670
        27 -11.5721     98.5701    135.6933   4.5170444923e+01   3.4470794923e+01    0.5538638    0.2869287  51.22  0.001337727    2.181    0.541
        28 -12.0718     98.7041    130.5247   4.4030232919e+01   3.5723447431e+01    0.3867902     0.323494  34.08 0.0003496327    1.198    0.166
        29 -11.5589    110.0038    131.9929   4.0997033801e+01   3.3261394253e+01     0.447222     0.333693 -27.32  0.001519857    1.623    0.384
        30  -9.1389    171.4134    132.4660   2.6147225841e+01   2.1292626101e+01    0.1404078    0.1296909 -32.40 0.0001612766    1.033    0.032
        31 -11.3953    134.7285    128.8810   3.3607024027e+01   2.9156612409e+01    0.4197792    0.3850505  79.99  0.001790044    1.207    0.172
        32 -19.0712     28.9727     96.2118   6.3101976591e+01   5.5215709382e+01     18.75843     1.060516 -69.87   0.02635907   16.552    0.940
        33 -10.6751    116.2566    125.5499   3.7747773964e+01   3.3575261745e+01    0.2945816    0.2473552 -26.14 0.0006462361    1.334    0.251
        34 -10.3408    121.0656    123.0487   3.5820710718e+01   3.3196792031e+01    0.3234327    0.2201792 -49.21  0.001122005    1.471    0.320
        35 -10.3109    159.7130    194.0936   4.0565143546e+01   1.1790247895e+01    0.2035204    0.1659142  32.75  0.000289137    1.234    0.190
        36 -10.9624    134.8318    119.8531   3.1429130147e+01   3.1105206287e+01    0.3251234    0.1693776 -49.52  0.001002767    1.936    0.483
        37 -10.6934    104.3335    120.4471   4.0021104395e+01   3.7128167688e+01    0.2945693    0.2567827 -11.27 0.0005833713    1.347    0.257
        38  -9.5233    111.0440    115.6839   3.6860268355e+01   3.6933312831e+01     0.217925    0.1959453  45.49 0.0003616254    1.107    0.097
        39 -10.9779    134.5174    106.0651   2.8001993202e+01   3.4140932651e+01    0.4723747    0.1479394 -46.54  0.001438781    3.174    0.685
        40 -10.5824    169.9471    112.5545   2.1808684911e+01   2.5341883413e+01     0.262436    0.2203323 -24.70 0.0004218301    1.219    0.180
        41 -10.5525    167.2482    108.7198   2.1401731475e+01   2.6617320189e+01    0.2716156    0.2255987 -58.16 0.0005322291    1.241    0.194
        42 -12.1494    109.4687     97.5521   3.2510522873e+01   4.1472970405e+01     1.204561    0.6352845  70.53  0.002941821    5.176    0.807
        43 -12.2767    117.8832    109.1502   3.3226672023e+01   3.7032323344e+01    0.6841072     0.494891 -84.36  0.002578651    1.935    0.483
        44 -11.8119    119.6116    104.8200   3.1595259849e+01   3.7641849825e+01    0.4226881    0.2902706 -54.62  0.001199524    1.499    0.333
        45 -12.0122     86.9795    107.9328   4.2532602378e+01   4.3552943094e+01    0.7326392    0.3347754  48.82  0.001775992    2.395    0.583
        46 -10.9853     84.3764    111.7371   4.4365601818e+01   4.3074241039e+01    0.3671793    0.2566141  50.90 0.0006931946    1.476    0.322
        47  -9.3137    150.5045    101.9921   2.3177170733e+01   3.1487792570e+01    0.2258275    0.1431205 -43.85 0.0005710106    1.513    0.339
        48 -10.8336     76.5437    244.8718   6.5529354802e+01   1.3670823122e+01    0.1403553    0.1160802 -52.20 0.0009578012    1.533    0.347
        49 -16.8372     68.3380    143.6897   5.6223705912e+01   3.7372824242e+01     5.352515     3.868811  80.59   0.02504145    1.572    0.364
        50 -10.8042     99.4244     89.2118   3.3195410373e+01   4.5543348627e+01    0.5949128     0.311539  62.30  0.001566026    2.897    0.655
        51 -10.0282    118.0876     90.8216   2.8085339518e+01   4.1057809266e+01    0.2411699    0.2089104 -89.10 0.0006207034    1.262    0.208
        52  -9.3445    129.5816     84.7584   2.3261670375e+01   3.9680089971e+01    0.2176295    0.1407872 -54.68 0.0005604894    1.632    0.387
        53  -9.5460     49.5084     77.4844   4.9234542748e+01   5.7694986964e+01    0.1480029     0.145332 -67.56 3.273369e-05    1.020    0.020
        54  -9.4006    117.9061     76.0936   2.3623957558e+01   4.4166415082e+01    0.2294457    0.2003047 -83.11 0.0003013259    1.211    0.174
        55 -13.3188    168.6248     68.7024   1.0608720490e+01   3.3419785274e+01     1.165398    0.8712304  24.38  0.003551557    1.919    0.479
        56 -13.6719    184.3071     55.4486   4.7066076604e+00   3.1870006991e+01     1.021574     0.934392  16.74  0.003818686    1.406    0.289
        57 -12.1249    190.2429     49.5919   2.4342532021e+00   3.1369342832e+01    0.3567731    0.3458898 -25.28   0.00091456    1.246    0.197
        58  -9.9053     11.4981     71.3611   6.7305029990e+01   6.3309042380e+01     0.323122     0.135459   5.19  0.001248542    2.873    0.652
        59  -9.6150     53.9699     63.2801   4.2549535499e+01   6.0454801391e+01    0.2097326    0.1825334  33.03 0.0004566972    1.152    0.132
        60 -10.2280     13.8371     60.3689   6.3715491757e+01   6.6010054077e+01    0.2576644    0.1840296  86.06 0.0007536922    1.596    0.374
        61 -11.2801    154.5614    191.5393   4.1249428369e+01   1.3003556676e+01    0.2268753     0.203317   0.27 0.0005176571    1.047    0.045
        62 -10.8924     51.1881     42.5384   3.5596513195e+01   6.5450198501e+01     0.518499    0.1571521  45.09  0.001652297    3.493    0.714
        63  -9.4362    213.4473    248.6055   3.8622673626e+01  -2.5948623663e+00    0.1960288   0.08857569 -34.16  0.001200993    2.166    0.538
        64  -9.9994     60.9900     21.3690   2.0102831359e+01   6.7120672208e+01     0.206956    0.1627331  50.26  0.001070361    1.190    0.160
