#   1 NUMBER                 Running object number                                     
#   2 MAG_AUTO               Kron-like elliptical aperture magnitude                    [mag]
#   3 X_IMAGE                Object position along x                                    [pixel]
#   4 Y_IMAGE                Object position along y                                    [pixel]
#   5 X_WORLD                Barycenter position along world x axis                     [deg]
#   6 Y_WORLD                Barycenter position along world y axis                     [deg]
#   7 A_WORLD                Profile RMS along major axis (world units)                 [deg]
#   8 B_WORLD                Profile RMS along minor axis (world units)                 [deg]
#   9 THETA_WORLD            Position angle (CCW/world-x)                               [deg]
#  10 FWHM_WORLD             FWHM assuming a gaussian core                              [deg]
#  11 ELONGATION             A_IMAGE/B_IMAGE                                           
#  12 ELLIPTICITY            1 - B_IMAGE/A_IMAGE                                       
         1 -15.4721     82.0114    142.1935   1.2858803475e+02   3.6651652136e+01     1.156183     1.109639 -27.04  0.003436266    1.323    0.244
         2 -10.3817    218.4794      7.9630   6.3356472163e+01   2.9284495559e+01    0.2144692   0.07770452 -48.31  0.000809873    2.696    0.629
         3 -10.6795    190.3741      8.4534   6.6430124873e+01   3.6498733858e+01    0.1361786    0.1262803  68.17 0.0006012331    1.091    0.083
         4 -11.1212    208.6126      6.7626   6.3987985549e+01   3.1920788845e+01    0.1403593   0.09215531  50.22 0.0006919273    1.644    0.392
         5  -9.8650    161.5287      6.4885   6.9574162484e+01   4.4297930947e+01    0.1425318    0.1262141  56.70 8.167532e-05    1.065    0.061
         6 -10.8240    153.9074      1.7387   6.9086733438e+01   4.6713934198e+01    0.1915701    0.1620482  72.73 0.0001878641    1.092    0.085
         7 -11.9731    115.0498      2.4775   7.6336162036e+01   5.6338547350e+01      0.20862    0.1208545  59.11 0.0008028319    1.572    0.364
         8 -14.9413     71.2157    147.8092   1.3214550435e+02   3.6939866263e+01     1.070477    0.6168242  81.96  0.002864932    2.167    0.539
         9 -16.9911    126.6930    104.6387   1.0882709727e+02   3.7044986109e+01      6.18819     3.331472 -53.22   0.02493361    1.953    0.488
        10 -16.9015    192.2123     51.9163   7.9044997964e+01   3.0618892008e+01     14.87975     8.401037 -33.87   0.06354576    1.757    0.431
        11 -12.6120    182.7056    134.3777   1.0315061680e+02   1.8488747429e+01    0.5039145    0.3113412  60.43  0.001353756    1.873    0.466
        12 -12.4209    101.2941    133.7915   1.2216567440e+02   3.5435341511e+01     0.402124    0.2764442  88.89  0.001653935    1.810    0.447
        13 -11.6261    155.0083    133.9830   1.0911284467e+02   2.4721519314e+01    0.3306603    0.2398628  78.18  0.001474382    1.823    0.451
        14 -13.2335    159.7169    128.9712   1.0687526906e+02   2.4704377652e+01    0.5997795    0.4842869 -20.37  0.002932987    1.477    0.323
        15 -11.6680    146.2068    131.3721   1.1055439336e+02   2.7167340748e+01    0.2604745    0.2367053  63.16 0.0004035269    1.078    0.073
        16 -11.2566    150.1628    130.8591   1.0951075587e+02   2.6420201686e+01    0.2331706     0.207412 -89.56  0.001144023    1.208    0.172
        17 -10.9796    181.1216    127.9666   1.0196383936e+02   2.0060582408e+01    0.2697612    0.2087851  43.73 0.0006795045    1.266    0.210
        18 -11.1108    104.8184    127.9308   1.2006574097e+02   3.6142263900e+01    0.2104099    0.1941801 -34.22 0.0004572023    1.249    0.199
        19 -10.9595    166.3410    125.5051   1.0456052367e+02   2.3909565195e+01    0.3319744    0.2371288  78.95  0.001287978    1.935    0.483
        20 -11.0994    153.8537    125.8040   1.0746385540e+02   2.6655404430e+01    0.2267094    0.2069498  26.34 0.0005330197    1.176    0.149
        21 -11.1995    237.3036    125.6160   9.0887835972e+01   7.9872251945e+00    0.1912623    0.1258303  37.55  0.000926316    1.598    0.374
        22 -10.1135    112.2960    186.6763   1.2842998467e+02   2.2164539319e+01    0.1367198   0.09156711  73.03 0.0004373631    1.622    0.383
        23 -11.6123    189.3239    122.7315   9.8998758845e+01   1.9158408419e+01    0.2835318     0.245892   4.87  0.000649501    1.285    0.222
        24 -11.0484    176.8979    116.2324   9.9963469040e+01   2.3284169061e+01    0.2615342    0.2117383 -75.95 0.0007112869    1.508    0.337
        25 -13.6213    152.1629    119.7071   1.0637481063e+02   2.8290157690e+01    0.6681873    0.6203858  85.59  0.002237804    1.114    0.102
        26 -12.9278    160.4605    120.5566   1.0466993562e+02   2.6240177306e+01    0.5275544    0.3829097  62.43  0.001389229    1.501    0.334
        27 -14.5711    166.8453    112.7740   1.0126803373e+02   2.6318830661e+01    0.8451575    0.6975598 -51.23     0.003197    1.248    0.199
        28 -11.0658    124.5802    156.9314   1.2090487904e+02   2.6103701265e+01     0.347188    0.1747033  52.83 0.0008834894    2.012    0.503
        29 -11.2503    185.0168    110.5306   9.6807498156e+01   2.2442208250e+01    0.3676505    0.2370234 -44.35  0.001158919    1.575    0.365
        30  -9.3016    188.3901    109.5295   9.5863455041e+01   2.1822543397e+01    0.2763623    0.2146621  67.92 0.0002065875    1.439    0.305
        31 -10.6791     24.1334    105.1002   1.3837620154e+02   5.1962279069e+01    0.1860886    0.1374391 -56.95 0.0007702218    1.246    0.197
        32 -11.5038    180.4320    103.5923   9.5936341436e+01   2.4843005221e+01      0.24393     0.242724  68.14 0.0002162969    1.002    0.002
        33 -10.7701     60.4789    117.0050   1.2993476263e+02   4.5465902596e+01    0.1979256    0.1166769 -64.87 0.0004230078    1.501    0.334
        34 -13.1129     94.1901    132.2485   1.2369302947e+02   3.6993957764e+01     1.050515    0.4516619 -63.54  0.001096972    2.555    0.609
        35 -10.3981    126.4880    196.4742   1.2686457454e+02   1.7836993704e+01    0.1342655    0.1106061  61.75 6.015332e-05    1.062    0.058
        36 -11.7540    134.1209    147.5427   1.1687956870e+02   2.6250463762e+01    0.4743493    0.2587367 -53.11  0.002046691    1.915    0.478
        37 -12.3191    132.6462    140.3151   1.1573980293e+02   2.8087389089e+01    0.8706677     0.379802 -64.06  0.002639482    4.101    0.756
        38 -11.6262     18.5475     92.2955   1.3812264330e+02   5.5281400519e+01    0.3288254    0.1642007 -77.36  0.001420737    1.817    0.450
        39 -13.1348     75.9636     90.1519   1.1955855648e+02   4.9497179250e+01    0.5180603    0.2045875  28.91  0.001823616    3.699    0.730
        40 -12.4267    143.7787    145.2533   1.1416619213e+02   2.4775136340e+01    0.4838206    0.3365989 -81.94  0.002141557    2.018    0.504
        41 -11.2506     75.2639     72.3963   1.1490642787e+02   5.3463598478e+01    0.2610258    0.1904871 -18.64 0.0008872211    1.673    0.402
        42 -16.0790    156.1598     47.2351   8.4199106470e+01   4.0754739268e+01     2.881849     1.105935 -39.30   0.01015356    2.597    0.615
        43 -10.3692     37.9564     66.7050   1.2637020693e+02   5.9328985153e+01    0.2150802    0.1273996  82.51 0.0009031507    3.524    0.716
        44 -11.3640     13.0865     60.0125   1.3405110611e+02   6.2712982892e+01    0.1814664    0.1383803 -56.21 0.0005069195    1.017    0.016
        45 -18.0149    219.8586    173.9035   1.0443017747e+02   3.9921013460e+00     11.66902       1.0012 -37.00   0.02212552   12.511    0.920
        46 -12.8250     27.7383    144.9807   1.4228237140e+02   4.2632549756e+01    0.2916636    0.1213692 -88.75  0.001300644    2.627    0.619
        47 -11.9395     23.2606     37.8274   1.2392501781e+02   6.6514009692e+01    0.2841756    0.0769652 -53.67  0.001191021    2.802    0.643
        48 -11.7710     87.8056     31.5568   9.6084107872e+01   5.8787547421e+01    0.2985245    0.1665772 -33.50  0.000836565    1.726    0.421
        49 -10.4898     77.4698     29.5060   9.8704360937e+01   6.0996159460e+01    0.1329064    0.1165012  -5.14 0.0002216017    1.004    0.004
        50 -11.2906     90.1816     19.5607   9.0208472171e+01   5.9981148303e+01    0.2406723    0.1711399 -23.52 0.0006175781    1.372    0.271
        51 -11.1773    150.9093    176.1710   1.1854018496e+02   1.7175783820e+01     0.217136    0.1756067  67.94  0.000706171    1.291    0.225
        52 -12.3850    161.3969    165.4434   1.1432536181e+02   1.7134818783e+01     0.284124    0.2341732  67.72  0.000785992    1.300    0.231
        53 -11.7050    242.2325    137.0691   9.2686393590e+01   5.2099354992e+00    0.2157113    0.1731191 -22.48 0.0008754332    1.168    0.144
        54 -12.6792    190.9753    238.6259   1.2061789282e+02   9.8203267518e-02    0.2900549    0.1477134  52.52  0.001510814    2.089    0.521
        55 -11.7662    165.0362    212.4775   1.2158383639e+02   8.2391773896e+00    0.2024019    0.1072254  44.03  0.000593784    1.565    0.361
        56 -15.8664     55.1558    157.1406   1.3722370068e+02   3.6944976924e+01     2.200985    0.9966862 -57.63   0.01007529    2.154    0.536
        57 -15.2455      4.9545    193.0389   1.5051824264e+02   3.4653458867e+01    0.9176569    0.5136626 -77.24  0.004340445    1.539    0.350
        58 -15.3884     23.4079    180.1852   1.4624130474e+02   3.5500679845e+01    0.7820048    0.5521387 -20.74  0.004003167    3.182    0.686
