#   1 NUMBER                 Running object number                                     
#   2 MAG_AUTO               Kron-like elliptical aperture magnitude                    [mag]
#   3 X_IMAGE                Object position along x                                    [pixel]
#   4 Y_IMAGE                Object position along y                                    [pixel]
#   5 X_WORLD                Barycenter position along world x axis                     [deg]
#   6 Y_WORLD                Barycenter position along world y axis                     [deg]
#   7 A_WORLD                Profile RMS along major axis (world units)                 [deg]
#   8 B_WORLD                Profile RMS along minor axis (world units)                 [deg]
#   9 THETA_WORLD            Position angle (CCW/world-x)                               [deg]
#  10 FWHM_WORLD             FWHM assuming a gaussian core                              [deg]
#  11 ELONGATION             A_IMAGE/B_IMAGE                                           
#  12 ELLIPTICITY            1 - B_IMAGE/A_IMAGE                                       
         1 -15.1007      9.3247    136.1376   1.1339660610e+02   4.5785993751e+01     4.384253     1.340731 -72.47   0.01669712    2.703    0.630
         2 -13.7508     15.9262     42.7934   9.1360644599e+01   6.6905712465e+01     1.542742    0.8533975  31.13  0.007844121    2.067    0.516
         3 -13.6435    234.1575     30.9939   3.3170268977e+01   2.4752460236e+01     1.333567     1.009924 -12.46  0.008116043    2.143    0.533
         4 -13.0180    215.5882     37.6361   3.6293274480e+01   2.7751349773e+01     1.224746    0.7607999 -71.66  0.006817503    1.566    0.362
         5 -12.1245     32.5732     32.5549   7.9104718522e+01   6.6961924018e+01     0.679762    0.4615197 -37.17  0.003409178    1.433    0.302
         6 -10.6386     68.5402     25.1620   6.0848551016e+01   6.2349160448e+01     1.281738     0.489389  34.39  0.005055805    2.964    0.663
         7 -12.4641     53.8644     34.0567   7.0203554379e+01   6.3710467195e+01     1.072275    0.7209553   5.63  0.005933675    1.587    0.370
         8 -11.5455     50.2104     28.8936   6.9527159556e+01   6.5028400029e+01    0.7206761    0.3924336  -5.55  0.003200518    2.772    0.639
         9 -11.2094    155.9736     16.1336   3.7993740171e+01   4.3847765594e+01    0.4449952    0.3660739  56.33  0.002802577    1.217    0.178
        10 -11.7532    151.0646     13.7194   3.7990904021e+01   4.5245111982e+01    0.5465802    0.3323155 -10.02  0.002798672    2.363    0.577
        11 -10.6462    229.8083     14.0734   3.0116207774e+01   2.7644214424e+01    0.3160535     0.151755 -47.58  0.001785348    1.735    0.424
        12 -12.1490    134.5117      4.2814   3.7585633560e+01   4.9982540686e+01     0.395023    0.3603283 -43.49  0.002713453    1.259    0.206
        13 -10.5343      2.2720      2.5727   8.1811371642e+01   7.4553599849e+01    0.1935083    0.1405849  -9.99  0.001437813    1.021    0.021
        14 -11.8958     84.0572    223.3203   1.0428417743e+02   1.5770067935e+01    0.8151178    0.6232357  25.73  0.002050595    1.414    0.293
        15 -11.1083     41.1397    249.0741   1.1587434202e+02   1.5907956625e+01    0.5593143    0.1984373  33.26  0.002378916    2.600    0.615
        16 -10.2464     48.9582    235.9141   1.1327380626e+02   1.7691569180e+01    0.3546954    0.1927992  73.27  0.001809997    1.967    0.492
        17 -12.1718     32.1438    230.4642   1.1636842973e+02   2.0815763765e+01    0.6189922    0.3842986  67.30  0.002213626    1.424    0.298
        18  -8.9814     12.3234    233.6574   1.2058147054e+02   2.2211125195e+01    0.1306126   0.06485807  63.28 0.0007050657    1.730    0.422
        19 -11.1864    150.3843    229.7321   9.0202466247e+01   4.3255884253e+00    0.2605396    0.1490036  42.51  0.001265927    1.693    0.409
        20 -10.8813     66.0206    225.0125   1.0855797638e+02   1.7883245519e+01    0.4167264    0.2412259  54.45  0.002057259    1.622    0.383
        21 -12.2612     62.1964    218.0616   1.0870369865e+02   1.9939509498e+01    0.7521054    0.4963741  80.66    0.0030623    1.593    0.372
        22 -10.7061     58.5063    212.5177   1.0897333242e+02   2.1686594696e+01     0.259526    0.2270551  70.54 0.0008326311    1.008    0.008
        23 -11.7855     43.8446    214.5106   1.1253061246e+02   2.3033331793e+01    0.7848819     0.350544  63.30  0.003207744    2.577    0.612
        24 -10.9987    132.9103    247.6688   9.6542582046e+01   3.6673319914e+00    0.1908365    0.1479673  34.53  0.001151094    1.110    0.099
        25 -12.7409     29.1434    192.2193   1.1390965279e+02   2.9946335112e+01    0.9714244    0.7979835  58.30  0.005690671    1.162    0.140
        26 -14.3515     11.3505    202.9235   1.1887154373e+02   2.9130643961e+01     1.171016    0.8856419 -62.13  0.007479622    1.426    0.299
        27 -11.9743     28.5128    203.6239   1.1506337778e+02   2.7280529453e+01    0.8704696    0.5480798  77.27  0.004102141    1.483    0.326
        28 -13.3133     12.8571    185.7734   1.1725257043e+02   3.3072984963e+01    0.9931489    0.5345528  60.70  0.004338998    1.806    0.446
        29 -11.4200     41.3741    179.9006   1.0958494928e+02   3.1676912166e+01    0.2818911    0.2444122 -44.30 0.0004873399    1.337    0.252
        30 -11.6279     49.3766    173.3444   1.0667360672e+02   3.2410293230e+01    0.2608953    0.2493307 -65.38 0.0004653649    1.143    0.125
        31 -12.2585     49.9002    200.5980   1.0974696051e+02   2.5575891905e+01     0.691846     0.488483  45.11  0.002266697    1.350    0.259
        32 -10.5151     62.6123    163.2330   1.0158511848e+02   3.3338740862e+01    0.2479398    0.2323608 -80.29  0.000321116    1.030    0.029
        33 -13.3689     48.0943    158.0892   1.0493345941e+02   3.6498206573e+01     1.014276    0.4787766 -54.18  0.004313518    1.955    0.489
        34 -11.0028    246.1898    158.4465   5.8038653391e+01   2.2356712531e+00    0.2651759    0.1866671 -16.16   0.00149278    1.513    0.339
        35  -8.8119    132.4239    158.5305   8.1518138457e+01   2.2911730870e+01    0.1537421    0.1503133 -59.16  0.000146666    1.033    0.032
        36 -11.9090     71.5255    156.4256   9.7917964541e+01   3.3868923780e+01    0.5538652    0.4503725 -14.47  0.002522552    1.537    0.349
        37 -10.3687     78.5522    159.6164   9.6463047306e+01   3.2007736023e+01    0.3172798    0.2585724  77.25 0.0009663776    1.328    0.247
        38 -12.1868     67.7335    143.5133   9.6708542959e+01   3.7767144309e+01    0.7545486    0.4545002  61.47  0.002734261    2.187    0.543
        39 -10.5930     88.0919    143.7763   9.0652795991e+01   3.4583747095e+01    0.3352617    0.2123665 -51.49  0.000826972    1.502    0.334
        40 -11.3047     98.5742    143.3026   8.7484283784e+01   3.2922283930e+01    0.6201251    0.3810749  21.92  0.002507185    2.064    0.515
        41 -11.1083     99.9960    137.7881   8.5857026913e+01   3.4058235880e+01    0.4263538    0.3177358  53.62  0.001761026    1.477    0.323
        42 -11.7506     35.0877    141.0437   1.0626204700e+02   4.2352951473e+01    0.4454985    0.3405371 -40.71  0.001669303    1.382    0.277
        43 -11.3895     75.8976    141.4361   9.3829239323e+01   3.7112635606e+01    0.3213577     0.258848 -52.54  0.000487329    1.175    0.149
        44 -10.9585     92.6630    140.0979   8.8522542016e+01   3.4755889392e+01    0.2876566    0.2575116  67.53  0.000587122    1.200    0.167
        45 -10.8605    104.6753    131.3966   8.3017892222e+01   3.4794913333e+01    0.4804168    0.3576354   7.90  0.001605116    1.765    0.433
        46 -10.9146     69.4317    129.7331   9.3439110079e+01   4.1086903166e+01    0.5471926    0.2662568 -68.87  0.001998578    2.488    0.598
        47 -10.9441     89.7430    127.7368   8.6632194756e+01   3.8372956066e+01    0.2908852    0.2794616  22.43 0.0003962042    1.091    0.083
        48 -11.9230     38.4277    117.7326   1.0125556666e+02   4.8020040028e+01     0.883338    0.4321846 -51.72  0.003910302    1.761    0.432
        49 -10.0075    102.3865    119.7819   8.0860712320e+01   3.8054111900e+01    0.2467559    0.2072137  48.71  0.000450171    1.257    0.204
        50 -11.1519     28.8291    111.3220   1.0336760857e+02   5.0559470468e+01    0.4447513    0.2072826 -71.81  0.001858564    2.193    0.544
        51 -10.1983     80.4736    107.7310   8.4672310203e+01   4.4845649255e+01    0.3763994    0.2654341  64.73  0.001660106    1.966    0.491
        52 -10.9204      1.9451    104.6104   1.1167870672e+02   5.4104998982e+01    0.4990407    0.1523226 -68.70  0.001999327    2.541    0.606
        53 -13.5492    243.5562     97.3910   4.5904943490e+01   1.3141914297e+01     1.174211    0.6617308 -53.00  0.006053382    1.617    0.382
        54 -11.0873     39.4357    104.3082   9.8176870677e+01   5.1273476062e+01    0.3891971    0.3038187  -7.96  0.002133635    1.441    0.306
        55 -10.8912     38.4060     98.0578   9.7164648436e+01   5.2903997968e+01    0.6051501    0.3256426  10.36  0.002665692    2.390    0.582
        56 -11.4821    224.3432     94.7424   4.7897932685e+01   1.7239687822e+01    0.3936329    0.3108424  22.07  0.002155304    1.843    0.457
        57  -9.2742     52.5089     89.5078   8.9727480169e+01   5.3276659887e+01    0.1433197    0.1269295 -32.67 5.542102e-05    1.014    0.014
        58 -12.8303     38.0752     81.3485   9.3157780461e+01   5.6843913789e+01     1.086303    0.8223065 -49.71  0.004689797    1.189    0.159
        59 -10.9933     32.2604     69.1979   9.2177579963e+01   6.0116918673e+01    0.5178217    0.3495834 -45.58  0.002851419    1.284    0.221
        60 -10.6070     14.2246     80.7750   1.0273352918e+02   5.9057372287e+01    0.3588204    0.2536153 -26.71  0.001544712    1.372    0.271
        61 -10.8690     56.9633     79.4260   8.5165258526e+01   5.4928512529e+01    0.3524722    0.2836641  61.34  0.001872431    1.694    0.410
        62 -12.9388      6.0647     56.1350   1.0032651084e+02   6.4967240462e+01    0.8676065    0.7588722  44.24  0.004770477    1.544    0.352
        63 -11.8574      9.6010     50.4227   9.6991103445e+01   6.5907397000e+01    0.4546543    0.4162596  75.50  0.002260278    1.577    0.366
        64 -12.3619     17.8689     52.1962   9.3531299887e+01   6.4934931154e+01    0.5591775    0.5140943  88.33  0.002603258    1.561    0.360
        65  -8.7122     14.5677    247.5247   1.2090622866e+02   1.9130203158e+01    0.1181961   0.08454072  66.75 0.0001031154    1.069    0.065
        66 -11.7966     58.8220     51.4975   7.5074339595e+01   6.0128230400e+01    0.8369305    0.3937239  39.35  0.003776494    2.147    0.534
        67 -12.2695     49.8001     47.3317   7.7215852646e+01   6.2211047750e+01    0.9891886    0.3817763  34.65  0.004185157    2.574    0.612
        68  -9.1785     59.5144    245.5795   1.1188514620e+02   1.4374378699e+01    0.2140248    0.1086735 -88.89  0.001029002    2.413    0.586
        69 -12.3485    214.9073     47.5163   3.8555341670e+01   2.6568320978e+01    0.6111225    0.4148431 -78.91  0.003090709    1.455    0.313
        70  -9.7428     50.1960    245.7231   1.1380768051e+02   1.5503881630e+01    0.2578582    0.1442969  57.88  0.001431659    1.583    0.368
        71 -11.5609     88.6351     38.8173   5.9711895029e+01   5.6637559800e+01    0.5646294    0.3981403  -1.84  0.002958683    1.686    0.407
        72 -14.2798    112.6054    231.4901   9.8837742989e+01   9.8201666567e+00     1.628881     1.061304  37.07  0.006063299    1.369    0.269
        73 -13.7229    129.5795    230.9727   9.4975375187e+01   7.3205765897e+00    0.9410137    0.7688507  42.89   0.00495894    1.144    0.126
        74 -10.6535     50.5079     22.7897   6.6705709709e+01   6.5797509512e+01     0.496065    0.3427445  48.72  0.002903076    1.726    0.421
        75  -9.5634     28.3213    241.6141   1.1790755556e+02   1.8880501314e+01    0.2043734    0.1201712  84.27 0.0008272337    1.580    0.367
        76  -9.3291     17.5738    239.7664   1.1990355175e+02   2.0404001288e+01    0.2718776    0.1009475 -80.56  0.001295104    2.580    0.612
        77  -8.7214     62.6413    240.7033   1.1080448929e+02   1.4973365440e+01    0.1153736    0.0980463 -15.78 0.0004847457    1.704    0.413
        78 -11.0307     79.8998    236.8342   1.0672154130e+02   1.3471494812e+01    0.4298238    0.3712328 -83.15  0.002721521    1.210    0.173
        79 -12.1615     87.5820    234.2999   1.0475882035e+02   1.2922795539e+01    0.6497599    0.3711419  32.42  0.003289748    1.669    0.401
        80 -11.4215     83.8337    229.7305   1.0507622391e+02   1.4416937578e+01    0.6044053    0.3184569  22.87  0.002683754    2.399    0.583
