#   1 NUMBER                 Running object number                                     
#   2 MAG_AUTO               Kron-like elliptical aperture magnitude                    [mag]
#   3 X_IMAGE                Object position along x                                    [pixel]
#   4 Y_IMAGE                Object position along y                                    [pixel]
#   5 X_WORLD                Barycenter position along world x axis                     [deg]
#   6 Y_WORLD                Barycenter position along world y axis                     [deg]
#   7 A_WORLD                Profile RMS along major axis (world units)                 [deg]
#   8 B_WORLD                Profile RMS along minor axis (world units)                 [deg]
#   9 THETA_WORLD            Position angle (CCW/world-x)                               [deg]
#  10 FWHM_WORLD             FWHM assuming a gaussian core                              [deg]
#  11 ELONGATION             A_IMAGE/B_IMAGE                                           
#  12 ELLIPTICITY            1 - B_IMAGE/A_IMAGE                                       
         1 -14.8297      5.8242    143.3756   1.4658035997e+02   4.4232117245e+01     5.551185    0.9843153 -76.21   0.01829264    5.296    0.811
         2 -13.7509    193.9178     24.4289   7.1499043567e+01   3.3218116404e+01     1.752096     1.521965  23.17  0.008129984    1.278    0.218
         3 -13.0623      2.7464     22.5040   1.2614067800e+02   6.9717426444e+01     2.416543          nan -46.38  0.008109619    5.031    0.801
         4 -11.1697      2.3680     11.3039   1.2205195652e+02   7.1693085153e+01     0.591477     0.143862 -47.50  0.002742487    2.729    0.634
         5 -10.8026      2.4254      3.7779   1.1871092911e+02   7.2914095475e+01    0.4156505    0.2379956 -26.50  0.002802609    1.412    0.292
         6 -13.4404    208.6826      6.6209   6.4753131488e+01   3.1327954045e+01     1.084211    0.8513718  59.34  0.006220147    1.263    0.208
         7  -9.4076     31.1064    249.2145   1.4909681163e+02   2.1930996669e+01    0.1951698   0.07572669  34.44  0.001057747    3.382    0.704
         8 -11.5802    173.9139    249.5289   1.2602980507e+02   2.1453002637e+00      0.44408    0.2230292  54.06  0.001996739    2.135    0.532
         9 -11.6990    177.5030    246.1371   1.2499440951e+02   2.0003045017e+00    0.4042514    0.1272015  43.38  0.001853246    2.464    0.594
        10 -13.0236    124.9374    248.5893   1.3412619704e+02   9.8112898182e+00    0.7792112    0.4210654  35.25  0.004597731    1.884    0.469
        11 -12.5431    140.7660    249.4011   1.3156717123e+02   7.3047885094e+00    0.6162575    0.3290117  53.19  0.003704742    1.628    0.386
        12  -8.8889     73.7849    250.3879   1.4262280173e+02   1.6689590744e+01    0.1376276    0.0834476  40.98 0.0006592564    1.607    0.378
        13  -9.1812      2.6126    249.7488   1.5322320034e+02   2.4722979589e+01    0.1567521   0.09325531  61.68  0.001006894    1.166    0.142
        14 -10.0228     20.1078    247.4048   1.5062587340e+02   2.3374735813e+01    0.3273386    0.1515047  38.47  0.002208471    2.251    0.556
        15  -9.6959    237.6933    247.3422   1.1526989884e+02  -7.3521933211e+00   0.09439156   0.08304461  49.47 0.0006773912    1.688    0.408
        16 -11.9639    185.6543    239.1602   1.2267900047e+02   1.5688579699e+00    0.4082235    0.3076244  88.52  0.002478103    2.438    0.590
        17 -12.8863     52.5230    208.2524   1.4289362960e+02   2.6509640813e+01     2.133135    0.5364864  58.95  0.005679478    9.188    0.891
        18 -11.7072     32.4865    218.8039   1.4712545802e+02   2.6879285376e+01    0.7936612    0.6318024  10.46  0.005704925    2.460    0.594
        19 -12.5667     51.0259    217.8989   1.4392613658e+02   2.4936259961e+01     0.867916    0.5611205  64.47   0.00607028    1.226    0.185
        20 -12.8208     37.3354    236.3431   1.4742955611e+02   2.3333982439e+01    0.2739426    0.2181212 -84.32 0.0007692345    1.375    0.273
        21 -13.9820     43.0100    229.1628   1.4607066652e+02   2.3904427207e+01    0.7911753    0.4550956  52.99    0.0026396    1.384    0.278
        22 -10.1563    248.8337    234.1536   1.1145434885e+02  -7.6814967917e+00    0.1650656     0.106537  13.89  0.001090567    1.345    0.257
        23 -12.3780     88.8952    226.6223   1.3809898026e+02   1.8489715881e+01      1.03841    0.1496711  47.32  0.003452736    5.116    0.805
        24 -13.0216    122.4549    232.0012   1.3276943056e+02   1.2661915870e+01     0.836323    0.2683919  39.44  0.003616325    2.892    0.654
        25  -9.5793      3.2451    227.4566   1.5222943077e+02   2.8294504939e+01    0.2341554    0.1175862  39.60  0.001673532    2.038    0.509
        26 -11.6504    154.5059    229.1435   1.2675016274e+02   7.9870601048e+00    0.4740482    0.1420846  37.99  0.001831894    3.337    0.700
        27 -10.2923    172.1419    222.1092   1.2262591124e+02   6.0644116434e+00    0.1924727     0.152162  22.82  0.001250868    1.290    0.225
        28 -13.0620    106.5932    230.6520   1.3540502893e+02   1.5271881418e+01     1.349224    0.1306529  45.35   0.00387185    6.538    0.847
        29 -10.6992     22.7373    212.4697   1.4835305663e+02   2.9033943784e+01    0.4922761    0.2040911  47.87  0.003050323    1.976    0.494
        30 -12.4285     10.4715    206.7445   1.5006600814e+02   3.1267185451e+01    0.4947193    0.3601125  37.52  0.002864728    1.723    0.420
        31  -9.6761     52.8610    203.6209   1.4244089385e+02   2.7332636530e+01    0.2318757    0.1298515  66.71  0.001412929    1.613    0.380
        32 -11.5388     62.9871    201.4399   1.4037485487e+02   2.6489481076e+01    0.2240628    0.1932997 -73.80  0.000515039    1.326    0.246
        33  -9.8819    193.6208    196.3046   1.1455589623e+02   6.0469167488e+00    0.5847421    0.2888021 -60.61  0.001644919    7.956    0.874
        34 -11.8935     69.1228    192.7960   1.3833895153e+02   2.7353534355e+01    0.2410327    0.2063415 -73.98 0.0004309984    1.265    0.210
        35 -12.3259     18.8138    172.3029   1.4628529679e+02   3.7132164528e+01     1.886515    0.6259741  77.11  0.005826403    7.031    0.858
        36 -12.2875      4.4684    170.8425   1.4895240496e+02   3.8675536788e+01    0.8568113    0.3682368 -75.94  0.005101582    1.828    0.453
        37  -9.9008    249.6016    248.4150   1.1355562922e+02  -9.1553258702e+00    0.1745896   0.08827104 -41.89 0.0009625554    3.355    0.702
        38 -10.1711     98.5099    153.6890   1.2677407043e+02   3.1094036229e+01    0.2795821    0.2498093 -73.37 0.0007881104    1.080    0.074
        39 -11.9105     87.2760    152.9542   1.2923726872e+02   3.3007270371e+01    0.2589635    0.2296397 -49.06 0.0005939635    1.276    0.216
        40  -9.8125    134.5103    147.3769   1.1735675364e+02   2.6026255775e+01     0.628429    0.2179932 -56.50  0.001924726    4.104    0.756
        41  -9.2221    101.2332    149.2343   1.2536963843e+02   3.1602869326e+01    0.1890175    0.1836894 -40.96 0.0008972848    1.191    0.160
        42 -12.3363     67.1961    143.7430   1.3249574504e+02   3.7866802478e+01    0.6320401    0.4058493  67.90  0.003195595    1.740    0.425
        43 -10.4505     97.3427    135.5280   1.2375229295e+02   3.5218508115e+01     0.240629    0.2166168 -34.41 0.0003448043    1.272    0.214
        44  -9.4102     84.0683    134.8263   1.2689219203e+02   3.7462235416e+01     0.206901    0.1639111  76.85 0.0007154711    1.332    0.249
        45  -9.8895    109.9976    138.0293   1.2117535863e+02   3.2520385473e+01    0.3570107    0.2551025 -15.94  0.001253314    2.282    0.562
        46  -8.5502    209.4765    179.9880   1.0861099726e+02   5.5398316722e+00    0.1560454    0.1173109 -64.18 0.0003638563    2.131    0.531
        47  -8.9471    107.0428    124.5009   1.1906443615e+02   3.5976266086e+01    0.1899091    0.1404513  41.90 0.0003556104    1.412    0.292
        48 -10.8094     79.0674    179.5049   1.3481120729e+02   2.8638903606e+01    0.2172327    0.1878055  79.90 0.0003534836    1.036    0.035
        49 -13.1325     65.9214    177.8060   1.3732162720e+02   3.0767538478e+01    0.4455186    0.2564197 -47.45  0.001585807    2.272    0.560
        50  -9.9354    167.7718    112.8847   1.0187245785e+02   2.5867636431e+01    0.3200724    0.2525586 -57.19 0.0008909703    1.424    0.298
        51  -9.2421    203.2090    111.5641   9.4420257042e+01   1.7974771374e+01    0.2114692    0.1356662  38.23 0.0007751778    1.641    0.391
        52  -8.8841    103.0692    179.2653   1.2977940773e+02   2.5083378839e+01    0.2201827     0.126525  65.50  0.001053991    2.062    0.515
        53  -9.0281    156.7531     75.9959   9.3918411946e+01   3.5240348793e+01    0.2052534    0.1292411 -34.27 0.0005913657    1.570    0.363
        54 -11.7974     86.3335    170.1177   1.3203059552e+02   2.9514847939e+01    0.5453106    0.5093034 -41.85  0.002787765    1.357    0.263
        55 -11.9900      2.4089     62.9927   1.3698996040e+02   6.1763202028e+01    0.4631713    0.1872081 -67.19  0.002420387    1.961    0.490
        56 -11.4977      2.5838    152.9052   1.4804211906e+02   4.2480413724e+01     0.972188    0.1961159 -74.97   0.00387618    3.787    0.736
        57 -10.8739    161.5607    249.1185   1.2804797471e+02   4.1265890457e+00    0.2353222    0.1238217  32.26  0.001325322    1.902    0.474
        58 -12.8660    144.2399    244.8205   1.3046512634e+02   7.3997275305e+00    0.7810053    0.3886729  62.82  0.003782426    2.943    0.660
        59 -10.1124     98.9817    249.4859   1.3849839358e+02   1.3438435810e+01    0.1684282   0.08343086  45.60  0.000528016    1.578    0.366
        60 -10.0151     81.7462    248.8650   1.4123743287e+02   1.5883212296e+01    0.2001728    0.1208605  77.28  0.001356099    1.659    0.397
