#   1 NUMBER                 Running object number                                     
#   2 MAG_AUTO               Kron-like elliptical aperture magnitude                    [mag]
#   3 X_IMAGE                Object position along x                                    [pixel]
#   4 Y_IMAGE                Object position along y                                    [pixel]
#   5 X_WORLD                Barycenter position along world x axis                     [deg]
#   6 Y_WORLD                Barycenter position along world y axis                     [deg]
#   7 A_WORLD                Profile RMS along major axis (world units)                 [deg]
#   8 B_WORLD                Profile RMS along minor axis (world units)                 [deg]
#   9 THETA_WORLD            Position angle (CCW/world-x)                               [deg]
#  10 FWHM_WORLD             FWHM assuming a gaussian core                              [deg]
#  11 ELONGATION             A_IMAGE/B_IMAGE                                           
#  12 ELLIPTICITY            1 - B_IMAGE/A_IMAGE                                       
         1 -14.2505    202.7647     12.2448   6.2676408298e+01   3.2210673978e+01     2.933651      1.49821  29.82   0.01153382    2.407    0.585
         2 -12.7020      2.1430     11.4735   1.2626304948e+02   7.1746953616e+01     2.138789    0.2110033 -64.39  0.005163804    9.171    0.891
         3 -13.1225     12.8395      3.9816   1.1733275323e+02   7.2658550697e+01       1.6714    0.4914949 -41.94   0.00754939    2.500    0.600
         4 -11.0001    239.6993    247.5669   1.1057279293e+02  -2.9179273338e+00    0.2106617   0.06772089  36.53  0.001145615    2.136    0.532
         5 -10.4470    249.5054    249.5217   1.0935827720e+02  -4.3707954645e+00    0.1771805    0.1143696  23.91  0.001390142    1.016    0.015
         6 -11.4285    139.1992    246.5044   1.2641478258e+02   1.1160705793e+01    0.2227542    0.1671386 -74.27  0.001723256    1.954    0.488
         7 -11.3316    125.7015    250.0017   1.2889879061e+02   1.2541408451e+01    0.3155769     0.113923  39.21  0.001806722    2.057    0.514
         8 -11.3442     97.8828    248.4700   1.3318919354e+02   1.6250750478e+01    0.2405963    0.1996567  60.14  0.001207606    1.197    0.164
         9 -11.1033    101.3787    246.1622   1.3246614779e+02   1.6117595278e+01    0.2760429    0.1462596 -65.92   0.00176162    2.467    0.595
        10 -10.5071     88.8590    249.1450   1.3464967939e+02   1.7248176465e+01    0.2222098    0.1034665  59.24   0.00105962    1.999    0.500
        11 -10.6376     85.4140    246.7650   1.3502928635e+02   1.7965522767e+01    0.1691062    0.1262814  87.38  0.001171646    1.484    0.326
        12 -11.4700     81.6524    248.6021   1.3573421719e+02   1.8162388135e+01    0.2919995    0.1596535  55.53  0.001770354    1.402    0.286
        13 -11.9222     81.4122    243.4833   1.3544214145e+02   1.8870629587e+01     0.277525    0.1942567  47.57  0.001517694    1.118    0.106
        14 -11.8826     47.5300    248.2166   1.4089598515e+02   2.1919683637e+01    0.3972914    0.2482991  39.17  0.002249699    1.503    0.335
        15 -14.4319     32.1513    247.1689   1.4311179876e+02   2.3570902379e+01     9.103621     2.740427  28.85   0.02884689   12.125    0.918
        16 -11.4573    120.2858    238.6112   1.2878088718e+02   1.4666311004e+01    0.2566801     0.168505 -85.13  0.001817061    2.228    0.551
        17  -9.3059    186.2682    239.6109   1.1799225052e+02   5.3053473192e+00   0.09556337      0.07462  57.93 0.0006986191    1.710    0.415
        18 -15.6769      6.8686    211.0603   1.4564622695e+02   3.1143479054e+01     7.624289     1.285176 -78.04   0.03285357    5.043    0.802
        19 -13.2797     44.0920    230.7132   1.4059010896e+02   2.4738999633e+01    0.5756765    0.2598069  38.40  0.001930822    1.888    0.470
        20 -13.0897      4.2296    245.8784   1.4703799286e+02   2.6226971598e+01    0.7942963    0.6366671  71.13  0.007966086    1.331    0.248
        21 -11.6337     19.7570    230.0963   1.4431460588e+02   2.7139346838e+01    0.3150655    0.2012494  89.02  0.002781931    1.443    0.307
        22 -10.9958    149.2750    229.4050   1.2298920911e+02   1.1818403133e+01     0.240374    0.1199322  45.92  0.001465601    1.575    0.365
        23  -9.7609     32.7232    228.3251   1.4225682674e+02   2.6206247417e+01    0.1592413    0.0938752  60.79 0.0005689187    1.223    0.183
        24 -10.9189     35.4803    224.1410   1.4163519942e+02   2.6568411917e+01    0.2816792    0.1656431  52.69  0.001493907    1.240    0.194
        25  -9.5306    229.4890    229.9558   1.0971934216e+02  -3.3071304863e-02    0.1136736   0.09684205 -55.53 0.0008085857    2.462    0.594
        26 -10.7368     26.2268    239.9287   1.4370731606e+02   2.5133426936e+01    0.1820178    0.1187741  83.92  0.001104899    1.386    0.278
        27  -9.3385     94.5974    216.6056   1.3121393522e+02   2.1083192311e+01    0.2273463    0.1142938  63.39 0.0007520886    2.242    0.554
        28  -8.9451    152.7063    212.9762   1.2046119528e+02   1.3421681756e+01    0.1468094    0.1244092  39.78 0.0003197006    1.097    0.088
        29 -10.7404     32.2173    207.0264   1.4134085484e+02   2.9560334166e+01    0.2830332    0.1170374  56.76 0.0009898035    1.899    0.473
        30 -10.8289     25.4208    203.5296   1.4231645365e+02   3.0760214714e+01    0.3507856    0.1219544  39.48  0.001933088    2.287    0.563
        31  -9.9983    192.4636    193.7697   1.1052512626e+02   9.5642153910e+00    0.5773505    0.3117335 -60.33  0.001814737    8.495    0.882
        32 -11.4315     67.4019    196.7290   1.3445049782e+02   2.7573619885e+01    0.2843957    0.2045359 -46.40  0.001827818    2.001    0.500
        33 -11.6011     72.6339    189.3408   1.3284198390e+02   2.8217879136e+01    0.2152565    0.1995582 -64.54 0.0006179936    1.369    0.270
        34 -14.3394     57.0351    212.3230   1.3742212739e+02   2.6189701274e+01     2.436877    0.6178666  50.52   0.01193768    3.069    0.674
        35 -10.8458     81.6980    176.8526   1.2984137425e+02   2.9305242333e+01    0.1995255    0.1794251  86.79 0.0004114487    1.143    0.125
        36 -13.1427     69.0338    174.6369   1.3218836089e+02   3.1269511070e+01    0.3947357    0.2469866 -44.56   0.00160833    2.257    0.557
        37 -10.1103    119.9711    175.0000   1.2176663883e+02   2.4239442350e+01    0.2080436   0.06120738  39.66 0.0008064729    2.970    0.663
        38  -9.8452    126.0250    174.0000   1.2037989879e+02   2.3469075377e+01    0.2117848   0.06187035  40.08 0.0008081028    2.982    0.665
        39 -12.0250     88.5809    167.6171   1.2737303412e+02   3.0097014744e+01    0.8798061    0.4615778  57.22  0.004656412    1.984    0.496
        40 -12.7586     67.2579    144.0580   1.2923014461e+02   3.7415876327e+01    0.9028682    0.5095168  80.19   0.00391505    2.248    0.555
        41 -12.0841     58.3872    133.0882   1.2996947742e+02   4.0715192831e+01      1.51013    0.4908469 -79.29  0.003876134    8.467    0.882
        42  -9.1551    103.3173    147.3476   1.2133322110e+02   3.1869087100e+01    0.2595884     0.175001 -24.69  0.001143436    2.382    0.580
        43 -12.0209     89.2886    150.9520   1.2507056376e+02   3.3190474798e+01    0.2315077    0.2203576 -34.98 0.0005380166    1.265    0.209
        44 -13.8712     49.0904    221.2719   1.3929250261e+02   2.5641282746e+01    0.8683955    0.4621063  56.89  0.004381744    1.431    0.301
        45  -8.4774    192.2415    144.0119   1.0136270479e+02   1.6465402837e+01    0.1610416    0.1143425 -27.81 0.0003511212    1.479    0.324
        46 -12.1815     28.2351    138.9418   1.3768848491e+02   4.2440531986e+01    0.4295563    0.1504524  38.51  0.002013208    2.617    0.618
        47  -9.8318    111.0896    136.7119   1.1774226834e+02   3.2751597567e+01    0.3093191    0.2233173 -16.72  0.001245286    2.082    0.520
        48 -10.4380     98.7549    134.0061   1.2024045437e+02   3.5223550063e+01    0.2441973    0.2033361 -34.36 0.0005541425    1.404    0.288
        49 -10.8740     50.3946    129.7194   1.3150901166e+02   4.2286609711e+01    0.2333219    0.1846342  71.28 0.0005906911    1.183    0.155
        50 -11.1257    124.8874    243.3052   1.2844477782e+02   1.3464379829e+01    0.1579646    0.1272068  71.41  0.001318284    1.401    0.286
        51  -9.5374    107.9181    123.7578   1.1610912092e+02   3.5883388986e+01    0.1839431    0.1738738  13.25  0.000342545    1.146    0.127
        52 -10.9634    168.2411    113.2543   9.9340789366e+01   2.6369894949e+01    0.3155973    0.3025183  75.37 0.0007874073    1.255    0.203
        53 -12.3422     32.9508    155.3183   1.3797684975e+02   3.8746987812e+01    0.5148566    0.1662839 -62.11  0.002562235    2.839    0.648
        54  -9.9795    100.7338    151.5047   1.2255483221e+02   3.1446380176e+01    0.2331198    0.2171971  65.60 0.0007951214    1.031    0.030
        55 -10.4704    163.1944    249.0906   1.2280162856e+02   7.5771237133e+00    0.1936391    0.1183354  45.38 0.0008993162    1.286    0.222
        56 -12.1225    106.5182    247.3614   1.3173967737e+02   1.5324327698e+01    0.4109705    0.1700139  46.26  0.002536405    1.721    0.419
