#   1 NUMBER                 Running object number                                     
#   2 MAG_AUTO               Kron-like elliptical aperture magnitude                    [mag]
#   3 X_IMAGE                Object position along x                                    [pixel]
#   4 Y_IMAGE                Object position along y                                    [pixel]
#   5 X_WORLD                Barycenter position along world x axis                     [deg]
#   6 Y_WORLD                Barycenter position along world y axis                     [deg]
#   7 A_WORLD                Profile RMS along major axis (world units)                 [deg]
#   8 B_WORLD                Profile RMS along minor axis (world units)                 [deg]
#   9 THETA_WORLD            Position angle (CCW/world-x)                               [deg]
#  10 FWHM_WORLD             FWHM assuming a gaussian core                              [deg]
#  11 ELONGATION             A_IMAGE/B_IMAGE                                           
#  12 ELLIPTICITY            1 - B_IMAGE/A_IMAGE                                       
         1 -14.3590     19.9642     57.6552   8.4272801594e+01   6.1474546770e+01    0.7404349    0.4299666 -28.16  0.001328449    1.930    0.482
         2 -12.2807      4.2874     49.5666   8.8138866966e+01   6.4040013507e+01    0.8810728     0.103591 -63.55  0.002895593    5.163    0.806
         3 -11.5249     14.3179     16.2022   7.4237628811e+01   6.9705659213e+01    0.4707084    0.2508199 -60.70  0.001435067    2.344    0.573
         4 -10.1289     39.5080     15.0281   6.2381090893e+01   6.7578896652e+01    0.2870317    0.1216519 -43.97  0.001071758    2.213    0.548
         5 -10.8775     82.6273     16.3625   4.6609099429e+01   6.0996951933e+01    0.3526779    0.2118297   6.30 9.178242e-05    2.055    0.513
         6 -10.7367     85.7629     11.5437   4.3487405070e+01   6.1010182766e+01    0.2811574    0.1963468  -3.45  0.001381815    1.401    0.286
         7 -11.5291    235.0860     14.7233   1.7394786406e+01   2.3795312727e+01    0.3265065    0.2361646  61.40 0.0008299669    1.388    0.280
         8 -11.0292    207.9972     12.9055   1.9839044212e+01   3.0942073429e+01    0.2757196    0.2356639  -7.73 0.0004115182    1.377    0.274
         9 -11.5787    203.1224     12.1513   2.0209646477e+01   3.2307039794e+01    0.4063277    0.2220976  75.79 0.0006663585    1.778    0.437
        10 -11.9727    126.0095     10.9000   3.2532026440e+01   5.2420323879e+01    0.3287487    0.2679548 -51.00 0.0002861791    1.489    0.329
        11 -11.1711     34.6474     12.2078   6.3263005925e+01   6.8545315969e+01    0.3775845    0.3453532  56.56  0.001990571    1.839    0.456
        12 -11.2114     28.1517      9.1438   6.4838153901e+01   6.9677935878e+01    0.2302078    0.1361072 -29.04 0.0004594724    1.357    0.263
        13 -11.1620     31.6883      6.6568   6.2062322634e+01   6.9687072606e+01    0.2558615    0.2014382  15.75   0.00107501    1.355    0.262
        14 -12.0814    193.1869     10.3759   2.0936389087e+01   3.5127890727e+01    0.5659171    0.3293877  69.26   0.00209405    1.569    0.363
        15  -9.8334     90.8795     12.0827   4.2151790570e+01   5.9961467694e+01    0.3197849    0.1419844  31.35  0.001307279    2.642    0.622
        16  -9.9507    135.0569     11.0138   3.0640248517e+01   5.0217904419e+01    0.2095938    0.1857167  39.65 0.0003187059    1.014    0.014
        17  -9.7873     50.9108     10.9324   5.5745004551e+01   6.6761093341e+01    0.1539606    0.1449836 -44.78  0.000545445    1.579    0.367
        18 -10.6466    148.9163      9.0436   2.7252841250e+01   4.6932135625e+01    0.3180558    0.2036758   4.63  0.001407149    1.915    0.478
        19 -11.9257    116.9435      8.5606   3.3686924490e+01   5.4778742421e+01     0.285563    0.2617926  53.01  0.000644106    1.160    0.138
        20 -10.6121     97.7949      7.9134   3.8335183907e+01   5.9031533860e+01    0.3748133    0.2066807  -8.16  0.001128234    2.045    0.511
        21 -10.1357     45.4685      9.8355   5.7487150777e+01   6.7627490393e+01    0.1726095    0.1474947  11.18 0.0005796637    1.253    0.202
        22  -9.7526    182.2350      9.6192   2.2169191315e+01   3.8122024441e+01    0.2123292     0.114831  57.37 0.0004847823    1.647    0.393
        23  -9.7655     22.1697      9.3169   6.7719704320e+01   7.0208072537e+01    0.2088134   0.09441786  16.20  0.001108155    2.745    0.636
        24 -10.0029     15.6237      8.8943   7.0679990835e+01   7.0816101138e+01    0.1780765    0.1231425  -7.28  0.001272281    1.387    0.279
        25 -10.4366      3.7816      7.1480   7.5825167125e+01   7.1907469998e+01    0.3174853    0.1293422 -47.45  0.001873951    1.774    0.436
        26 -11.0124    166.6888      6.1970   2.3341854949e+01   4.2581886457e+01    0.4726511    0.2395316  31.02  0.001880352    2.556    0.609
        27  -9.6841     56.5311      8.0613   5.2153559288e+01   6.6355510385e+01    0.1752432    0.1032493 -27.11 0.0003915773    1.503    0.335
        28  -9.5460     88.7940      6.8926   4.0486860677e+01   6.0953983058e+01    0.1686014   0.09686132 -19.34 0.0007225914    1.712    0.416
        29  -9.8100    156.6649      5.5070   2.4694113538e+01   4.5271321785e+01    0.2374531    0.1332863 -21.31  0.001081606    1.952    0.488
        30 -10.6087    199.3002      5.0364   1.8647392044e+01   3.4047951836e+01    0.1953482    0.1810801 -72.18 0.0005956402    1.081    0.075
        31 -11.1612    194.3313      4.7924   1.9165706303e+01   3.5385746318e+01    0.2736321    0.1882337  41.22 0.0009464036    1.584    0.369
        32 -10.6413    104.7901      3.8750   3.4735046743e+01   5.7956013793e+01    0.2507147    0.1927129  -4.20  0.001144392    1.280    0.219
        33 -11.8392     18.6047      2.4915   6.6352353535e+01   7.1561300667e+01    0.4504654    0.2147156  21.64  0.002687333    2.323    0.570
        34 -10.9535    149.6816      2.7340   2.4901115481e+01   4.7326688759e+01    0.3387647    0.1803322  74.72  0.001464489    2.002    0.501
        35  -9.7667     59.6438      3.3986   4.8705664019e+01   6.6467058158e+01    0.2062652    0.1125675  46.47  0.001005472    2.093    0.522
        36 -10.9957    123.1379      1.7794   2.9593205491e+01   5.3977382462e+01    0.2283693    0.1748634  50.56 0.0006697394    1.164    0.141
        37 -11.3336    162.8648      2.3189   2.2648189186e+01   4.3944889443e+01    0.4744765    0.2675755 -86.08  0.001658138    2.357    0.576
        38  -9.6345     80.9505      1.4908   4.0419175183e+01   6.3024901575e+01    0.1706192     0.117048  47.85 0.0004408416    1.479    0.324
        39  -9.4432     28.4106      1.3141   6.1019046002e+01   7.0792754243e+01    0.1690933   0.09426483  26.93 0.0007524181    1.906    0.475
        40  -9.9558      6.9393    168.4724   1.0174933960e+02   3.8962187071e+01    0.1387732   0.09287762  47.31 0.0004231646    1.560    0.359
        41 -10.0628    110.0337    250.5884   9.0174023686e+01   1.1413584656e+01    0.1697386   0.08239639  46.59 0.0005359257    1.561    0.359
        42 -10.8238     28.6986    250.5365   1.0275731350e+02   2.2055593062e+01    0.2221819   0.06558987  44.60  0.001284433    2.535    0.606
        43 -11.8572     18.4327    248.5586   1.0413491134e+02   2.3466136054e+01    0.2294677    0.1906484 -83.23  0.002107752    1.645    0.392
        44 -12.2984      4.1014    233.2778   1.0555257434e+02   2.7368052929e+01    0.3318599     0.207867  65.65  0.001392572    1.116    0.104
        45 -12.1056      3.3684    247.7109   1.0620548644e+02   2.5112005503e+01    0.4832799    0.2720053  57.87   0.00378309    1.280    0.219
        46 -12.4441     10.6104    243.7193   1.0504130076e+02   2.5034263402e+01    0.5161927    0.1418042 -85.27  0.002701358    3.561    0.719
        47 -12.4793      5.4485    239.9915   1.0562480840e+02   2.6141430338e+01    0.3902619    0.2898822  42.77  0.003406015    1.783    0.439
        48  -9.3163    226.2087    164.0166   5.5637713868e+01   3.6599808016e+00    0.1775803    0.1088086 -31.41 0.0008611401    1.698    0.411
        49  -9.3736      1.3527    158.2346   1.0214034700e+02   4.1459805341e+01   0.09042855   0.07125821 -58.85  0.000248909    1.570    0.363
        50 -10.8775      5.4872    154.4990   1.0106488115e+02   4.1900169740e+01    0.2625449    0.1416091  57.82   0.00163002    1.720    0.419
        51 -10.9287      6.5419    145.3202   1.0015139403e+02   4.3711257853e+01    0.2036815    0.1448868  84.13  0.000239593    1.102    0.092
        52  -9.8916     28.9888    143.0412   9.5076329357e+01   4.2295429808e+01    0.1714465    0.1338623 -88.43 0.0003031975    1.010    0.010
        53  -9.5891     52.8835    141.8198   8.9456473561e+01   4.0048811848e+01     0.168641    0.1215946  80.29            0    1.305    0.234
        54  -9.4779    235.9941    138.4590   4.8298403235e+01   5.5494083780e+00    0.2106726    0.1356159  47.09  0.001015862    1.551    0.355
        55  -9.7241     95.9978    133.7554   7.7711706505e+01   3.5805629230e+01    0.1918319    0.1736385  81.30 0.0006740627    1.040    0.039
        56 -10.7809     28.4454    127.9941   9.3515284073e+01   4.5610978209e+01    0.1853072    0.1618149  65.62  0.001357444    1.244    0.196
        57  -9.6259    226.4923    124.5367   4.6738520773e+01   9.8163432649e+00    0.1456999    0.1384812   4.95 2.088113e-05    1.023    0.022
        58 -11.5266     10.1460    121.1713   9.7146898085e+01   4.8556472573e+01    0.3569677    0.2079931 -85.55 0.0004022115    1.416    0.294
        59 -10.7314     25.4440    121.7594   9.3491166281e+01   4.7237898971e+01    0.2730963    0.1401675  45.68  0.001555995    2.114    0.527
        60 -10.1349     86.1591    118.8347   7.7324806757e+01   4.0710705317e+01    0.1861795    0.1591027 -37.26 0.0005528363    1.330    0.248
        61 -11.2810     16.1883    118.0494   9.5336376439e+01   4.8788835034e+01    0.2668475    0.1571321  -1.89   0.00146559    3.178    0.685
        62 -10.5260     69.1131    116.3763   8.1367606221e+01   4.3716337419e+01    0.2521743    0.1717385 -69.58 0.0007829513    1.363    0.266
        63 -10.2304      1.9477    114.0301   9.8397296177e+01   5.0625047549e+01    0.1661173    0.1209488 -79.84            0    1.017    0.017
        64  -9.6698     73.8550    113.0458   7.9454903223e+01   4.3820486507e+01    0.1929495    0.1402137 -46.00  0.001058021    1.403    0.287
        65 -10.7057     25.4768    112.0329   9.2229649802e+01   4.9369863633e+01    0.2458924    0.1422585  55.20 0.0008920768    1.958    0.489
        66 -11.1675     13.1955    103.9491   9.4393164319e+01   5.2062945499e+01    0.2807495    0.1256859 -70.68  0.000440183    1.709    0.415
        67 -10.9907     15.4972    111.4923   9.4734511560e+01   5.0263423215e+01    0.1847603    0.1534377  84.44  0.001089356    1.167    0.143
        68 -10.7068     44.0812    109.8340   8.6954798264e+01   4.8137261607e+01    0.2839966    0.1903294  78.32  0.001617286    1.702    0.413
        69  -9.6021     69.0891    108.4076   7.9836742782e+01   4.5513793483e+01    0.1717039    0.1170303  -3.17 0.0008032619    2.581    0.612
        70 -10.4170     39.1154    105.1667   8.7543804993e+01   4.9671515008e+01    0.1820976    0.1436379 -52.73 0.0005369505    1.226    0.185
        71 -10.5090     21.7009    104.4378   9.2184931403e+01   5.1338121945e+01    0.2802228    0.1171448  80.37 0.0009008358    5.975    0.833
        72 -10.3936      1.4105    104.2792   9.7509373859e+01   5.2734409919e+01    0.2023017   0.07584616 -68.87 0.0006080805    1.898    0.473
        73  -9.7999     66.5309    104.5116   7.9763681112e+01   4.6725428033e+01    0.2005811    0.1329746  16.55  0.001014472    2.159    0.537
        74 -10.2669    247.1905    101.5806   3.7724694229e+01   8.8300145780e+00    0.1969968     0.129287  40.58 0.0005622521    1.625    0.384
        75 -10.0614     61.4574     99.5119   8.0181263942e+01   4.8487222729e+01    0.1310195    0.1130198 -60.93 3.692897e-06    1.023    0.022
        76 -12.4501    197.0995     97.5208   4.5420455713e+01   2.1382939309e+01    0.2834567    0.2723697  52.67 0.0003417317    1.042    0.041
        77 -12.2735     20.1151     92.8876   9.0923163828e+01   5.3978937080e+01     0.415491    0.2862065 -33.51  0.002686997    1.733    0.423
        78 -11.3645     11.1570     93.1457   9.3505884230e+01   5.4533281439e+01    0.2544912    0.1736286 -65.66    0.0009888    1.125    0.111
        79 -11.4959      7.0865     90.6107   9.4302908161e+01   5.5327194299e+01      0.22352    0.1445131 -69.16   0.00150532    1.160    0.138
        80 -11.7107    125.1315     93.0325   6.0705062113e+01   3.9261870041e+01    0.2505001    0.2393984  32.11            0    1.075    0.070
        81 -11.3887     57.7927     91.5993   7.9579400679e+01   5.0688050376e+01    0.4251882    0.2285914 -38.02  0.001697682    2.162    0.537
        82 -10.3183    106.0671     92.3925   6.5704012874e+01   4.3166386888e+01    0.3104927    0.1900394 -63.81  0.001290966    2.025    0.506
        83  -8.9575     29.6627     91.7123   8.7959311928e+01   5.3491406828e+01    0.1200681   0.07696195 -41.34 0.0007018984    1.634    0.388
        84  -9.0748     83.5547     90.4301   7.1647361649e+01   4.7425378276e+01    0.1372273    0.1247812 -45.04 2.589097e-05    1.049    0.047
        85  -9.9632     11.4607     88.5101   9.2753555182e+01   5.5511954559e+01    0.1859969   0.09544305 -54.44 2.914402e-05    1.586    0.370
        86 -10.0462    159.9053     89.1358   5.1002160062e+01   3.2125353497e+01    0.2339555     0.211863 -86.81 0.0003022479    1.224    0.183
        87  -9.6040    140.8674     88.6325   5.5424828917e+01   3.6710447572e+01    0.2110596    0.1446769  61.19            0    1.646    0.393
        88 -10.0673     17.9353     85.2013   9.0332411550e+01   5.5798640700e+01    0.2245644     0.170085  79.98  0.001528312    1.452    0.311
        89  -9.9360     30.2109     84.7971   8.6549000336e+01   5.4955108497e+01     0.163709     0.136332 -70.58  0.000464399    1.085    0.078
        90  -9.5117     34.7833     84.3688   8.5065377980e+01   5.4656130569e+01    0.1409157      0.11503  -4.04 0.0006946309    1.558    0.358
        91 -10.8173      7.4495     84.0759   9.3269835796e+01   5.6702874967e+01    0.1891006    0.1364282 -40.61 0.0007474358    1.474    0.321
        92 -10.8679     65.6434     80.8205   7.4649194165e+01   5.2062931608e+01    0.3983063    0.2489481 -24.70  0.001918432    2.185    0.542
        93  -9.6230     43.0242     80.7752   8.1753521779e+01   5.4664405119e+01    0.1565645    0.1375664 -54.90 -0.000430966    1.063    0.059
        94  -9.6553    250.4885     80.5274   3.2076799289e+01   1.1265118261e+01     0.141501    0.1326391 -32.81 0.0001948951    1.006    0.006
        95 -10.0073     86.7950     77.9901   6.7355253337e+01   4.9567480078e+01    0.4481428     0.314781 -57.38  0.002308926    1.450    0.311
        96  -9.1647    124.6389     79.2622   5.6874084815e+01   4.2154922867e+01    0.1491239    0.1197768  86.06 0.0006981051    1.634    0.388
        97 -10.1383     48.0904     78.9342   7.9734917068e+01   5.4543375734e+01    0.1879952    0.1532996 -47.82 0.0003696208    1.084    0.077
        98 -10.5186     54.1867     75.8777   7.7049010670e+01   5.4527256430e+01    0.3005095     0.262368 -20.96   0.00146917    1.241    0.194
        99  -9.7249     22.4855     76.9240   8.7467083265e+01   5.7255338062e+01      0.17826   0.09421695 -65.06 0.0004734436    1.513    0.339
       100 -11.6616     13.0131     76.3271   9.0342559297e+01   5.8020888692e+01    0.3046271    0.2023416  -6.54  0.001417696    2.072    0.517
       101 -11.7610      5.1315     75.5976   9.2674041914e+01   5.8629798624e+01    0.3336457    0.1230422 -60.84   0.00177939    1.874    0.466
       102  -9.9778    177.0746     76.1987   4.3493584169e+01   3.0192616805e+01    0.2526229    0.2128682  29.93 0.0008504456    1.264    0.209
       103  -9.9317     70.0419     74.4319   7.1581800616e+01   5.2830853965e+01    0.2937731    0.2039344  24.77  0.001457288    1.697    0.411
       104  -9.8951     34.9324     73.2441   8.2697025178e+01   5.7040405609e+01     0.203023       0.1495  19.34  0.001298814    1.677    0.404
       105  -9.6031    105.8524     71.6921   5.9808378398e+01   4.7469358207e+01    0.1950603    0.1311469  52.47 0.0006310133    1.670    0.401
       106  -9.8539     93.4958     71.5401   6.3430625342e+01   4.9763541157e+01    0.2832497    0.1385366  44.03  0.001199444    2.206    0.547
       107 -10.5143    151.0941     72.1499   4.8025890809e+01   3.7423353478e+01     0.249169    0.2211317 -29.90 0.0002901614    1.143    0.125
       108  -9.2275    157.6917     70.3227   4.5936096494e+01   3.6124170913e+01    0.1589592     0.123355 -73.33 0.0006788282    1.646    0.393
       109  -9.0456     70.2144     69.9625   7.0278233363e+01   5.3738046902e+01    0.1654952   0.09754455 -50.32  0.000819333    1.517    0.341
       110 -10.4208    188.5094    248.4744   7.6770114870e+01  -9.0679967219e-01    0.1784767   0.08778975  49.77 1.690079e-05    1.743    0.426
       111  -9.5861     44.8523     68.7418   7.8340224739e+01   5.7050285326e+01    0.2434054    0.1354989 -62.77  0.001269578    1.712    0.416
       112  -8.7238     58.4870     68.4836   7.3713638120e+01   5.5577378144e+01    0.2091013    0.1021054 -44.33 0.0001152834    1.805    0.446
       113  -9.2537     58.6158     65.4904   7.2839425766e+01   5.6180238201e+01    0.1798622    0.1285573  29.70 0.0004504447    1.601    0.375
       114 -10.3517     52.2869     67.2308   7.5448094849e+01   5.6566644143e+01    0.2251649    0.1970011  50.56  0.001194247    1.393    0.282
       115  -9.7277    211.8106     67.4922   3.4558892174e+01   2.2660748524e+01    0.2151757    0.1485738  59.21 0.0005442888    1.445    0.308
       116 -11.8549     12.1488     48.8583   8.5055599498e+01   6.3754731721e+01     1.064526    0.4670473  49.62  0.004759694    4.539    0.780
       117 -10.1645     40.1348     65.1679   7.9040954360e+01   5.8264329423e+01    0.1799003    0.1759575 -79.99 0.0007348292    1.221    0.181
       118  -9.7381    138.3462     63.3203   4.8332810178e+01   4.2052741549e+01    0.1615225    0.1174425  16.25 0.0007049374    1.731    0.422
       119  -9.8446     62.9977     62.6103   7.0529424005e+01   5.6212731051e+01    0.2512826    0.1133439 -49.94  0.001137837    1.940    0.485
       120  -9.6723     38.9755     61.4927   7.8499993217e+01   5.9135330783e+01    0.1534586    0.1213326  21.95 0.0004718913    1.504    0.335
       121 -10.4540     57.7388     59.2445   7.1326716896e+01   5.7555239194e+01    0.2816862    0.1971466  -4.89 0.0008846617    1.812    0.448
       122 -10.2121    146.0774     59.0104   4.5053587782e+01   4.0939880663e+01    0.2374901    0.2255502  36.83  0.001270809    1.025    0.025
       123  -9.7920     49.0063     59.2479   7.4371174410e+01   5.8570038896e+01    0.1812538    0.1626944 -77.97  0.001202321    1.335    0.251
       124 -13.7749    114.5412     53.0517   5.1192656072e+01   4.9170674711e+01    0.4381083     0.385003 -27.01 0.0007719947    1.107    0.097
       125 -13.0894    106.2146     50.3017   5.2619650276e+01   5.1359273473e+01    0.4018349    0.3229693  53.88 0.0005308733    1.393    0.282
       126 -10.9943     80.9102     67.2333   6.6036838241e+01   5.2712264078e+01    0.2595682    0.1925982 -44.95 0.0002843458    1.229    0.187
       127  -9.2132    130.6804     57.2805   4.8289567851e+01   4.4884239718e+01    0.1457332    0.1202009 -79.87 0.0003258047    1.582    0.368
       128 -10.8545     71.5474     56.6390   6.5790690866e+01   5.6216423375e+01    0.3095825    0.2332466  45.11  0.001688777    1.566    0.361
       129 -12.2706     66.8879     52.6269   6.6074638984e+01   5.7650026082e+01    0.3926087    0.2408176  31.03  0.001457308    1.814    0.449
       130 -12.6094    119.4010     47.2538   4.7816911827e+01   4.9093180579e+01    0.3189567    0.2976627  19.89 0.0003192346    1.031    0.030
       131 -10.0248     32.8805     55.7693   7.9161971673e+01   6.0855706181e+01    0.1830096    0.1261687 -39.10  0.001090619    1.262    0.208
       132 -10.0270     36.4233     53.8371   7.7348659141e+01   6.0928278896e+01    0.2303487    0.1529906 -43.89 0.0007008874    1.225    0.184
       133 -10.1460     38.7092     51.3292   7.5794483022e+01   6.1212563893e+01     0.262073    0.1458476 -55.83  0.001035632    1.588    0.370
       134 -12.4011     86.4886     53.8500   5.9931457376e+01   5.4388063449e+01    0.4064144    0.2900826  30.53 0.0002928425    1.494    0.331
       135 -10.3054     44.9831     52.4349   7.3819570872e+01   6.0363287004e+01     0.228585    0.1338089 -38.44 0.0007181672    1.506    0.336
       136  -9.5328    182.0874     52.1530   3.5304557372e+01   3.2792915862e+01    0.2105381    0.1796051 -71.26 0.0004290941    1.289    0.224
       137 -10.3708    148.9941     52.2168   4.2144610970e+01   4.1332159249e+01    0.2297516    0.2057333 -84.60 0.0006323061    1.281    0.219
       138  -9.3594     88.7528     49.3632   5.7644853359e+01   5.4810170366e+01    0.1926633    0.1380595  41.04 0.0003105079    1.483    0.326
       139  -9.9111    232.5613     50.6655   2.6940361055e+01   1.9878810791e+01    0.2770523    0.1437172 -25.15  0.001085186    2.078    0.519
       140 -10.9370    138.0051     49.1481   4.3701258085e+01   4.4506042731e+01    0.5349666    0.3417487 -44.16  0.002059934    1.685    0.406
       141 -10.3405     74.5007     47.6807   6.1768448671e+01   5.7456134458e+01    0.2246041    0.1937633  73.65 0.0009784821    1.665    0.400
       142 -10.8519    155.4260     46.7221   3.8899553072e+01   4.0560665944e+01    0.4067986    0.2484724  40.40  0.000513358    1.693    0.409
       143 -10.9253     68.6930     46.4311   6.3339223862e+01   5.8549550966e+01     0.232266    0.1927718   3.28 0.0002934337    1.232    0.188
       144  -9.5457    230.1823    247.3931   6.9658539952e+01  -7.5149200224e+00    0.1509428   0.08580254  44.48 0.0004186612    1.527    0.345
       145 -10.9867     79.2031     45.4825   5.9392742840e+01   5.7108243493e+01    0.2321013     0.203633 -23.65  0.000347654    1.035    0.034
       146 -10.4109     25.9760     45.1087   7.8805690043e+01   6.3545748091e+01    0.3010117     0.272183  41.83  0.002245422    1.457    0.313
       147 -10.9418     16.7839     42.6099   8.1684593707e+01   6.4698044196e+01    0.3897822    0.2016398 -53.01  0.001417598    1.449    0.310
       148  -9.8487    221.1497     43.1452   2.6473956684e+01   2.3803898632e+01    0.2044445    0.1951029  38.84 0.0002655952    1.138    0.121
       149 -10.0662     95.1545     42.8697   5.3271334517e+01   5.4764072375e+01    0.1919842    0.1528612   9.64 0.0005786183    1.303    0.233
       150 -10.8603    184.3871     40.5945   3.1362936608e+01   3.3844812004e+01     0.383188    0.3188291 -80.90  0.001662345    1.313    0.238
       151 -10.2093     68.4474     41.0113   6.1483047970e+01   5.9555329006e+01    0.3937968    0.2629066 -83.41  0.001361969    5.652    0.823
       152 -10.3804     59.1991     41.3290   6.4941531110e+01   6.0785413568e+01    0.2636519    0.2221472  72.08  0.001596894    1.856    0.461
       153 -10.4748     36.2813     41.9820   7.3863879905e+01   6.3254853708e+01    0.2167237    0.1725399  32.34 0.0002242828    1.547    0.354
       154  -9.7064     39.3576     40.2585   7.2104943313e+01   6.3279157690e+01    0.2161423    0.1373077 -36.92 0.0007546946    1.311    0.237
       155 -11.1237    169.8904     39.7688   3.3712589727e+01   3.7806351333e+01    0.3905204      0.27406  85.80 0.0008754754    1.747    0.428
       156 -10.1255    140.9955     40.7585   4.0097172491e+01   4.5057025435e+01    0.3312085    0.2407842 -87.10  0.001109647    1.984    0.496
       157  -9.2749    147.4227     40.5269   3.8561894584e+01   4.3496191580e+01    0.1522111    0.1381563  26.42  9.33145e-05    1.083    0.077
       158  -9.8428     43.8895     39.8883   7.0219685342e+01   6.2877313592e+01    0.1792216    0.1365699 -26.29 0.0003472259    1.157    0.136
       159 -12.7186    121.5935     37.4035   4.3670608858e+01   5.0128296423e+01    0.3848352    0.3320851 -31.32 0.0005899653    1.193    0.162
       160  -9.4781     47.8316     69.1759   7.7451524724e+01   5.6648665919e+01    0.1667768    0.1245848 -35.73 0.0002602855    1.281    0.219
       161 -10.6334     92.4533     31.5854   4.9792787032e+01   5.7054697677e+01    0.4641812    0.2088781 -48.24  0.001760429    3.208    0.688
       162 -11.1270     91.4447     27.0491   4.8288775446e+01   5.7908712714e+01    0.4010889    0.2100211  46.02 0.0009299333    1.927    0.481
       163  -9.5036     40.8009     34.6350   6.9603502073e+01   6.4161966491e+01    0.1373361    0.1106046  30.04 0.0006384461    1.495    0.331
       164 -10.9655     28.6344     33.1234   7.4018617353e+01   6.5596254380e+01    0.2137488    0.1408899 -25.37 0.0005736711    1.417    0.294
       165 -11.5833    206.0829     32.3011   2.5543555861e+01   2.9164351139e+01    0.3014443     0.249311  79.86 0.0002708269    1.178    0.151
       166 -10.5648    144.6552     30.1963   3.5577095572e+01   4.5604812120e+01    0.5299317    0.2568694 -22.22  0.001255791    2.316    0.568
       167 -11.5959    135.8063     29.1715   3.7172589247e+01   4.7925899027e+01    0.2789457    0.2489019 -44.14 0.0002909594    1.242    0.195
       168  -9.8561    117.8586     31.6000   4.2483810131e+01   5.1798078360e+01    0.2622796    0.1815601  57.53 0.0009590604    1.539    0.350
       169  -9.4808     44.9594     30.9737   6.6600163522e+01   6.4355328934e+01     0.152043    0.1175978 -30.71 0.0008748309    1.054    0.051
       170 -12.8780     10.0548     29.5538   8.0691505332e+01   6.7603601797e+01    0.3821331    0.2214148  37.94  0.002406617    2.432    0.589
       171 -10.6319      6.2124     20.3730   7.9471274948e+01   6.9496081799e+01    0.2466978     0.144386 -31.55  0.001440145    1.437    0.304
       172 -10.8816      2.0684     20.3032   8.1342289571e+01   6.9731314617e+01      0.27459     0.166575 -53.32 0.0006267712    1.291    0.225
       173  -9.6648     38.9553     30.2716   6.8765306439e+01   6.5128602385e+01    0.1574488    0.1304347 -13.83 0.0004159924    1.131    0.116
       174 -10.1835     54.3747     29.2009   6.2205007218e+01   6.3513561183e+01    0.1935615    0.1684428  25.19 0.0003961685    1.327    0.246
       175  -9.3812    242.4726     28.5351   2.0091620107e+01   2.0339145206e+01    0.1382636    0.1247864 -68.59 6.240421e-05    1.004    0.004
       176 -10.2269     49.8696     33.6771   6.5676900195e+01   6.3313588351e+01    0.2170863    0.1512545 -43.04 0.0004006388    1.305    0.234
       177  -9.8766    102.6509     26.2538   4.4596002449e+01   5.5801890794e+01    0.1987336    0.1604511 -14.21  0.001119871    1.188    0.158
       178 -10.1331    102.3663     22.2315   4.3055184342e+01   5.6395254087e+01    0.2478109    0.2215834   0.68 0.0007413972    1.052    0.050
       179 -10.7349     68.6297     26.1441   5.5615284079e+01   6.1975556898e+01     0.306252    0.2496096 -16.40  0.001934836    1.053    0.050
       180  -9.8764     80.9721     26.5610   5.1484424414e+01   5.9884203157e+01    0.1979605    0.1574837 -20.70 0.0004258017    1.144    0.126
       181 -10.1842    216.9558     25.6895   2.2273668018e+01   2.7132457842e+01     0.202336    0.1751717  82.12 0.0003457931    1.092    0.085
       182  -9.5744    131.6274     26.4598   3.7142941043e+01   4.9284986056e+01    0.2171803    0.1695535  47.65 0.0004290755    1.197    0.164
       183  -9.3920     75.8025     26.2076   5.3101107790e+01   6.0815671179e+01    0.1832055    0.1351835  -1.19  0.001045401    1.351    0.260
       184  -9.9826     51.3338     24.8555   6.1650628150e+01   6.4613916319e+01    0.1760504    0.1316368 -25.70 0.0007160294    1.109    0.098
       185  -9.7777    191.1833     24.6220   2.5438077172e+01   3.4076474241e+01    0.2174546      0.12099  55.21 0.0005869332    1.670    0.401
       186  -9.8840    128.3020     23.0733   3.6656708109e+01   5.0501616923e+01    0.1945044    0.1768935  -4.76 0.0002439125    1.107    0.097
       187 -10.0145     59.4716     22.9314   5.7678217651e+01   6.3824044654e+01     0.187728    0.1069845 -33.46 0.0006043672    1.547    0.354
       188  -9.3361     34.2751     23.8149   6.8266358152e+01   6.6715443620e+01    0.1549219   0.08272699  13.44 0.0003138395    2.335    0.572
       189 -10.0523    200.2989     21.9443   2.3369229548e+01   3.1961440385e+01    0.1927546    0.1870297 -67.16 0.0003937284    1.072    0.068
       190  -9.3393    180.3105     22.3269   2.6384195899e+01   3.7254253953e+01    0.1548419    0.1053521  34.00 0.0004597854    1.661    0.398
       191 -11.0949     17.3049     20.7334   7.4555356034e+01   6.8710329095e+01    0.3908433    0.2340586  15.97  0.002015576    1.921    0.479
       192  -9.4348    224.4982    247.4999   7.0610732354e+01  -6.6327186642e+00    0.1161969   0.08486342  31.17 -0.0003765262    1.008    0.008
       193  -9.8498    214.8125     19.8194   2.0933988964e+01   2.8384705843e+01    0.2018274    0.1555619 -68.82 0.0006933264    1.305    0.234
       194  -9.4959    131.8297     20.4378   3.4857591934e+01   4.9971921146e+01    0.2037566    0.1166453  44.46 0.0005629797    1.619    0.382
       195  -9.3794     40.3245     20.3166   6.4288689407e+01   6.6656052485e+01    0.1829439    0.1322077 -33.01 0.0009070066    1.156    0.135
       196  -9.8300     37.4991     18.4353   6.4707680691e+01   6.7267199364e+01    0.1871733    0.1604907   0.07  0.001011258    1.215    0.177
       197  -9.9979    170.9555    246.7646   7.9531615935e+01   2.2099594149e+00    0.1826088    0.1285927  34.00 0.0009225515    1.297    0.229
       198 -10.1991    184.3966     19.3492   2.4842236852e+01   3.6503281252e+01    0.2560483    0.1575597  54.23  0.001178734    1.509    0.337
       199  -9.0760    119.9858     19.0139   3.7096443030e+01   5.2934220065e+01     0.167993    0.1479676  34.14 0.0003609722    1.040    0.039
       200 -10.0610     60.6887     15.6874   5.4063982886e+01   6.4712776928e+01    0.2267505    0.1658343   0.61  0.001398899    1.278    0.218
       201  -9.7085    116.0475    246.6643   8.8814451189e+01   1.1081957720e+01    0.1578428    0.1148008  55.17 0.0006100537    1.033    0.032
       202 -10.3358     52.1465    244.7379   9.8948862664e+01   2.0257499123e+01    0.1585637    0.1251716 -56.97  0.001235866    2.056    0.514
       203 -11.4462     69.4216     18.0668   5.1885333300e+01   6.3032349385e+01    0.3641855    0.1976033  46.09  0.001772678    2.087    0.521
       204  -8.7202     54.3060     18.3152   5.7705901147e+01   6.5238285830e+01    0.1263974    0.0819198  -6.74 0.0002970288    1.625    0.385
       205 -10.7323    238.2342     16.9676   1.7644294751e+01   2.2759526395e+01    0.2247984    0.1828771 -29.45 0.0002761356    1.306    0.234
       206  -9.6979    146.5105    244.4774   8.3434685209e+01   6.5535094170e+00    0.1182235   0.08893462  49.04 0.0001985231    1.030    0.029
       207 -10.2584    202.9873     16.6954   2.1514572142e+01   3.1846925050e+01    0.2098545     0.173319  76.72 0.0004729287    1.126    0.112
       208 -10.4521    125.0347     17.0555   3.5130065821e+01   5.1984743698e+01    0.2129234    0.1854681  32.04 0.0003109153    1.040    0.038
       209 -10.7239    160.4444     15.7440   2.7521662023e+01   4.3256577998e+01    0.3972957    0.1630438  56.60   0.00127351    2.088    0.521
       210  -9.2081     84.3028     21.3062   4.8187031835e+01   6.0036770612e+01    0.1357411   0.09195859   9.38  0.000584574    1.599    0.375
       211  -9.1560    245.6464     15.2548   1.6513749979e+01   2.1146355502e+01    0.1411796   0.08905733 -68.00 0.0003318666    1.605    0.377
       212  -9.3298    169.2823     14.9502   2.5785405101e+01   4.1013140402e+01     0.235202   0.07273143 -44.32 0.0005400371    4.036    0.752
       213 -10.0897     39.1642    242.3476   1.0078975602e+02   2.2187047300e+01    0.2214158   0.08083944  79.87  0.001004008    3.379    0.704
       214  -9.4306     61.1935    240.6304   9.7268572793e+01   1.9791209695e+01    0.1347974   0.08501755  42.05 0.0004227833    1.673    0.402
       215 -10.7645     30.0208    241.0000   1.0209218955e+02   2.3436981202e+01    0.2525039   0.04494532  39.64  0.001053532    4.954    0.798
       216  -9.4559    204.1919    235.3921   7.2279349946e+01  -1.9675236636e+00    0.1605926   0.09195302  47.10 0.0004945572    1.494    0.331
       217  -9.2569    249.4874    233.4041   6.4339177989e+01  -9.1152835104e+00    0.1166082   0.08517401  24.62 0.0001312155    1.020    0.020
       218  -9.7815     32.2945    233.0723   1.0132534938e+02   2.4497936770e+01    0.1414317   0.09524991  73.86  0.000423416    1.047    0.045
       219 -10.1366    244.9263    230.0315   6.4545669741e+01  -8.0598122836e+00    0.3730856    0.1037187  38.91  0.001472038    2.857    0.650
       220  -9.9827    209.9945    229.5014   7.0395001279e+01  -2.2457184941e+00    0.1877147   0.09595989  42.24  0.000547642    1.542    0.352
       221 -10.8421    140.1056    227.9640   8.2614561647e+01   1.0041324324e+01    0.2644119    0.1713233 -75.04  0.001538382    2.106    0.525
       222  -9.0801    105.6752     11.3009   3.7633434070e+01   5.7000517122e+01    0.1261184    0.1068045 -65.67 0.0005221659    1.635    0.388
       223 -11.7407      2.3082    225.6061   1.0550406476e+02   2.8819760143e+01     0.353954    0.1219922  86.08  0.001956611    2.562    0.610
       224  -9.7803    223.4357    226.5124   6.7606318139e+01  -4.1688713076e+00    0.1215109   0.09445405  29.15 9.409466e-05    1.016    0.015
       225  -9.9087     26.7784    224.0186   1.0168520185e+02   2.6645174587e+01    0.1256044   0.06621665 -84.02 0.0004277689    1.623    0.384
       226  -9.5735    131.0051    221.0000   8.3416060380e+01   1.2675529900e+01    0.2118292   0.05748413  43.85 0.0008093959    2.991    0.666
       227 -10.7793      7.9001    219.8923   1.0441301684e+02   2.9271277225e+01    0.1396291    0.1011303  86.18 0.0003887256    1.219    0.180
       228  -9.8503     17.9910    227.7544   1.0324276156e+02   2.6923613128e+01    0.1190471   0.06670578  49.04 0.0005128939    1.551    0.355
       229 -10.0107     85.9122    215.0410   9.0977040329e+01   2.0798288437e+01    0.1699387    0.1308799  69.42  0.001179794    1.025    0.025
       230  -9.4421    205.4249    211.7520   6.8389810659e+01   8.1102046122e-01     0.156758    0.1175103 -12.18 0.0009394244    1.581    0.367
       231  -9.4377     20.4926    209.5041   1.0188106026e+02   2.9873673855e+01    0.1077242   0.07105973  73.69 0.0008095543    1.074    0.069
       232  -9.8051     39.4932    206.9877   9.8517826277e+01   2.8291969973e+01    0.1557263   0.08757985 -82.10 0.0005987119    1.550    0.355
       233  -9.6098    123.9915    205.9824   8.2846119388e+01   1.6405332166e+01    0.1474372    0.1188962  58.37 0.0009355243    1.015    0.015
       234  -9.4056     46.4650    202.5096   9.6961864635e+01   2.8319103382e+01    0.1134878   0.08257085  74.68 9.549576e-05    1.023    0.022
       235  -9.5581    194.0452    201.4880   6.8766519799e+01   4.3481711741e+00    0.2043389     0.111137  43.30 0.0005407057    1.543    0.352
       236 -10.6697      4.4749    201.4878   1.0407529435e+02   3.2864596675e+01    0.1028471   0.06985182  77.84 0.0001198437    1.002    0.002
       237  -9.3509     22.5040    200.5209   1.0100878904e+02   3.1321368312e+01    0.1084052    0.0750161  76.08 -8.515331e-05    1.033    0.032
       238  -9.7739     19.0000    195.0225   1.0127011572e+02   3.2703353477e+01    0.1675975   0.04796334 -76.28 0.0008034637    2.950    0.661
       239  -9.5656      1.2473    191.1437   1.0408675872e+02   3.5060147168e+01    0.1468893   0.06319366 -89.81 0.0007516085    1.839    0.456
       240  -9.8343     13.6730    181.2120   1.0133756229e+02   3.5861529876e+01    0.2186362   0.07582595 -86.78  0.001070149    2.716    0.632
       241  -9.5580     68.7477    179.1413   9.0525344601e+01   3.0095057253e+01    0.2511439    0.1539927 -57.32   0.00144949    1.787    0.440
       242  -9.0331     22.6849    179.6802   9.9574856736e+01   3.5312404954e+01   0.09834463   0.07497051 -59.32  0.000399449    1.655    0.396
       243  -9.4378      3.4996    177.5494   1.0294714754e+02   3.7462574829e+01    0.1050046   0.07483504  83.63 4.483881e-05    1.027    0.026
       244  -9.7301      1.5558    171.0185   1.0291171567e+02   3.8897634504e+01    0.1616679   0.07746468 -81.57 0.0005302617    1.592    0.372
