#   1 NUMBER                 Running object number                                     
#   2 MAG_AUTO               Kron-like elliptical aperture magnitude                    [mag]
#   3 X_IMAGE                Object position along x                                    [pixel]
#   4 Y_IMAGE                Object position along y                                    [pixel]
#   5 X_WORLD                Barycenter position along world x axis                     [deg]
#   6 Y_WORLD                Barycenter position along world y axis                     [deg]
#   7 A_WORLD                Profile RMS along major axis (world units)                 [deg]
#   8 B_WORLD                Profile RMS along minor axis (world units)                 [deg]
#   9 THETA_WORLD            Position angle (CCW/world-x)                               [deg]
#  10 FWHM_WORLD             FWHM assuming a gaussian core                              [deg]
#  11 ELONGATION             A_IMAGE/B_IMAGE                                           
#  12 ELLIPTICITY            1 - B_IMAGE/A_IMAGE                                       
         1 -14.8561     10.8251     69.8702   9.1905429798e+01   6.3544393774e+01     3.782399      2.08156  27.39   0.01778117    1.916    0.478
         2  99.0000     30.4970     20.9353   6.1141984354e+01   7.3279307477e+01     1.378754    0.5114453 -50.26   0.00519545    2.926    0.658
         3  99.0000     38.0525     27.4787   6.0078794349e+01   7.0765968634e+01     1.338663     1.052037  81.59  0.005454143    1.891    0.471
         4 -11.7082     43.3616     21.8870   5.3567305379e+01   7.0831757166e+01     1.248374    0.7735013 -72.19  0.004569237    3.833    0.739
         5 -13.7948     62.3672     15.2397   4.0328392298e+01   6.7768485245e+01     2.057745     1.394258 -16.22  0.007565492    1.675    0.403
         6 -14.1029     86.5848     62.5576   5.3954812906e+01   5.3872538066e+01     3.284182     1.672176  67.78  0.009881496    3.915    0.745
         7 -13.6039    116.4981     63.5553   4.5328569839e+01   4.6656666455e+01     2.162572     1.644071  11.32  0.009654701    1.905    0.475
         8 -14.3854     13.1373     35.9111   8.1719574927e+01   7.2142654608e+01     2.001073     1.241692 -54.98  0.007194587    1.427    0.299
         9 -12.2466     51.7038     20.1421   4.8054387886e+01   6.9435936381e+01    0.7425728    0.5370824 -54.36  0.002334545    1.648    0.393
        10 -14.4056     57.1181     66.5684   6.7237414931e+01   5.8838707983e+01     3.259497     1.374292 -43.18  0.009646237    2.587    0.613
        11 -14.5662     47.5475     50.2559   6.5728849615e+01   6.4316869105e+01      3.04537     1.803244 -20.37   0.01136038    2.941    0.660
        12 -13.8019     78.8395     43.8395   4.9039158062e+01   5.9351090285e+01     1.224747     1.061024 -64.39   0.00641167    1.232    0.188
        13 -13.4499     64.4846     35.5939   5.0800716508e+01   6.4071224402e+01     2.013723     1.014492  56.24  0.008044692    2.225    0.550
        14 -13.5529     75.1203     23.4535   4.0367516928e+01   6.3598948412e+01     1.127559    0.5689631  43.71  0.001686885    2.082    0.520
        15 -11.8983     76.3138     11.0851   3.3174182790e+01   6.4880381666e+01    0.5977951    0.3968726 -13.55  0.001711157    1.719    0.418
        16 -13.1690    218.9613     57.2338   2.6883384530e+01   2.4190161389e+01     1.369508    0.9092541 -74.48  0.007717774    1.775    0.437
        17 -13.9705    190.3212     57.8111   3.0169544417e+01   3.0038793568e+01     1.542905     1.030748 -23.94  0.007952112    1.548    0.354
        18 -12.7397    199.8301     36.4574   2.3402184676e+01   3.0785148737e+01     1.580287     1.022831 -63.62  0.008632343    1.499    0.333
        19 -10.6653    219.6446     30.1168   2.0191523461e+01   2.7381295978e+01     1.433654    0.6469701 -55.45  0.007018857    2.041    0.510
        20 -13.1129    190.0116     36.4654   2.4336269766e+01   3.2961867654e+01     1.679123    0.7114568 -61.90  0.006485836    2.954    0.661
        21 -12.1604    162.3896     38.3238   2.8052951861e+01   3.9249287364e+01    0.8863477    0.5990387 -83.41  0.002268671    1.605    0.377
        22 -12.0952    161.8363     29.2745   2.5250962704e+01   4.0546267676e+01    0.8674615    0.6804314  78.58  0.004799238    1.281    0.220
        23 -10.7069    147.4147     26.1466   2.6025220548e+01   4.4569413766e+01    0.6696663     0.448181  20.30  0.003037841    2.246    0.555
        24 -12.0438    226.5788     22.9661   1.8012095351e+01   2.6796734058e+01    0.4163393    0.3189138  79.59  0.002285075    1.496    0.331
        25 -11.0853    169.9690     19.6534   2.1364880102e+01   3.9666527287e+01    0.3577022     0.298682  39.28  0.001805447    1.498    0.332
        26 -12.0877    130.4366     19.2625   2.5893285824e+01   4.9796276733e+01    0.4500632    0.3556161 -40.77 0.0003883586    1.232    0.188
        27 -11.3357    127.7713     15.6175   2.4867473748e+01   5.0901488345e+01    0.5616743    0.3198667   7.27  0.002205363    2.908    0.656
        28 -10.2427    153.1870     15.9070   2.1838483790e+01   4.4258486051e+01    0.4165393    0.2049819 -61.94  0.001764047    2.141    0.533
        29 -10.0371    155.2251     12.3093   2.0424863951e+01   4.4115550964e+01      0.23193    0.1876041  16.16 0.0006631549    1.608    0.378
        30 -10.0204    230.7749     11.8842   1.5178618680e+01   2.7136754357e+01    0.1660424    0.1373817 -33.18 0.0005522706    1.228    0.186
        31 -10.0994    223.8209     14.6147   1.6171066169e+01   2.8226183589e+01    0.2670035    0.1948505  44.47  0.001259248    1.943    0.485
        32  -9.7429    227.2604      9.5067   1.4786452908e+01   2.8061412074e+01    0.3069226    0.0965248 -34.24  0.001030547    2.200    0.546
        33  -9.1067    233.8990      6.8087   1.3869244438e+01   2.7038407606e+01    0.2860024    0.2048965 -53.50  0.001124185    1.086    0.079
        34 -10.7039    237.2242      9.6155   1.4367651123e+01   2.6131294498e+01    0.2938569    0.1846057  63.90 0.0008956781    2.010    0.503
        35 -12.6300    249.5071     11.6991   1.4315010053e+01   2.3675527989e+01     0.474243    0.1689205 -48.44  0.002188182    1.985    0.496
        36 -12.9084    242.6193      8.1307   1.3812471017e+01   2.5273374893e+01    0.6579439    0.1734674 -52.77  0.002928321    2.862    0.651
        37 -10.2417    123.6242     12.5170   2.4229421119e+01   5.2324962183e+01    0.2415705     0.133004 -26.10  0.001082778    1.859    0.462
        38  -8.0120    140.8831     11.1168   2.1506459239e+01   4.7922789295e+01    0.3987561     0.244129  77.22  0.001948382    1.562    0.360
        39 -11.2149    115.3969      9.5339   2.4202570940e+01   5.4810340863e+01    0.5935134    0.3702555  39.66  0.001742275    1.879    0.468
        40 -11.7040     84.3654      7.7351   2.9214502616e+01   6.3176728446e+01    0.3703049    0.2555757 -13.65 0.0009583474    1.626    0.385
        41 -12.0929     85.7131      1.7200   2.5669321298e+01   6.3378424542e+01    0.4230328      0.18641  57.61 0.0002258013    1.998    0.500
        42 -10.0410    221.9211     10.6333   1.5310705476e+01   2.9012400356e+01    0.1980241    0.1502306 -22.04 0.0006653932    1.414    0.293
        43 -11.1398     48.8155      8.4462   4.1664370021e+01   7.1729798287e+01    0.3846949    0.2431494 -31.13  0.001716144    1.617    0.381
        44 -10.3978    146.3811      7.7158   1.9716902754e+01   4.6829004475e+01    0.4910429    0.1652157 -36.22  0.001728532    2.481    0.597
        45 -11.9671    193.3655      8.1209   1.6226590021e+01   3.5366850430e+01    0.2980159    0.2231178  56.96  0.001784289    1.620    0.383
        46 -10.3355     27.8950      9.2662   5.4813206016e+01   7.5773485370e+01    0.2167471    0.1871325  40.20   0.00132033    1.214    0.176
        47  -9.3091    156.4665      8.4323   1.9021281525e+01   4.4186263974e+01    0.1360309    0.1200425 -69.28 0.0002140138    1.028    0.027
        48 -10.0757    173.3326      6.1159   1.6955964154e+01   4.0242268517e+01    0.3531545    0.1757555 -25.29  0.001671693    1.957    0.489
        49  -9.7900    151.7937      6.7837   1.8886183948e+01   4.5529285487e+01    0.2041332    0.1355257 -58.31  0.001058075    1.373    0.272
        50  -9.9069     99.5473      6.0682   2.5238399925e+01   5.9353568224e+01    0.4729758    0.1714933  67.27  0.001786629    2.427    0.588
        51 -10.5582      3.2046      6.1310   7.6047350146e+01   7.9661377482e+01    0.2924014    0.1648143   3.00   0.00148109    2.039    0.510
        52 -10.5804    183.8984      3.6887   1.5557563688e+01   3.7965399458e+01    0.1894731    0.1756943  -7.07 0.0005110686    1.338    0.252
        53 -10.4751    108.1239      4.0559   2.2894623370e+01   5.7253591629e+01    0.2817961    0.1777856  75.60 0.0005044118    1.476    0.322
        54  -9.7558    218.4635      2.4149   1.3480373648e+01   3.0515948662e+01    0.2105234    0.1646499  49.21 0.0008502921    1.749    0.428
        55 -11.7714     47.6768      1.7374   3.7229640765e+01   7.2769446257e+01    0.4579841    0.1586544  52.87  0.001808711    2.494    0.599
        56 -10.1120    180.4532      1.2369   1.5055854989e+01   3.8998514036e+01    0.1871883    0.1004868  85.60 0.0001486744    1.823    0.451
        57  -9.0122    148.2785      1.6863   1.7443632106e+01   4.6889246919e+01    0.1451115   0.08504508 -56.15 0.0001809472    1.567    0.362
        58  -9.1773     88.5194     11.5346   3.0235849151e+01   6.1708715125e+01    0.2467555    0.2014761 -69.77 0.0006786442    1.299    0.230
        59 -10.6566    178.7399    114.7950   4.6627168193e+01   2.3262487305e+01    0.3635221    0.1936309  45.19  0.001327022    2.049    0.512
        60 -11.7128    247.8286    249.3754   5.9303207071e+01  -4.1258250080e+00    0.3434338    0.1514495  27.82  0.002414976    2.050    0.512
        61 -12.2864    132.2313    111.7843   5.5759796277e+01   3.3218777868e+01    0.4688833    0.3494309  63.49 0.0009992475    1.573    0.364
        62 -10.3184    209.9437    111.9850   4.0901462176e+01   1.8002765215e+01    0.1913578    0.1648339 -35.58 0.0004305629    1.087    0.080
        63 -11.2408     96.9013    109.7904   6.5071184351e+01   4.0805013062e+01    0.4071885    0.2107394 -41.11  0.001213001    2.177    0.541
        64 -10.9345    118.0551    110.5184   5.9110307454e+01   3.6414985480e+01    0.2443118    0.2088122 -49.79 0.0008781974    1.150    0.130
        65 -12.2986    151.9094     97.4036   4.7463496456e+01   3.1938446312e+01    0.6248013    0.4719402 -53.98  0.003103422    1.345    0.256
        66  -9.5847    250.5697     99.0284   3.3050195003e+01   1.3216869923e+01    0.1796939   0.08973427 -32.49 0.0003120852    1.514    0.339
        67 -11.7800    169.6564     97.2149   4.3921542798e+01   2.8184345209e+01    0.3642775     0.313676 -40.05 0.0005639249    1.062    0.058
        68  -9.7777    165.7274     95.6419   4.4241003160e+01   2.9294527746e+01    0.1974671    0.1755011 -20.26 0.0005459486    1.159    0.137
        69 -12.8594     24.7788     43.3742   7.6329503967e+01   6.9172585715e+01     1.369315     1.007329  25.83  0.007305493    1.432    0.302
        70 -10.5715    228.5240     97.8936   3.5287378405e+01   1.6884766521e+01    0.1999857    0.1012715 -33.72  0.001027348    1.578    0.366
        71  -9.7362    218.3001     98.6473   3.6736463940e+01   1.8534737387e+01    0.1322359   0.08654922 -54.03 0.0007037521    1.698    0.411
        72 -11.8586    199.9880     96.0919   3.8661943815e+01   2.2278620669e+01    0.3694472    0.2516511 -58.38  0.001313094    1.706    0.414
        73 -11.1682     11.7714     97.3911   9.5305189102e+01   5.5930108839e+01    0.2732267    0.2226588 -63.68 0.0008715297    1.172    0.147
        74 -11.5400     74.0376     96.5396   6.9365634249e+01   4.8361172620e+01    0.3493375    0.2814326  54.11  0.001611272    1.274    0.215
        75 -11.4918    213.0545     94.7360   3.6524392814e+01   2.0047980118e+01    0.3879302    0.2564236   7.07  0.001910646    2.344    0.573
        76 -11.8460     49.3592     95.4348   7.8750332104e+01   5.2579240634e+01    0.3645454    0.2878658   6.04 0.0009874214    1.549    0.354
        77 -11.3144     44.7031     93.1909   8.0209839739e+01   5.3813906607e+01    0.2972874    0.2012981 -68.34 0.0007003244    1.409    0.290
        78 -11.5347    224.1353     93.3918   3.4812132519e+01   1.8270632665e+01    0.4301847     0.148398 -32.31  0.001549295    2.423    0.587
        79 -10.4989    207.0295     95.0068   3.7402229047e+01   2.1116957095e+01    0.2073154     0.174806 -38.00  0.000633615    1.040    0.038
        80 -12.5312    190.0439     93.6534   3.9563602827e+01   2.4608829835e+01    0.3989199     0.318677  32.96  0.001816434    1.473    0.321
        81 -10.4288     68.1003     94.8438   7.1138755370e+01   4.9829948403e+01    0.2349898     0.202187  71.30 0.0004508567    1.216    0.177
        82  -9.7673     27.5148     95.5459   8.8134076342e+01   5.5137007608e+01    0.1460883    0.1339359 -82.02 9.874777e-05    1.012    0.011
        83 -11.1483     16.4785     91.4652   9.2450758515e+01   5.7228150192e+01     0.449629    0.2359768  84.94  0.001340685    2.044    0.511
        84 -12.4207    173.2335     88.0554   4.0875469955e+01   2.9019469402e+01    0.8372525    0.5440248  32.94  0.003880231    2.020    0.505
        85 -12.1898    176.5061     70.6799   3.5612142493e+01   3.1163835000e+01     0.515138    0.3414877 -61.35 0.0001429775    1.668    0.400
        86 -11.5132    165.0629     65.7007   3.6003321616e+01   3.4564300666e+01    0.8787106    0.3860566  53.25  0.003502916    2.421    0.587
        87 -12.1050    162.4466     84.3304   4.1790915039e+01   3.2020412108e+01    0.9111121    0.4369323  49.76  0.003725115    2.244    0.554
        88 -12.5633    169.1186     80.0633   3.9415737876e+01   3.1273532555e+01    0.5253274    0.3958324 -50.73  0.001147365    1.262    0.208
        89 -10.6142    163.5712     72.5948   3.8261778320e+01   3.3780162389e+01     0.642215    0.3183359 -60.40  0.002093962    3.014    0.668
        90 -12.0132    215.8522     86.9908   3.4354839070e+01   2.0669853587e+01    0.3770221    0.1917432 -31.34  0.001849185    1.683    0.406
        91  -9.5787     87.7592     89.5889   6.2564159510e+01   4.7482551210e+01    0.2164871    0.1465576  53.77 0.0004608431    1.573    0.364
        92 -12.0305     64.0890     47.5690   5.6627581613e+01   6.1822085507e+01    0.6556885    0.4944703  78.57  0.001360418    1.792    0.442
        93 -11.4745    236.5848     86.1763   3.1782468750e+01   1.7137824738e+01    0.3843681    0.2474554  72.92  0.002240192    2.205    0.546
        94 -12.8217    196.3324     86.0997   3.6739546902e+01   2.4549862417e+01     0.486794    0.4173264 -16.54  0.001823475    1.218    0.179
        95 -11.8363      5.3118     85.8458   9.6949505682e+01   5.9508507185e+01    0.3970902    0.2112807 -75.86  0.001089659    1.638    0.390
        96 -11.6819    174.3585     38.6213   2.6650069507e+01   3.6316406353e+01    0.6078638    0.3435891 -49.64  0.002889334    1.607    0.378
        97  -9.7730    235.0135    108.6984   3.6841683613e+01   1.4323551753e+01    0.1568962    0.1347944 -23.40 0.0002278297    1.096    0.088
        98 -13.7772    221.8315     73.6039   3.0506743625e+01   2.1449554938e+01     1.059552    0.6160306 -30.33 0.0002320376    1.467    0.319
        99  -9.5130    217.4519    109.4690   3.9279386528e+01   1.7089906573e+01    0.1291791    0.1062324 -28.12 7.196626e-05    1.016    0.016
       100 -12.5298    175.4619     54.5695   3.1194309253e+01   3.3851538309e+01     1.178283    0.8100575  63.28  0.004455687    1.567    0.362
       101 -10.8257    195.7387    107.1749   4.1947315543e+01   2.1320176750e+01    0.3857761    0.2122271 -49.52  0.001796916    1.933    0.483
       102 -13.8786    205.9546     60.7085   2.9098549628e+01   2.6322467102e+01     1.066808    0.8731143 -77.15  0.006536279    1.318    0.241
       103  -9.2389    212.6242    104.7132   3.8878165821e+01   1.8635355033e+01    0.2342154    0.1329504  16.80 0.0009239183    3.672    0.728
       104 -11.8211    149.7923     43.1287   3.1431430937e+01   4.1715424628e+01    0.9772524    0.7846546  83.21    0.0051853    1.262    0.208
       105 -12.6467    189.8734     46.3116   2.7077796752e+01   3.1722100955e+01     1.170321    0.5894966  84.28  0.004021416    2.595    0.615
       106  -9.6964    183.6559    105.3661   4.3494055718e+01   2.3931723395e+01    0.2056621    0.1551217 -65.26  0.001065042    1.646    0.392
       107 -11.5277    209.5208     45.4173   2.4843461754e+01   2.7609570016e+01    0.5424899    0.3567756 -85.00  0.002891897    1.747    0.428
       108 -12.1962    201.9166     45.7109   2.5650278988e+01   2.9170199597e+01    0.3022636    0.2545255 -25.29 0.0003000498    1.239    0.193
       109 -13.3565    234.7883     62.2676   2.6588449359e+01   2.0581566962e+01     1.380393    0.6413752 -43.00  0.005539681    1.696    0.411
       110 -12.8852    173.1057     45.9325   2.8978039066e+01   3.5629862779e+01    0.5602049    0.4916635  19.85  0.001807694    1.436    0.304
       111 -11.5907    237.2251     51.6434   2.3956880509e+01   2.1466440967e+01    0.5237754    0.1944148 -34.45  0.001926742    1.980    0.495
       112 -10.4050     11.5059    105.0074   9.6235034388e+01   5.3845471533e+01    0.1973739       0.1876  55.87 0.0003240248    1.124    0.110
       113 -12.5427    230.5006     47.4651   2.3530337457e+01   2.3214663027e+01    0.7118733    0.6188414  13.29  0.004590877    1.531    0.347
       114 -12.7156    222.4796     43.5349   2.3245620941e+01   2.5232936999e+01    0.4623081     0.365806  88.78 0.0006260281    1.419    0.295
       115 -12.0238    184.4977     79.9892   3.6912789174e+01   2.7947593518e+01    0.3516619    0.1983495 -35.49  0.001386629    1.570    0.363
       116 -13.0307    191.8712     78.2069   3.5367928096e+01   2.6679602463e+01     0.790343    0.4931264  -3.85  0.003354948    2.727    0.633
       117 -12.1240    200.3730     76.4225   3.3755998137e+01   2.5208204880e+01    0.4073576    0.2519628  47.63  0.002091347    1.923    0.480
       118 -10.9869    246.4223     81.1363   2.9686273043e+01   1.6177353722e+01    0.3187032    0.2311659 -71.44  0.002046452    1.780    0.438
       119 -10.6319    249.3048     78.6519   2.8880432416e+01   1.6029168497e+01    0.2751442    0.1544737 -51.35  0.001581335    1.768    0.434
       120  -9.4285    237.6294     81.1265   3.0557543219e+01   1.7634424287e+01    0.1674774   0.09747173 -23.27 0.0003004624    1.634    0.388
       121 -10.7366    232.4379     78.7002   3.0551889189e+01   1.8849341226e+01     0.287562    0.1933583 -59.69 0.0007648357    1.659    0.397
       122 -10.7362    249.8941     73.2367   2.7666064398e+01   1.6615886235e+01    0.3507932    0.1662601 -36.65  0.001430964    1.548    0.354
       123 -12.3354     85.9299     74.3744   5.8398374484e+01   5.1419830482e+01      0.87124    0.5375283 -38.17  0.003505174    1.759    0.431
       124 -11.4834     80.7927     72.4262   5.9581157994e+01   5.2937911841e+01    0.4691175    0.2970644  50.34  0.002016717    1.640    0.390
       125 -10.8837    155.3638     76.7746   4.0966467752e+01   3.4953959096e+01    0.4017516     0.272334  53.04   0.00127783    1.570    0.363
       126 -11.4952     73.0105     75.5202   6.3571003441e+01   5.3766618929e+01    0.3445864    0.2642827  32.11 0.0008970617    1.418    0.295
       127 -12.0040     69.7139     71.1026   6.3402335175e+01   5.5453463137e+01    0.7313131    0.4398547  49.81  0.003087117    1.771    0.435
       128  -9.8508    151.2937     73.0199   4.0634649597e+01   3.6559414476e+01    0.2153896    0.1733973 -38.15 0.0006727817    1.183    0.155
       129 -11.6135    188.6913     72.9556   3.4442793286e+01   2.8154546887e+01    0.3059083    0.1878932  42.75  0.001143227    2.020    0.505
       130 -10.5005    125.1339     53.8520   3.9812169618e+01   4.6260902962e+01    0.3071574    0.2212731 -58.61 0.0003769739    1.451    0.311
       131 -11.6813    127.4141     58.6909   4.0999597194e+01   4.4858217701e+01     1.257065     0.464438  60.93  0.003937285    2.982    0.665
       132 -11.5846    137.1930     53.1698   3.7041782930e+01   4.3347898679e+01    0.7524726    0.3059355 -43.68  0.002493155    2.331    0.571
       133 -13.2513    117.2814     93.5767   5.4706529170e+01   4.0327065304e+01    0.9208645    0.4916795 -54.56  0.001885205    2.038    0.509
       134 -10.1018    159.7929     50.8297   3.2344797063e+01   3.8120230210e+01    0.2258664     0.196223 -57.89 0.0004013951    1.052    0.050
       135 -10.7864    162.3389     59.1335   3.4490771626e+01   3.6244033539e+01    0.3219034    0.2830196 -77.16 0.0009584365    1.137    0.120
       136 -11.4072    162.5950     55.0480   3.3211430231e+01   3.6811197823e+01    0.4824981    0.3169011 -87.80  0.001254765    1.861    0.463
       137 -10.1156    247.5375     57.1080   2.4362684693e+01   1.8994130879e+01     0.180245    0.1593933  34.43 0.0007574809    1.524    0.344
       138 -10.2702    108.9204     56.5395   4.4794884705e+01   4.9814740140e+01    0.3586867    0.2188637 -48.24  0.001527461    1.647    0.393
       139 -11.2744    145.7903     52.8665   3.5324659151e+01   4.1251422901e+01     0.518136    0.3211453  41.70  0.001717255    1.978    0.495
       140 -10.5111     98.5666     53.9717   4.6763432586e+01   5.2808112064e+01    0.4459041    0.3177028  75.18  0.001994613    1.673    0.402
       141 -10.4166    102.3423     53.2976   4.5392756798e+01   5.2019171693e+01    0.3534829    0.1975946  55.23 0.0007706095    1.794    0.443
       142  -9.0721    244.4671     53.5151   2.3809214727e+01   1.9955823511e+01    0.1203377   0.09337692 -37.27 8.856671e-07    1.058    0.055
       143 -11.7540    132.9183     53.1220   3.7884465134e+01   4.4427858196e+01    0.4066589    0.3617139 -54.18  0.001783159    1.066    0.062
       144 -10.0022    111.7152     52.0384   4.2364570448e+01   4.9933627577e+01    0.2021778    0.1886452 -47.83 0.0002609031    1.067    0.063
       145 -11.4637     90.3346     50.9728   4.8134605980e+01   5.5336276809e+01     0.268089    0.2165169  54.41 0.0005511694    1.238    0.192
       146  99.0000     93.6791     48.3514   4.5992473678e+01   5.5025156095e+01     0.939918    0.3111748 -44.75   0.00297652    3.093    0.677
       147  -8.9870    249.9064     49.4013   2.2501634538e+01   1.9507807859e+01     0.344814    0.1792687 -16.09  0.001732155    2.456    0.593
       148 -11.6701    248.1750     43.0374   2.1228887075e+01   2.0544601811e+01    0.3090374    0.2026354 -54.29 0.0009934811    1.336    0.251
       149 -11.1893    181.2063     83.0949   3.8241894868e+01   2.8145718232e+01      0.34976    0.2825943   4.11  0.001042287    1.557    0.358
       150 -11.3482    101.8969     46.4440   4.2794716172e+01   5.3351250763e+01    0.7506074    0.3474191  41.07  0.002637328    2.726    0.633
       151 -10.0262    123.3155     37.7415   3.4240390723e+01   4.9271666085e+01    0.3706944    0.2570256  64.18  0.001556838    1.422    0.297
       152 -12.1326    126.3016     45.4425   3.6514643017e+01   4.7337700238e+01    0.5472551    0.3905871 -34.28 0.0004754478    1.399    0.285
       153 -10.9216    133.0004     46.4542   3.5528768869e+01   4.5471158016e+01    0.3326907    0.2551023  67.56 0.0009266729    1.313    0.238
       154 -11.2298    135.3634     43.0715   3.3879539679e+01   4.5382164730e+01    0.3589655    0.2992526  63.10  0.001367303    1.220    0.180
       155 -11.1574    132.2098     40.2187   3.3440419966e+01   4.6612035534e+01    0.5537632    0.3192546  49.59  0.002161881    1.868    0.465
       156 -10.2411     97.1354     42.3957   4.2463504803e+01   5.5223590325e+01    0.2297036    0.1490792  58.69 0.0004351406    1.531    0.347
       157  -9.9812    100.9152     40.9250   4.0783907915e+01   5.4523570840e+01    0.3025014    0.2757497  41.15  0.001058977    1.163    0.140
       158  -9.4505    112.0841     40.8337   3.7908696086e+01   5.1701340124e+01    0.1956796    0.1616209  44.07            0    1.301    0.232
       159  -9.9104    240.9359     40.1048   2.1064864645e+01   2.2164824472e+01    0.1863841    0.1169238 -50.41 0.0003266383    1.306    0.234
       160 -11.2893    233.5172     36.3560   2.0714614939e+01   2.3964253667e+01    0.3756417     0.169783 -58.20  0.001269804    2.214    0.548
       161 -10.2699    111.0097     34.1520   3.5442644330e+01   5.2985745188e+01    0.4212045    0.2510833  30.30  0.001661735    2.482    0.597
       162 -12.0391     92.2572     33.4936   3.9952410525e+01   5.7876930455e+01    0.4458538    0.3640732  32.00    0.0012087    1.373    0.272
       163 -10.3651    131.9955     33.8938   3.1160147103e+01   4.7560872769e+01    0.2146413    0.1914409 -72.88  0.001172774    1.056    0.053
       164 -10.6844    121.7082     33.2496   3.2822084939e+01   5.0329264649e+01    0.2391075    0.2271668  30.71 0.0006092521    1.186    0.156
       165  -9.9617    237.4831     30.7678   1.9169074427e+01   2.3856045034e+01    0.1850739    0.1487737 -85.61 0.0008810228    1.385    0.278
       166 -11.7815     86.3641     28.4834   3.9329239082e+01   6.0104371860e+01    0.2956327    0.2844484  59.75 0.0005333028    1.023    0.023
       167  -9.7326     81.1017     30.5647   4.2002874357e+01   6.1084930468e+01    0.2127645    0.1410043  57.65 0.0006256605    1.479    0.324
       168 -12.8001    113.7883     82.6693   5.2392654204e+01   4.3450550677e+01    0.9454896    0.6766832 -20.81  0.003758735    1.856    0.461
       169 -10.3349    124.7036     24.7024   2.8916475596e+01   5.0664146004e+01    0.2461293    0.1939639  53.28 0.0004352415    1.323    0.244
       170 -11.4582    112.1674     28.0261   3.2639941237e+01   5.3535846926e+01    0.4294537    0.3219961  76.46   0.00207481    1.327    0.246
       171 -10.8449    104.4336     28.7763   3.4671697456e+01   5.5452461082e+01    0.2855028    0.2129366 -51.83 0.0006761718    1.368    0.269
       172 -10.0293    124.3292     28.3316   3.0405053866e+01   5.0303524981e+01      0.48356    0.2621108 -71.58  0.001448024    2.493    0.599
       173 -10.2490    235.7450     24.0444   1.7731772623e+01   2.4917536774e+01    0.3135117    0.1865772  53.55  0.001828109    2.278    0.561
       174  -9.7684    243.5947     22.6633   1.6993897802e+01   2.3613560073e+01    0.4378118    0.1607797  81.11  0.002103865    3.353    0.702
       175 -10.3222    244.5703     19.7787   1.6304196764e+01   2.3739595872e+01    0.2085605    0.1610922 -85.99  0.001141527    1.438    0.305
       176 -13.3417    147.1216     84.2282   4.4787506849e+01   3.5495443576e+01     2.674412     1.097155 -30.01  0.008632436    3.208    0.688
       177 -12.2544    176.0985     23.9495   2.2085850337e+01   3.7702456253e+01    0.3095058     0.209621 -35.12 0.0004651812    1.342    0.255
       178  -9.7886    179.8209     20.3740   2.0689555012e+01   3.7220669426e+01    0.1950256     0.126244  76.96 0.0006626279    1.581    0.367
       179 -10.7911    139.0327     17.8991   2.4197610042e+01   4.7693887316e+01    0.2815337    0.2169478 -20.89 0.0006798117    1.419    0.296
       180 -11.4449    135.1299     25.4168   2.7510179829e+01   4.7840229249e+01    0.5510601    0.3310731  76.05  0.002537811    1.666    0.400
       181  -9.6176    138.4285     22.5050   2.5959577731e+01   4.7328024729e+01    0.2200057    0.2051882  78.14 7.116631e-05    1.107    0.096
       182 -10.4698    118.8955     22.8099   2.9174120966e+01   5.2427968136e+01    0.3875244    0.2624917  -7.50  0.001779309    1.888    0.470
       183 -11.5624    209.4740     21.8446   1.8822213594e+01   3.0408249783e+01    0.2789901    0.1747773 -39.48 0.0006802578    1.284    0.221
       184 -10.3370    213.8730     21.2107   1.8371185358e+01   2.9555005349e+01     0.241811    0.1681332 -59.19  0.001174831    1.236    0.191
       185  -9.8327    185.1654     23.1050   2.1018432325e+01   3.5663080511e+01    0.2625357     0.137198 -66.41  0.000899038    1.987    0.497
       186 -11.0348     97.7709     21.8477   3.3108777134e+01   5.8099643348e+01    0.3007771    0.2631982  28.04 0.0007355137    1.271    0.213
       187 -10.2298    200.8227     20.2756   1.9013032016e+01   3.2443385360e+01    0.2824154    0.2124745  17.80  0.001550453    1.953    0.488
       188 -12.5243    137.3424     81.7207   4.6181465124e+01   3.8220116519e+01    0.8574892    0.6515398 -37.69  0.002704704    1.288    0.224
       189 -10.0135    163.3044     20.4681   2.2277082714e+01   4.1215621126e+01    0.2093575    0.1874423 -83.52  0.000784839    1.096    0.088
       190 -11.9808    135.4857     72.3035   4.3694494322e+01   4.0436236586e+01    0.7815287     0.634186 -87.66  0.003871282    1.389    0.280
       191 -11.9361    144.6592     68.2284   4.0472783496e+01   3.8973004890e+01    0.6134282    0.5653501 -14.64  0.001985048    1.210    0.174
       192  -9.9926    204.9074     18.6670   1.8308289498e+01   3.1728972399e+01    0.2117394    0.1412167 -40.93 0.0003509045    1.221    0.181
       193 -14.2461    204.1689     70.4044   3.1759725605e+01   2.5321290940e+01     1.769133    0.8606697 -52.57   0.00788992    2.178    0.541
       194 -12.5673    145.4213     61.7464   3.8273189966e+01   3.9899244380e+01     1.083012     0.641853 -84.70  0.001555232    2.704    0.630
       195 -14.1372    127.8859     90.1477   5.0936688924e+01   3.8699385227e+01     1.015555    0.8881302 -36.75 0.0008971202    1.150    0.131
       196  -9.4634    229.5476     15.4804   1.6078810526e+01   2.7008130423e+01    0.1723023    0.1027622 -20.85 0.0001846213    1.750    0.428
       197 -13.4948    123.6635     84.2846   5.0256612586e+01   4.0863284415e+01     1.464711    0.9704379   5.28  0.005224509    3.123    0.680
       198 -12.0117    155.7632     61.3258   3.6255624938e+01   3.7466689493e+01    0.8046885    0.2893214 -30.75  0.001016593    2.942    0.660
       199 -11.0474    151.9829     59.9409   3.6489084185e+01   3.8602107907e+01    0.3502435    0.2811183 -35.05 0.0006878009    1.215    0.177
       200  -9.2965    102.9618     14.9444   2.8771375414e+01   5.7553309988e+01    0.1610067     0.152942  89.26 0.0004775798    1.017    0.016
       201 -10.4759     69.6436    104.6936   7.3003684890e+01   4.7015314196e+01    0.1586195    0.1212765 -21.07 0.0007041231    1.722    0.419
       202 -11.0346    237.4133    101.9959   3.5127518441e+01   1.4862419007e+01    0.3594466    0.2233335 -29.41  0.002135776    1.297    0.229
       203 -10.2453    109.5124    103.5071   5.9660919022e+01   3.9762390246e+01    0.1550597    0.1502928 -76.12 0.0003051077    1.009    0.009
       204 -10.5328    165.2162    101.8311   4.5950498095e+01   2.8283147690e+01    0.2213403    0.1907224 -55.09 0.0007584275    1.177    0.150
       205  -9.1658    160.2582     14.3017   2.0595763090e+01   4.2642381407e+01    0.1248823    0.1043235  32.63 0.0002018697    1.510    0.338
       206  -9.4246    165.7435     13.0150   1.9682335418e+01   4.1411904320e+01    0.2686769   0.09573714 -62.92 0.0009046744    3.498    0.714
       207 -11.3649     95.8611     89.5135   5.9860618845e+01   4.5841956305e+01     0.588573    0.4254445  86.39  0.001218234    1.907    0.476
       208  -8.6872      2.0000     12.9093   8.1581332326e+01   7.8315748342e+01    0.2094868   0.06608719 -63.37 0.0008048387    2.959    0.662
       209 -11.9723    101.7249     95.9743   5.9897361055e+01   4.3116737660e+01    0.4878142    0.3760825 -63.99  0.002258576    1.366    0.268
       210 -11.2570    100.2588     99.9994   6.1468559653e+01   4.2477197736e+01    0.3053203     0.267782 -76.58 0.0007533637    1.191    0.160
       211 -11.2429     96.5438     99.9289   6.2608213154e+01   4.3244577478e+01    0.3937874    0.2711332 -35.71  0.001193698    1.656    0.396
       212 -12.6470    106.5320     96.5090   5.8602264554e+01   4.1986303057e+01    0.9128544    0.5075461 -23.79  0.002834533    3.730    0.732
       213 -11.6055    105.6796     92.7038   5.7762644841e+01   4.3033307259e+01    0.3697554    0.2746917  21.77 0.0008241499    1.751    0.429
       214 -11.7353     81.4448     99.8260   6.7587418528e+01   4.6186563657e+01     0.497707    0.3345288 -84.70  0.002030222    2.040    0.510
       215  -9.9064    171.0123     10.5340   1.8472428548e+01   4.0372760385e+01    0.1886941    0.1232208  86.61 0.0001350753    1.495    0.331
       216 -12.2252     85.9618     98.0985   6.5576533405e+01   4.5765262120e+01    0.5581386    0.4033355  48.35  0.001164056    1.407    0.289
       217 -14.3128     67.7970     83.3199   6.8058673231e+01   5.2819092981e+01      1.76115     1.324518 -48.09  0.008072613    1.318    0.241
       218 -11.3567    112.7256    246.9380   8.2474083950e+01   1.0304410268e+01    0.3254335    0.1692336 -35.47  0.001813244    2.673    0.626
       219 -10.5660     35.7886    248.8580   9.8499061569e+01   1.8275509944e+01    0.2042198   0.07047042 -67.19  0.001043537    3.412    0.707
       220 -13.3908      4.4590     54.1700   9.2790165940e+01   6.8100090160e+01     1.174333    0.7333411 -72.69  0.006013382    1.426    0.299
       221 -10.1956     13.3429    248.3204   1.0307180027e+02   2.0422557329e+01   0.09431601   0.08003649 -13.40  0.000704991    1.723    0.420
       222 -10.4374    227.1380    242.1770   6.1377342608e+01  -1.5494658061e+00    0.1260313   0.09965749   5.50 0.0006972344    1.345    0.256
       223  -9.6582    218.7395    239.9978   6.2380547197e+01  -5.0556542915e-01    0.1212382    0.0732733 -24.89 0.0008217972    1.528    0.345
       224 -11.8154    248.2890    234.8436   5.7248033398e+01  -2.7732508990e+00    0.2521862   0.09012631 -23.61  0.001434222    2.644    0.622
       225 -10.4571     15.9001    238.6337   1.0227149337e+02   2.1913141777e+01     0.166829    0.1409797 -89.02 0.0006016893    1.402    0.287
       226 -10.0249    159.7146    219.8999   6.9936784329e+01   8.6502382052e+00    0.1540817    0.1309445   2.44 0.0003669695    1.101    0.092
       227 -12.3422     26.5353     36.0038   7.2056805021e+01   7.0685310536e+01    0.3691538    0.3179689 -11.96 0.0006465018    1.190    0.159
       228 -12.1802    152.7819    124.2020   5.4028674842e+01   2.6553188746e+01     0.266349     0.250878 -37.33 0.0003101915    1.042    0.041
       229 -10.3683    204.3098    116.4033   4.2734118629e+01   1.8301883134e+01     0.279994    0.2185345 -88.87  0.001227062    1.988    0.497
