#   1 NUMBER                 Running object number                                     
#   2 MAG_AUTO               Kron-like elliptical aperture magnitude                    [mag]
#   3 X_IMAGE                Object position along x                                    [pixel]
#   4 Y_IMAGE                Object position along y                                    [pixel]
#   5 X_WORLD                Barycenter position along world x axis                     [deg]
#   6 Y_WORLD                Barycenter position along world y axis                     [deg]
#   7 A_WORLD                Profile RMS along major axis (world units)                 [deg]
#   8 B_WORLD                Profile RMS along minor axis (world units)                 [deg]
#   9 THETA_WORLD            Position angle (CCW/world-x)                               [deg]
#  10 FWHM_WORLD             FWHM assuming a gaussian core                              [deg]
#  11 ELONGATION             A_IMAGE/B_IMAGE                                           
#  12 ELLIPTICITY            1 - B_IMAGE/A_IMAGE                                       
         1 -15.7973    237.8798     13.5475   2.8342010940e+01   2.6142194029e+01     2.685608     1.470056 -68.63   0.01658583    1.543    0.352
         2 -13.6688      4.9685     21.0199   8.7047196899e+01   7.1524727981e+01     1.460548    0.5084616 -23.54  0.005114433    5.138    0.805
         3 -13.2888      6.2942     11.7583   8.2102181146e+01   7.2811449337e+01    0.8010023    0.3453649 -23.73  0.004044006    2.519    0.603
         4 -11.9570      1.7933      4.3496   8.1253715571e+01   7.4248580486e+01    0.4653145    0.1582226 -38.75  0.002402167    2.610    0.617
         5 -12.2764      9.1728      2.0493   7.5431655536e+01   7.3816787287e+01    0.6543862    0.2089517  27.40  0.003097092    2.989    0.665
         6 -13.1836     24.4917      7.9017   6.9880078574e+01   7.1270912662e+01      0.33448    0.1866904  16.26  0.001727083    1.736    0.424
         7 -14.0518     15.2140     20.2272   8.0827796876e+01   7.0710004148e+01    0.8327237    0.2587732 -32.08  0.003323295    3.736    0.732
         8 -10.9588     33.3389      8.3238   6.5698457460e+01   6.9984053186e+01     0.124655   0.07395107  11.47 0.0007051063    1.722    0.419
         9 -11.9117     29.7090      2.8601   6.4657223701e+01   7.1105302381e+01    0.2783985    0.1531427  18.95  0.001591566    1.765    0.434
        10 -12.9845     13.1065      8.1053   7.6253792888e+01   7.2624208697e+01    0.3053447    0.1820995  14.47  0.001847683    1.470    0.320
        11 -13.0041     21.9200      2.2943   6.8314679312e+01   7.2252080579e+01    0.8125644    0.2479643  29.55  0.003329328    3.667    0.727
        12 -11.2201    230.5078    235.9668   7.2793260894e+01  -8.0401667121e+00    0.2632234     0.220291 -35.60  0.001815562    1.474    0.322
        13 -10.1572    224.6274    249.8241   7.6120854120e+01  -9.3341236406e+00    0.1501545    0.1022724 -40.79 0.0009416345    1.714    0.417
        14 -11.0438    209.3723    249.5656   7.8921775274e+01  -7.4398614309e+00    0.2178812     0.178786 -14.63  0.001498765    1.167    0.143
        15 -11.0968     37.2993    248.7262   1.1491644053e+02   1.6320157875e+01    0.3499933    0.1515227  61.14  0.001673815    2.286    0.563
        16 -11.4397     20.4939    248.9072   1.1827482723e+02   1.8145628262e+01    0.3117659    0.1800594  62.75  0.001884221    1.440    0.305
        17 -11.6480     12.1099    248.9385   1.1989916049e+02   1.9008536683e+01    0.3487003      0.17164  54.17  0.002019052    1.618    0.382
        18 -11.3703      4.0529    250.2029   1.2148614420e+02   1.9551866627e+01    0.2576092    0.1390094  37.05  0.001578634    1.712    0.416
        19 -12.1099      6.1965    235.8060   1.2036230788e+02   2.2314014484e+01    0.2938111     0.196419  67.08  0.001519829    1.191    0.160
        20 -11.3458    204.6773    234.6162   7.7402478550e+01  -4.5363314239e+00    0.3244463    0.2148625 -44.81  0.001863067    1.723    0.419
        21 -10.5846    176.5805    234.6798   8.3076267400e+01  -5.9971564909e-01     0.248837    0.1171607 -39.62  0.001148756    2.212    0.548
        22 -10.8625    249.5106    234.0336   6.9157764303e+01  -9.9649053196e+00    0.1894097    0.1559428  27.50  0.001254842    1.570    0.363
        23 -11.2324    215.8204    233.0734   7.5012463110e+01  -5.7647519702e+00    0.2792153    0.2269592 -30.44  0.001641798    1.295    0.228
        24 -11.4641    235.9376    228.9666   7.0646771724e+01  -7.6594227945e+00    0.3227152    0.2375524 -34.55  0.001686865    1.376    0.273
        25 -11.2986     26.5894    229.2932   1.1577505424e+02   2.1646080647e+01     0.240515    0.1084368 -82.79  0.001155206    2.199    0.545
        26 -12.2065      4.7912    228.1308   1.2023398549e+02   2.4092546997e+01    0.4074999    0.2111968  61.41  0.002264675    1.636    0.389
        27 -11.8056    247.7718    226.2682   6.8142543402e+01  -8.6587194881e+00    0.2761379    0.2610621 -25.08  0.001526707    1.576    0.365
        28 -10.6741    229.3953    227.6966   7.1597718631e+01  -6.6647903319e+00    0.2227588    0.1053149 -41.98  0.001127212    2.104    0.525
        29 -11.2526     14.3083    232.0500   1.1851866912e+02   2.2322762786e+01    0.3324679    0.1630961  55.81  0.001803628    1.730    0.422
        30 -10.1672    223.1875    226.1952   7.2471975801e+01  -5.6452659666e+00    0.1556294    0.1405987 -23.10  0.001029636    1.331    0.249
        31 -11.6403    190.3542    234.1510   8.0163962565e+01  -2.4869300087e+00    0.2994376    0.1950924 -38.43   0.00168263    1.563    0.360
        32 -11.1599     11.1371    225.6241   1.1878737377e+02   2.4036949022e+01    0.2954762    0.1441435  55.99   0.00146922    1.763    0.433
        33 -10.5342    205.9501    224.5669   7.5455825288e+01  -3.0757137335e+00     0.206788    0.1540272 -29.94  0.001244368    1.262    0.208
        34 -10.9354    216.8636    222.7569   7.3055111326e+01  -4.2680433286e+00    0.3111492     0.192036 -45.30   0.00163143    1.798    0.444
        35 -12.0020    238.4718    219.4329   6.8561805532e+01  -6.5290912998e+00    0.4151054    0.2648468 -43.01  0.001835503    1.680    0.405
        36 -11.2260     18.6985    221.5653   1.1692759958e+02   2.4189635565e+01    0.2272088    0.1220436  74.76  0.001189805    1.766    0.434
        37 -11.8159      2.2459    220.6631   1.2034739472e+02   2.5963724675e+01    0.3608644    0.1737991  82.42  0.001893162    1.888    0.470
        38 -11.9058    227.6811    219.9423   7.0567947628e+01  -5.2436602165e+00     0.361936     0.228617 -29.29  0.001983724    1.385    0.278
        39 -12.7292    247.9095    216.0628   6.6360636948e+01  -7.1642859225e+00    0.5463198    0.2731368 -39.49  0.002365461    1.797    0.443
        40 -12.1563    240.4558    207.6882   6.6145474138e+01  -4.9494665092e+00    0.4676526    0.2338238 -47.71  0.002235403    2.324    0.570
        41 -11.2491    247.1511    206.1257   6.4734786970e+01  -5.5487204440e+00      0.39144    0.1489946 -45.32  0.001723973    2.760    0.638
        42 -12.2404    242.9051    200.3251   6.4402738462e+01  -4.0913685068e+00    0.5164011    0.2354853 -32.97  0.001979533    1.920    0.479
        43 -11.3393    250.1649    199.6265   6.3072722356e+01  -4.9079194482e+00    0.4165351    0.1588416 -43.68  0.001891433    2.467    0.595
        44 -12.9219    241.4334    179.2287   6.0735889180e+01  -4.0853413893e-01    0.7115042    0.2289862 -42.25  0.002865614    2.665    0.625
        45 -11.8966    249.8351    184.0438   6.0277954467e+01  -2.3639122879e+00    0.5590311      0.20405 -38.48  0.002411553    2.265    0.559
        46 -12.3914    247.9567    176.5485   5.9176995367e+01  -8.7101330130e-01    0.5799851    0.2515802 -40.31  0.002568552    1.910    0.476
        47 -12.5359    246.4402    192.9432   6.2468288388e+01  -3.3627437478e+00    0.4172597    0.3602269 -22.68  0.002324251    1.150    0.130
        48 -12.3600    243.6654    187.4342   6.1908019304e+01  -2.0909452383e+00    0.5027218    0.2274077 -26.15  0.002183521    2.579    0.612
        49 -11.0232    202.3038    218.1073   7.5046878084e+01  -1.4716295382e+00    0.3021191    0.1472092 -46.46   0.00140259    2.208    0.547
        50 -10.9186    193.3234    218.4392   7.6900542843e+01  -2.1966267389e-01    0.2560562    0.1598103 -43.01  0.001341969    1.640    0.390
        51 -10.6044    210.5263    217.5380   7.3346379449e+01  -2.5416646382e+00     0.261146    0.1157382 -40.76  0.001203127    2.144    0.533
        52 -12.0428     12.3451    216.4753   1.1795918155e+02   2.5965442930e+01     0.298653    0.1808467  56.24  0.001738228    1.434    0.303
        53 -10.2548     56.1749    216.3233   1.0802426849e+02   2.1098985072e+01    0.1990472    0.0961142 -80.30 0.0005910095    2.355    0.575
        54 -11.9487    232.9129    212.4277   6.8305632659e+01  -4.7299940834e+00    0.3719703    0.2318953 -26.19  0.001593596    1.404    0.288
        55 -12.1442    217.2301    211.6799   7.1031478543e+01  -2.4953981046e+00    0.4806805    0.2133693 -42.94  0.002225818    2.178    0.541
        56 -11.6014    225.3620    206.7059   6.8632596237e+01  -2.7897567972e+00    0.3144285    0.2165636 -29.42  0.001847751    1.260    0.206
        57 -10.4339    205.9904    207.0084   7.2336387977e+01  -7.8274398931e-02    0.2203516    0.1455272  -9.98 0.0009789768    1.690    0.408
        58  -9.5663    123.9929    206.0061   9.0238436746e+01   1.3378718710e+01    0.1667921    0.1479987  34.15            0    1.067    0.062
        59 -10.9858      1.8640    205.3770   1.1954284832e+02   2.9459969420e+01    0.2266811     0.136484  85.35  0.001192588    1.412    0.292
        60 -11.5130    235.4701    202.9710   6.6156403602e+01  -3.5416924318e+00    0.3019615    0.1646878 -37.35  0.001173549    1.593    0.372
        61 -12.3441    236.9480    186.8463   6.2922069320e+01  -1.0652347204e+00     0.444071    0.2091557 -34.31   0.00182955    1.870    0.465
        62 -12.5207    237.0725    197.1981   6.4824331931e+01  -2.8105371423e+00    0.4233712    0.2050519 -35.53  0.001465895    1.775    0.437
        63 -11.7829      2.4257    212.3325   1.1983668956e+02   2.7817076628e+01    0.2895094    0.1732312  74.19  0.001691859    1.430    0.301
        64 -11.9697     12.2902    203.7963   1.1710877371e+02   2.8900214943e+01    0.3751056    0.1037992  38.93  0.001556703    2.934    0.659
        65 -10.4902    197.7585    203.2418   7.3274370536e+01   1.8409467074e+00    0.2230043   0.09634288 -33.89 0.0008948571    2.453    0.592
        66 -11.3544    230.0170    186.5019   6.4051464196e+01  -1.7438938852e-02    0.3430223    0.1686651 -41.81  0.001106081    1.810    0.448
        67 -12.1231    229.1872    199.5528   6.6637297525e+01  -2.1230399784e+00    0.4039952    0.2075694 -23.79  0.001886504    2.167    0.538
        68 -11.4836    231.0198    193.0139   6.5100851410e+01  -1.2759571537e+00    0.3862421    0.1627527 -36.59  0.001428881    2.093    0.522
        69 -11.2794    223.5763    200.7789   6.7873818396e+01  -1.5445867600e+00    0.2491176    0.1083487 -36.64  0.001125446    2.070    0.517
        70 -10.8524    210.3915    200.2836   7.0246804871e+01   4.5729775047e-01     0.241123    0.1585774 -45.81  0.001279119    1.583    0.368
        71 -10.4411    215.4741    196.9865   6.8667513540e+01   2.8470657581e-01    0.2052768    0.1171882 -39.05  0.001032406    1.592    0.372
        72 -10.3536     14.6468    196.3325   1.1600919288e+02   3.0455238762e+01    0.1424704   0.07692382  63.21 0.0007045771    1.784    0.439
        73 -10.2614    219.5247    194.0219   6.7357732786e+01   2.0740777998e-01    0.2008879    0.1154648 -38.24 0.0007013045    1.556    0.357
        74 -12.2731      3.6101    196.7635   1.1860223716e+02   3.1327708923e+01    0.3351774     0.183745  74.69  0.001784125    1.676    0.403
        75 -12.1348    224.1636    191.1178   6.5964670725e+01   3.4031508377e-02      0.43267    0.2071153 -42.69   0.00203823    1.915    0.478
        76 -10.7753    215.2984    189.8151   6.7344747138e+01   1.5869633046e+00    0.3374602    0.1382002 -36.76  0.001405113    2.282    0.562
        77 -11.8637      4.3134    188.5787   1.1787295879e+02   3.3225121399e+01    0.2982816      0.14363  72.01  0.001419098    2.090    0.522
        78  -9.7549    210.3171    188.3240   6.7998948382e+01   2.6247270850e+00    0.1411603   0.09660701  -9.80 0.0007043889    1.669    0.401
        79 -11.5542    223.9744    183.2152   6.4492668786e+01   1.4508519112e+00    0.2838354     0.170754 -32.95 0.0009932604    1.479    0.324
        80 -10.2055    218.0000    182.9448   6.5523054731e+01   2.4104863098e+00    0.2214752   0.06852107 -42.31 0.0007960701    2.898    0.655
        81 -11.6884    235.0412    180.6771   6.2078272898e+01   2.5915466085e-01     0.383282    0.1588143 -34.46  0.001644279    2.226    0.551
        82 -10.5246    210.9890    181.2581   6.6499934004e+01   3.8201325824e+00    0.2624745    0.1561688 -29.14    0.0012248    1.665    0.399
        83 -10.8299    230.3265    179.8654   6.2730680398e+01   1.0912400450e+00    0.3207547    0.1326373 -35.66  0.001097067    2.202    0.546
        84 -11.6011      2.1111    178.4052   1.1765851852e+02   3.5872418594e+01    0.2778116    0.1372095  81.84  0.001331585    1.972    0.493
        85 -10.6512    219.3020    176.8748   6.4102155041e+01   3.3086395487e+00    0.3325586    0.1395771 -36.63  0.001385904    2.207    0.547
        86 -10.7439    232.9936    173.7806   6.1099960295e+01   1.7592114028e+00    0.2486846    0.1445834 -28.78  0.001257849    1.638    0.390
        87 -10.8276      5.6664    174.3116   1.1645010538e+02   3.6605016571e+01    0.1371692   0.08034751  64.55  0.000639266    1.679    0.404
        88 -11.2231    225.5838    172.1781   6.2061765089e+01   3.1758472563e+00    0.3375847    0.2130347 -25.39  0.001476594    1.590    0.371
        89 -11.1806    237.9676    157.8765   5.7172248662e+01   3.7955067649e+00    0.3932515    0.1990381 -30.81  0.001447662    1.976    0.494
        90 -12.2475    250.2014    152.3878   5.4221191380e+01   2.8842926132e+00     1.011917    0.1647766 -43.27  0.002901693    5.132    0.805
        91 -10.6877    250.4792    139.5147   5.1681116369e+01   5.0341878256e+00     0.273002     0.104252 -41.42  0.001195352    2.116    0.527
        92 -11.1792    247.2481    143.4304   5.2911615956e+01   4.8664290330e+00    0.2696387    0.1595031 -34.76  0.001101648    1.469    0.319
        93 -12.3032    247.9167    117.8545   4.7766889882e+01   9.1258271991e+00    0.4475212    0.1611569 -39.58  0.001697469    2.341    0.573
        94 -11.1983    248.5383    134.5014   5.0972747987e+01   6.1945265744e+00    0.3641258    0.1603146 -39.91  0.001289797    1.867    0.464
        95 -11.8520    247.8584    128.7093   4.9925198280e+01   7.2931054561e+00    0.3761281    0.2457053 -32.76  0.001222867    1.424    0.298
        96 -11.2040    249.1720    123.2961   4.8676827294e+01   7.9988973806e+00    0.2945969    0.1948204 -36.96  0.001009583    1.309    0.236
        97 -12.3677    245.9937    167.6475   5.7797938009e+01   9.0511437021e-01    0.4192941    0.2286798 -37.94  0.001510677    1.510    0.338
        98 -11.3226    246.8591    162.0704   5.6593131987e+01   1.7287889144e+00    0.3744125    0.1925146 -41.63  0.001367466    1.614    0.381
        99 -11.5093    245.9346    156.7072   5.5698720580e+01   2.7839219974e+00    0.4283145    0.1992733 -35.28  0.001354394    1.887    0.470
       100 -11.1943    241.6948    152.9811   5.5622759718e+01   4.0749796357e+00     0.343401    0.2015819 -41.07  0.001023452    1.416    0.294
       101 -11.7284    243.9627    148.2959   5.4354765632e+01   4.5376214507e+00    0.4405355    0.2032682 -37.93  0.001453054    1.833    0.454
       102 -10.7297    237.3511    168.4900   5.9347688317e+01   2.0309982296e+00    0.2689208    0.1384982 -41.77  0.001173018    1.660    0.397
       103 -10.7879    218.9566    166.7777   6.2161024978e+01   5.2163098780e+00    0.3163992    0.1695838 -33.89  0.001471158    1.750    0.429
       104 -10.3015    229.4661    165.0147   5.9980871614e+01   3.8549533967e+00    0.2115821    0.1139593 -38.93  0.001028341    1.593    0.372
       105 -11.0981    240.1268    163.2105   5.7871554248e+01   2.5329869587e+00    0.2917712    0.1590322 -43.15  0.001172577    1.580    0.367
       106 -11.0623    233.9439    163.2136   5.8876794406e+01   3.4773028667e+00    0.2511775    0.1627194 -38.98  0.001368789    1.308    0.235
       107 -10.4124    213.0131    161.9669   6.2260325563e+01   7.1039605902e+00    0.2286216    0.1590633 -14.36  0.001135539    1.719    0.418
       108  -9.8587    221.6418    160.7010   6.0463073155e+01   5.8978205361e+00    0.1385718   0.09975217  -6.84 0.0007035704    1.708    0.415
       109 -10.7803    226.5483    156.2611   5.8724330290e+01   5.9051784636e+00    0.3315229    0.1160191 -39.89  0.001276604    2.499    0.600
       110 -11.2162    233.2064    152.7151   5.6911951746e+01   5.4631733484e+00     0.283018    0.1582853 -33.93  0.001098113    1.626    0.385
       111 -11.9402    234.9732    145.6538   5.5212466583e+01   6.4368248391e+00    0.4272051    0.2450214 -34.02  0.001660319    1.589    0.371
       112 -10.6614    223.5634    145.7038   5.7070504935e+01   8.3405353654e+00    0.2694813     0.117629 -37.87  0.001127435    2.073    0.518
       113 -11.6709    243.5829    139.1259   5.2598941199e+01   6.1896121209e+00     0.401924    0.1992148 -41.07  0.001303476    1.661    0.398
       114 -11.3888    242.3069    132.6173   5.1487457642e+01   7.5276659090e+00    0.3592364     0.193201 -37.65  0.001345063    1.598    0.374
       115 -10.6692    230.0370    140.0071   5.4844881491e+01   8.2730080184e+00    0.2958402    0.1600655 -41.46  0.001436647    1.572    0.364
       116 -10.4699    238.5366    139.9478   5.3515482423e+01   6.8643501748e+00    0.2098928    0.1107155 -40.35  0.001027372    1.585    0.369
       117  -9.8076    224.3106    139.3347   5.5628246009e+01   9.3821022332e+00    0.1366601    0.1014726 -12.20 0.0004705109    1.679    0.404
       118 -11.7147    234.4625    134.3348   5.2997824664e+01   8.5372668270e+00    0.2947243     0.194286 -44.07  0.001394646    1.285    0.222
       119 -12.4820    240.5647    125.1408   5.0233901587e+01   9.1168750671e+00    0.3663194    0.2169495 -30.99    0.0017133    1.725    0.420
       120 -10.2980    248.6486     97.1466   4.3567934465e+01   1.2428643428e+01    0.1860522    0.1026114 -34.70 0.0009493381    1.783    0.439
       121  -9.9841    247.5592     91.5087   4.2579689154e+01   1.3527526559e+01     0.127589    0.1013884 -54.07 0.0003019124    1.015    0.015
       122  -9.9962    249.3010     87.3322   4.1555889247e+01   1.3881737567e+01    0.1136809   0.09509033 -15.13 0.0005555496    1.652    0.395
       123 -10.5588    248.3163     73.5122   3.8951596648e+01   1.6191246273e+01    0.2137221   0.09450492 -41.17 0.0007548853    1.900    0.474
       124 -11.3033    248.6978     64.4748   3.7154752196e+01   1.7462928575e+01    0.2180262   0.09213939 -40.69  0.001067577    2.009    0.502
       125 -11.0691    250.5076     55.9568   3.5348557755e+01   1.8351332416e+01    0.1836852   0.09752769 -43.02  0.001031875    1.587    0.370
       126 -11.3251    191.0011    247.4828   8.2167421506e+01  -4.7344780001e+00    0.2161198    0.1837635 -51.92  0.001400308    1.627    0.385
       127 -10.2942    232.8468    246.8425   7.4158910528e+01  -9.8734944830e+00    0.1478121    0.1286497   2.34  0.001079967    1.325    0.245
       128 -11.0769    175.8270    246.1545   8.5030005111e+01  -2.4329222150e+00    0.1828343    0.1360461  -2.97  0.001086225    1.333    0.250
       129 -12.2434      3.2745    243.0818   1.2129652825e+02   2.1073947427e+01    0.4061692    0.2153258  65.67  0.002281564    1.550    0.355
       130 -10.6638    225.1198    242.7324   7.4886548714e+01  -8.3788552272e+00    0.1932592    0.1516675 -30.90  0.001139842    1.365    0.267
       131 -12.0848      1.8823     40.6089   9.5967213578e+01   6.8326993410e+01    0.3324953    0.1238346 -50.79  0.001653673    2.109    0.526
       132 -10.4096    201.6023    241.8056   7.9178246550e+01  -5.2609927722e+00    0.1614399    0.1148108 -46.05 0.0009553275    1.714    0.417
       133 -12.1496     15.7849    240.2971   1.1870595219e+02   2.0416909102e+01    0.5712737    0.1816004  44.84  0.002696713    2.390    0.582
       134 -10.3680    246.9901    241.0263   7.0742606101e+01  -1.0657855916e+01    0.1764475    0.1195178 -52.50  0.001020064    2.599    0.615
       135 -13.2780      7.1283     26.9526   8.8223273225e+01   7.0386009509e+01    0.5600203    0.2221099 -28.89  0.002638343    2.598    0.615
       136 -11.1930     29.9181    240.1091   1.1582951841e+02   1.8949122049e+01    0.2908917    0.1254175  62.13  0.001372406    2.292    0.564
       137 -10.6868    183.4705    239.0171   8.2349599132e+01  -2.3266990709e+00    0.1869507    0.1213094 -39.96  0.001039473    1.615    0.381
