#   1 NUMBER                 Running object number                                     
#   2 MAG_AUTO               Kron-like elliptical aperture magnitude                    [mag]
#   3 X_IMAGE                Object position along x                                    [pixel]
#   4 Y_IMAGE                Object position along y                                    [pixel]
#   5 X_WORLD                Barycenter position along world x axis                     [deg]
#   6 Y_WORLD                Barycenter position along world y axis                     [deg]
#   7 A_WORLD                Profile RMS along major axis (world units)                 [deg]
#   8 B_WORLD                Profile RMS along minor axis (world units)                 [deg]
#   9 THETA_WORLD            Position angle (CCW/world-x)                               [deg]
#  10 FWHM_WORLD             FWHM assuming a gaussian core                              [deg]
#  11 ELONGATION             A_IMAGE/B_IMAGE                                           
#  12 ELLIPTICITY            1 - B_IMAGE/A_IMAGE                                       
         1 -14.9144    161.1629     43.0208   8.1932556706e+01   3.9660415802e+01     1.511635     1.052636 -15.12  0.003913749    1.470    0.320
         2 -14.6320    174.1073     10.0626   6.7915996456e+01   4.0160058653e+01     1.245148     1.053065  21.89  0.004057301    1.176    0.149
         3 -12.2041    189.8828     14.6816   6.7360141820e+01   3.5491457836e+01    0.2941549    0.2131324 -27.80   0.00076276    1.349    0.259
         4 -11.4906    133.9434    244.9912   1.2844959191e+02   1.2577452590e+01    0.1379566    0.1180775  47.92 0.0003770822    1.195    0.163
         5 -20.1069     78.1010    175.9718   1.3143646802e+02   3.0357303400e+01     13.68475     5.702347 -68.03   0.07122571    2.548    0.608
         6 -12.6316    157.3216    201.4846   1.1971596403e+02   1.4672557773e+01    0.4328288     0.275312  66.14  0.001975903    2.204    0.546
         7 -12.4103    154.1924    195.7781   1.1949794065e+02   1.5956284632e+01    0.3586764    0.2396039  72.11  0.002036929    2.250    0.556
         8 -11.1045    139.3911    201.2065   1.2285822907e+02   1.7503606565e+01    0.2089001     0.183501  83.09 0.0005903108    1.311    0.237
         9 -11.0989    136.1548    196.7674   1.2288261932e+02   1.8645925360e+01    0.3025557    0.1930319  69.28  0.001755551    2.058    0.514
        10 -11.5422     16.4659    250.0960   1.4617164277e+02   2.5314367410e+01    0.1103785    0.0645898  84.54 0.0009970005    1.492    0.330
        11 -13.3057    161.4898    197.6889   1.1846055176e+02   1.4521910922e+01    0.4249005    0.3095352 -88.30  0.002535874    2.324    0.570
        12 -12.9675    210.4776    187.9662   1.0844696770e+02   7.6248285857e+00    0.3888159    0.2218716 -53.55  0.001820684    3.725    0.732
        13 -13.7186    207.3544    177.9129   1.0725093469e+02   9.3502607142e+00    0.5404672     0.418164  12.82  0.002797412    1.204    0.169
        14 -13.0066     30.7696    182.4712   1.4093125477e+02   3.4470014910e+01    0.6492683    0.2524059  70.59  0.000327407    2.734    0.634
        15 -11.7954     27.5832    179.9361   1.4135686782e+02   3.5221050898e+01    0.2404898    0.1884729 -37.22  0.001819143    2.186    0.542
        16 -13.1082    125.1215    242.4522   1.2959598099e+02   1.4066692967e+01    0.3426008     0.143213 -52.73  0.002081512    3.215    0.689
        17 -13.8129    195.6567    170.7115   1.0802388505e+02   1.2329865097e+01    0.6716712    0.4230372 -46.84  0.001911859    2.106    0.525
        18 -14.3435    122.8084    166.5810   1.2131651685e+02   2.5585240629e+01     1.279755    0.5570242  60.06  0.004728926    3.855    0.741
        19 -13.7701    138.8682    171.9199   1.1892179683e+02   2.2071021267e+01    0.5755813    0.4138565  68.80  0.002318959    1.653    0.395
        20 -14.6089    143.1418    168.2868   1.1751797477e+02   2.1946570298e+01    0.8887174    0.5078679  61.69  0.004332248    2.272    0.560
        21 -10.0906    151.0000    242.5667   1.2555662369e+02   1.0515411066e+01    0.1499653    0.1269263   7.04 0.0007683618    1.544    0.352
        22 -11.9891    203.4973    171.3673   1.0675161277e+02   1.0844649592e+01    0.4087773    0.2243556  35.48  0.002009709    1.588    0.370
        23 -13.7084    177.6329    171.6474   1.1147380026e+02   1.5418339993e+01    0.5371384    0.4276114 -28.49  0.003406361    1.420    0.296
        24 -10.5608     28.8229    241.4000   1.4413223636e+02   2.5358875026e+01   0.08666538   0.04332801  71.55 0.0006660054    1.606    0.377
        25 -11.3997     26.4816    172.3654   1.4109478770e+02   3.6688716209e+01    0.2834538    0.1673483  37.01  0.001993355    1.777    0.437
        26 -11.7648    201.0753    164.4899   1.0591049955e+02   1.2173151953e+01    0.3833037    0.2883338 -45.98  0.002158307    1.728    0.421
        27 -10.9011    222.4495    161.6700   1.0164953579e+02   8.6454532619e+00    0.2298447    0.1928225 -55.79 0.0008346392    1.859    0.462
        28 -10.7819     21.7920    239.6210   1.4507534266e+02   2.6270436271e+01    0.1116079   0.07410872  75.92 0.0005769906    1.206    0.171
        29 -11.3402    131.1627    236.6304   1.2810819967e+02   1.3965870910e+01    0.2004246     0.139526 -58.49 0.0007313572    1.909    0.476
        30 -12.6852    164.5975    157.3659   1.1142462804e+02   1.9913528454e+01    0.2957342    0.2285456  25.82 0.0007986254    1.299    0.230
        31 -14.8682    134.4960    146.8748   1.1567696505e+02   2.7110617435e+01     1.546778    0.4977957 -56.24  0.004977127    4.846    0.794
        32 -14.5700    143.5195    144.1895   1.1326922091e+02   2.5975081933e+01      0.99595    0.4683942 -56.00  0.004182838    2.778    0.640
        33 -12.4670    134.6889    109.1843   1.0782125145e+02   3.4140639270e+01     1.077391    0.1642785 -46.15  0.002474122    6.950    0.856
        34 -10.2746     22.9579    156.2413   1.4071661772e+02   4.0029045483e+01    0.1403069    0.1092344  71.82  0.000411194    1.079    0.074
        35 -11.0644     17.5507    153.9955   1.4165676418e+02   4.0924055435e+01    0.2417104    0.1278518  85.56  0.001116999    1.596    0.374
        36 -12.1304    193.8140    165.5864   1.0742180770e+02   1.3349770674e+01    0.3058568    0.2413103  29.28  0.001176488    1.086    0.079
        37 -10.9894      7.6016    237.4327   1.4702093675e+02   2.7850183079e+01   0.08932857   0.05317339  63.94 0.0003107132    1.097    0.088
        38 -13.9876    135.8180    128.1519   1.1177635909e+02   3.0313505278e+01     1.760164     0.296673 -49.68  0.004025951    8.017    0.875
        39 -11.8126    138.9067    250.2721   1.2816610089e+02   1.1299255216e+01    0.2224389    0.1499772  40.20  0.001772399    1.159    0.137
        40 -12.6942    174.1161    149.2363   1.0801627010e+02   1.9410332831e+01    0.3434835     0.302278 -40.29  0.001445712    1.279    0.218
        41 -11.1954     27.5187    145.6994   1.3898000387e+02   4.1686727882e+01    0.2153227    0.1738559 -83.03  0.001182791    1.159    0.137
        42 -10.7785    140.2083    230.6057   1.2605526067e+02   1.3452555392e+01    0.2572709    0.1549839  69.17  0.001589058    2.372    0.578
        43 -11.3995    138.6823    243.6181   1.2758410189e+02   1.2095263094e+01    0.2470502    0.2002673 -42.95  0.001608173    1.743    0.426
        44 -12.7182    160.5103    128.0036   1.0636843466e+02   2.5562664803e+01    0.3733957    0.3057376 -50.95  0.001766247    1.361    0.265
        45 -10.3286    126.8494    251.0000   1.3006989014e+02   1.2816967695e+01    0.1394579    0.0409012  42.09 0.0007256576    2.436    0.589
        46 -10.9973     16.8175    225.6414   1.4529545179e+02   2.8750166129e+01   0.07409815   0.05481528 -80.30 0.0003000613    1.538    0.350
        47 -12.6014     22.7519    220.3893   1.4419062853e+02   2.8997716646e+01    0.1959092    0.1383677 -71.43   0.00171695    1.709    0.415
        48  -9.5964     23.5788    215.4391   1.4385197388e+02   2.9681903162e+01    0.0917488   0.06618368  67.68 0.0002443445    1.061    0.058
        49 -10.7116    205.5032    110.1848   9.3268231004e+01   1.8935528896e+01    0.2576041    0.1939252  41.69 0.0006194347    1.287    0.223
        50 -10.3816     15.8059    209.6077   1.4483261720e+02   3.1304988918e+01    0.0973373   0.07961805  56.26 0.0004370576    1.345    0.256
        51 -13.0884     11.3872    206.0852   1.4539484205e+02   3.2253895497e+01     0.328956    0.1979042  35.22  0.002103029    1.851    0.460
        52 -10.3723     22.7060    205.1254   1.4352906922e+02   3.1397365023e+01    0.1460298    0.1102266 -46.83  0.001164712    2.275    0.560
        53 -12.2502    155.0141    190.0054   1.1853972687e+02   1.6642781974e+01    0.2189264    0.2080817  26.10  0.001624256    1.162    0.139
        54 -13.0631    153.7241    185.3936   1.1810814813e+02   1.7524282358e+01     0.433477    0.2120515  46.06   0.00226969    1.744    0.427
        55 -10.5905    143.4122     80.2874   9.8038062288e+01   3.7785621168e+01    0.2078041    0.1384905 -45.67 0.0009340669    1.544    0.352
        56 -14.3571    149.9528     57.4793   8.9298434230e+01   4.0234373616e+01     1.168018    0.9008638 -10.66  0.000969591    1.364    0.267
        57 -12.5430    163.7422    202.9697   1.1879149366e+02   1.3457456278e+01    0.2823205    0.2123418  52.72  0.000651988    1.285    0.222
        58 -13.1160    164.7184     34.4706   7.8224461852e+01   3.9904819329e+01     0.440626    0.4107196 -10.20 0.0008355003    1.042    0.041
        59 -10.7603     13.5241     59.9354   1.3253078128e+02   6.1193891008e+01    0.1631475    0.1376186 -68.99 0.0004199664    1.099    0.090
        60 -10.3601    133.5079    249.0845   1.2888602912e+02   1.2158086491e+01     0.105037   0.09564959  83.80 0.0003462365    1.393    0.282
