#   1 NUMBER                 Running object number                                     
#   2 MAG_AUTO               Kron-like elliptical aperture magnitude                    [mag]
#   3 X_IMAGE                Object position along x                                    [pixel]
#   4 Y_IMAGE                Object position along y                                    [pixel]
#   5 X_WORLD                Barycenter position along world x axis                     [deg]
#   6 Y_WORLD                Barycenter position along world y axis                     [deg]
#   7 A_WORLD                Profile RMS along major axis (world units)                 [deg]
#   8 B_WORLD                Profile RMS along minor axis (world units)                 [deg]
#   9 THETA_WORLD            Position angle (CCW/world-x)                               [deg]
#  10 FWHM_WORLD             FWHM assuming a gaussian core                              [deg]
#  11 ELONGATION             A_IMAGE/B_IMAGE                                           
#  12 ELLIPTICITY            1 - B_IMAGE/A_IMAGE                                       
         1 -10.7942    205.4027     24.6114   3.3186046334e+01   3.1506585333e+01     0.403403    0.2598512 -64.29 0.0008727445    1.382    0.277
         2 -11.2469     80.8098     22.9994   5.4278303794e+01   5.9938176287e+01     0.695574    0.2173138  44.49 0.0008932299    2.773    0.639
         3  -9.5325     27.0098     23.1133   7.5838011641e+01   6.8953924911e+01    0.6910156    0.3283523  -7.96  0.002588873    4.384    0.772
         4  -8.9952     46.1058     20.6582   6.5787729389e+01   6.6572071983e+01    0.3416023    0.1847934 -39.89  0.001822778    2.190    0.543
         5 -11.5888    219.0826      9.3505   2.8860600076e+01   3.0350429442e+01    0.9850066    0.4471246 -52.64  0.005467848    1.871    0.465
         6 -12.7602    236.3400      4.2746   2.6726567200e+01   2.7457324837e+01     1.485877    0.7691258  73.18  0.009258885    1.816    0.449
         7  -9.5641     64.7075     13.6681   5.5574955627e+01   6.4097865079e+01    0.3746673     0.161144  35.18  0.001110104    2.294    0.564
         8  -8.7609    148.1407     13.6978   3.7121614086e+01   4.5695570099e+01    0.3777397    0.1308401  56.09  0.001610724    2.451    0.592
         9 -10.2444     77.7632     13.0248   5.1206637764e+01   6.1588869804e+01    0.6902521    0.2059184  54.56   0.00276762    2.812    0.644
        10  -9.7744     31.6493     11.0273   6.7845371759e+01   6.9919210869e+01    0.3308514    0.2016231  13.71 0.0003676029    1.574    0.365
        11  -8.8298     89.8259     12.4854   4.7728437180e+01   5.9113177593e+01    0.5019366    0.1356659  51.02  0.001818909    2.764    0.638
        12  -8.6479     97.1177     11.7300   4.5687210093e+01   5.7598399837e+01    0.2399081    0.1361946  44.34 0.0008546957    1.552    0.356
        13  -8.6389    125.5031      9.8211   3.9445690219e+01   5.1334179035e+01    0.2266073    0.1454265  63.48 0.0002506687    1.298    0.230
        14 -10.2010     21.1689      8.4546   7.1919558768e+01   7.1632228146e+01    0.3250309    0.2113703  40.31 0.0005306113    1.858    0.462
        15 -10.6684      8.3078      5.2776   7.7657951174e+01   7.3500158022e+01    0.5631643    0.3972468  23.87  0.004026488    1.432    0.301
        16 -10.3410     13.9529      4.2829   7.3789123738e+01   7.3010230798e+01    0.2446737    0.1787142   6.95 0.0001851641    1.061    0.057
        17  -8.0776    143.0086      9.3004   3.6607441197e+01   4.7307956874e+01    0.1750656    0.1359025  69.21 0.0003660923    1.091    0.083
        18  -9.1640     41.6382      5.9220   6.0777041569e+01   6.8949118478e+01    0.2653752    0.2240868  26.93  0.001294749    1.193    0.162
        19  -7.6902    169.7415      6.3671   3.2568089942e+01   4.1398407547e+01    0.1262453   0.07681026 -64.60 0.0006973959    1.640    0.390
        20 -10.1224     85.1239      5.2239   4.6116872912e+01   6.0744452848e+01    0.2846072    0.1930028  54.79  0.000322509    1.232    0.188
        21  -8.7536     31.9746      5.8457   6.5101106268e+01   7.0456741523e+01    0.1802526    0.1222954  14.88 0.0003974024    1.251    0.201
        22  -9.1597     77.4236      6.1811   4.8522856166e+01   6.2272648076e+01    0.3488509    0.1901326  61.67  0.001854389    1.779    0.438
        23  -9.3820     57.4826      3.3138   5.3442795613e+01   6.6423621722e+01    0.3305716    0.1480508  44.30 0.0004628676    1.784    0.440
        24  -8.0946    153.7768      3.3364   3.3585202590e+01   4.5339080044e+01    0.1799664   0.08874148  63.20 0.0003156129    1.689    0.408
        25  -7.6270    125.5236      3.4429   3.7468498294e+01   5.1868976512e+01     0.125327    0.1021289  64.31 6.719182e-05    1.039    0.038
        26  -7.7638    189.4051      2.5480   2.9793054732e+01   3.7356348340e+01    0.1159577   0.09560911  89.34 6.986243e-05    1.090    0.083
        27  -8.5183    105.6944      2.0669   4.0452100970e+01   5.6493276484e+01    0.2194945    0.1503033  73.32 0.0008404917    1.368    0.269
        28  -7.5880     29.6596      1.3080   6.3869429817e+01   7.1271800105e+01   0.09591328   0.09045892  47.36 0.0007043291    1.687    0.407
        29  -8.3511    185.5355      9.5494   3.1729687317e+01   3.7523286623e+01    0.1219671    0.0984389 -86.35 7.376663e-05    1.008    0.008
        30  -7.9550    115.3100    137.6651   7.9205504614e+01   3.1225528778e+01    0.1617436    0.1256451  82.95 0.0007043474    1.678    0.404
        31  -8.8857    196.8112    134.2222   5.9349024181e+01   1.5447598179e+01    0.3382324   0.09664815 -47.63  0.001020789    3.543    0.718
        32  -9.7632    136.4420    132.9653   7.2423208789e+01   2.8102598932e+01    0.6427526     0.153423 -50.07  0.001614129    4.500    0.778
        33 -10.8834    135.1225    124.3655   7.0665687589e+01   3.0340443702e+01    0.5359475    0.4922451 -84.90  0.002755031    1.175    0.149
        34  -9.1923     68.0384    128.4665   9.1471204929e+01   4.1677641859e+01    0.3694012    0.2139548 -32.08  0.001476928    2.205    0.547
        35  -8.5023    161.6518    128.3177   6.5228305829e+01   2.3851289514e+01    0.1585825    0.1221673 -87.00 0.0007048263    1.730    0.422
        36  -8.8848    114.0882    128.3496   7.7344116910e+01   3.3706228585e+01    0.3105838    0.1496612  31.76  0.001082496    2.478    0.597
        37  -8.2913    193.3234    127.3448   5.8462254740e+01   1.7495662136e+01    0.1481433    0.1144316  -5.84 0.0007050261    1.736    0.424
        38  -8.6414    148.9795    126.0201   6.7622614430e+01   2.7037956208e+01    0.1913134    0.1763447 -47.20  0.000430861    1.056    0.053
        39  -8.9064     75.9417    133.9588   9.0114116013e+01   3.9085012979e+01    0.2265896    0.2158781 -58.27 0.0003494667    1.006    0.006
        40  -9.4688    153.2870    124.3555   6.6193012981e+01   2.6483723391e+01    0.2968426    0.1894884 -34.13 0.0008257288    1.705    0.414
        41  -8.5052    158.6273    124.3233   6.4951015572e+01   2.5349843658e+01    0.1619976    0.1221596 -88.12 0.0007031374    1.813    0.448
        42  -8.2997      6.5121    123.7387   1.1100044264e+02   4.9283513899e+01    0.2016806    0.1800325  10.23 0.0005366672    1.334    0.250
        43  -9.2749    187.6665    121.8879   5.8287689933e+01   1.9726335133e+01     0.391921    0.1756956 -40.42  0.001518279    2.120    0.528
        44  -8.2377    217.3686    118.6810   5.2371089522e+01   1.4436067902e+01    0.1433821    0.1015727 -72.83 0.0007036633    1.789    0.441
        45  -9.2150    125.0425    118.4795   7.1846581491e+01   3.3786769350e+01    0.2432925    0.1551314  43.33 0.0008989744    1.590    0.371
        46  -8.4503    164.7287    116.9619   6.1796045745e+01   2.5587537661e+01    0.2710035    0.2006388  67.69  0.001124063    1.590    0.371
        47  -8.1408    159.6445    116.7110   6.2854212516e+01   2.6742570086e+01    0.1540879    0.1225833   6.93 0.0007025813    1.678    0.404
        48  -8.6025    248.4834    115.4916   4.7223932021e+01   9.4285477191e+00    0.2436773    0.1164105  73.13 0.0008105915    5.768    0.827
        49  -7.9829     65.6588    115.3161   8.9336659722e+01   4.5326950215e+01    0.1516043    0.1154455  71.23 0.0004725678    1.708    0.415
        50 -11.7263    142.1924     99.2451   6.2395963126e+01   3.4207900844e+01     1.128294    0.7412772  10.63  0.004165093    2.933    0.659
        51  -9.6555    135.7010    113.3570   6.7726739219e+01   3.2664930765e+01    0.3054281    0.2289396 -65.59  0.001072207    1.544    0.352
        52 -10.7831    133.7970    107.7483   6.6746327227e+01   3.4290083613e+01    0.8647295     0.287799 -44.41  0.002723555    2.979    0.664
        53  -8.8254     35.7156    113.8417   9.9443658170e+01   4.9402397148e+01    0.2741175    0.1649248  53.33  0.001249703    2.135    0.532
        54  -8.9969     51.2323    112.3232   9.3648639323e+01   4.8024223235e+01    0.4985111    0.1880882  45.68  0.001671645    3.543    0.718
        55  -8.9129    148.8296    111.6065   6.4053254131e+01   3.0178812949e+01     0.215004     0.146292  59.61  0.000782481    1.638    0.390
        56  -8.9540    143.1588    111.2328   6.5317410491e+01   3.1501472208e+01    0.2644407    0.1767665   2.59 0.0009553086    2.872    0.652
        57  -9.6636      9.5045    109.5986   1.0798485268e+02   5.2615598731e+01    0.2434687     0.211428 -82.60 0.0007241614    1.169    0.144
        58 -10.2749    115.4404    106.8316   7.1453856907e+01   3.8398694875e+01    0.4163351     0.286313  60.75 0.0007617984    1.751    0.429
        59  -8.1399    179.3431    106.6914   5.6290464685e+01   2.4470465464e+01    0.1531595    0.1131015 -78.91 0.0007044119    1.695    0.410
        60  -9.7919    124.7020    106.5670   6.8821824130e+01   3.6506782305e+01    0.3482719    0.2001537  36.04  0.001395265    1.917    0.478
        61  -8.9517     86.8059    105.5930   7.9843736982e+01   4.4230173991e+01    0.2686432     0.248449  64.32 0.0006204632    1.199    0.166
        62  -9.5170     63.4534    106.2031   8.7914248919e+01   4.7869467560e+01    0.4679003     0.192309  24.37   0.00162236    3.089    0.676
        63  -9.0604     72.2930    105.0792   8.4561209650e+01   4.6795774656e+01    0.3364713    0.2066202  42.71  0.000993384    1.747    0.428
        64  -8.2219     14.6552    104.6784   1.0532952348e+02   5.3479495687e+01    0.1453646   0.08129185 -38.72 0.0005778872    1.732    0.422
        65  -7.8877    101.8340    102.6134   7.4303637883e+01   4.2087445549e+01    0.2198977    0.1417089  51.68 0.0009407645    1.710    0.415
        66  -7.7955     94.6446    102.6759   7.6547114183e+01   4.3459506174e+01    0.1609479    0.1195383  -7.72 0.0007046083    1.766    0.434
        67  -9.5471    246.5576    100.8224   4.4551173152e+01   1.2194939723e+01    0.1889696     0.154144  81.41  0.001207582    1.408    0.290
        68  -8.0744     64.6610    100.7084   8.6097793405e+01   4.8997555342e+01    0.1518771    0.1088019 -18.34 0.0007025466    1.646    0.393
        69  -9.2642    130.3347     96.6733   6.4643185380e+01   3.7369803641e+01    0.3161658    0.1829109  28.00  0.001173881    2.511    0.602
        70  -9.6330     13.5303     96.5274   1.0428656472e+02   5.5530436268e+01    0.3071393    0.2442365 -26.24  0.001302978    1.262    0.207
        71  -9.0583     12.4516     93.4491   1.0412274795e+02   5.6336949633e+01    0.2964599    0.1899621 -39.57  0.001106823    1.409    0.290
        72  -8.1734    163.2706     96.3964   5.6937799397e+01   3.0018480976e+01    0.2057499    0.1418331  65.19 0.0007322211    1.599    0.375
        73  -9.0501    155.7787     95.5948   5.8320741633e+01   3.1867207128e+01    0.2085105    0.1427587  65.06 0.0006664163    1.627    0.385
        74  -9.3778     55.2819     93.5334   8.7635908259e+01   5.2000145612e+01    0.4302957    0.3725668  21.98  0.002430471    1.203    0.169
        75  -8.2526     89.5042     94.1543   7.5810976479e+01   4.6315821918e+01    0.2182227    0.1930634  32.94 0.0006028448    1.135    0.119
        76  -9.5872     29.7259     91.3258   9.6915506886e+01   5.5454514520e+01    0.3954748    0.2422385 -75.04  0.001887502    1.983    0.496
        77  -9.0952      1.6870     92.6056   1.0812269115e+02   5.7167087213e+01    0.2362374    0.1548031 -73.57 0.0007758147    1.421    0.296
        78 -10.3002    150.4747     88.4966   5.7594223953e+01   3.4431937405e+01    0.5124469    0.3289613 -46.45  0.001608987    1.554    0.356
        79  -9.7994    152.9632     85.4893   5.6242430218e+01   3.4421066712e+01    0.3848512    0.2693191  62.15  0.001399202    1.479    0.324
        80  -8.3602    100.4301     89.2990   7.0950212571e+01   4.5235787062e+01    0.4176225    0.1275195  48.06  0.001230341    3.686    0.729
        81  -9.6141    116.5761     91.4253   6.6848943481e+01   4.1440053803e+01    0.5671098    0.3751564  89.37  0.002094341    2.948    0.661
        82  -9.1030     73.3443     86.0096   7.8932961012e+01   5.0937213336e+01    0.4892015    0.2853204  54.49  0.002018516    2.392    0.582
        83  -9.0354     43.4866     80.4568   8.8654893067e+01   5.6453036209e+01    0.1944968     0.116395 -42.63 0.0001875044    1.514    0.339
        84 -10.8118     39.1320     80.0186   9.0296953412e+01   5.7057417146e+01    0.8195261     0.415625  -6.62  0.001742821    3.547    0.718
        85  -8.1667     66.2326     83.7618   8.0836953724e+01   5.2572779906e+01    0.1984582    0.1580513 -16.30  0.000643181    1.306    0.235
        86  -9.1829     21.1412     84.1083   9.8701662128e+01   5.7878804103e+01    0.2033502    0.1510782 -37.10            0    1.184    0.155
        87  -8.3482    237.3355     83.6639   4.2203036161e+01   1.6645803819e+01    0.1369717   0.08377729 -66.28 0.0007051922    1.745    0.427
        88  -8.5643    133.1652     82.0354   5.9814416286e+01   3.9599410222e+01    0.3839463    0.1922703 -50.06  0.001497995    2.207    0.547
        89  -8.4052    127.7666     82.4524   6.1278309493e+01   4.0741302243e+01    0.2121316    0.1378567  38.22 0.0007956632    1.645    0.392
        90  -9.8590    163.0047     79.2217   5.2518814022e+01   3.3229654200e+01    0.4749029    0.2025564  52.69  0.001836864    2.310    0.567
        91  -9.6513    160.7381     76.0154   5.2111022918e+01   3.4309908059e+01    0.2980548    0.1884164 -45.24 0.0005673917    1.567    0.362
        92 -11.5157    165.8880     72.5052   5.0205981364e+01   3.3709323810e+01    0.7047483    0.6022847 -81.51  0.003568728    1.170    0.145
        93  -9.0157     95.7560     78.3839   6.9105624197e+01   4.8371106009e+01    0.5576445    0.2403961  53.63  0.001920722    3.029    0.670
        94  -8.9060    146.4957     77.7416   5.5521396919e+01   3.7316194178e+01    0.3492185     0.252726  31.92  0.001528825    1.684    0.406
        95  -9.3553    184.4355     77.7141   4.8289344812e+01   2.8597656417e+01     0.258813    0.2369144 -87.63 0.0006460273    1.048    0.045
        96  -9.1789     57.0213     76.8285   8.2238062912e+01   5.5434913517e+01    0.3381067    0.2258581  59.07  0.001542818    2.335    0.572
        97  -9.2894     52.1836     76.1791   8.3937990184e+01   5.6253677311e+01    0.5494498    0.2232051  19.87  0.001855816    3.766    0.734
        98  -9.6835      8.8696     76.5936   1.0213608017e+02   6.0458864488e+01    0.4920354    0.2343288 -23.21  0.002291924    2.389    0.581
        99  -9.2049    111.5690     76.3512   6.3785471494e+01   4.5461575385e+01    0.5038557    0.2779243  64.99   0.00186771    2.762    0.638
       100  -7.9104    120.6483     75.6755   6.1117438142e+01   4.3591562177e+01    0.1543703    0.1156543  14.42  0.000704799    1.757    0.431
       101 -10.0580     35.9649     68.7600   8.8400244648e+01   5.9824269748e+01    0.3426028    0.2652868  48.41  0.001944678    1.692    0.409
       102 -10.3456     24.4685     72.9262   9.4536476049e+01   6.0092681163e+01      0.57534     0.196171 -34.45  0.001995455    3.712    0.731
       103  -8.2119     75.0221     73.9951   7.4649871961e+01   5.3127980378e+01    0.2256662    0.1659295  -3.73 0.0005435962    1.620    0.383
       104  -8.6313    133.7539     68.0528   5.5613398320e+01   4.1944159952e+01    0.4849544    0.2351402  68.00  0.001691389    3.072    0.674
       105  -7.8546    116.3150     68.3219   6.0018566602e+01   4.5862348314e+01    0.1484683    0.1129623  14.78  0.000704094    1.659    0.397
       106  -8.2109    234.0000     66.9993   3.9175830155e+01   1.9862390008e+01    0.2007585   0.06219013 -39.10 0.0003864352    2.843    0.648
       107  -8.5961    107.0185     66.4846   6.1988958937e+01   4.8217511516e+01    0.3337399    0.1367726  48.42  0.001257046    2.331    0.571
       108  -8.7763     89.0205     63.5137   6.6458379783e+01   5.2467153376e+01    0.3320858    0.2382591  74.12   0.00141136    2.198    0.545
       109  -8.8978     84.5016     63.4734   6.7924594444e+01   5.3356966901e+01    0.4598858    0.2330455  31.62  0.001647436    2.243    0.554
       110  -9.8595      4.9422     61.3451   1.0030126049e+02   6.4008415218e+01    0.7049282    0.3041622  45.18  0.002860224    4.206    0.762
       111  -8.7462     11.7434     60.9807   9.7034709341e+01   6.3647195395e+01    0.1888702    0.1146078 -52.94 0.0004973224    1.429    0.300
       112  -8.5915    131.8536     63.8580   5.4809890896e+01   4.3077998794e+01      0.19759     0.166856  89.25 0.0004587873    1.312    0.238
       113  -8.6418    163.7740     63.1808   4.8126875462e+01   3.5710898982e+01     0.187085    0.1692727  25.18 0.0006952015    1.346    0.257
       114 -10.2267     25.7105     62.1190   9.0930052286e+01   6.2253557941e+01    0.3356394    0.2409889 -58.90 0.0009915836    1.518    0.341
       115  -7.7870    222.6197     62.7210   3.9560049886e+01   2.2764595667e+01    0.1168179   0.09940232  32.71 0.0007006456    1.714    0.417
       116 -11.4240    179.4289     56.6997   4.3875738373e+01   3.3065118982e+01    0.8613685    0.6747684 -75.76  0.003113429    1.249    0.199
       117  -7.8496    152.3472     62.6879   5.0123258395e+01   3.8469856821e+01    0.1497063    0.1063857 -78.22 0.0004388914    1.713    0.416
       118 -10.6538     62.6560     60.8816   7.4880734045e+01   5.7708146155e+01    0.5381299    0.2396719  33.78  0.000514764    2.256    0.557
       119  -9.7167     44.3893     59.5464   8.1852742330e+01   6.0641430622e+01    0.5226237    0.3658653  76.89  0.002238243    3.537    0.717
       120  -8.6501     19.7160     60.8219   9.3288662285e+01   6.3060150309e+01    0.1770354    0.1375795 -14.00 0.0007020613    1.183    0.155
       121  -8.5528    244.3160     60.6884   3.6845260237e+01   1.8823912171e+01    0.1287654    0.0751396 -65.46 0.0002988889    1.639    0.390
       122  -8.5244     49.8751     58.6937   7.9248796435e+01   6.0054084123e+01    0.1825181    0.1562373  12.90 0.0003651613    1.115    0.103
       123  -8.4290    116.6592     57.4248   5.6509755429e+01   4.7583574211e+01    0.2736164    0.1347004  58.06  0.001093692    2.096    0.523
       124  -9.5531     99.8704     55.0009   6.0274488835e+01   5.1651720110e+01    0.3556641    0.2904466  24.87 0.0007734114    1.250    0.200
       125 -10.8003     75.9335     49.9438   6.6110831303e+01   5.7258309473e+01    0.5302237    0.2651312  49.39  0.002346347    2.113    0.527
       126  -8.2120    118.8737     50.8392   5.3863736837e+01   4.8080717050e+01    0.2146823    0.1749654  35.21 0.0005569486    1.253    0.202
       127  -9.0250    107.8834     48.1679   5.5766489438e+01   5.0943098901e+01     0.502292    0.2080952  53.70  0.002010768    2.255    0.557
       128  -7.8411     49.6826     49.2884   7.5973983342e+01   6.1769614262e+01    0.1167752    0.1056316  64.25 0.0002890016    1.593    0.372
       129  -9.0064     45.3624     48.4767   7.7522082573e+01   6.2527498107e+01    0.2587574    0.1893543   1.41 0.0007524569    1.346    0.257
       130  -8.6544    185.3197     47.2465   4.0699540444e+01   3.3070970657e+01    0.3045185      0.18066 -83.22  0.001194832    2.008    0.502
       131  -9.4334     10.9858     46.5864   9.3155026159e+01   6.6575435722e+01     0.393114    0.2102979 -11.64  0.002061739    2.027    0.507
       132  -9.4933      5.9626     46.5250   9.5686368564e+01   6.6940754132e+01    0.4849544    0.2045701  32.77  0.002359194    2.850    0.649
       133  -9.1087     55.1999     44.0714   7.1718910413e+01   6.1792333824e+01    0.4200585    0.1904246 -20.99  0.001453536    4.126    0.758
       134  -9.1110    221.9158     44.3752   3.5768974174e+01   2.5516268289e+01    0.2046546    0.1417737 -58.41 0.0004701716    1.223    0.182
       135  -8.5022     81.3992     43.7690   6.2004590503e+01   5.7149432294e+01    0.2452249    0.1622425 -27.48  0.000634591    1.616    0.381
       136 -10.6166     83.4414     39.5794   5.9797840146e+01   5.7338548903e+01     0.544781    0.2370853  40.88 7.780325e-05    2.163    0.538
       137  -9.4755     65.3530     42.9927   6.7338431531e+01   6.0260209710e+01    0.3896853    0.2387059 -58.78  0.001716289    3.001    0.667
       138  -9.2554    100.0788     42.2780   5.5859030774e+01   5.3485395277e+01    0.3944253    0.2083974  65.64  0.001639061    2.503    0.600
       139  -8.9240     95.0249     41.4965   5.7002964028e+01   5.4677613064e+01    0.4200265    0.1490045  43.42  0.001579477    2.684    0.627
       140  -9.4174     30.8800     42.9744   8.2062968849e+01   6.5333441457e+01     0.590551    0.1642601  37.64  0.002163796    4.096    0.756
       141  -9.9975    204.1457     38.8135   3.6436977373e+01   3.0013408686e+01    0.4031448    0.2422566 -75.47  0.001482814    1.713    0.416
       142 -10.9351    197.7062     33.1201   3.5863748197e+01   3.2150447338e+01     0.485236      0.29785 -83.50 0.0008539467    1.637    0.389
       143 -10.2242    186.0113     36.1095   3.7923076093e+01   3.4390401643e+01    0.4604159    0.2953338 -84.95  0.001591014    1.589    0.371
       144  -9.6111     67.7252     37.3989   6.4296640316e+01   6.0657747096e+01    0.3257999    0.1773752  31.31   0.00157377    1.841    0.457
       145  -9.8026     76.7323     35.7642   6.0532417392e+01   5.9185845447e+01    0.3056121    0.2207369  61.72   0.00165957    1.705    0.413
       146  -9.3899     72.0009     34.7583   6.1746771487e+01   6.0228928541e+01    0.3067205    0.1342622  43.74  0.001372645    2.052    0.513
       147  -9.3627     45.7710     35.9781   7.2490349644e+01   6.4503454622e+01    0.3474822    0.2358713  53.49  0.001850079    2.219    0.549
       148  -8.9165     38.0915     35.2006   7.5623763991e+01   6.5711114239e+01     0.255547    0.1464415  26.16 0.0009069011    1.651    0.394
       149  -8.6147    109.9955     35.8643   5.1101227658e+01   5.2132629732e+01    0.2734494    0.1569257  66.59   0.00127481    1.896    0.472
       150  -9.4773     20.8865     36.0057   8.4352993867e+01   6.7616674319e+01    0.3984275    0.1466927  26.47  0.001834557    2.666    0.625
       151  -8.4625    177.7203     34.6502   3.8620112645e+01   3.6468793689e+01    0.1964785    0.1472799  74.87  0.000412026    1.205    0.170
       152 -10.2324    179.4596     30.3688   3.7344123197e+01   3.6594679999e+01     0.301552    0.2581045 -75.91 0.0007612459    1.059    0.056
       153  -8.9160     55.9905     35.3023   6.7938280939e+01   6.2998519896e+01    0.1829503    0.1470636  19.25 0.0004043187    1.086    0.080
       154  -9.7427      1.4861     28.0973   9.1881098360e+01   7.0608545885e+01    0.3680013    0.1833416 -61.81  0.001873055    2.800    0.643
       155  -9.8901     12.2275     34.2853   8.8239856457e+01   6.8719448870e+01    0.3288671    0.2127445  43.98  0.001868747    2.391    0.582
       156  -9.7645      5.6807     33.8984   9.1649977770e+01   6.9302197670e+01    0.3038111    0.2371325   4.33  0.001745966    1.253    0.202
       157  -9.3810     96.4099     32.8890   5.3542021741e+01   5.5502642212e+01    0.2826234    0.1638875  44.78 0.0003195963    1.538    0.350
       158  -9.9919    212.1705     30.8556   3.3877925145e+01   2.9304796401e+01    0.3966892    0.2400055 -77.25  0.001345931    1.591    0.372
       159  -8.7501    215.6483    249.3004   7.7696477016e+01  -8.1794586461e+00    0.1047597   0.09275147  42.06 0.0007037772    1.696    0.410
       160  -9.0900     22.0399     31.9177   8.2142806180e+01   6.8176205291e+01    0.1838721    0.1428506 -10.42 0.0003323082    1.038    0.036
       161  -8.4716    201.0000    248.9818   8.0437727640e+01  -6.2852540193e+00    0.1855606   0.06529457 -42.37 0.0008040442    2.954    0.661
       162  -9.7507     63.3793     26.7630   6.1592969318e+01   6.2864287214e+01    0.6081994    0.2643346  54.34  0.002232421    2.893    0.654
       163  -9.8580     70.3381     26.1273   5.8876124686e+01   6.1646244055e+01    0.2691705    0.1846452  35.34 0.0007374099    1.277    0.217
       164 -10.1136    183.3692    243.5122   8.3080636870e+01  -3.0544015047e+00    0.2848108    0.2625536  64.52  0.001127871    1.588    0.370
       165  -9.0349    128.9833     22.0168   4.2617317613e+01   4.9345165791e+01     0.194611    0.1649283  57.84 0.0003215623    1.071    0.067
       166  -8.7772     42.9309     27.5822   7.0223545111e+01   6.6148692603e+01    0.2968597    0.1665632  16.77  0.001510522    1.998    0.500
       167  -8.9069     92.4927     20.5228   5.0062618063e+01   5.7752527934e+01    0.2769144     0.158868  38.95 0.0006921897    1.645    0.392
       168  -8.2383    170.2090     20.4915   3.6032398201e+01   3.9857133656e+01    0.2414478    0.1018965  63.81 0.0007970849    2.041    0.510
       169 -10.5284     28.4938    241.9844   1.1624760848e+02   1.8711651665e+01    0.7600201   0.06942729 -71.11  0.002106437    7.532    0.867
       170  -9.0751      8.9978     19.5650   8.4067647320e+01   7.1408761968e+01    0.2584452     0.160226   0.00 0.0009158798    1.464    0.317
       171  -9.8164     18.6826     17.7451   7.7782971461e+01   7.0699133366e+01    0.3824285     0.175377  37.10  0.001209713    2.435    0.589
       172  -8.5675     13.1541     17.6362   8.0815481278e+01   7.1301757912e+01    0.2327148    0.1341054  13.66 0.0006646936    1.600    0.375
       173 -10.3754    203.8521    237.7693   7.8083360252e+01  -4.9263517277e+00    0.2260003    0.1879962 -11.75 0.0004036563    1.100    0.091
       174  -8.4759    195.4827    238.4840   7.9844588445e+01  -3.9101221033e+00    0.1273521    0.1057172   3.14 4.589197e-05    1.012    0.012
       175  -7.8260    177.1256     15.8610   3.4085371011e+01   3.8766892169e+01    0.1584267    0.1318885  60.12 0.0003941384    1.302    0.232
       176  -7.9571    127.5088     16.4613   4.1162427609e+01   5.0250996471e+01    0.1291444    0.1101011  65.90 0.0003688947    1.006    0.005
       177  -8.8378    189.5147     15.2076   3.2638612022e+01   3.6047620749e+01    0.2236397    0.1487214  79.91 0.0008292045    1.301    0.231
       178  -9.4846    170.9853    237.3693   8.4674364993e+01  -2.4938144533e-01    0.3013307    0.1925209  30.95 0.0004566595    1.409    0.290
       179  -8.4007    188.1793    233.9577   8.0572606016e+01  -2.1468023108e+00    0.1846337    0.1564389 -85.31  0.001066509    2.041    0.510
       180  -8.3986    172.3123    232.9713   8.3696222524e+01   3.2686012090e-01     0.176313    0.1544498 -15.86 0.0002720642    1.127    0.113
       181  -8.1590    173.2401    228.2151   8.2727604550e+01   1.0367213972e+00    0.1618422    0.1498934  42.08 0.0002521464    1.292    0.226
       182 -12.3810     39.0596    217.5419   1.1210211293e+02   2.2898588883e+01     1.081722     0.726133  66.39  0.002874122    1.370    0.270
       183 -10.1558     29.8405    211.2206   1.1367182722e+02   2.5395095264e+01    0.4357135    0.2993056 -58.30  0.001944056    1.574    0.364
       184  -7.4618    156.2860     11.7101   3.5497594236e+01   4.3988734821e+01    0.1249783   0.08364067 -72.56  0.000695458    1.536    0.349
       185  -8.3174    139.9913    221.2925   8.8928878688e+01   7.5360104862e+00    0.1907903    0.1658217  28.54 0.0003539392    1.055    0.052
       186 -11.7383     55.4767    195.6159   1.0591021307e+02   2.6136200811e+01     1.184899    0.7565092  67.80  0.005389999    1.673    0.402
       187  -8.9391    192.1752    193.9250   7.2660263737e+01   4.4656039016e+00     0.623733    0.2186159 -54.27  0.001748073    5.453    0.817
       188  -7.7533     24.2312    200.2848   1.1406442303e+02   2.8574461883e+01    0.1170954   0.08979247 -55.97 0.0001713558    1.444    0.308
       189 -10.7091    100.9930    175.9898   9.0992491053e+01   2.4306208359e+01    0.2119785    0.2064801  77.26  0.001162353    1.005    0.005
       190  -7.8429     82.6886    161.7495   9.3516448197e+01   3.0881499601e+01    0.1450466    0.1173908 -18.69  0.000183766    1.516    0.340
       191  -7.5339     10.0000    151.9677   1.1322161243e+02   4.1889902008e+01    0.2201128   0.06477434 -73.32 0.0007918601    2.870    0.652
       192  -9.3428     94.5706    150.7918   8.7991098050e+01   3.1740822819e+01    0.2192751    0.1488983 -70.09 0.0009450877    1.650    0.394
       193  -9.4960    189.0206    149.4704   6.4223829309e+01   1.3887258305e+01    0.2884196    0.1955898 -55.92 0.0009565919    1.602    0.376
       194  -9.4387    133.5667    147.6379   7.6568709821e+01   2.5258686618e+01    0.5409646    0.1808056 -47.45  0.001685449    2.918    0.657
       195  -8.2456     86.4986    147.4964   8.9689028898e+01   3.3932984463e+01     0.152961    0.1477177 -64.49 -0.000234589    1.005    0.005
       196  -7.6283     25.5545    147.4817   1.0815712822e+02   4.1750657834e+01    0.1382049    0.1197285 -73.89 6.808147e-05    1.008    0.008
       197  -9.0566    103.9492    145.7118   8.4223707311e+01   3.1370349814e+01    0.2266171    0.2058196  35.87   0.00115617    1.126    0.112
       198 -10.0501     68.2783    145.5576   9.4807465156e+01   3.7240249893e+01    0.4024982    0.3259728  40.77  0.002067943    1.285    0.222
       199  -7.6819     34.3144    144.6652   1.0511417643e+02   4.1637832103e+01    0.1467314   0.09940629  69.35 0.0007046525    1.688    0.408
       200  -9.7035    132.0923    137.6586   7.4663063954e+01   2.7901528509e+01    0.5599083    0.3526372 -87.75  0.001824673    3.476    0.712
