#   1 NUMBER                 Running object number                                     
#   2 MAG_AUTO               Kron-like elliptical aperture magnitude                    [mag]
#   3 X_IMAGE                Object position along x                                    [pixel]
#   4 Y_IMAGE                Object position along y                                    [pixel]
#   5 X_WORLD                Barycenter position along world x axis                     [deg]
#   6 Y_WORLD                Barycenter position along world y axis                     [deg]
#   7 A_WORLD                Profile RMS along major axis (world units)                 [deg]
#   8 B_WORLD                Profile RMS along minor axis (world units)                 [deg]
#   9 THETA_WORLD            Position angle (CCW/world-x)                               [deg]
#  10 FWHM_WORLD             FWHM assuming a gaussian core                              [deg]
#  11 ELONGATION             A_IMAGE/B_IMAGE                                           
#  12 ELLIPTICITY            1 - B_IMAGE/A_IMAGE                                       
         1 -15.7261      7.0844     69.6804   1.2309533900e+02   6.1058293447e+01     1.563982    0.7362891 -56.88  0.006032797    1.795    0.443
         2 -13.8660      9.2043     42.8459   1.1471417325e+02   6.5818240378e+01    0.9017892      0.73396  41.56  0.006428292    1.872    0.466
         3 -15.2759      8.5337     29.4473   1.1045192282e+02   6.7993744113e+01     1.299999    0.6629391  29.17  0.007978472    2.183    0.542
         4 -15.1762     14.3498     19.8399   1.0409393044e+02   6.8847959618e+01      0.88089    0.5820219   3.67   0.00292101    1.274    0.215
         5 -14.5977     21.8625     13.7450   9.8156612290e+01   6.8843410118e+01    0.8747529    0.4053927  38.28  0.004739855    2.469    0.595
         6 -15.2193     42.0100      6.6547   8.6785546029e+01   6.7019311414e+01     1.978467     1.121734   2.02   0.01193833    1.892    0.472
         7 -14.9808    119.8556     54.9481   8.0586899304e+01   4.7105676127e+01      1.19787    0.6732574  30.75  0.001810206    2.274    0.560
         8 -14.7380    122.1673     37.1063   7.4622957627e+01   4.8984108742e+01     1.058875    0.5138618  43.18  0.002724966    1.991    0.498
         9 -13.4301      8.6711      3.2075   9.9699956009e+01   7.1428334738e+01    0.6182958    0.3839475  37.85  0.003351089    2.256    0.557
        10 -13.8697    189.4935     26.4853   6.0638552734e+01   3.4928137092e+01      1.24927    0.5486422 -62.12  0.004634219    2.992    0.666
        11 -14.1062    217.4206     42.1264   6.0768406390e+01   2.6750619960e+01     1.111916    0.4447403  68.18  0.004137668    2.385    0.581
        12 -14.6071    166.6682     30.3975   6.4649812997e+01   3.9679605620e+01     1.178688    0.5724191  69.13  0.002928233    1.900    0.474
        13 -12.7246    139.1463     21.7773   6.6792856193e+01   4.6910674083e+01    0.5421418    0.4044207 -87.73  0.002092855    1.491    0.329
        14 -14.6899    146.5172     30.5275   6.7932301373e+01   4.4292060636e+01      1.01669    0.5228434  60.86  0.003733406    1.681    0.405
        15 -15.6916     98.7205     12.8499   7.2187195530e+01   5.6466884383e+01     1.505343    0.5994502  53.35  0.003843337    2.013    0.503
        16 -11.5355    246.0030     16.5342   5.3166932708e+01   2.4108144284e+01     0.301959    0.1421264 -57.23  0.001717932    1.786    0.440
        17 -13.0329    218.7710     14.9975   5.5137309864e+01   2.9845437789e+01      0.33571     0.257457 -79.86  0.001401065    1.029    0.028
        18 -12.8609    214.6864     10.0143   5.4522921988e+01   3.1263353781e+01    0.3858371    0.2524698  74.23  0.001394159    1.328    0.247
        19 -12.5172    186.4698     14.4244   5.8276674161e+01   3.6950761274e+01    0.2368313    0.1990452  59.04 0.0009033434    1.310    0.237
        20 -11.3678    232.4943      1.7301   5.1530219207e+01   2.8468716696e+01    0.2111425    0.1348894  76.68 0.0007549372    1.369    0.269
        21 -12.6229    222.9753      4.8875   5.2837603154e+01   3.0077021898e+01    0.5920876    0.2596865 -42.76  0.003293541    2.158    0.537
        22 -11.5832    228.2883      3.5462   5.2173584993e+01   2.9128090518e+01    0.3775544    0.1539933 -64.49  0.001877767    2.472    0.595
        23 -11.2065    153.1531      8.2324   6.0968834840e+01   4.5054754759e+01    0.1839089    0.1408852  61.70 0.0007518397    1.137    0.120
        24 -12.1088    119.7655      3.3334   6.4869026832e+01   5.2837879431e+01    0.4074982    0.2265818 -83.17  0.001874998    3.115    0.679
        25 -11.2507     67.9999      3.4171   7.6784443378e+01   6.3104076831e+01    0.2143853    0.1377602  10.90  0.001289951    1.599    0.375
        26 -11.6353     26.3910      3.9256   9.1889007579e+01   6.9386650573e+01    0.2125861    0.1245374  21.57 0.0009505528    1.414    0.293
        27 -10.5343    192.9688      3.0239   5.5111042263e+01   3.6664691564e+01    0.1404961    0.1136748 -85.46 0.0003748497    1.057    0.054
        28 -12.0425     80.7903      1.7775   7.2678731403e+01   6.0886683216e+01    0.5229778   0.09496194  52.07  0.002005263    3.523    0.716
        29 -11.0308     62.3069      1.6475   7.7788249769e+01   6.4235388475e+01    0.1823812   0.09936261  50.22 0.0008755065    1.649    0.394
        30 -11.2518     59.3268      1.3229   7.8580087403e+01   6.4766983034e+01    0.1781671     0.118569  31.81 0.0006669626    1.186    0.157
        31 -11.8343     49.0171    181.6203   1.3028320748e+02   3.1019219811e+01    0.4023553    0.2346869 -47.89  0.001924209    1.875    0.467
        32 -13.2325     55.2106    247.0172   1.3615955047e+02   1.5051561296e+01    0.8145717    0.4943675  22.63  0.004138125    2.533    0.605
        33 -13.8732     28.2313    246.1430   1.4121781041e+02   1.8619112655e+01    0.5502834    0.4222914  74.69  0.003122294    1.015    0.014
        34 -11.8552      2.6033    249.9045   1.4601237860e+02   2.0649868398e+01    0.3072855    0.1679366  51.95   0.00197165    1.545    0.353
        35 -14.1810      8.8605    245.5219   1.4466999524e+02   2.0897174774e+01    0.7940982    0.4409146  61.65  0.003275855    1.471    0.320
        36 -11.9481    198.9994    182.3112   9.4545394624e+01   4.6949111264e+00    0.2080786    0.1947976  14.73  0.001179907    1.092    0.084
        37 -12.3971     86.5746    181.2847   1.2082351194e+02   2.5771026155e+01    0.2650572    0.2211099  29.81  0.001395407    1.351    0.260
        38 -13.4520    124.0498    166.8331   1.0854405712e+02   2.2762297300e+01    0.7448435    0.4826813 -69.12  0.003115767    1.837    0.456
        39 -13.1996     73.9983    153.5515   1.1924313457e+02   3.4706812241e+01    0.7413917    0.5284078  27.19  0.003472874    1.617    0.382
        40 -12.4555     77.3375    157.1516   1.1899812595e+02   3.3295445667e+01    0.4600609    0.3422621  29.78  0.001387716    1.512    0.339
        41 -12.6039    111.1073    155.5070   1.0953819187e+02   2.7984848903e+01    0.5833563    0.3650827  84.30   0.00206907    2.910    0.656
        42 -11.3226     56.0195    155.9690   1.2462249471e+02   3.6583423043e+01    0.2296376    0.1591191 -37.02 0.0009574486    1.672    0.402
        43 -12.5309    209.0016    155.5537   8.6939118081e+01   8.2908731151e+00    0.5399454    0.1463556  45.56  0.001652382    4.029    0.752
        44 -11.9444     85.4638    153.3651   1.1604121910e+02   3.2977523424e+01    0.4645947     0.257879 -45.43  0.001943603    1.830    0.453
        45 -11.9210    103.4483    149.9611   1.1041413821e+02   3.0757292690e+01    0.3903061    0.3032206 -28.81  0.001844534    1.511    0.338
        46 -12.0564    245.4363    148.6339   7.9129238966e+01   2.9797725139e+00    0.2405823     0.224481 -58.64  0.001518834    1.142    0.124
        47 -13.4916     22.3442    181.1714   1.3663268538e+02   3.4093744215e+01    0.6141592    0.4607387 -56.34  0.002580871    1.362    0.266
        48 -10.7738     44.5022    145.4793   1.2605873355e+02   4.0607557617e+01    0.1402007    0.1207229 -61.84 0.0001170794    1.034    0.033
        49 -11.7385    149.0706    141.1814   9.6620972174e+01   2.3817333687e+01    0.3089203     0.229872  68.74  0.001368802    1.636    0.389
        50 -12.9298     42.4022    139.8081   1.2569113134e+02   4.2250470521e+01      0.29655    0.2172289 -51.30  0.000864479    1.234    0.190
        51 -12.8827     41.8106    136.7975   1.2533745258e+02   4.3058187433e+01    0.4524316    0.3070107  10.06  0.002326375    1.927    0.481
        52 -12.4342    246.8306    135.5189   7.6256396385e+01   5.1689960570e+00    0.3290768     0.241895  89.40  0.001746727    1.881    0.468
        53 -11.4013     62.6028    134.2928   1.1874854409e+02   4.1136752565e+01    0.3951415    0.2336317  50.06  0.001778822    2.016    0.504
        54 -10.8434     11.0375    134.2976   1.3376517982e+02   4.6464214912e+01    0.1619302    0.1499462 -69.04 0.0004547041    1.149    0.130
        55 -12.1140    132.8868    129.4146   9.7830949293e+01   2.9938150400e+01    0.8682628    0.2782817 -45.50  0.002642145    3.064    0.674
        56 -11.3039    138.2555    132.6061   9.7243789498e+01   2.8077651163e+01    0.2156665    0.1516907  33.44 0.0005418278    1.583    0.368
        57 -11.8405    222.6027    127.8129   7.8500862230e+01   1.1162284141e+01    0.2173983    0.1194378 -51.65 0.0009569806    1.726    0.420
        58 -14.6271    104.6678    122.5593   1.0376217972e+02   3.7150128335e+01     2.157485     1.230105  34.41  0.008955156    1.912    0.477
        59 -13.3642     85.2657    115.4880   1.0768769180e+02   4.2229521446e+01     1.112545    0.6540003  18.67  0.004518569    2.391    0.582
        60 -14.4284     92.8103    109.9793   1.0402555373e+02   4.2187619647e+01     1.542772     1.049793  35.64  0.007333006    1.537    0.349
        61 -14.8131    106.9127    107.1733   9.9174716938e+01   4.0192519252e+01     1.159057    0.8960205 -65.37  0.005369271    1.496    0.332
        62 -13.5584    111.8716    100.9748   9.6106362575e+01   4.0540562903e+01     0.510833    0.4637016  82.17  0.002456967    1.258    0.205
        63 -14.6218     30.0254    119.0221   1.2566064667e+02   4.8541273311e+01     3.910995          nan -54.04  0.009579589    6.406    0.844
        64 -12.5367      4.4412    119.9658   1.3359907355e+02   5.0295147619e+01    0.4939488    0.3045852  21.25  0.002657721    1.998    0.499
        65 -15.2990     18.0291    110.8315   1.2791980239e+02   5.1467340434e+01     1.248046     1.214041 -84.08  0.006845985    1.210    0.173
        66 -14.5226      2.4766     97.2997   1.3052006507e+02   5.5547295491e+01     1.242771    0.6438832 -72.22  0.004192563    1.881    0.468
        67 -15.2780     20.8294     96.8095   1.2425260062e+02   5.4412716521e+01      1.24474    0.9436459 -72.55  0.006409218    1.415    0.294
        68 -14.8690     28.8487     92.8557   1.2062122860e+02   5.4596738048e+01     1.056563    0.7775488 -69.70  0.006187063    1.506    0.336
        69 -11.5866     60.0132    125.4109   1.1768328527e+02   4.3648611625e+01    0.4108822    0.2359596 -22.61  0.001635764    2.744    0.636
        70 -11.5083    184.7911    124.3867   8.4692117583e+01   1.9755473614e+01    0.2130731    0.2032128  60.59 0.0005134987    1.102    0.093
        71 -12.4578    180.7140    121.4058   8.4815970564e+01   2.1267785207e+01    0.4447561    0.3389298  69.57  0.001545383    1.482    0.325
        72 -12.4276     45.0665    110.5497   1.1916331080e+02   4.8988164458e+01    0.5067627    0.3874146 -41.95  0.002885992    1.171    0.146
        73 -11.3776    175.4853    111.4792   8.3496252403e+01   2.4467336983e+01     0.152419    0.1437018 -71.03 0.0005487031    1.008    0.008
        74 -12.2778     61.6321    108.5603   1.1335812514e+02   4.7394043267e+01    0.6047376    0.3173165 -59.00  0.002648186    1.926    0.481
        75 -12.7113     62.5035     99.6382   1.1085559859e+02   4.9271208875e+01    0.6120151    0.4348643  86.01  0.002812309    2.434    0.589
        76 -12.3960    121.0511    111.7316   9.6466710412e+01   3.6370528661e+01    0.3953497    0.2617498  70.02  0.001596885    2.228    0.551
        77 -13.2750    120.6669    102.4493   9.4101274216e+01   3.8436356416e+01    0.6526963     0.297227  43.11  0.002464389    2.223    0.550
        78 -12.8794    136.0015    103.4113   9.0392744484e+01   3.4961850714e+01    0.6697077    0.3336723  50.30   0.00182178    2.056    0.514
        79 -12.9160     43.1765     91.4499   1.1529949334e+02   5.3455104781e+01    0.6392353    0.2868635 -59.89  0.002724469    2.394    0.582
        80 -12.4367     49.6939     95.0681   1.1397410464e+02   5.1922093826e+01    0.4010098    0.3239601 -82.24  0.001628317    1.640    0.390
        81 -12.4703     46.9958    100.0044   1.1610239208e+02   5.1158251135e+01    0.4466401    0.3580708  65.35  0.002513208    1.690    0.408
        82 -12.8567     52.1965     98.3420   1.1395039021e+02   5.0903393375e+01    0.4859443     0.310864 -22.33  0.001815188    1.832    0.454
        83 -12.9145    137.7099     95.8762   8.7952391085e+01   3.6107334339e+01     0.444472     0.385938 -57.85  0.001072979    1.188    0.158
        84 -10.9718    161.9929     96.7504   8.2635518761e+01   3.0449730995e+01    0.2021279    0.1269363  52.75  0.000885734    1.592    0.372
        85 -11.8741    127.7946     95.8751   9.0436937119e+01   3.8272437598e+01     0.297344    0.2030728  74.63   0.00124957    2.131    0.531
        86 -11.7334     89.3162     87.3972   9.8901714035e+01   4.7589312158e+01    0.3803538    0.2411391  48.33  0.001791389    1.749    0.428
        87 -13.8117    188.0718     84.6031   7.4557028654e+01   2.6707186275e+01    0.6908965    0.3779713  47.61  0.001765988    1.995    0.499
        88 -12.4140    132.2104     86.1947   8.6645831029e+01   3.9183770661e+01    0.2594463    0.2524793  28.57 0.0009210846    1.041    0.039
        89 -11.4730    125.7551     86.8818   8.8462323858e+01   4.0461194362e+01     0.289822    0.2010662  77.12  0.001252355    2.116    0.527
        90 -13.3246    164.1930     71.3237   7.5600518462e+01   3.4496211793e+01    0.9188371    0.4600904  43.51  0.003759242    2.279    0.561
        91 -14.9236    161.1123     80.6422   7.8642115973e+01   3.3625290290e+01     2.027274    0.8230054  39.97  0.006558772    3.588    0.721
        92 -14.5058    169.2541     77.6157   7.6254767011e+01   3.2262060683e+01     1.657948    0.4785605  56.24  0.005282126    3.434    0.709
        93 -13.0135    238.9615     81.4529   6.6313378898e+01   1.6259608689e+01    0.6927767    0.3743442 -75.80  0.003010358    2.631    0.620
        94 -10.7344     98.4278     84.2027   9.5224735160e+01   4.6536662827e+01    0.1912726    0.1353901 -54.01 0.0004478786    1.597    0.374
        95 -11.5923     99.7215     64.7945   8.8969575444e+01   4.9744450524e+01    0.3733696    0.2602316  60.20  0.001147321    1.746    0.427
        96 -14.8599     39.2438     67.8797   1.1026897690e+02   5.8626977346e+01      2.79653    0.5967346  28.74  0.009149669    5.108    0.804
        97 -13.6848     91.2834     57.9238   8.9252482612e+01   5.2464328673e+01    0.7325171    0.5017976 -48.72   0.00384662    1.743    0.426
        98 -13.9167     79.0046     71.9153   9.7524947786e+01   5.2307336916e+01     1.318312    0.7688826  10.49  0.005426118    2.765    0.638
        99 -13.4909     87.3977     65.8702   9.2976068740e+01   5.1892737750e+01    0.5039393    0.4168324 -14.69  0.001438761    1.204    0.169
       100 -13.3704     56.3343     79.0933   1.0735097483e+02   5.4385827476e+01    0.6797537     0.407739 -26.32  0.002455969    1.809    0.447
       101 -13.9723     60.7903     75.7450   1.0481351892e+02   5.4422053185e+01    0.7201703    0.5011425 -40.23  0.001064883    1.336    0.251
       102 -12.5243    210.4509     77.7782   6.9391100105e+01   2.2862914970e+01    0.5026202    0.2916243 -69.89  0.002246683    2.121    0.528
       103 -13.5413    170.5345    242.4462   1.1159427417e+02  -2.0843800745e+00    0.5647587    0.4212776   3.08  0.003104935    1.559    0.358
       104 -14.6223     95.0103    236.3053   1.2682869280e+02   1.1541866554e+01     1.154234    0.7054591  72.61  0.003277167    1.989    0.497
       105 -12.3204    147.0733    239.0155   1.1600775277e+02   2.4420139483e+00     0.211446     0.194198  42.41  0.001194109    1.035    0.034
       106 -11.8062    144.6289    231.8061   1.1541321698e+02   4.2786616005e+00    0.1898036     0.133004 -65.18 0.0009567114    1.713    0.416
       107 -12.3355     24.2745    217.0037   1.3966340805e+02   2.5433158806e+01    0.6409582     0.382517  72.13  0.003612617    1.537    0.350
       108 -11.3885    250.0000     80.9801   6.4883985877e+01   1.4172784962e+01    0.2146555    0.0631031 -41.64 0.0007822495    2.961    0.662
       109 -13.2280    135.2216     79.4978   8.4041798809e+01   3.9738402575e+01     0.867848    0.3964731  54.25  0.003381223    2.227    0.551
       110 -13.4134    133.5979     67.5860   8.1044594261e+01   4.2129031354e+01    0.9594198    0.6055225  23.29  0.004100598    2.374    0.579
       111 -11.9384    113.9827     80.1482   8.9633093324e+01   4.4203630613e+01    0.3973296    0.3144409 -51.02  0.001860525    1.365    0.267
       112 -11.6550     90.7867     80.1955   9.6336646743e+01   4.8718213916e+01     0.414005    0.2731769  -0.65   0.00182391    2.240    0.554
       113 -12.2386     41.9091     77.1747   1.1195970531e+02   5.6538502921e+01    0.3580788     0.238195 -44.60  0.001166915    1.330    0.248
       114 -13.6138    198.9350     70.5927   6.9476307176e+01   2.6608943875e+01    0.8252408    0.4526753  48.61  0.002890729    2.067    0.516
       115 -14.0439     25.6429    227.5765   1.4027236535e+02   2.2908961830e+01    0.7119328    0.3337588 -58.62  0.003622449    2.237    0.553
       116 -11.6111    158.2263     63.7068   7.4746068620e+01   3.7105282275e+01    0.3378743    0.1704377 -52.26  0.001402324    2.301    0.565
       117 -12.8061    216.7524     81.3272   6.9262984714e+01   2.0897086382e+01    0.6612331     0.436987 -33.75  0.001521479    1.714    0.417
       118 -13.5565     78.9447     61.2727   9.4168289531e+01   5.4150893770e+01    0.5555594    0.4426791 -32.47  0.003267611    1.255    0.203
       119 -13.8100    177.8935     58.0932   6.9804246086e+01   3.3384054796e+01    0.6937973    0.5412436 -71.81  0.002135747    1.296    0.228
       120 -12.4491     38.9635     60.6257   1.0816379051e+02   5.9983047966e+01    0.2984508    0.2253982  40.93  0.001831159    1.697    0.411
       121 -12.7102     24.5869     59.9879   1.1359584615e+02   6.1563185343e+01    0.3030997    0.1903498 -37.95 0.0009306094    1.315    0.240
       122 -13.4669     20.6842    224.8677   1.4102772363e+02   2.4057520309e+01    0.4302404     0.412615  60.51  0.001888335    1.400    0.286
       123 -14.3579    102.2565     50.6589   8.3777964855e+01   5.1406046979e+01      1.05139     0.626045  65.41  0.001382967    2.366    0.577
       124 -13.2053    131.8925     33.2955   7.1445675783e+01   4.7282833775e+01    0.5170032    0.4120606  -0.65  0.003070556    1.554    0.357
       125 -14.1192    111.5068     40.5978   7.8180020653e+01   5.0845771533e+01    0.8242435    0.4653777  26.71  0.002520208    2.350    0.574
       126 -13.9311     66.4534    223.3733   1.3142327454e+02   1.8674458123e+01    0.8009782    0.6410426  35.65  0.004737743    1.402    0.286
       127 -13.4508     63.0671     56.6421   9.7981343898e+01   5.7474052629e+01    0.3845012    0.3416983 -39.83  0.002286747    1.317    0.240
       128 -13.7281     66.5300     49.9155   9.4502123229e+01   5.7995057447e+01     0.554887    0.4579827 -17.40  0.002317115    1.141    0.123
       129 -11.6335    248.3208     55.6680   6.0170790809e+01   1.8432863010e+01    0.2146054    0.1226173 -61.42  0.001185734    1.539    0.350
       130 -12.4614    247.0939     51.5801   5.9516343135e+01   1.9270573586e+01    0.3186435    0.2620759  -8.52  0.001937801    2.184    0.542
       131 -11.5869    135.8776     50.0316   7.5484095282e+01   4.4256467723e+01      0.30748    0.1763416  50.26  0.001482967    1.591    0.372
       132 -12.7270     72.0172     75.1152   1.0080159604e+02   5.2861240057e+01    0.4731626    0.3351753  32.85   0.00148739    1.423    0.297
       133 -13.8713     96.6554    217.3901   1.2394803578e+02   1.5466701472e+01     0.673745    0.5427147  -6.96   0.00352007    1.828    0.453
       134 -12.6778    153.8332     46.6739   7.1012505651e+01   4.0600504482e+01    0.5343183     0.182209  56.36  0.002055358    2.554    0.608
       135 -13.2829    158.7494     43.3401   6.9253135206e+01   3.9904879360e+01    0.5873957    0.3157381  57.28  0.002029505    1.663    0.399
       136 -11.3784     85.3123    215.8775   1.2631332056e+02   1.7606361995e+01    0.2566565    0.1762438  52.40  0.001328896    1.373    0.272
       137 -11.9008    194.6799     23.5585   5.9371342100e+01   3.4106046435e+01    0.2777873    0.2443158  84.96  0.001026912    1.133    0.117
       138 -12.7442    199.0689     37.7591   6.1992957952e+01   3.1376419145e+01       0.4564    0.2727535 -85.14  0.001698381    1.801    0.445
       139 -13.5142      9.3911    210.9462   1.4217511287e+02   2.8346390519e+01    0.7263716    0.3196908  44.32  0.003819097    2.154    0.536
       140 -10.3922    169.3050     43.3161   6.7498021179e+01   3.7459732890e+01    0.1298358   0.09935055  35.59 0.0004608627    1.625    0.384
       141 -11.2560     25.5232     43.0283   1.0778364038e+02   6.4376495321e+01    0.1712773   0.09848893 -39.80 0.0004175855    1.545    0.353
       142 -12.7453    241.2941     36.0970   5.7141271330e+01   2.2577608218e+01    0.5084537    0.2085255  70.11  0.002517489    2.340    0.573
       143 -13.2522     76.1033     37.4797   8.6988204103e+01   5.8134460593e+01    0.3388331     0.234971  42.51 0.0009818458    1.367    0.269
       144 -12.5440     70.5556     36.6269   8.8467240771e+01   5.9200931338e+01    0.3093706    0.2248354  25.73 0.0008920803    1.227    0.185
       145 -11.9965    104.9085     36.6912   7.8565034348e+01   5.2706360282e+01    0.3309397    0.1935402 -25.33  0.001706914    1.933    0.483
       146 -11.5587     45.4532     36.5172   9.7387497323e+01   6.3027305059e+01    0.2433459    0.1549329   2.39 0.0006809729    1.637    0.389
       147 -12.4949     46.2484     32.9053   9.5730800238e+01   6.3414758707e+01    0.4003235    0.2177238   7.78  0.001710553    2.416    0.586
       148 -11.3227     45.4917    209.0201   1.3439695875e+02   2.4802556989e+01    0.3066305    0.1203645 -76.80   0.00120998    2.717    0.632
       149 -10.7273    136.6279    211.2178   1.1382329709e+02   1.0019543342e+01    0.2000972    0.1337836 -43.69 0.0009410852    1.610    0.379
       150 -13.1204    152.4993     31.4990   6.7172999756e+01   4.2810641722e+01    0.3592935    0.3011104  32.43  0.001280922    1.389    0.280
       151 -11.2602     80.2196    208.4046   1.2646705547e+02   2.0138337295e+01    0.2059498    0.1171656  49.19 0.0009523216    1.699    0.411
       152 -11.8979     38.3195     33.9918   9.9255189118e+01   6.4300558890e+01     0.193438    0.1618839  40.31  0.001327647    1.645    0.392
       153 -12.9312    205.1741     40.4403   6.1836753984e+01   2.9660906131e+01    0.4982919    0.2800993 -86.46  0.002060609    2.017    0.504
       154 -12.8259    119.4967     27.5696   7.2287062154e+01   5.0657243069e+01    0.5851453    0.3247013  47.31  0.002413723    1.579    0.367
       155 -12.1729    216.6913     29.6926   5.8280557957e+01   2.8534481692e+01    0.2594963    0.1068428 -56.29   0.00117984    2.459    0.593
       156 -10.8004     89.2558     30.0859   8.0492275237e+01   5.6605222552e+01    0.1655516    0.1457027  18.99 0.0003124528    1.064    0.060
       157 -13.2140     55.9004     27.4584   9.0078034352e+01   6.2708634219e+01    0.4716203    0.2638063  41.97  0.001488724    1.747    0.428
       158 -11.3207     97.7116     27.1280   7.7231663275e+01   5.5269378463e+01    0.2165619    0.1617115  58.11  0.001305493    1.346    0.257
       159 -11.5236    223.3867     21.3486   5.5960295388e+01   2.8132750280e+01    0.2268849    0.1734862  53.12 0.0009698533    1.694    0.410
       160 -12.7155    215.2427     21.0916   5.6679694223e+01   2.9891452844e+01    0.2633282    0.2293054  24.13  0.001753969    1.842    0.457
       161 -11.5241    248.6695    225.3338   9.3370040281e+01  -1.0936367059e+01    0.1087077   0.09966532 -67.66 0.0007052124    1.726    0.421
       162 -12.1757     60.9841     17.8807   8.4617694781e+01   6.2977532408e+01    0.1854874    0.1544974  -7.47   0.00034793    1.216    0.178
       163 -10.8563    149.8988    207.0000   1.1005814057e+02   8.5477578047e+00    0.2468564   0.08088543  39.04  0.000804964    2.960    0.662
       164 -11.4261     70.9380     16.9574   8.1083822388e+01   6.1377552409e+01    0.1789911    0.1463294  28.36 0.0004714273    1.043    0.042
       165 -12.7787     57.3841    203.6818   1.3111444159e+02   2.4535909310e+01    0.5694774    0.2973422 -82.90   0.00251337    2.128    0.530
       166 -13.0304     40.4496    195.0283   1.3397671380e+02   2.8762663487e+01    0.4537374     0.196783 -82.54  0.001806243    2.669    0.625
       167 -13.0357     16.8442    195.8012   1.3933579368e+02   3.1128838508e+01     1.022267    0.2348814 -68.36  0.003789204    3.269    0.694
       168 -14.2519     17.5951    159.9204   1.3535595032e+02   3.9723304670e+01     2.036298     1.288819  -1.94   0.01056398    2.493    0.599
       169 -14.9140      8.2837    183.5960   1.4008861087e+02   3.4815871891e+01     1.136264    0.9524065  88.92  0.007739398    1.089    0.081
       170 -14.3885     15.9435    175.6472   1.3754300930e+02   3.6040690331e+01     1.439449    0.5159366  49.31  0.006023188    3.097    0.677
       171 -13.7604     29.8340    169.4850   1.3346065911e+02   3.6206268564e+01    0.6006154    0.3729975 -43.78 0.0007098133    1.840    0.457
       172 -12.2165    164.6444    195.8746   1.0464967266e+02   8.2410988481e+00    0.5547802    0.3365772 -78.53  0.001886422    3.659    0.727
       173 -12.0399    248.4284    195.7113   8.7913334852e+01  -6.0183213937e+00    0.2581724    0.1104845 -44.10   0.00114831    2.137    0.532
       174 -12.3631    201.2415    191.7105   9.5985512348e+01   2.3936483477e+00    0.3404285    0.3115126 -12.67  0.001965911    1.035    0.034
       175 -14.3924     62.9222    214.9153   1.3121416183e+02   2.1119037541e+01    0.8117569    0.5254085  59.64  0.003990003    1.481    0.325
       176 -12.1806     98.3352    187.8859   1.1898528688e+02   2.2208118409e+01    0.3143937    0.2298609 -27.79  0.001455088    1.869    0.465
       177 -11.3792    122.4311    181.8202   1.1191256702e+02   1.9425850465e+01    0.5093472    0.2830993  85.72  0.001249114    6.342    0.842
