#   1 NUMBER                 Running object number                                     
#   2 MAG_AUTO               Kron-like elliptical aperture magnitude                    [mag]
#   3 X_IMAGE                Object position along x                                    [pixel]
#   4 Y_IMAGE                Object position along y                                    [pixel]
#   5 X_WORLD                Barycenter position along world x axis                     [deg]
#   6 Y_WORLD                Barycenter position along world y axis                     [deg]
#   7 A_WORLD                Profile RMS along major axis (world units)                 [deg]
#   8 B_WORLD                Profile RMS along minor axis (world units)                 [deg]
#   9 THETA_WORLD            Position angle (CCW/world-x)                               [deg]
#  10 FWHM_WORLD             FWHM assuming a gaussian core                              [deg]
#  11 ELONGATION             A_IMAGE/B_IMAGE                                           
#  12 ELLIPTICITY            1 - B_IMAGE/A_IMAGE                                       
         1 -14.1008     55.0998     66.5513   6.2820083335e+01   5.8211418832e+01     1.589329    0.9586306 -29.71  0.007113381    1.964    0.491
         2 -15.1326      6.4156     70.9847   8.4898349921e+01   6.1704802784e+01     1.163446    0.7506288 -63.26  0.006785095    1.232    0.188
         3 -15.9958     11.0568     23.7124   6.9959212017e+01   7.2350353920e+01      2.06493    0.9899769 -37.91   0.01045643    1.787    0.440
         4 -14.6084     27.2347     11.6274   5.3241345549e+01   7.3063621432e+01    0.9913522    0.6323498 -12.18  0.005484544    1.641    0.390
         5 -13.7526    187.6333     23.5898   1.2532085434e+01   3.4377950417e+01      1.96012    0.8079225 -52.03  0.007246032    2.709    0.631
         6 -13.4049    187.5956     10.8592   8.6961402162e+00   3.5722295938e+01    0.9827198    0.5902382 -39.46  0.004828844    1.564    0.361
         7 -13.0640      7.8503      2.7046   6.1514832833e+01   7.6663457693e+01    0.5171825    0.3907964  29.75  0.003457346    1.647    0.393
         8 -13.9241    122.3391     36.6927   2.8261362719e+01   5.0021478959e+01     1.086444    0.5684498  35.30  0.002933896    2.326    0.570
         9 -13.2039     43.5464     32.4888   5.5019073828e+01   6.7120938424e+01    0.8548019    0.6426289  22.86  0.004882277    1.395    0.283
        10 -14.4860    166.2682     28.5174   1.6884694996e+01   3.9431952549e+01      1.15291    0.9187544  70.44  0.004327307    1.228    0.186
        11 -13.2111    140.8683     21.6434   1.8522767674e+01   4.7048608391e+01     1.154905    0.3844957  66.19  0.003094976    2.886    0.654
        12 -13.1902    119.3399     26.8408   2.4949050363e+01   5.2120658560e+01     1.053492    0.6046315  29.21  0.004275832    2.164    0.538
        13 -13.7116    216.5382     28.1577   1.0811189191e+01   2.6672710277e+01     1.181157    0.3389871 -37.23  0.004371009    2.719    0.632
        14 -12.0732    223.3653     20.9118   8.2903422445e+00   2.5878390444e+01    0.5743842    0.3467599 -64.95  0.002751695    1.680    0.405
        15 -13.3551    219.0100     15.5090   7.2338937763e+00   2.7474693177e+01    0.5473631    0.3113106  61.85  0.002254304    1.846    0.458
        16 -14.0744    214.9875     10.1671   6.1384153507e+00   2.8975436755e+01     1.319096    0.8766747  64.83  0.005447712    1.566    0.361
        17 -15.3009     98.6861     11.2815   2.2998006269e+01   5.9131540961e+01     1.545443     1.017638  54.15  0.004399628    1.399    0.285
        18 -11.7109     71.0104     16.3969   3.4280832312e+01   6.4896893118e+01    0.2932621    0.1953316 -25.04 0.0007716523    1.464    0.317
        19 -12.3388     60.1919     15.3176   3.8048220771e+01   6.7213016928e+01    0.5304843     0.313144  25.81   0.00251603    1.856    0.461
        20 -12.6607     86.1062     14.3587   2.8049567932e+01   6.1812914090e+01    0.6366582    0.4499112 -55.71   0.00311854    1.917    0.478
        21 -11.9355     46.7467     12.7724   4.2838967950e+01   7.0001787397e+01    0.2863018    0.2554668  20.63  0.001416893    1.197    0.165
        22 -13.9137     41.9306      4.1917   3.9892534699e+01   7.2007063663e+01    0.6795274    0.5172637   7.18  0.003301008    1.176    0.150
        23 -11.3821    123.1195     10.6885   1.7384404368e+01   5.2920328019e+01    0.3156795    0.2148251 -67.46  0.001473162    1.824    0.452
        24 -11.9742     74.9592      9.6199   2.9143622377e+01   6.4873757483e+01    0.3864987     0.222525 -12.09  0.001812271    1.867    0.464
        25 -12.0355    152.6827      8.5191   1.1885654202e+01   4.5194192801e+01    0.3155184    0.2309392  35.43  0.001598674    1.497    0.332
        26 -10.8643     80.4924      7.0953   2.5960360997e+01   6.3899556576e+01    0.2028901    0.1315753 -18.53 0.0008978811    1.556    0.357
        27 -12.0870    118.5450      2.4054   1.4695914292e+01   5.4853813863e+01    0.4405518    0.2618525 -88.18  0.001938338    2.078    0.519
        28 -11.7822     78.6757      1.9016   2.3659104545e+01   6.4817988796e+01    0.9119079          nan  53.14  0.001974787    8.030    0.875
        29 -11.3348     67.5219      2.9658   2.7925239520e+01   6.7200439294e+01    0.2750127    0.1578693  36.98  0.001358456    1.617    0.382
        30 -14.4576    147.3566     29.6892   2.0359705686e+01   4.4358632236e+01     1.363977    0.7819755  65.99   0.00460879    1.713    0.416
        31 -11.2921     61.2493      1.4471   2.9331906487e+01   6.8676949866e+01    0.3489861    0.1209795  54.57  0.001373021    2.799    0.643
        32 -11.4599    103.5294    149.8718   6.6792356455e+01   3.0476724520e+01     0.319055    0.2373462 -27.83  0.001200619    1.755    0.430
        33 -12.2874     51.0936    248.2372   8.9100421827e+01   1.8353057483e+01    0.3144654    0.2741591 -75.95  0.002612211    1.498    0.332
        34 -12.3128      2.9132    249.5410   9.7502026634e+01   2.3064793739e+01     0.321686    0.1657947  51.51  0.001905235    1.295    0.228
        35 -14.1808      9.6277    245.5950   9.6265706480e+01   2.3093391361e+01    0.8141567    0.3041748  51.75  0.003923402    1.755    0.430
        36 -11.7746      9.8524    149.3094   9.1897137550e+01   4.2353476866e+01    0.4216982    0.2032982  15.01  0.002084512    2.877    0.652
        37 -11.9459     60.4808    147.3319   7.8054466691e+01   3.7620745883e+01    0.3541228    0.2540841   1.11  0.001768273    2.126    0.530
        38 -11.9828    109.8319    153.6792   6.5850424354e+01   2.8530921968e+01    0.4195644    0.2631817  85.23  0.001664663    2.744    0.636
        39 -11.6446     61.0402    152.0365   7.8538145289e+01   3.6427076829e+01    0.1977405    0.1746246  78.29            0    1.005    0.005
        40 -12.1397    247.4168    137.2162   3.3808097954e+01   5.3332399035e+00    0.1858666    0.1050561 -36.15 0.0009404088    1.657    0.396
        41 -12.2740    135.7538    132.0889   5.4741227539e+01   2.8317125582e+01    0.5654548    0.2240417  42.99  0.001984292    2.466    0.594
        42 -12.3363    133.7840    126.4865   5.3921633284e+01   2.9923976023e+01    0.4742282    0.2767853 -32.87  0.001908332    2.035    0.509
        43 -13.9356    104.6363    122.0221   6.0772592919e+01   3.6712688648e+01     1.441231     1.125884  37.20  0.007143177    1.305    0.234
        44 -14.7809    106.3297    104.8933   5.6036036142e+01   4.0375539044e+01     1.570599     1.366002 -76.27  0.007537455    1.262    0.207
        45 -12.6585     42.4937     90.4976   7.4138151781e+01   5.3951436125e+01    0.4273167    0.2905467 -81.81 -0.0003506019    1.562    0.360
        46 -15.0226     14.5996    105.9429   8.6639352203e+01   5.2529801476e+01     1.517185    0.9583443  70.58  0.008296385    1.621    0.383
        47 -13.5629      2.2386     96.8806   8.9856395636e+01   5.5527037427e+01    0.8438579    0.2438914 -79.10  0.003256568    2.918    0.657
        48 -14.8939     24.5106     93.0024   8.1332880973e+01   5.5034265834e+01     1.354963     1.157358  33.60  0.008457929    1.348    0.258
        49 -11.8613     86.5508    114.9322   6.4529898693e+01   4.1639192598e+01    0.3871107    0.2865936   9.27  0.001252179    1.841    0.457
        50 -12.7684     81.8862    115.1316   6.6021396607e+01   4.2367644335e+01    0.5487472    0.3860739 -33.30  0.002557136    1.718    0.418
        51 -11.7068     63.1523    110.6961   7.1086726111e+01   4.6301835544e+01    0.3409423    0.2512457  50.17  0.001749002    1.430    0.301
        52 -12.6731     78.6167    110.4134   6.5999158260e+01   4.4054872353e+01    0.5104884    0.3705753  88.82   0.00235852    1.711    0.415
        53 -13.1860     29.2762    120.7399   8.3696038461e+01   4.7647245301e+01    0.7032709    0.2755245 -61.61  0.003061068    2.149    0.535
        54 -11.3757     42.6424    106.8672   7.7246074339e+01   4.9806693489e+01    0.2225493    0.1924433   0.96   0.00129496    1.416    0.294
        55 -12.2264    136.5230    102.9781   4.7119489241e+01   3.4354613938e+01    0.5174159    0.2393809  49.08  0.001867036    2.222    0.550
        56 -10.9260    181.3233    120.6699   4.1517242560e+01   2.0837590088e+01    0.1493129    0.1211613 -74.16 0.0007049803    1.699    0.411
        57 -12.5801     49.5817     98.6526   7.3257550576e+01   5.1086619640e+01    0.8084728    0.5433632  13.82  0.003984096    1.900    0.474
        58 -12.2179     61.6197     97.7256   6.8791021430e+01   4.9755442663e+01    0.5347971    0.3623332  84.21  0.001945315    1.970    0.492
        59 -11.7500    163.6277     97.3773   3.9074810560e+01   2.9179289039e+01    0.3839012    0.2593758 -55.11 0.0009301844    1.737    0.424
        60 -13.2478    136.6921     94.5938   4.4673165703e+01   3.6059174765e+01    0.5547771    0.4646042  67.17   0.00216203    1.344    0.256
        61 -12.6735      5.5056    118.2492   9.0783600750e+01   5.0085782188e+01    0.7172033    0.4138783 -47.36  0.003926328    1.918    0.479
        62 -11.5019     35.2597     86.4876   7.6055572278e+01   5.5709106520e+01     0.272066    0.1887082 -51.21 0.0006426702    1.304    0.233
        63 -12.6738    188.3990     83.9321   3.0330091690e+01   2.5644216477e+01    0.5885865     0.293305  40.30  0.002238302    2.359    0.576
        64 -13.7642    163.5976     71.5745   3.1401262573e+01   3.3839924314e+01     1.228093     1.065809  83.80  0.006160852    1.289    0.224
        65 -13.2027    162.0944     79.5810   3.4181008409e+01   3.2820465057e+01     1.001958    0.5697183  22.69  0.003331979    3.169    0.684
        66 -14.3143    169.3855     77.2018   3.1961193844e+01   3.1425336098e+01     1.243287     0.758473  40.58  0.003603113    1.797    0.443
        67 -12.4359     40.6421     68.0631   6.9409630627e+01   5.9674920045e+01    0.8975529    0.2473905  30.13  0.003115398    3.792    0.736
        68 -13.5602     28.5521    245.6822   9.2992817057e+01   2.1217530768e+01    0.4034546    0.2140823  56.07  0.002809672    1.354    0.262
        69 -13.4759     92.1740     57.2667   4.5304036041e+01   5.3657132995e+01    0.5659575    0.5147771  -4.71  0.001505828    1.097    0.088
        70 -13.8128     73.8079     73.9682   5.7825316933e+01   5.3593364379e+01     1.407286    0.7715908  13.42  0.004688108    3.725    0.732
        71 -13.1569     87.3413     65.2661   4.9950313553e+01   5.3017526545e+01    0.5956495    0.4770964  -4.43  0.001309757    1.459    0.314
        72 -12.5574     69.4057     51.3075   5.1420299792e+01   5.9277645541e+01    0.5502948    0.3194175 -44.25 0.0007554042    1.631    0.387
        73 -12.9884     64.5417     48.3600   5.2233844061e+01   6.0719922143e+01    0.9606328    0.4683875 -37.07   0.00398291    2.021    0.505
        74 -12.8937     54.7949     80.9632   6.7146306546e+01   5.4820434927e+01     0.582044    0.4430763 -42.59  0.002121819    1.255    0.203
        75 -13.9889     61.2558     75.5066   6.3092521073e+01   5.5226685214e+01    0.7748577    0.5320624 -36.84  0.002820086    1.479    0.324
        76 -12.0220    114.0005     79.8907   4.6373428680e+01   4.4296683251e+01    0.4663267    0.3538665 -47.27  0.002052895    1.320    0.242
        77 -12.6098    210.6046     77.0971   2.4814082819e+01   2.1517516678e+01    0.4686872     0.309535 -63.52  0.002129057    1.953    0.488
        78 -12.5593    135.1344     79.3073   4.0380122151e+01   3.9495260311e+01    0.7686151    0.4050414  55.64  0.002911879    2.052    0.513
        79 -11.7866     42.5139     79.4901   7.1618702272e+01   5.6687319248e+01    0.3229342    0.2712988 -51.85  0.001637927    1.066    0.062
        80 -11.3030     41.6298     75.7940   7.1055595959e+01   5.7693064487e+01    0.3295268    0.2162451 -67.45  0.001105002    1.460    0.315
        81 -11.6777    246.5925    234.7957   5.2099631919e+01  -6.1408243583e+00    0.1323639   0.09050985 -25.81 0.0009528248    1.683    0.406
        82 -14.4754      5.0653     63.2516   8.4174270068e+01   6.3654012794e+01    0.7650424    0.6378637 -47.13  0.004864539    1.157    0.136
        83 -12.5593     48.9949     93.2968   7.2328490160e+01   5.2502079727e+01    0.4292647    0.3025039  52.08  0.001949783    1.597    0.374
        84 -11.7608     27.1044     75.0650   7.6918663176e+01   5.9298510718e+01    0.5236465     0.255732 -86.94  0.002031152    3.034    0.670
        85 -13.2646    199.6025     69.5570   2.4408978371e+01   2.5235715302e+01    0.6756403    0.3844492  53.21  0.002377916    1.835    0.455
        86 -13.1578    133.1721     66.2081   3.6532876818e+01   4.2447270261e+01    0.9834648    0.7458006   0.08  0.004391494    1.661    0.398
        87 -11.3716     99.6634     64.7876   4.5622477899e+01   5.0562265943e+01    0.3350132    0.2388055 -66.75  0.001445945    1.919    0.479
        88 -13.1079     78.9552     60.1900   5.1134469786e+01   5.5701436564e+01    0.5930801    0.4769185 -38.35  0.002792248    1.176    0.149
        89 -13.6385    177.7400     56.7585   2.4158519638e+01   3.2601729783e+01      1.03776    0.5509042 -42.73  0.003549351    1.844    0.458
        90 -12.8756     35.6322     57.2369   6.8470461684e+01   6.2775729446e+01    0.8324484    0.4869379 -58.67   0.00414394    1.534    0.348
        91 -11.8302     24.8663     58.6316   7.3940622898e+01   6.3471737239e+01    0.5321975    0.2100892 -54.53  0.002333613    1.979    0.495
        92 -11.8224    111.1096     58.6847   3.9842318445e+01   4.9164048653e+01    0.2511636    0.2193836 -26.92 0.0004131037    1.134    0.118
        93 -14.5509    120.2198     54.7922   3.5820765454e+01   4.7678659201e+01     1.126512     0.767855  49.92  0.005082508    1.457    0.314
        94 -11.6862     17.5448     55.4616   7.6621746700e+01   6.4790437313e+01    0.3290137     0.193943 -62.97  0.001753819    1.420    0.296
        95 -12.3321    135.8099     51.1165   3.0560358793e+01   4.4365796070e+01    0.6204962    0.4239608 -28.68  0.002204789    1.490    0.329
        96 -13.5574    103.3755     50.4820   3.9012766382e+01   5.2450027214e+01     1.017162    0.4485861 -43.62  0.001130825    2.369    0.578
        97 -13.4122     97.9764     49.9797   4.0511680747e+01   5.3766778807e+01    0.9680926    0.4426794 -40.18  0.003079707    2.154    0.536
        98 -11.9172    199.9376     61.8226   2.2172615401e+01   2.6302486809e+01    0.2307595    0.2033312  16.54  0.001243295    1.274    0.215
        99 -12.8464    158.1663     43.1185   2.3146552563e+01   3.9698427489e+01    0.6135715    0.5103786  23.15  0.002603196    1.350    0.259
       100 -11.1765     38.8490     46.0428   6.3092368168e+01   6.4937114204e+01    0.1972793    0.1774415 -59.81 0.0005854703    1.223    0.182
       101 -13.3758      6.1637     42.9242   7.9239539246e+01   6.8412614476e+01    0.8466694    0.4365389  13.26  0.004492638    2.292    0.564
       102 -12.5023     91.7049    232.5655   8.0287556405e+01   1.5886707060e+01    0.1996358    0.1281728  72.99  0.001218564    1.810    0.447
       103 -12.5526     23.5824    216.4099   9.2601996854e+01   2.6897612889e+01    0.7321136    0.2280649  50.55  0.003733268    2.308    0.567
       104 -13.8417     26.2193    226.5208   9.2572868898e+01   2.4769636577e+01    0.5913017    0.3705251 -60.09  0.003993031    2.089    0.521
       105 -14.0300     20.5679    224.1547   9.3530882503e+01   2.5764449493e+01    0.5839911    0.4138484  49.40  0.003999664    1.172    0.147
       106 -13.7119    217.4310     41.9818   1.4438863967e+01   2.4797050282e+01     1.134969    0.4004323  63.24  0.004365349    2.862    0.651
       107 -12.7729    204.5691     39.9007   1.5328621421e+01   2.8152777805e+01    0.7092911    0.3675246 -86.12  0.002734945    2.822    0.646
       108 -13.3686     65.6196    223.2466   8.4689566402e+01   2.0897139685e+01    0.6582562    0.5699424  76.51  0.004925446    1.194    0.162
       109 -11.9213    134.8318     39.2907   2.6402723439e+01   4.6410313975e+01    0.5177872    0.3373401  80.50  0.001844223    1.940    0.485
       110 -12.2824    109.8723     41.9603   3.3654997311e+01   5.2343875883e+01    0.4299371    0.2150268  55.05   0.00066034    2.012    0.503
       111 -13.1528    113.6858     37.8922   3.0941835401e+01   5.2032420094e+01    0.4602285    0.3779303 -36.20  0.001383989    1.245    0.197
       112 -13.8367     64.2419    214.0755   8.4241841403e+01   2.2757915123e+01    0.5261277    0.2635475  47.78  0.002943583    1.592    0.372
       113 -12.9917    131.4308     33.4520   2.4904976695e+01   4.8109534932e+01     0.565478    0.4579815   4.41  0.001673201    1.377    0.274
       114 -12.8211     59.3999    212.7684   8.5142820358e+01   2.3605089186e+01    0.2489449    0.1725164 -62.14 0.0007377765    1.699    0.411
       115 -11.9148     40.1515     24.1091   5.2674098930e+01   6.9162762753e+01    0.2578713    0.2193289  -3.89 0.0009314088    1.088    0.081
       116 -12.3239     40.3040     40.3547   6.0126452192e+01   6.5972004258e+01     0.459435    0.3321066  26.37  0.002565053    1.503    0.335
       117 -12.9065     32.9422     40.0395   6.3795110262e+01   6.6910547630e+01    0.3524106    0.2673074  -5.00 0.0005640548    1.411    0.291
       118 -12.2006     30.7498     25.5437   5.8655246907e+01   7.0113857010e+01    0.3520681    0.2308522  11.79   0.00183035    1.685    0.406
       119 -12.0073     35.5506     23.4229   5.4852063739e+01   6.9914933709e+01    0.3462036    0.2340699 -12.10  0.001286764    1.572    0.364
       120 -12.5314     75.9878     37.0000   4.2666173549e+01   6.0731583136e+01    0.4664688    0.3111277  35.63  0.001345624    1.526    0.344
       121 -11.7913     70.8161     35.8748   4.4179561650e+01   6.1941332548e+01    0.2855875    0.2566257  31.23 0.0009731496    1.157    0.135
       122 -12.6255    242.1037     35.9651   1.0501783675e+01   1.9976851369e+01    0.4923628     0.273671  80.09  0.002176152    2.096    0.523
       123 -11.9811    105.1215     35.0277   3.2092866301e+01   5.4561052679e+01    0.5754029    0.2744355 -13.76  0.001875625    3.413    0.707
       124 -12.2202    249.1540    216.0896   4.8690144180e+01  -4.5749084698e+00    0.2341786     0.139333  32.20  0.001525428    1.554    0.357
       125 -12.5505     72.1731    206.6652   8.1919842652e+01   2.3152507379e+01    0.3040549    0.2327046  69.60  0.001834518    1.200    0.166
       126 -12.1170     57.2471    202.3960   8.4761431438e+01   2.5885107777e+01    0.3785765    0.1855508  84.13   0.00183925    2.513    0.602
       127 -11.4724    185.7491    202.9972   5.7621474309e+01   6.2761495883e+00    0.1548366     0.105501 -32.89 0.0008978171    1.615    0.381
       128 -12.6437    248.5053    196.7004   4.5441308504e+01  -2.3638255073e+00    0.4967551    0.2200971 -36.64  0.002566509    2.529    0.605
       129 -11.9948     17.1213    195.6590   9.2889360687e+01   3.1585539004e+01    0.3010519     0.167394 -65.88  0.001827052    1.937    0.484
       130 -12.5396     38.6357    194.9273   8.8232762961e+01   2.9555570803e+01     0.406516     0.226279  47.79  0.002388016    1.478    0.323
       131 -13.1280     22.2216    180.7792   9.0940498463e+01   3.4217340971e+01    0.6438513    0.3122582 -62.80   0.00347916    2.152    0.535
       132 -10.8274     51.2192     20.4068   4.5012254525e+01   6.8073350185e+01    0.2936798    0.1254719  42.99  0.001247471    2.466    0.595
       133 -11.5351     47.0000     19.6582   4.6690538556e+01   6.8891360073e+01    0.3869079    0.1946677  21.55  0.001596563    2.778    0.640
       134 -14.9479      8.5413    183.1832   9.4113368960e+01   3.4936267762e+01     1.143872    0.9164018  59.15  0.008411241    1.141    0.124
       135 -14.3881     15.3605    174.8563   9.2148086925e+01   3.6130617092e+01     1.735175    0.4661916  48.89  0.007554917    2.906    0.656
       136 -11.0748    206.4719    190.5174   5.1536984620e+01   4.7118960967e+00    0.1291608    0.1053172  11.20 9.205635e-05    1.006    0.006
       137 -11.3390    175.8835     13.8418   1.0846529615e+01   3.8483150719e+01    0.1987546    0.1851453  56.45 0.0002604066    1.127    0.113
       138 -12.4599    249.5603    182.7768   4.2715222564e+01  -8.8097537553e-01    0.2886035   0.09987148 -32.62   0.00131183    2.677    0.626
       139 -13.1739     29.9301    169.3533   8.8335866609e+01   3.5976975679e+01    0.6262407    0.4530777 -42.31  0.003602023    1.895    0.472
       140 -12.8399    124.2637    166.1891   6.4513313568e+01   2.3312433760e+01    0.6341919    0.4082183 -62.18  0.003044271    1.837    0.456
       141 -11.0064    177.3295    167.3295   5.2819609150e+01   1.3342563719e+01    0.1464738    0.1019758   5.64 0.0006054934    1.712    0.416
       142 -10.3326     55.3322     11.3080   3.7855307036e+01   6.8679845782e+01    0.1413904   0.09252954  12.82  0.000704078    1.667    0.400
       143 -11.8515     22.1162    165.6999   8.9959296723e+01   3.7551393834e+01     0.212552    0.1396785  82.45 0.0008354174    1.303    0.232
       144 -11.0031    192.6108    164.1969   4.9104556696e+01   1.1054540449e+01    0.1965721     0.122432 -23.15 0.0009526336    1.713    0.416
       145 -12.3972    206.4951    162.4959   4.6099430534e+01   8.8144716564e+00    0.2792149    0.1257926 -35.19  0.001217777    2.191    0.544
       146 -12.0890     76.9581    156.7026   7.4936108323e+01   3.3136908112e+01    0.3682491     0.269437  28.07   0.00118759    1.509    0.337
       147 -13.0652     73.6636    153.1257   7.5289577700e+01   3.4445185473e+01    0.6355997    0.4423312  31.60  0.002476438    1.520    0.342
       148 -13.5431     57.6936     26.5856   4.5254658394e+01   6.5944619576e+01     1.053397    0.3789684  39.25  0.003548528    2.899    0.655
       149 -12.4935    246.6177    150.3614   3.6730290334e+01   3.6888873977e+00    0.4492677    0.3442372 -48.18  0.002656878    1.807    0.447
