#   1 NUMBER                 Running object number                                     
#   2 MAG_AUTO               Kron-like elliptical aperture magnitude                    [mag]
#   3 X_IMAGE                Object position along x                                    [pixel]
#   4 Y_IMAGE                Object position along y                                    [pixel]
#   5 X_WORLD                Barycenter position along world x axis                     [deg]
#   6 Y_WORLD                Barycenter position along world y axis                     [deg]
#   7 A_WORLD                Profile RMS along major axis (world units)                 [deg]
#   8 B_WORLD                Profile RMS along minor axis (world units)                 [deg]
#   9 THETA_WORLD            Position angle (CCW/world-x)                               [deg]
#  10 FWHM_WORLD             FWHM assuming a gaussian core                              [deg]
#  11 ELONGATION             A_IMAGE/B_IMAGE                                           
#  12 ELLIPTICITY            1 - B_IMAGE/A_IMAGE                                       
         1 -10.6578     74.4011     47.2604   8.3569178221e+01   5.8039151340e+01     1.547009    0.7524623 -24.31   0.00602363    2.817    0.645
         2 -11.5209     57.6664     47.9138   9.0009549810e+01   6.0441673762e+01    0.8231187    0.6918122 -45.95  0.005075623    1.245    0.197
         3 -11.7697     22.3582     57.6975   1.0708568783e+02   6.2185870499e+01     1.847972    0.6476523 -60.55  0.008140315    2.428    0.588
         4 -10.9564     41.7215      3.5551   7.7113384789e+01   6.9601833831e+01    0.4516311    0.2602831  15.79  0.002560115    1.806    0.446
         5 -12.0050     32.3487     43.5049   9.8719119114e+01   6.4225184598e+01    0.9221069    0.5125895 -31.50   0.00500411    1.692    0.409
         6 -12.5003     45.5196     17.9933   8.2645299346e+01   6.7127561470e+01     1.275539     1.090347 -74.51  0.006701017    2.223    0.550
         7 -12.0291     57.9543      6.3247   7.1786624025e+01   6.6808056896e+01     1.462669    0.8595406  18.13  0.007962363    1.768    0.434
         8 -11.7764     91.0246     23.4723   6.8370752590e+01   5.8663125249e+01     2.059715    0.6432114 -26.43  0.007128742    3.556    0.719
         9 -12.8627    101.9149      7.5188   5.8511604956e+01   5.8147928452e+01     1.435126    0.6096683  56.48  0.002159835    2.158    0.537
        10 -12.7482     26.9240     25.0749   9.4269731518e+01   6.8131767470e+01     1.355891    0.8679707 -29.64   0.00849514    1.278    0.218
        11 -12.3701      8.8600     26.1238   1.0339675303e+02   6.9385546990e+01    0.7052903    0.3738829   1.00  0.003352129    2.239    0.553
        12 -13.5319      4.0162     11.7119   1.0032861130e+02   7.2243168659e+01     1.507365    0.6259571 -43.13  0.008657349    1.738    0.425
        13 -13.3009     71.0212     30.8887   7.8244867166e+01   6.1328302519e+01     2.064791     1.469823  36.98   0.01174125    1.444    0.308
        14 -12.1470     25.0323      5.8771   8.6348987720e+01   7.1358708423e+01    0.6033642    0.4483935 -23.57  0.002730213    1.128    0.114
        15 -13.4358     54.5504     67.1077   9.7494826183e+01   5.6985450633e+01     2.826062     1.850549  38.10   0.01524694    1.771    0.435
        16 -13.2341    115.3352     67.6297   7.7798871404e+01   4.6479413834e+01     3.070726     1.522011  38.13  0.008844192    2.230    0.551
        17 -11.1576      6.0575     56.6450   1.1326988315e+02   6.3447686249e+01     1.149256    0.6357328 -80.73  0.006224397    2.158    0.537
        18 -11.7065    165.7799     58.9131   6.2788645611e+01   3.5976324833e+01     2.442748     0.689361 -34.59  0.007361284    3.402    0.706
        19 -11.3086    150.4730     67.8990   6.8900715169e+01   3.8291473551e+01     1.525948    0.5295394 -35.35  0.004918776    2.889    0.654
        20 -11.1285    155.6167     39.3337   5.8530069463e+01   4.1502567951e+01     1.235888    0.4996753 -46.23  0.003792406    2.941    0.660
        21 -11.7722     14.8704     35.2390   1.0366440230e+02   6.7267889610e+01      1.11603    0.4588866 -46.50  0.003748531    1.789    0.441
        22 -11.3011    117.4823     47.7253   7.0282411819e+01   4.9497362991e+01     1.032718    0.4981421 -24.26  0.003513207    2.487    0.598
        23 -10.7599    100.3871     41.3443   7.2763683023e+01   5.4194316055e+01     1.129328    0.9473699  29.23  0.006336701    1.154    0.133
        24 -10.1663    122.7817      9.8917   5.4683568589e+01   5.3115046890e+01    0.8061122    0.4544487  27.27  0.003682012    2.044    0.511
        25 -10.6446    114.5557     14.6321   5.8367250404e+01   5.4574029812e+01    0.6660732    0.5388083 -87.06  0.003676381    1.611    0.379
        26 -12.1493    129.3629     21.6290   5.7724208872e+01   5.0293668611e+01     1.089717    0.5118977  48.29  0.001724289    1.936    0.484
        27 -10.5782    132.3385     13.5617   5.4123175826e+01   5.0437783706e+01    0.5546358    0.2451747  58.50  0.001051778    1.992    0.498
        28 -12.5462    113.9019     23.9262   6.2207661618e+01   5.3669771378e+01     0.568091    0.4479848  67.72  0.003081091    1.437    0.304
        29 -10.9613    213.5635      4.7983   4.0340505259e+01   3.0763794781e+01     1.034555    0.4016506  79.78  0.004143593    2.663    0.625
        30 -10.3672    205.7404     15.5477   4.3929160146e+01   3.1556726650e+01    0.6056287    0.3739921  32.51  0.002805262    2.295    0.564
        31 -10.1464    214.0286     12.2200   4.2194352775e+01   2.9868307681e+01    0.5951656    0.2978085  88.76  0.002070725    2.224    0.550
        32 -10.2830    210.9508     17.5118   4.3887527372e+01   3.0039660841e+01    0.4072466    0.2602626  69.95  0.001256316    1.483    0.326
        33 -11.3384    212.2019     30.3192   4.7133450658e+01   2.8198650993e+01     1.381782    0.7146053 -28.29  0.006156226    1.999    0.500
        34 -11.3609    192.7047     32.4884   5.0253941140e+01   3.2849078785e+01    0.5551227    0.4283633   5.85  0.000420356    1.677    0.404
        35 -10.5788    243.8855     18.3163   4.0938212808e+01   2.2114109263e+01    0.8182188      0.35098  80.93  0.003542226    2.584    0.613
        36  -9.3063    186.6758     22.2452   4.8115438659e+01   3.5642914389e+01     0.642661    0.4473275  -7.01  0.003161304    1.830    0.454
        37 -11.1403    179.9582     27.4179   5.0598960734e+01   3.6763505969e+01     0.673034    0.4708983  62.43  0.003301743    1.346    0.257
        38 -11.0005    176.0322     20.6146   4.9111628045e+01   3.8574573699e+01    0.5102465    0.4411709 -41.09  0.001764896    1.200    0.167
        39 -10.3836    158.3170     19.8934   5.1624558709e+01   4.3225318842e+01    0.5797125    0.3222164 -46.41  0.001949666    1.994    0.499
        40 -10.3055    162.5795     16.3682   4.9793829046e+01   4.2511411108e+01    0.6518432    0.5114051  65.21  0.002759299    1.174    0.148
        41  -9.6846    173.3079     10.5182   4.6410745836e+01   4.0350627240e+01    0.3794276    0.2490164  45.80  0.001070124    1.567    0.362
        42 -11.0309    169.4395     13.7704   4.7949146272e+01   4.1016274587e+01      1.96156    0.8176676 -83.42    0.0042715    8.968    0.888
        43 -10.9487    163.6356      6.1135   4.6360833270e+01   4.3259096024e+01    0.8220982    0.6208167  84.05  0.004457934    1.300    0.231
        44  -9.9402    147.5162     11.2869   5.0541007965e+01   4.6877144659e+01       0.4336    0.3036723  27.87  0.002219358    1.590    0.371
        45  -9.6160    154.0431     17.3836   5.1506880421e+01   4.4592958131e+01    0.4237958    0.2670356  38.98 0.0008168994    1.677    0.404
        46 -11.0298    149.8006     15.9773   5.1755295904e+01   4.5822679941e+01    0.9160938    0.3868453  39.58  0.002547893    2.811    0.644
        47 -10.6415    204.1154     26.0410   4.6955012126e+01   3.0748629923e+01    0.7200819     0.355584 -18.17  0.002916203    2.634    0.620
        48 -10.4351    232.8253     11.1999   4.0210879840e+01   2.5472502171e+01    0.4276254    0.3370453 -62.60  0.001811937    1.111    0.100
        49 -10.0815    230.0287     19.1372   4.2379857465e+01   2.5227367394e+01    0.5101141    0.3184001 -60.34  0.002659666    1.534    0.348
        50  -9.7037    232.7663     17.0300   4.1614100796e+01   2.4827276524e+01     0.274415    0.1746218 -43.70 0.0003655798    1.422    0.297
        51  -9.2380    198.6999     16.0574   4.4857970835e+01   3.3271390894e+01    0.2564456     0.224613  47.67  0.001502116    1.255    0.203
        52 -12.2057     19.2036     13.7759   9.3177288476e+01   7.0734433460e+01    0.7409298    0.6536961 -52.07  0.004336422    1.611    0.379
        53 -10.8614    243.6587     12.7309   3.9668789382e+01   2.2808863462e+01    0.3129125    0.2612984 -30.61 0.0005144909    1.320    0.242
        54  -9.8846    243.8686      5.0407   3.7901937773e+01   2.3609704689e+01    0.3583354    0.2003195 -20.07  0.001507333    2.228    0.551
        55 -10.1947    221.8464     12.0370   4.1396294155e+01   2.7986861605e+01    0.4122065    0.3045707 -68.42  0.001413696    1.252    0.201
        56  -9.7414    226.1740      8.4999   4.0134626336e+01   2.7335340278e+01    0.3502758    0.2246289  18.63  0.001653141    2.692    0.629
        57  -9.0505     86.0360      9.6068   6.3788766591e+01   6.1297716725e+01    0.4872279     0.360847  30.82  0.001549202    1.201    0.167
        58 -10.0716    133.1062      5.0644   5.0854882714e+01   5.1053268605e+01    0.5816603    0.4644774 -62.69  0.003277565    1.488    0.328
        59  -9.1939    139.5153      8.4905   5.0944578391e+01   4.9154849170e+01    0.3114011    0.1778413 -45.62  0.001444632    2.039    0.510
        60 -11.3192    138.7088      3.2918   4.9233529835e+01   4.9821145203e+01    0.4071316    0.3389152  -5.09  0.002389635    1.321    0.243
        61  -9.5870     77.2460      9.8715   6.6654861726e+01   6.2991352995e+01     0.363145    0.2275037  13.83  0.001919454    1.691    0.409
        62  -9.1874     77.6555      4.7998   6.4128874677e+01   6.3446438176e+01    0.2486117     0.148936   4.34 0.0009840686    1.818    0.450
        63 -10.4188    199.4364      5.4540   4.1883608775e+01   3.4196933031e+01    0.6863258    0.3920073 -44.79  0.003282054    1.709    0.415
        64  -9.3933    249.6506      7.4888   3.8024357937e+01   2.2053128624e+01    0.3004757     0.172304 -68.35  0.001608667    1.657    0.397
        65  -9.2991    190.1089      6.2536   4.3103386643e+01   3.6472442384e+01    0.3643453    0.2084616 -35.89  0.001794513    1.757    0.431
        66 -10.1706    181.9045      5.0062   4.3686731946e+01   3.8682862208e+01    0.5186793    0.3673856  76.72  0.002090464    1.292    0.226
        67  -8.5963    175.9726      4.0000   4.4101658677e+01   4.0293855361e+01      0.33913     0.129948  65.54 0.0007869583    2.227    0.551
        68  -8.8783     82.8905      2.8018   6.1588298128e+01   6.2608394851e+01    0.3024611    0.1398344 -37.48  0.001383494    2.576    0.612
        69  -9.2220    247.7893      1.8004   3.6897419359e+01   2.3078876985e+01     0.234676    0.1597316 -77.64  0.001401306    1.318    0.241
        70 -10.3835     40.8364    147.0406   1.1736981960e+02   3.9935730848e+01    0.4463412    0.2465959  42.98  0.002396897    1.876    0.467
        71 -10.0811    235.7723    249.4831   9.1999426726e+01  -9.4586130397e+00    0.3154339    0.1385469  39.08  0.001751794    1.920    0.479
        72  -9.6946    211.2343    250.0057   9.6264504017e+01  -5.9515595153e+00    0.2912188    0.1173419  45.95   0.00140951    2.486    0.598
        73  -9.0936    183.1111    249.8880   1.0119129542e+02  -1.6319834416e+00    0.1790919    0.1393251  45.26    0.0012338    1.234    0.190
        74  -9.1046    162.1003    250.1470   1.0498030578e+02   1.6288642352e+00    0.1856669    0.1389868  27.65   0.00124107    1.276    0.216
        75  -9.2665    125.2149    249.8731   1.1156678942e+02   7.4111779869e+00    0.2158481    0.1398279  23.40  0.001235682    2.126    0.530
        76 -10.7994     37.5301    142.9731   1.1768633198e+02   4.1232025762e+01    0.3683882    0.3215949  29.33  0.001143409    1.444    0.308
        77  -9.8014     70.5415    142.8535   1.0926910364e+02   3.7291299395e+01    0.2364304    0.1986558  47.91 0.0008460291    1.261    0.207
        78  -8.3140     80.3301    141.2603   1.0646557182e+02   3.6260784868e+01    0.1301151    0.1088029 -24.48 0.0003812452    1.567    0.362
        79 -10.1905     22.7171    137.1455   1.2069910555e+02   4.3989092109e+01    0.4781755    0.2675791 -52.26  0.002654814    1.823    0.452
        80 -12.9400     44.3413     95.3941   1.0807526516e+02   5.1786011075e+01     1.650814     1.293319  57.24  0.004001904    1.509    0.337
        81 -10.1005    106.7599    247.5911   1.1462644616e+02   1.0543057340e+01    0.4552806    0.1609893  58.65  0.001720482    4.168    0.760
        82  -9.6660     58.4089    246.9675   1.2295690695e+02   1.7287150438e+01    0.2181232    0.1083797  80.79  0.001011727    2.138    0.532
        83 -11.2825     19.0432     71.3523   1.1159290122e+02   5.9466525833e+01    0.4687717    0.2735525 -67.53  0.001836075    1.497    0.332
        84  -9.2210      3.1857    247.0732   1.3175064261e+02   2.3403265871e+01    0.1752294    0.1032246 -75.22  0.001049919    1.749    0.428
        85  -9.8273     91.7213    245.3914   1.1708782425e+02   1.3083892826e+01    0.1982677    0.1273918  89.51   0.00126332    1.723    0.420
        86 -12.9535     13.6387    106.2259   1.1933845667e+02   5.1883978724e+01     2.129515    0.8869427 -56.16  0.006164344    1.918    0.479
        87 -11.8841     82.0494     75.4234   9.0517979152e+01   5.1245469718e+01    0.3704459    0.3117619 -74.66 4.860986e-05    1.452    0.311
        88 -12.6984     12.2973    127.0672   1.2223283563e+02   4.7152899818e+01    0.6820266    0.3868132  87.99  0.001474212    1.631    0.387
        89 -13.2719     39.2051    121.8440   1.1433770333e+02   4.6053431016e+01     2.099893     1.514669  69.86   0.00341612    1.491    0.329
        90  -8.2832     30.6900    246.6997   1.2747950767e+02   2.0615159223e+01   0.08384225   0.07716683 -85.94  0.000507649    1.602    0.376
        91 -10.3036    142.0360    243.6482   1.0782037696e+02   5.7422672623e+00    0.3133949    0.1976135  29.47   0.00130901    1.678    0.404
        92  -9.6570    188.4968    243.4147   9.9332998955e+01  -1.6373159045e+00    0.2274364    0.1220887  22.12  0.001147161    2.246    0.555
        93 -12.0434     28.4305     77.2786   1.0953356520e+02   5.7430106208e+01     1.696176    0.4432801 -47.87    0.0064899    3.064    0.674
        94 -11.3390     16.7293     83.0815   1.1472409534e+02   5.6994785127e+01    0.4381849    0.2228383 -41.88  0.000728887    1.903    0.474
        95 -11.7372     41.6472     50.2717   9.7145125885e+01   6.1947044645e+01    0.7071972    0.4612217  16.90  0.004032033    1.758    0.431
        96  -8.7165    211.4783    239.0351   9.4586223350e+01  -4.6770798539e+00    0.1657869   0.09233579  -8.10 0.0008093001    2.770    0.639
        97  -8.8362    119.9653    239.2497   1.1137067014e+02   9.8985528366e+00    0.1656222   0.08337992  43.44 0.0004310387    1.597    0.374
        98  -9.1975     55.6926    237.7435   1.2277606637e+02   1.9232372974e+01    0.2114641    0.1163852 -62.66 0.0008456121    2.100    0.524
        99 -12.4652     88.2377     56.3165   8.2161652320e+01   5.3988381296e+01     1.169863     0.888025 -46.13  0.001959292    1.353    0.261
       100 -11.9015    102.1872     54.2860   7.7037498072e+01   5.1668369332e+01     1.107797    0.6064127  25.53  0.004318307    2.595    0.615
       101 -10.2667     14.9846    237.7064   1.2953706975e+02   2.3853459381e+01    0.3096374     0.147963  83.47  0.002021164    1.743    0.426
       102 -10.3317    190.4344    236.1928   9.7937101123e+01  -9.8704408703e-01     0.248521    0.1659915 -52.65  0.001274491    2.135    0.532
       103  -8.7384    172.3533    237.3373   1.0141955626e+02   1.7864835604e+00    0.1250781   0.08551458  14.38 0.0007043748    1.798    0.444
       104  -8.7244     20.9417    232.3034   1.2830833009e+02   2.4203607410e+01    0.1441214    0.1025483  65.80 0.0005134307    1.086    0.079
       105 -12.4975     48.3410     39.0417   9.0402067477e+01   6.3298393703e+01    0.6284459    0.4159398  34.52  0.001783409    1.715    0.417
       106 -11.8721     56.8079     37.5019   8.6385183940e+01   6.2444616867e+01    0.4518721    0.3366703   1.00   0.00123781    1.372    0.271
       107 -10.0782      5.1545    136.1372   1.2490733184e+02   4.5589044088e+01    0.2063957    0.1643101 -12.90  0.000722667    1.875    0.467
       108  -9.4415    236.7379    135.4219   7.0018963247e+01   6.1603820754e+00    0.2539903    0.1403545  52.73  0.001025661    2.088    0.521
       109  -9.1019     12.6571    231.9256   1.2964086036e+02   2.5119152808e+01    0.2245086   0.08147442  53.81  0.001323539    2.017    0.504
       110  -9.4341     31.8743    134.7170   1.1808860407e+02   4.3726002137e+01    0.2757409     0.135459  43.43   0.00121874    2.157    0.536
       111  -9.7460     60.7570    134.1474   1.1041559899e+02   4.0662775579e+01     0.226543    0.1692046  53.53 0.0005696975    1.403    0.287
       112  -9.4174     63.7342    113.6133   1.0586048614e+02   4.5192903860e+01     0.273858     0.192307  36.79   0.00134705    1.591    0.371
       113  -9.7996     60.8688    120.1265   1.0794383205e+02   4.4004438538e+01      0.34957    0.2612662  24.01  0.001927537    1.643    0.391
       114 -10.7156     60.3629    111.3820   1.0640635210e+02   4.6158146048e+01    0.6389638     0.355771 -29.31   0.00263106    2.894    0.654
       115  -8.8247     54.4781    112.5915   1.0837965791e+02   4.6590083741e+01    0.2141558    0.1172802 -62.38 0.0004759122    1.578    0.366
       116 -11.6082     67.3080    122.6384   1.0659290710e+02   4.2559713671e+01    0.9706938    0.5304721 -45.11  0.004445407    1.931    0.482
       117  -9.7470     72.9480    129.6046   1.0633317064e+02   4.0111875316e+01    0.2467643    0.1833829 -67.96 0.0003950997    1.229    0.186
       118 -10.4658     56.0467    126.2797   1.1038544647e+02   4.3128648122e+01    0.3942665    0.2096073 -61.38  0.001680102    1.618    0.382
       119  -8.7387     74.5402    124.9260   1.0500849757e+02   4.1003608621e+01    0.2078133    0.1260494 -59.22 0.0003948623    1.488    0.328
       120 -10.4028     75.6383    120.1316   1.0374704183e+02   4.1990348481e+01    0.2706241    0.2457607  49.49 0.0009853283    1.193    0.161
       121  -8.4228     81.5062    124.5117   1.0299053366e+02   4.0069712179e+01    0.1426434    0.1300562 -65.19  0.000264271    1.037    0.035
       122 -10.7473     91.2535    121.0462   9.9549546524e+01   3.9343677273e+01    0.5405926    0.4624231  50.98   0.00296344    1.228    0.185
       123  -9.7943    105.3087    117.7645   9.4911619184e+01   3.7664755163e+01    0.5168244    0.3435377  75.72  0.002146806    2.267    0.559
       124  -9.4194     99.9285    112.7886   9.5220899986e+01   3.9792101093e+01    0.4023002    0.3013073 -47.26  0.002001716    1.279    0.218
       125 -10.0238    107.7369    110.5493   9.2483445222e+01   3.8878872575e+01    0.5380509    0.2065217 -48.93  0.001885651    2.476    0.596
       126  -8.0311    104.1434    109.1475   9.3138256568e+01   3.9869868070e+01     0.262946     0.197508  55.15 0.0005978216    1.462    0.316
       127 -10.0989    116.1216    116.4807   9.1663164308e+01   3.5913321901e+01    0.2728578    0.2458163 -56.30  0.000724279    1.074    0.069
       128 -10.7596     65.7670    129.2193   1.0822450371e+02   4.1190010042e+01    0.4592249    0.2299712 -52.43  0.001976106    1.858    0.462
       129  -9.7145    132.0169    111.0256   8.6082337416e+01   3.3884818835e+01    0.6358594      0.35509  44.18  0.002586188    1.830    0.453
       130  -8.8008     90.8373    112.8219   9.7811868818e+01   4.1351116679e+01    0.2171261    0.1973862 -25.42 0.0007142579    1.215    0.177
       131  -9.3946     74.5830    107.1378   1.0126413583e+02   4.5231471095e+01    0.2849101    0.2136717  18.42 0.0009895463    1.668    0.400
       132 -10.6990     69.3790    105.2266   1.0239962985e+02   4.6423633317e+01    0.7744548    0.3126239 -38.70  0.002596733    3.605    0.723
       133 -10.7957     76.8039    101.8331   9.9357906682e+01   4.6148329401e+01    0.4907169    0.3464133  34.62  0.001161603    1.574    0.365
       134  -9.6605    149.2132    107.0029   8.0700914674e+01   3.0953371621e+01    0.4700076    0.2421353 -37.93  0.001724855    1.997    0.499
       135  -9.7128    113.3916    107.5341   9.0147188593e+01   3.8479071522e+01    0.2839445    0.2341933 -43.83 0.0007194884    1.178    0.151
       136  -9.8935    130.2042    104.8270   8.4904344803e+01   3.5627338695e+01    0.2788748    0.2397935  26.42 0.0003528172    1.268    0.212
       137  -9.9109    133.7730    102.7551   8.3410708142e+01   3.5303157042e+01    0.3846257    0.2817238 -49.89 0.0008933235    1.364    0.267
       138 -11.6533    142.3029    101.9879   8.1030591752e+01   3.3572448925e+01    0.5853601    0.4223388  21.20  0.001637007    1.795    0.443
       139  -8.7168    105.4631    102.9622   9.1175554396e+01   4.1035199609e+01    0.2322914    0.1420877 -47.72 0.0005430823    1.551    0.355
       140  -8.5954     95.8810    103.1686   9.3994400864e+01   4.2731208209e+01    0.1939351    0.1697686 -14.24 0.0004277581    1.302    0.232
       141  -9.1318     62.3835    102.2412   1.0387358763e+02   4.8066541214e+01    0.2769629    0.1938783 -63.95 0.0007591414    1.310    0.236
       142 -10.0010     65.9647     98.3936   1.0188730871e+02   4.8495455066e+01    0.5352598    0.2791919  30.38  0.001688751    2.240    0.554
       143 -10.5835      4.5092     98.9453   1.2104368429e+02   5.4131193589e+01     0.718297    0.2926604 -60.78  0.003749883    1.799    0.444
       144 -10.4109      4.8290     87.0636   1.1928279397e+02   5.6814481974e+01    0.5923746    0.3293051 -48.28  0.003525085    1.591    0.372
       145  -8.6195      4.7071     82.6438   1.1864239915e+02   5.7817240530e+01    0.1832261    0.1225875 -41.48 0.0008624089    1.472    0.320
       146  -8.6008    226.7403    231.6081   9.0732316905e+01  -6.1110432738e+00    0.1587268   0.09684868  41.07 0.0005243498    1.556    0.357
       147  -7.9127    152.2904    101.6728   7.8502469708e+01   3.1352666288e+01    0.1595306    0.1253721 -76.83 0.0002663856    1.618    0.382
       148  -8.6827    115.3962    100.7718   8.7794361760e+01   3.9594377706e+01    0.2266905    0.1387982 -36.52 0.0009480748    1.732    0.423
       149 -10.2787    110.8989    100.6722   8.9024422245e+01   4.0507435678e+01    0.2615069    0.2201134 -44.02 0.0002774279    1.141    0.124
       150  -9.8242     87.5990     97.5264   9.5001980508e+01   4.5439554095e+01    0.5142598    0.2910043 -50.11   0.00229208    1.623    0.384
       151  -9.3409     82.2190     97.5063   9.6634644116e+01   4.6316822777e+01    0.3768269    0.1357995  40.66  0.001040369    2.974    0.664
       152 -10.1626     83.6378     89.8923   9.4187944978e+01   4.7820973420e+01    0.3447328    0.2292662  28.93 0.0002066126    1.730    0.422
       153 -10.4170     87.8941     90.1883   9.2946242283e+01   4.7050345173e+01    0.5823625    0.2594053 -49.40  0.001437074    2.068    0.516
       154 -10.2735     91.4589     87.6773   9.1143534745e+01   4.6996729852e+01    0.5074882    0.3597912  87.13  0.002201749    2.316    0.568
       155  -8.9041    219.3823    230.9165   9.1913221034e+01  -4.8954207191e+00    0.2034404    0.1416027  39.84 0.0005389771    1.367    0.268
       156 -10.0938    156.3828     95.4493   7.5791184667e+01   3.1653504215e+01    0.5245171    0.3291037 -32.56  0.002186881    1.677    0.404
       157  -9.5316    151.4159     96.2857   7.7202308236e+01   3.2655015802e+01    0.4804215    0.3424986  88.10   0.00195488    2.137    0.532
       158  -9.2218    140.5406     95.2338   7.9572450054e+01   3.5380741038e+01    0.3845207     0.287956  65.04  0.001069657    1.554    0.357
       159 -10.9930    115.7685     94.9148   8.6064570929e+01   4.0804258495e+01    0.6084768    0.3716209  38.60  0.001652946    1.747    0.428
       160 -10.9571    124.2644     92.0820   8.2914904794e+01   3.9637990874e+01    0.6270762    0.4985883 -54.61    0.0024596    1.300    0.231
       161  -8.2403    227.5090     95.5018   6.1969235880e+01   1.4760576054e+01    0.1465612    0.1358479 -29.28 0.0008104639    1.028    0.027
       162  -8.5635    188.9546     94.7189   6.8594097833e+01   2.3942252634e+01    0.2065171    0.2053315  47.28 0.0004143998    1.033    0.032
       163  -8.8867    174.6188     92.7235   7.0965486453e+01   2.7795250433e+01      0.26614    0.1991369  80.97 0.0008425423    1.725    0.420
       164  -9.9054    104.0993     92.2394   8.8644118979e+01   4.3686867975e+01    0.4281422    0.2714654  20.23  0.001466294    2.269    0.559
       165 -10.7849    106.9231     86.7167   8.6222780986e+01   4.4340172602e+01    0.5481558    0.3597357 -25.21  0.001297594    1.872    0.466
       166 -10.4505     75.7707     89.8010   9.6646534425e+01   4.9074063827e+01    0.3432405    0.2954878  56.74 0.0002590881    1.336    0.251
       167  -8.7326     71.3324     89.3044   9.7936741637e+01   4.9842022339e+01    0.2013348    0.1474411  29.40  0.001015036    1.545    0.353
       168  -8.9514    213.5042     89.8937   6.2829422595e+01   1.8922271483e+01    0.2372109    0.1416969 -35.08  0.001030559    1.583    0.368
       169  -9.2402    187.9664     89.9080   6.7469493111e+01   2.5060064749e+01    0.2246636     0.219488 -59.22  0.000297056    1.028    0.027
       170  -8.6001    194.1816     89.5693   6.6185932467e+01   2.3606655900e+01    0.2110777    0.1432314  42.23 0.0004371753    1.580    0.367
       171 -10.1191    112.7355     86.5075   8.4482461952e+01   4.3224757890e+01    0.6338624    0.1882755 -36.38  0.001593503    4.969    0.799
       172 -10.1070    145.9384     87.4688   7.5973149783e+01   3.5706525215e+01     1.374483    0.7625206  52.09  0.005493585    1.859    0.462
       173  -9.8714    155.9536     31.2914   5.5804757036e+01   4.2480056345e+01    0.3865074    0.2420369 -12.98  0.001725397    1.941    0.485
       174 -10.1890    165.7903     68.5924   6.5765140482e+01   3.4360897844e+01    0.5587651    0.3434215  64.48  0.001939964    1.799    0.444
       175  -9.2788    135.8174    230.0457   1.0731145552e+02   8.8919471166e+00    0.1851442      0.14317 -13.97  0.001092453    2.010    0.503
       176  -9.0111    202.1277    228.9989   9.4706871398e+01  -1.9084771115e+00    0.1837298    0.1465208  26.17 0.0004285189    1.012    0.011
       177 -10.4005    152.6560     44.3874   6.0794659486e+01   4.1538782525e+01    0.9168049    0.5032892 -47.04  0.003781442    2.035    0.509
       178  -8.1990     63.7162    229.3574   1.2072604788e+02   1.9722960003e+01    0.1221393   0.06728182  68.90 0.0007019136    1.671    0.402
       179 -10.5465    147.7638     34.8570   5.8587834043e+01   4.4099655566e+01    0.9755311    0.4790102  42.29  0.003884457    2.161    0.537
       180 -12.3841    146.7842     74.9895   7.1984990528e+01   3.7903773318e+01    0.4989218     0.485771 -78.19 0.0003555779    1.074    0.069
       181 -11.9265    140.2269     70.1104   7.2036292739e+01   4.0371378936e+01     1.661337     1.208639 -11.50  0.007442835    1.701    0.412
       182 -10.3017    136.8013     42.4381   6.3574577903e+01   4.5767512066e+01    0.7752021    0.3971708  64.25  0.003054889    2.238    0.553
       183 -10.9655    143.6848     58.0636   6.7293856551e+01   4.1641443092e+01    0.3303297    0.2690306  55.51 0.0003651428    1.231    0.188
       184 -12.0420    147.4529     53.6157   6.4966271249e+01   4.1437328750e+01    0.6574034      0.38734  49.34 5.580339e-05    1.650    0.394
       185 -10.6982    144.6289     48.8563   6.4007413324e+01   4.2881617579e+01    0.4163823    0.3031174  56.89  0.001157013    1.357    0.263
       186 -10.4537    141.5009     44.9854   6.3390998450e+01   4.4239373851e+01    0.4776894    0.3135684  -6.54  0.001212616    1.995    0.499
       187 -10.1678    118.8674     86.4307   8.2732127621e+01   4.1972288922e+01    0.3322402    0.2656856  44.74  0.001193457    1.292    0.226
       188  -8.8167    156.1294     85.2208   7.2889678205e+01   3.3716963836e+01    0.2402365    0.2096199  12.61 0.0006051015    1.283    0.220
       189  -9.0318     82.5899     85.0869   9.3183989585e+01   4.9062195929e+01     0.252661    0.2143227  19.17 0.0007231251    1.311    0.237
       190  -8.9714     75.8840     84.0628   9.5051365175e+01   5.0344871264e+01    0.2106379    0.1877803 -88.20  0.000690409    1.317    0.240
       191  -9.9819     45.0241     78.5172   1.0400414343e+02   5.5583930914e+01    0.4543876    0.2789623 -38.64  0.002398381    1.571    0.363
       192 -10.7884     39.2742     79.4450   1.0623305661e+02   5.5963476972e+01    0.4474122    0.4193042   1.16  0.003020296    1.240    0.194
       193  -9.4503     36.3959     75.8190   1.0638129392e+02   5.7053687539e+01    0.3149264    0.1666625 -46.45  0.001199788    1.599    0.375
       194  -9.9361    160.1628     81.4690   7.0862034595e+01   3.3446486259e+01    0.4876921    0.2839791  64.00  0.001903115    2.062    0.515
       195  -9.9852    105.4009     76.1479   8.3446415748e+01   4.6850738990e+01    0.5120268    0.2815972  48.44  0.002152386    1.973    0.493
       196  -9.8676    103.0136     81.0076   8.5665835862e+01   4.6311108681e+01    0.4466537    0.3140533  20.42 0.0007738643    1.780    0.438
       197 -10.7498     99.0741     77.3859   8.5740606733e+01   4.7820165615e+01    0.5121537    0.3765278  37.92  0.001640624    1.434    0.303
       198  -9.8602    188.0414     78.2451   6.4195791407e+01   2.7109990739e+01     0.588866    0.2657534  39.20  0.001963476    2.965    0.663
       199  -8.6622    123.5552     80.1368   7.9525898583e+01   4.2257139940e+01    0.2193803    0.1435591 -26.34  0.000927862    1.747    0.428
       200  -8.3869    239.9391     80.0000   5.6271909207e+01   1.4488477788e+01    0.2173163   0.08200012  59.17  0.000799143    2.920    0.657
       201  -9.7942    214.9263     76.7905   5.9155888037e+01   2.0767641258e+01    0.4861383    0.3068687 -52.73  0.002178829    1.673    0.402
       202 -10.1645      5.0509     77.3750   1.1766740153e+02   5.8978522318e+01    0.2576761    0.1911968  80.69  0.001061829    1.530    0.346
       203  -9.9622      3.3984     73.3979   1.1755554806e+02   5.9946266766e+01    0.4036702    0.1144466 -49.35  0.001817525    2.605    0.616
       204  -9.7466    248.1392     76.4330   5.4309464489e+01   1.3247070450e+01    0.3011605     0.148549 -46.95 0.0008571628    1.929    0.481
       205  -9.4188    131.9684     75.3236   7.5780373003e+01   4.1321526522e+01    0.3280719    0.2425255 -53.10  0.001408289    1.472    0.321
       206  -9.4441    179.9718     68.5259   6.2919863953e+01   3.0792304736e+01    0.3262192     0.253718  45.25 0.0008862601    1.327    0.246
       207  -9.5509    176.6449     68.3121   6.3496229274e+01   3.1669674339e+01    0.4003578    0.3134024 -77.15  0.001884478    1.528    0.346
       208 -11.6505     34.0660     58.7430   1.0276910679e+02   6.0977739176e+01    0.5551923    0.3257211 -16.05  0.002617603    2.209    0.547
       209  -8.4669     45.6913    229.6542   1.2394950082e+02   2.1916671058e+01   0.09431336   0.08395405 -56.29 0.0007044289    1.701    0.412
       210  -8.4842    238.5060     65.4997   5.2889348313e+01   1.7023838696e+01     0.138903    0.1292558 -39.34 3.341498e-05    1.075    0.070
       211  -9.4180    207.0197     61.1630   5.6190661804e+01   2.5172776157e+01    0.3007024    0.2009617 -40.04 0.0006965341    1.421    0.296
       212  -9.8629    179.2603     44.7128   5.5935389090e+01   3.4667256933e+01    0.6313043    0.3108944 -32.10  0.001840198    2.033    0.508
       213  -9.0818    174.1139     39.2697   5.5143927150e+01   3.6752838424e+01    0.4445319    0.2165795  38.46  0.001633028    2.679    0.627
       214 -10.1539    172.5398     47.0890   5.7833697120e+01   3.6058553900e+01    0.5257043    0.3832474 -50.08  0.002085808    1.435    0.303
       215 -10.0445    174.0250     57.3399   6.0702342490e+01   3.4123678368e+01    0.5256232    0.2663208 -20.73  0.001454388    2.593    0.614
       216 -10.7642    194.4794     54.1464   5.6200112950e+01   2.9387769713e+01     1.398369    0.8036627  28.17  0.005234368    2.831    0.647
       217 -10.2975    194.0040     50.0194   5.5095107349e+01   3.0119077544e+01    0.5531348    0.4048609  70.35  0.002127829    1.387    0.279
       218 -10.7097    178.0399     51.7724   5.8280291423e+01   3.3950223509e+01     0.334155    0.2899784  53.21 0.0002884399    1.148    0.129
       219 -11.0424    185.3022     55.7730   5.8200015569e+01   3.1480912757e+01    0.4119078    0.3887479  28.44 0.0006082525    1.140    0.123
       220 -11.3670    183.5737     51.8578   5.7341126194e+01   3.2516136270e+01    0.5312139     0.311347  54.50 0.0005368798    1.669    0.401
       221  -9.6639    212.5381     60.1014   5.5073001438e+01   2.3974528083e+01    0.2710238    0.2161272  57.71 0.0007693517    1.298    0.230
       222  -9.0720    200.9170     59.8664   5.6786051409e+01   2.6893477726e+01    0.2934597    0.2066077  77.01  0.001014809    1.574    0.365
       223  -8.8229    250.3905     59.2271   4.9922726059e+01   1.5298135951e+01    0.2022606    0.1068236 -42.96 0.0009430422    1.645    0.392
       224  -9.7736    222.6350     56.1660   5.2611548159e+01   2.2111498184e+01    0.3547533    0.2961763 -67.60  0.001945861    1.186    0.157
       225  -8.7803    111.4534     58.5797   7.5827560652e+01   4.8976864471e+01    0.2776299    0.1875223   8.34 0.0001221328    2.086    0.521
       226  -9.8621    140.4646     52.1705   6.6074898567e+01   4.3387544028e+01    0.4671724    0.2844457  61.49  0.000959617    1.761    0.432
       227 -10.8888    121.5841     53.3890   7.1203714734e+01   4.7644426401e+01    0.6519068    0.5266736  20.42  0.003194779    1.322    0.243
       228  -8.6849    126.9653     51.0130   6.8966416777e+01   4.6797402517e+01    0.1759139    0.1652999  32.44 0.0003691083    1.040    0.038
       229  -8.3757     50.6769    227.3320   1.2290673211e+02   2.1743226162e+01    0.1229115   0.06335744  66.41 0.0004140249    1.703    0.413
       230  -9.5334    243.7797     55.4385   4.9779296265e+01   1.7302169907e+01    0.3999855    0.2173384 -42.42  0.001323059    1.616    0.381
       231  -8.5174    203.3321     56.0458   5.5347519196e+01   2.6869174993e+01    0.2033768    0.1806854 -43.96 0.0004695886    1.091    0.083
       232  -8.2733     12.6135     56.6680   1.1068569676e+02   6.3070305546e+01    0.2487517   0.09797468  25.51  0.001241645    2.993    0.666
       233  -9.5009    234.2502     55.0395   5.0826070376e+01   1.9533895099e+01    0.2714612    0.2084885  86.79  0.001459991    1.398    0.285
       234  -8.7444    211.2427     51.8183   5.3028733877e+01   2.5523373351e+01    0.4205891    0.2251287  -7.72  0.001406106    3.758    0.734
       235  -9.3970     10.2076     52.0815   1.1052895239e+02   6.4179421249e+01    0.1955848    0.1561199  17.04 0.0006974736    1.550    0.355
       236  -8.3697     16.4947     50.4808   1.0752570873e+02   6.4114814159e+01    0.1260595   0.08869953 -41.51 0.0004021811    1.145    0.126
       237  -9.6070    201.9602     48.2893   5.3397002534e+01   2.8351737037e+01    0.2599982    0.2441501  35.39 0.0003571936    1.181    0.153
       238 -10.5330    129.5880     41.1255   6.4805944127e+01   4.7699787569e+01    0.7209976    0.5022422 -34.34  0.002706694    1.461    0.316
       239  -8.7121    124.1436     36.1700   6.4327979100e+01   4.9695995538e+01    0.1956721    0.1759872 -76.59  0.001071481    1.333    0.250
       240  -8.9347    137.3807    224.7254   1.0632748799e+02   9.5219593164e+00    0.1537386    0.1186555 -40.83 0.0007873933    1.635    0.388
       241  -8.7815    111.6918    225.3376   1.1136334866e+02   1.3555796032e+01    0.1285028   0.08146295  67.77 0.0007042866    1.680    0.405
       242  -9.0544     40.8429    221.6560   1.2425695605e+02   2.3981116970e+01    0.1509203     0.118904  85.51 0.0007932305    1.173    0.147
       243  -8.5910    224.6806    215.3441   8.8364733736e+01  -3.7336624866e+00    0.1096836    0.1002639  71.30 0.0007049469    1.724    0.420
       244  -9.4839     26.3050    212.1579   1.2623401506e+02   2.7423021292e+01    0.1664859    0.1200232 -74.04  0.001194811    1.435    0.303
       245 -10.9390    105.8009     34.2628   6.8434999731e+01   5.4109172002e+01    0.3503631    0.2522626  34.98 0.0002270347    1.349    0.259
       246 -10.1178    113.2013     33.0117   6.5926978626e+01   5.2651556947e+01    0.3263727    0.2058775 -30.18 0.0003980172    1.598    0.374
       247 -10.5488    109.0691     29.4995   6.5661330334e+01   5.4049020149e+01    0.7776878    0.3500356  59.63   0.00305687    2.569    0.611
       248  -9.3059    245.1659    203.8645   8.2715572029e+01  -5.4819479552e+00    0.1784015    0.1235503   8.22 0.0008532721    1.333    0.250
       249  -9.9776    110.2498     17.7526   6.0662286174e+01   5.5221357239e+01    0.2618616    0.1802893  46.61 0.0005948819    1.325    0.245
       250  -9.4995    220.1800     44.1716   4.9805776845e+01   2.4411430891e+01    0.4842134    0.1770117 -39.13  0.001844079    2.416    0.586
       251 -10.6578     66.4936     43.9709   8.5195773369e+01   5.9884069518e+01    0.4259275    0.2972215 -28.43  0.001273628    1.306    0.234
       252  -9.3456    249.8550     40.4057   4.5536171552e+01   1.8012417705e+01    0.2994473    0.1669909 -30.92  0.001019984    1.724    0.420
       253 -10.2673    233.1163    199.2425   8.3959987406e+01  -2.9335336259e+00    0.3357432    0.2851313  80.60  0.001970501    2.142    0.533
       254  -8.2751     93.4847    200.5044   1.1206288984e+02   2.1095545604e+01    0.1291452    0.1090573  67.64 5.726847e-05    1.004    0.004
       255  -9.3264     27.9814    193.8087   1.2466938323e+02   3.0937083884e+01    0.2151327     0.140927 -83.90  0.001419289    1.275    0.216
       256  -9.6869     11.2385    192.4970   1.2778344959e+02   3.2848301131e+01     0.343926    0.1458436  49.16  0.001992134    2.015    0.504
       257  -8.6604    215.7893    189.3913   8.5250091710e+01   1.4685485068e+00    0.1932237     0.112079  31.14 0.0009470168    1.658    0.397
       258 -10.4638    215.5219     25.0160   4.5354414956e+01   2.8031690814e+01    0.4658705    0.3660098  56.71   0.00180743    1.345    0.256
       259  -9.7458    214.7608     21.3918   4.4493179358e+01   2.8650779825e+01    0.3962947    0.1770761  62.75  0.001352073    2.110    0.526
       260 -10.1562    215.5213     35.5085   4.8108362327e+01   2.6713548013e+01    0.4448713    0.3068245 -15.62  0.001309657    1.770    0.435
       261 -10.9167    218.8435     34.1390   4.7352621912e+01   2.6076133221e+01    0.5143582    0.3887968 -55.95  0.001142657    1.249    0.199
       262  -8.8473    235.5173     39.5226   4.6825807160e+01   2.1387752442e+01    0.2222158    0.1701446  -2.60  0.001170741    1.765    0.434
       263  -7.9881    224.6986     41.6901   4.8609032195e+01   2.3657705685e+01    0.1343587    0.1081333  27.24 0.0003876208    1.604    0.377
       264  -9.6636    207.2854     46.3361   5.2094532686e+01   2.7291559131e+01    0.4591323    0.2284508  68.96  0.001542616    2.121    0.528
       265  -8.5715    112.7478     41.5619   6.9299521041e+01   5.1515111129e+01    0.1923707    0.1404323  63.28 0.0009377235    1.606    0.377
       266  -8.9929    191.6605     39.6941   5.2481606465e+01   3.2170372298e+01    0.2251728    0.1625188  31.74 0.0006960703    1.706    0.414
       267  -8.7808    245.2113    187.4026   7.9584477502e+01  -3.2878768891e+00    0.1637388    0.1163779  43.10 0.0007083165    1.561    0.359
       268  -8.7807    110.4141     38.3250   6.8717880932e+01   5.2514811495e+01    0.1821067     0.132321 -38.22  0.000464092    1.434    0.302
       269  -8.3841    198.3026     37.3282   5.0848146798e+01   3.0790383009e+01    0.1967535     0.134418  78.70 0.0009417199    1.514    0.339
       270 -10.2786    198.9768     33.1229   4.9573601567e+01   3.1166993075e+01    0.4343244    0.2634786 -43.43   0.00144093    1.604    0.376
       271  -9.1405      8.1992    186.0075   1.2796375317e+02   3.4458628270e+01    0.1756694    0.1325078  63.29 0.0003245762    1.211    0.174
       272  -9.8902    242.2339     24.4806   4.2525024550e+01   2.1753017255e+01    0.3990889    0.1917422 -34.55  0.001889198    1.894    0.472
       273 -10.1340    235.1358     33.0909   4.5287447831e+01   2.2316026169e+01    0.3201046    0.2699412  44.26  0.001664368    1.429    0.300
       274 -10.8434    237.4785     27.9781   4.3809043559e+01   2.2416153428e+01      0.52226     0.395751  -6.04  0.001479702    1.777    0.437
       275  -9.4096    181.4109     34.1415   5.2401305160e+01   3.5545427258e+01    0.4805649    0.2170971  52.44  0.001912921    2.135    0.532
       276 -10.0737    135.2571     34.2884   6.1042799242e+01   4.7284912020e+01    0.3193429    0.2631532   0.39 0.0007914203    1.311    0.237
       277  -8.3941      1.6792     35.7595   1.0987096447e+02   6.7947906775e+01    0.1131303   0.06289564 -35.18 0.0003330094    1.519    0.342
       278 -10.3171    245.8195     33.3424   4.4274766880e+01   1.9833540997e+01    0.4934086    0.2403583  66.49   0.00155234    2.102    0.524
       279  -9.1183    138.4979     31.5014   5.9344737321e+01   4.6853436319e+01    0.2803078    0.1973091 -40.67 0.0007255855    1.514    0.339
       280  -8.3562      4.4398     33.4004   1.0790394168e+02   6.8267267919e+01     0.114965    0.0835357 -41.57 0.0001648163    1.034    0.033
       281 -10.1102    227.7563     30.9677   4.5541049568e+01   2.4328323978e+01     0.470553     0.236042 -61.85  0.001321136    2.305    0.566
       282  -9.3377    227.6744     26.6836   4.4477641345e+01   2.4882090760e+01    0.2375286     0.178669  60.82 0.0008727652    1.395    0.283
       283  -9.5627    172.9817     30.9386   5.2753292716e+01   3.8134764061e+01    0.3491902    0.2523579  33.83  0.001525264    1.585    0.369
       284  -9.3744    153.5485     24.6140   5.4015498111e+01   4.3909027498e+01    0.7887036    0.3829258  76.32  0.002972863    2.637    0.621
       285  -9.0321     11.7826    184.5139   1.2717665499e+02   3.4450031345e+01    0.1777502    0.1418619 -77.94  0.000523606    1.290    0.225
       286  -9.3290     31.7597    183.7322   1.2312881186e+02   3.2663026555e+01    0.1900636   0.08024344 -87.57  0.000864214    2.398    0.583
       287  -9.6807    176.8108     14.9785   4.7292016236e+01   3.8989530833e+01    0.2867044    0.2041588  71.11 0.0007017377    1.303    0.233
       288 -10.2897    168.6348     23.8243   5.1221719637e+01   4.0119844570e+01     1.083164    0.1841431  55.67  0.003087766    4.154    0.759
       289  -8.1947    187.6665    182.2836   8.9344980266e+01   7.8323793957e+00    0.1334067    0.1100904  72.84 0.0002881071    1.617    0.382
       290  -9.5668    146.2542     29.0289   5.6889842844e+01   4.5228218901e+01     0.389389    0.3381175  40.46  0.002150125    1.117    0.105
       291  -9.9196    147.7679     23.8509   5.4816039318e+01   4.5468145635e+01    0.3765845    0.2075619  53.70  0.001042507    1.649    0.394
       292  -8.4662     18.1807    182.4188   1.2577167796e+02   3.4299827804e+01    0.1557443   0.08294456  52.65 0.0007284251    1.680    0.405
       293  -9.6622      1.7169    178.5308   1.2876408379e+02   3.6566962416e+01    0.2796701    0.1224696 -81.60  0.001596998    1.790    0.441
       294  -8.8233     36.5495    179.5072   1.2177044029e+02   3.3061727543e+01    0.2133135   0.08141041  47.07  0.001028986    2.362    0.577
       295 -10.5487     25.8369    176.8985   1.2378727144e+02   3.4741117555e+01    0.3608806    0.2457069 -65.75  0.001615549    1.460    0.315
       296 -10.6777     30.4966    172.4846   1.2242512640e+02   3.5235649701e+01    0.3584847    0.2331771 -62.68   0.00167359    1.535    0.349
       297  -8.7253     80.1241    176.5859   1.1191277290e+02   2.8164887533e+01    0.2379376    0.1727116  22.73   0.00127975    1.879    0.468
       298  -8.3478     65.4911    173.4781   1.1481596152e+02   3.0900649248e+01    0.1305347    0.1093213  82.02 2.502327e-05    1.007    0.007
       299  -9.2527      1.3130    170.4843   1.2835047778e+02   3.8299826151e+01    0.2534163   0.07352954 -74.36   0.00109383    2.601    0.616
       300  -9.1181    167.0377     29.2090   5.3183678654e+01   3.9887611056e+01    0.4070261     0.177136  63.40  0.001224714    2.162    0.537
       301  -9.5318    139.9880     24.9615   5.6716216514e+01   4.7292311435e+01    0.4543539    0.1970573 -24.61  0.001783806    2.486    0.598
       302  -8.8782    246.1858    171.3982   7.6212646782e+01  -1.1759648980e+00    0.1726296      0.12358  50.56 0.0007593701    1.735    0.424
       303  -8.9039    249.9813     25.5042   4.2067389648e+01   1.9884567432e+01    0.1830849    0.1212685  78.18 0.0004996395    1.531    0.347
       304  -9.8805     96.8189     22.1832   6.6103786572e+01   5.7633547658e+01    0.3337808    0.2279549  30.22 0.0006885051    1.422    0.297
       305  -9.8424     18.6671    166.3088   1.2443350322e+02   3.7737752666e+01    0.2906596    0.1363066 -58.10  0.001554722    2.150    0.535
       306  -9.8353     32.6122    166.0885   1.2137025377e+02   3.6438283389e+01    0.2056834    0.1406577  55.59 0.0006436454    1.392    0.282
       307 -10.4987      2.1992    159.4017   1.2742867126e+02   4.0622488024e+01    0.4142968    0.1672493 -86.04  0.001960843    2.064    0.516
       308  -9.2723     22.3194    159.3213   1.2302786747e+02   3.8957603015e+01    0.1590891   0.09764925  48.37 0.0003312176    1.627    0.386
       309  -9.1992    183.3557     14.9771   4.6424482354e+01   3.7304963960e+01    0.4230103    0.1739245  46.48  0.001610922    2.722    0.633
       310  -9.1912     19.0113    158.6715   1.2370832033e+02   3.9402683672e+01    0.1768808    0.1271536 -39.05  0.001101742    1.985    0.496
       311  -9.1790     28.8597    158.2003   1.2144355729e+02   3.8590342985e+01    0.1802073    0.1339392  78.19 0.0003713963    1.158    0.136
       312  -8.7623      9.9513    158.0487   1.2565590771e+02   4.0312288236e+01    0.2282505   0.09487721 -44.54 0.0009631716    4.168    0.760
       313  -8.6816     33.0000    155.9735   1.2026270738e+02   3.8686014706e+01    0.2024079   0.05914587 -71.14 0.0006813637    2.888    0.654
       314 -10.8441     14.1023    151.6872   1.2419878519e+02   4.1391793254e+01    0.3877113    0.2715117  87.65  0.002568247    1.141    0.123
       315 -10.1389     35.5084    151.5022   1.1918533247e+02   3.9457505296e+01    0.3214871    0.1994147  60.26 0.0009964114    1.605    0.377
       316 -10.0355     30.5410    151.4994   1.2036432926e+02   3.9954566867e+01    0.2554446    0.1732713 -65.10 0.0007109849    1.337    0.252
       317  -8.9208      7.8755    151.8193   1.2561650359e+02   4.1860979871e+01    0.1674379    0.1296584 -71.05  0.000479204    1.238    0.192
       318  -8.8635     46.0844    150.1091   1.1646640112e+02   3.8644573136e+01    0.1839197    0.1512348 -58.33 0.0004278578    1.294    0.227
       319 -12.0067     18.5518    146.4529   1.2268155630e+02   4.2204569165e+01    0.8151062    0.4467141  59.51  0.003034265    1.845    0.458
       320  -9.8471      5.4656    147.4673   1.2580632160e+02   4.3015407859e+01    0.2243043    0.1585365  50.41 0.0008567847    1.491    0.329
       321 -11.0792      5.9855    142.8830   1.2530332993e+02   4.4005879324e+01     0.410546    0.2777026 -65.21 0.0005593952    1.340    0.254
       322  -9.9949     66.6646    148.0178   1.1106762081e+02   3.6599092247e+01    0.2851304    0.2373371 -82.59  0.001491897    1.059    0.056
       323  -9.5953     47.9492    139.2226   1.1454813222e+02   4.0992056293e+01    0.3137614     0.216034 -76.55   0.00178395    1.264    0.209
       324  -9.4609     27.5664    139.2482   1.1972693076e+02   4.3069023452e+01    0.3710045    0.1101024 -66.43  0.001549505    2.571    0.611
       325  -9.9252     46.6449    144.3922   1.1558763705e+02   3.9919759501e+01    0.3525955    0.2670884 -23.90  0.001970024    1.967    0.492
       326 -10.7611     30.2384    142.8928   1.1948412540e+02   4.1971896909e+01    0.4885552    0.2427904 -50.74  0.002464564    2.159    0.537
       327  -9.4356     67.5195     13.0497   7.1501986059e+01   6.4393250875e+01    0.2478664    0.1740334  44.93  0.001087058    1.523    0.343
