#   1 NUMBER                 Running object number                                     
#   2 MAG_AUTO               Kron-like elliptical aperture magnitude                    [mag]
#   3 X_IMAGE                Object position along x                                    [pixel]
#   4 Y_IMAGE                Object position along y                                    [pixel]
#   5 X_WORLD                Barycenter position along world x axis                     [deg]
#   6 Y_WORLD                Barycenter position along world y axis                     [deg]
#   7 A_WORLD                Profile RMS along major axis (world units)                 [deg]
#   8 B_WORLD                Profile RMS along minor axis (world units)                 [deg]
#   9 THETA_WORLD            Position angle (CCW/world-x)                               [deg]
#  10 FWHM_WORLD             FWHM assuming a gaussian core                              [deg]
#  11 ELONGATION             A_IMAGE/B_IMAGE                                           
#  12 ELLIPTICITY            1 - B_IMAGE/A_IMAGE                                       
         1 -14.9315    161.3103     42.1173   8.2448624883e+01   3.9408083172e+01     1.469788     1.108138 -18.16  0.003874033    1.458    0.314
         2 -14.6432    174.4740      8.9477   6.9290932155e+01   3.9666396381e+01     1.216172     1.063684  57.35  0.004197957    1.171    0.146
         3 -11.6401    189.8548     14.6627   6.9500591667e+01   3.4933889209e+01    0.2377663    0.2023617  -8.22  0.000746618    1.319    0.242
         4 -11.9385    168.0261    243.7887   1.2445596948e+02   6.4059874199e+00    0.1664271    0.1369271  22.43 0.0003416712    1.198    0.165
         5 -20.1041     77.5036    176.8373   1.3561411323e+02   3.0163707802e+01     15.15942     6.792659 -69.95   0.07165933    2.560    0.609
         6 -10.6674     25.7942    229.6309   1.5026034484e+02   2.6530597625e+01    0.1971675   0.07360104 -86.09  0.001116305    2.893    0.654
         7 -10.7713     26.9659    180.2495   1.4793313995e+02   3.5443874797e+01    0.2694749     0.189157 -27.27  0.001598076    2.537    0.606
         8 -10.8443     22.4874    221.1236   1.5060408330e+02   2.8281356299e+01    0.1478336    0.0890773 -76.85  0.001013136    1.884    0.469
         9 -12.3439    144.9128    178.6677   1.2026037026e+02   1.9082918291e+01    0.3713269    0.2595192 -41.28  0.001418881    1.711    0.416
        10 -13.6369    123.6031    166.4313   1.2314477584e+02   2.4958614215e+01     1.276405    0.4416814  54.50  0.003445543    5.805    0.828
        11 -14.8566    145.0417    169.9508   1.1881904534e+02   2.0542195019e+01    0.9187625    0.6091919  56.18  0.004769948    1.654    0.396
        12 -14.0303    177.7927    172.0473   1.1229408791e+02   1.4341251269e+01     0.685734    0.4873937 -47.37  0.003888446    1.776    0.437
        13 -13.9492    138.6929    171.7492   1.2052772287e+02   2.1353407526e+01    0.6320748     0.486029  58.01  0.002293368    1.374    0.272
        14 -12.0145    166.9610    173.7070   1.1477745415e+02   1.6012661134e+01    0.2227286     0.201225 -48.25 0.0009454375    1.378    0.274
        15 -11.7429     26.1653    173.6007   1.4776928324e+02   3.6873930776e+01    0.2274095    0.1711172  64.84 0.0003559652    1.042    0.040
        16 -12.1279    185.7160    169.0539   1.1019706823e+02   1.3373817992e+01    0.2436916    0.1976205  13.82   0.00149046    1.148    0.129
        17 -11.2366     23.5946    215.3499   1.5018369687e+02   2.9172446791e+01    0.1320889    0.1070695  88.13 0.0005645563    1.379    0.275
        18 -13.0516     11.3610    206.0530   1.5233714065e+02   3.1965578693e+01    0.4132112    0.2309624  26.35  0.002279725    1.910    0.476
        19 -11.8194    230.0875    166.1926   1.0173856923e+02   6.1607321577e+00    0.2104321    0.1577099 -49.94  0.001243605    2.119    0.528
        20 -11.8184    201.1897    165.1461   1.0654767185e+02   1.1185223573e+01    0.2747289    0.2204381 -52.99  0.001001042    1.794    0.442
        21 -12.0913    168.8370    202.4187   1.1895629836e+02   1.1477450579e+01    0.2722076     0.187645  57.97  0.001212643    1.924    0.480
        22 -10.9254    222.7770    162.2741   1.0220740605e+02   7.8438385135e+00     0.271196    0.1524126 -43.66  0.001006225    2.389    0.581
        23 -14.1444    163.2103    158.6846   1.1286279889e+02   1.9121890290e+01    0.6777474    0.4709423   6.04  0.002241309    1.907    0.476
        24 -14.9993    143.4478    144.0241   1.1446005714e+02   2.5522391784e+01     1.062374    0.6400645 -54.65  0.004815909    2.001    0.500
        25 -14.6784    134.1364    146.4338   1.1714806896e+02   2.6863387085e+01     1.636469    0.5341488 -56.97   0.00468814    5.376    0.814
        26 -14.4041    135.7032    127.5323   1.1289747850e+02   3.0269267242e+01     2.230681    0.4032437 -49.64   0.00501965    7.354    0.864
        27 -11.2798     18.0114    156.2772   1.4885751763e+02   4.1275194974e+01    0.3666082    0.1801609 -82.75  0.002011218    1.871    0.465
        28 -12.9451    155.6793    190.5081   1.1981424466e+02   1.5357393595e+01     0.355345    0.2660217  61.13  0.001270386    1.659    0.397
        29 -10.5717     23.0102    156.0712   1.4755774253e+02   4.0879722419e+01    0.1784848    0.1455935  67.00 0.0004605947    1.039    0.037
        30 -13.2658    154.3929    185.6033   1.1933008259e+02   1.6333948175e+01    0.3796697    0.2761341  38.65  0.001493338    1.134    0.118
        31 -13.0056    153.6118    152.1099   1.1371038318e+02   2.2076048691e+01     0.415576     0.277557  65.80   0.00193039    2.103    0.525
        32 -10.6934    192.3839    153.1919   1.0588537285e+02   1.4489450754e+01    0.1747063     0.124611 -43.07 0.0005946233    1.655    0.396
        33 -12.8356    154.3531    196.0080   1.2089899958e+02   1.4742486673e+01    0.4351625    0.3115585  88.56   0.00228747    2.690    0.628
        34 -12.8492    174.2494    149.1026   1.0867540310e+02   1.8589263651e+01    0.3838832    0.3134002 -41.14  0.001363873    1.387    0.279
        35 -13.4170    158.0620    202.8528   1.2113217802e+02   1.3137384693e+01    0.4824397    0.4014045  67.25  0.002833305    1.597    0.374
        36 -11.0769     27.2787    145.6596   1.4573452954e+02   4.2791479439e+01    0.2205937    0.1931972  85.41 0.0006690135    1.142    0.125
        37 -11.9536    174.8590    141.1722   1.0691534740e+02   1.9770914688e+01     0.207906    0.1897725  56.27 0.0005877522    1.229    0.186
        38 -10.7511      9.0957    137.5945   1.5027149617e+02   4.6108900434e+01    0.1940754    0.1485972  -3.58  0.001249726    1.838    0.456
        39 -12.3127    163.8983    203.0745   1.2001316110e+02   1.2174393423e+01    0.2851273    0.2496659  42.30  0.000414018    1.232    0.188
        40 -13.2501    160.2194    128.1459   1.0723104011e+02   2.5036071900e+01    0.4169247    0.3953629 -36.13   0.00173777    1.143    0.125
        41 -12.8858    161.6649    197.9110   1.1970578191e+02   1.3269558463e+01      0.36408    0.3129437  68.87   0.00187418    1.557    0.358
        42 -10.6595    138.2244    245.6129   1.3002279232e+02   1.0308079502e+01    0.2713448    0.1644944  66.30   0.00157948    2.742    0.635
        43  -9.9383     22.2766    205.3479   1.5007899761e+02   3.1086479180e+01   0.09036159   0.08114948 -56.07 0.0007005528    1.634    0.388
        44  -9.8929    150.7915    243.9652   1.2756435330e+02   8.7757994618e+00    0.1024069   0.09075493 -32.76  0.000341996    1.557    0.358
        45 -11.7906    138.0986    198.6590   1.2461953108e+02   1.6965585614e+01    0.5121272    0.2896572  59.12  0.002385864    2.341    0.573
        46 -11.7150     21.9114    241.9304   1.5136274803e+02   2.4935517500e+01    0.1942641    0.1126078  84.17   0.00146329    1.717    0.418
        47 -10.8363    205.4456    110.1642   9.4009017126e+01   1.8308183644e+01    0.3036102    0.1901524  40.00 0.0009219293    1.591    0.371
        48 -11.4986    139.1042    250.1145   1.3030518271e+02   9.6295769059e+00    0.2384712    0.1767193  22.95  0.001797551    1.314    0.239
        49 -10.7243     13.7200    238.6645   1.5274761716e+02   2.6222947783e+01    0.1066801   0.06799873  70.75 0.0008363782    1.322    0.244
        50 -10.1866     33.6912    182.3636   1.4649023962e+02   3.4346878050e+01    0.1772186    0.1072385  67.41  0.001091133    1.400    0.286
        51 -10.1609     30.6459    182.6947   1.4721251068e+02   3.4590224600e+01    0.1666896    0.1400729  18.78  0.001175112    1.544    0.352
        52 -10.9696      7.9468    239.0942   1.5378812716e+02   2.6679291160e+01    0.1121238   0.07584112  80.63 0.0009155771    1.434    0.303
        53 -14.4099    150.1569     56.7399   8.9598838144e+01   4.0199087541e+01     1.217993     1.071382  -4.02  0.000951376    1.268    0.211
        54 -10.2376     25.0973    185.2283   1.4860911052e+02   3.4633011330e+01    0.1450455     0.132581  63.09 0.0003387674    1.277    0.217
        55 -13.0819    165.0844     33.6860   7.8938047545e+01   3.9502342511e+01    0.4368698    0.4149409 -13.68 0.0008590963    1.125    0.111
        56 -11.0069     13.5116     59.9472   1.4150435511e+02   6.4390334513e+01    0.2104893    0.1618109  50.05 0.0004426563    1.422    0.297
        57 -11.9730    133.8482    246.1598   1.3087777836e+02   1.0838406235e+01    0.1562034    0.1308058  33.94 0.0004256595    1.197    0.165
