#   1 NUMBER                 Running object number                                     
#   2 MAG_AUTO               Kron-like elliptical aperture magnitude                    [mag]
#   3 X_IMAGE                Object position along x                                    [pixel]
#   4 Y_IMAGE                Object position along y                                    [pixel]
#   5 X_WORLD                Barycenter position along world x axis                     [deg]
#   6 Y_WORLD                Barycenter position along world y axis                     [deg]
#   7 A_WORLD                Profile RMS along major axis (world units)                 [deg]
#   8 B_WORLD                Profile RMS along minor axis (world units)                 [deg]
#   9 THETA_WORLD            Position angle (CCW/world-x)                               [deg]
#  10 FWHM_WORLD             FWHM assuming a gaussian core                              [deg]
#  11 ELONGATION             A_IMAGE/B_IMAGE                                           
#  12 ELLIPTICITY            1 - B_IMAGE/A_IMAGE                                       
         1 -12.8611    237.1510    123.9854   8.0397163619e+01   9.9804962485e+00     3.833201     2.048061   1.56   0.01533663    2.879    0.653
         2 -13.0247    214.7829    155.3918   9.0845133269e+01   1.0338721576e+01     3.271558    0.9073523 -34.01   0.01186171    3.870    0.742
         3 -13.7560    201.1205    157.4673   9.3662072822e+01   1.2687765794e+01     2.971785     2.301272 -29.78   0.01776644    1.421    0.296
         4 -13.1052      9.5776     13.4328   1.1096433534e+02   7.0983186747e+01     2.061718    0.9139815 -47.78   0.01187665    1.636    0.389
         5  -9.1606    240.2469     19.4329   5.2941541219e+01   2.2077269982e+01    0.3420507    0.2616197  -7.45 0.0005277168    1.370    0.270
         6  -9.3589    249.1076     16.8452   5.1414521375e+01   2.0202883242e+01     0.286079    0.2099748 -33.34 0.0004896988    1.247    0.198
         7 -12.8984    243.9191      5.4680   4.8837684646e+01   2.2540237012e+01     1.557362     1.082593  83.24  0.008342515    1.518    0.341
         8  -8.8538    172.1671     13.5985   5.9468879990e+01   4.0452780442e+01    0.2120288    0.1260289  52.70  0.000461133    1.585    0.369
         9  -9.5232    145.6075      9.1805   6.2290017945e+01   4.7916483249e+01    0.2088088    0.1362426  -1.38 0.0007259287    1.694    0.410
        10  -9.1954    135.3271      6.3339   6.3108055206e+01   5.0829822634e+01    0.1595823   0.09874858  29.25 0.0007051646    1.718    0.418
        11  -7.9826    218.3042      2.3130   5.0224456385e+01   2.9255135307e+01    0.1451508    0.1003601  34.88 0.0003360959    1.616    0.381
        12  -8.7083    194.0408    211.2099   1.0381467587e+02   7.1330494706e+00    0.1840001    0.1159641  58.92  0.001084919    1.963    0.491
        13 -13.3916    234.6214    243.7762   1.0195572787e+02  -2.2419205701e+00     2.666659    0.4976209  40.51  0.001096491    3.659    0.727
        14  -8.6419    208.7320    208.4382   1.0101017163e+02   5.0417085204e+00    0.2247726   0.09198707  47.46  0.001128879    2.119    0.528
        15  -9.4556    198.9952    204.8317   1.0207191590e+02   7.0498811177e+00    0.3247661    0.1736214  51.59   0.00180976    1.846    0.458
        16  -8.7580    175.5069    204.5022   1.0598165780e+02   1.0994885116e+01    0.1178903   0.09311095  42.61 0.0008104516    1.031    0.030
        17 -10.6603    168.4114    203.5287   1.0706551002e+02   1.2295275974e+01    0.2513495    0.1976063  42.39  0.001381774    1.009    0.009
        18 -11.2504    178.4823    199.0558   1.0469554178e+02   1.1195341854e+01    0.5285273      0.35985 -83.25  0.002729971    3.186    0.686
        19 -10.9830    172.3890    191.1727   1.0459999375e+02   1.3281163590e+01    0.2845304    0.2789053  47.77  0.001655303    1.213    0.175
        20  -8.8804    139.2821    199.0250   1.1158882432e+02   1.7669744184e+01    0.1541726     0.136338  56.10 0.0004102086    1.107    0.097
        21  -9.3607    203.8613    198.1019   1.0023969742e+02   7.0133898978e+00    0.2921001    0.1425722  50.67  0.001517683    1.999    0.500
        22 -13.2920    182.9164    180.2267   1.0100422985e+02   1.2932760179e+01     1.713946    0.6956714 -40.37  0.007946924    2.920    0.658
        23 -11.3369    193.1398    242.0818   1.0796524675e+02   3.9874966276e+00    0.2919422    0.1961495 -11.18  0.002081304    2.151    0.535
        24  -9.7319    158.8507    174.7044   1.0453451683e+02   1.8039975680e+01    0.1988251    0.1745307 -18.63  0.001307591    1.384    0.277
        25 -10.0042    164.1832    172.0974   1.0310894549e+02   1.7484004980e+01    0.1932645    0.1630782  25.90  0.001232816    1.218    0.179
        26 -10.9423    170.2425    168.5571   1.0137583063e+02   1.6916858111e+01    0.4188358    0.2394303 -29.98  0.002095514    2.319    0.569
        27  -8.2416    142.4795    170.4831   1.0700531719e+02   2.1586957810e+01    0.1248416    0.1088708  43.16 0.0002007492    1.093    0.085
        28  -9.3708    152.0017    168.0289   1.0476878458e+02   2.0309686031e+01    0.1923477    0.1523691   9.73   0.00113019    1.663    0.399
        29  -9.5564    160.0037    164.0004   1.0254871794e+02   1.9505114410e+01    0.1959678    0.1521151  11.31 0.0008909172    1.646    0.392
        30  -7.9279    146.4871    162.4730   1.0493675231e+02   2.2207058368e+01    0.1279777    0.1129392  43.96 0.0008091407    1.063    0.059
        31  -7.9720    137.5157    162.5106   1.0672947844e+02   2.3787788314e+01    0.1272733    0.1116029  54.96 0.0008103891    1.004    0.004
        32 -13.1140    180.5441    163.5419   9.8566042771e+01   1.5747125594e+01       3.4123     1.797795 -13.61   0.01145735    5.324    0.812
        33  -8.8964    158.7401    169.5994   1.0373015506e+02   1.8851273762e+01    0.2098234    0.1604746 -26.37  0.001138551    1.653    0.395
        34  -9.8103    168.3609    157.8335   9.9844852278e+01   1.8922909795e+01    0.2437588    0.1830766  -8.76  0.001068482    1.779    0.438
        35 -10.5422    171.5696    155.2669   9.8753013589e+01   1.8715152045e+01    0.4290268    0.2292027 -44.04  0.002081342    2.120    0.528
        36  -8.1056    164.3895    154.7305   1.0005115686e+02   2.0172024735e+01    0.1689047    0.1260092 -27.56  0.000938178    1.607    0.378
        37  -8.0846      9.4436    235.5290   1.3556971970e+02   2.8292904035e+01    0.0890408   0.05736762  66.24 0.0001669606    1.017    0.017
        38 -10.8057    161.9018    192.9687   1.0673003736e+02   1.4821568424e+01    0.2434698    0.1993562 -74.57  0.001172093    1.606    0.377
        39  -8.6449    162.3910    148.7921   9.9338025336e+01   2.1526009951e+01    0.1758146    0.1271263 -27.46 0.0006113896    1.674    0.403
        40 -13.4894    191.0058    181.3517   9.9751901254e+01   1.1332343737e+01     1.779524    0.7949762 -47.57  0.008222881    3.108    0.678
        41  -8.5604    103.9397    145.0069   1.1098052308e+02   3.2614224331e+01    0.1792324    0.1613253  72.33  0.001175448    1.024    0.024
        42  -8.4399    140.3313    185.3158   1.0958605532e+02   1.9577546623e+01    0.1154215    0.0903297  17.51 0.0007046356    1.683    0.406
        43  -9.0637    154.5785    183.2484   1.0664493888e+02   1.7487296658e+01    0.1491963    0.1178863 -29.06 0.0007801183    1.625    0.384
        44  -9.6947    157.8359    180.8542   1.0568163958e+02   1.7283911927e+01    0.1873573    0.1552007  31.48 0.0008118153    1.202    0.168
        45 -11.0735     49.8803    175.3472   1.2569898919e+02   3.4074774355e+01    0.4965051    0.2084299 -69.24    0.0028416    2.244    0.554
        46 -11.2352     46.1140    175.3502   1.2641295067e+02   3.4488993602e+01     0.579223      0.22966 -71.35  0.003250818    2.343    0.573
        47 -10.0864    156.7963    196.4993   1.0813492830e+02   1.5179451563e+01    0.1874102    0.1718595 -52.20  0.001379391    1.346    0.257
        48  -8.6463    192.4688    128.1907   8.9176940743e+01   1.8730431003e+01    0.2692269    0.1899948  -2.96   0.00131659    1.775    0.437
        49  -9.9080    152.4849    176.0304   1.0594396418e+02   1.8956294442e+01    0.2916561    0.1952978 -18.94  0.001492713    2.494    0.599
        50  -9.8618    101.0043    175.9949   1.1587693661e+02   2.7326542250e+01    0.1663614    0.1371692  65.30  0.001154484    1.013    0.013
        51  -9.1696    154.5848    190.7518   1.0773060523e+02   1.6374308317e+01    0.1466181    0.1149453 -68.66 0.0005783405    1.631    0.387
        52 -10.2045    199.2962    191.8640   1.0002669267e+02   8.5376625325e+00    0.2419399    0.1931888  55.34   0.00160112    1.403    0.287
        53  -9.5145    218.6899    115.8685   8.1583479066e+01   1.4929733790e+01    0.4966075    0.3132755  15.50  0.002265831    1.966    0.491
        54 -11.0286    201.6525    233.5284   1.0559759046e+02   3.5522401253e+00    0.2329652    0.1540986  21.83   0.00164055    1.503    0.335
        55 -12.2815     34.5742    185.8346   1.2927814825e+02   3.3826472616e+01    0.5330397    0.4380094  78.73  0.003241471    1.194    0.163
        56  -8.8577    211.0717    189.5016   9.7655211542e+01   6.7827828965e+00    0.1883731   0.09980074  44.27 0.0007355395    1.581    0.368
        57  -8.0772    166.6794    112.7072   9.0735371884e+01   2.6815292333e+01    0.1463252    0.1106797  15.99 0.0007013813    1.609    0.378
        58  -9.5000    147.3407    194.9953   1.0962162699e+02   1.6957887954e+01     0.218569    0.1502852  28.55   0.00133136    1.644    0.392
        59  -8.4671    158.1504     78.3212   8.3480457010e+01   3.4763755513e+01    0.2593777    0.2013318 -21.71 0.0005660722    1.367    0.268
        60  -9.0748    232.9411     77.0440   6.9519164002e+01   1.7030948994e+01    0.2147872    0.1954585  10.93 0.0003824491    1.046    0.044
        61  -8.3247    236.9496     73.0411   6.7883849426e+01   1.6622629738e+01    0.2341958    0.1598027  20.02 0.0006031487    1.667    0.400
        62  -7.9812    194.7270     62.6343   7.1619452509e+01   2.8296048109e+01    0.1589223    0.1133216  15.84 0.0007002254    1.666    0.400
        63  -9.9625    176.8434     59.3972   7.3905543217e+01   3.3285506843e+01     0.445053    0.2954555   5.29  0.001738229    2.014    0.503
        64  -7.6590    200.8237     58.3760   6.9324996141e+01   2.7358829609e+01    0.2003327    0.1333153  46.23 0.0003588618    1.495    0.331
        65 -11.1164    219.2167     45.3318   6.2721235791e+01   2.4409850153e+01    0.9055195    0.6305155  44.21   0.00439905    1.471    0.320
        66  -9.9984    131.9519     47.2405   7.9625950597e+01   4.6155098024e+01    0.2625394    0.2102863 -30.21 0.0005080865    1.214    0.176
        67  -9.9555    229.6183     36.6919   5.8906102833e+01   2.2832646874e+01    0.4882293    0.2632416  39.14  0.001661084    2.126    0.530
        68 -10.5285    201.8944    227.1404   1.0472933452e+02   4.1587531544e+00    0.2364849    0.1142313  44.71  0.001199662    1.599    0.375
        69  -9.5357    212.1272    219.8738   1.0212272325e+02   3.2987490812e+00    0.1662734    0.1311325  43.63  0.001008829    1.264    0.209
        70  -9.5417    204.7298    219.9671   1.0330908827e+02   4.4566901472e+00    0.1563331     0.121716  32.53 0.0006815933    1.051    0.048
        71  -9.1450    155.9734    217.4107   1.1096553887e+02   1.2490565521e+01    0.2083069    0.1566318 -79.97 0.0009645861    1.910    0.476
        72 -11.2605      4.4074    212.1872   1.3552887188e+02   3.2263488081e+01    0.3778023     0.293239 -79.68   0.00355101    1.551    0.355
        73 -10.7301      3.2698    206.2157   1.3549393370e+02   3.3309651237e+01    0.2898297    0.2266431  79.36  0.002741892    1.270    0.213
        74  -8.6192    178.8600    211.9054   1.0642979398e+02   9.5240280795e+00    0.1768784    0.1305088  31.89 0.0008723809    1.205    0.170
        75  -9.3725    226.3485     28.4235   5.6943594890e+01   2.4579316211e+01    0.4059878     0.234185 -18.56  0.001657366    1.748    0.428
