#   1 NUMBER                 Running object number                                     
#   2 MAG_AUTO               Kron-like elliptical aperture magnitude                    [mag]
#   3 X_IMAGE                Object position along x                                    [pixel]
#   4 Y_IMAGE                Object position along y                                    [pixel]
#   5 X_WORLD                Barycenter position along world x axis                     [deg]
#   6 Y_WORLD                Barycenter position along world y axis                     [deg]
#   7 A_WORLD                Profile RMS along major axis (world units)                 [deg]
#   8 B_WORLD                Profile RMS along minor axis (world units)                 [deg]
#   9 THETA_WORLD            Position angle (CCW/world-x)                               [deg]
#  10 FWHM_WORLD             FWHM assuming a gaussian core                              [deg]
#  11 ELONGATION             A_IMAGE/B_IMAGE                                           
#  12 ELLIPTICITY            1 - B_IMAGE/A_IMAGE                                       
         1 -12.2879     35.0707     86.9371   6.1725169932e+01   5.7359342938e+01      1.00946    0.4405957 -62.00  0.003828932    2.164    0.538
         2 -15.1682    247.6170     38.5371   3.5981043682e+02   2.2831400833e+01     2.139097     0.812898 -41.49    0.0121049    1.787    0.440
         3 -14.9817    237.4428     68.3692   6.4645115119e+00   2.0781726448e+01      1.74819    0.9061671  66.26   0.01038773    2.408    0.585
         4 -13.1169    246.1462      8.4880   3.5405373151e+02   2.6344260330e+01    0.6042454    0.3612458 -57.83  0.004386337    1.213    0.176
         5 -11.6499    153.9060    241.5997   5.1219958806e+01   5.1933269358e+00    0.1903626    0.1662506 -75.06  0.001320558    1.933    0.483
         6 -12.6487    188.0068    232.3224   4.3429527341e+01   2.9644474904e+00    0.2596216    0.2446555  81.64  0.001923574    2.042    0.510
         7 -10.7776    133.1902    232.7680   5.4461352171e+01   8.9057731317e+00    0.1945005    0.1180542  55.14 0.0009521613    2.785    0.641
         8 -10.0457    139.3071    230.3114   5.2826663410e+01   8.6093265949e+00    0.1256219    0.0820906  -7.98 0.0006855033    1.619    0.382
         9 -10.4454    209.4821    238.4996   4.0550457582e+01   6.3061802744e-02    0.1069592   0.07860222  -5.10 2.627705e-05    1.045    0.043
        10 -10.3071    126.6041    226.7841   5.5172899017e+01   1.0705173526e+01     0.152635    0.1251464 -68.96 0.0009527803    1.694    0.410
        11 -10.1117    114.4977    223.9930   5.7602328553e+01   1.2661930012e+01    0.1632378    0.1117484  77.46 0.0008106612    2.598    0.615
        12 -10.4230    198.2033    215.1575   3.9112539263e+01   4.3338356960e+00    0.1424513    0.1283036  -9.82 0.0008108433    1.368    0.269
        13 -11.1396     92.4345    212.8114   6.1643331856e+01   1.7553466850e+01    0.2297618    0.1381974 -69.55  0.001142075    2.104    0.525
        14 -10.5415     76.9533    212.9780   6.5628786832e+01   1.9401652887e+01    0.2270578     0.139353  51.63  0.001140682    1.692    0.409
        15 -11.9075     85.9670    208.8066   6.2842324381e+01   1.9192289556e+01    0.3413031     0.206635  61.47  0.001608497    2.147    0.534
        16 -12.4989    185.3866    203.5514   3.9638639311e+01   7.5165877943e+00    0.4014429    0.3609209  78.60  0.002674329    1.986    0.496
        17 -12.6464     98.4552    205.0576   5.9181126593e+01   1.8399348513e+01    0.3509426    0.2318293 -69.35  0.001804614    1.892    0.472
        18 -11.4427    197.8478    204.1270   3.7474316426e+01   5.9874683667e+00    0.2218607    0.1667548 -52.15  0.001423904    1.896    0.472
        19 -12.0524     80.2065    200.7783   6.3448519079e+01   2.1655871783e+01    0.3281091    0.2128804  71.99  0.001566847    2.048    0.512
        20 -11.4147    124.3291    197.9962   5.1785305771e+01   1.6392464323e+01    0.3379361    0.2528613 -55.59  0.001889616    1.533    0.348
        21 -10.5392    139.8699    198.7068   4.8262382807e+01   1.4146102749e+01    0.2306543    0.1689501 -31.46  0.001065572    1.377    0.274
        22 -13.1042     88.6290    197.3351   6.0778151825e+01   2.1339103462e+01    0.4619291    0.3161195  88.51  0.002267914    2.007    0.502
        23 -10.3156    216.2860    195.4559   3.2988657562e+01   5.2003817009e+00    0.1758278    0.1284363 -47.19  0.001061908    1.763    0.433
        24 -11.6692    246.6413    193.1853   2.8111887049e+01   2.3803689394e+00    0.2890134    0.2435482 -56.15  0.002188335    2.137    0.532
        25 -10.8734    184.6287    193.9736   3.8237501027e+01   9.1317742652e+00    0.2691578    0.1050395 -42.92  0.001240513    2.430    0.588
        26 -11.4060     13.3236    194.1211   8.1629164087e+01   3.0313053352e+01    0.2884516    0.1437274 -66.35  0.001352863    2.155    0.536
        27 -12.6763    102.8601    192.4666   5.6369716993e+01   2.0493798902e+01    0.3713422    0.2843926 -83.47  0.001959718    1.708    0.415
        28 -12.6607     77.6912    191.4763   6.3042774079e+01   2.4085719197e+01    0.4396147    0.2731159 -61.10  0.002141448    1.758    0.431
        29 -11.7066     20.3631    190.0056   7.9413388392e+01   3.0724626102e+01     0.288703    0.1597456  83.80  0.001374098    1.875    0.467
        30 -11.2050      6.9770    190.2782   8.3268861871e+01   3.1740745877e+01    0.1906686    0.1602836  42.89 0.0008031755    1.063    0.059
        31 -11.5045    129.6195    187.9615   4.8973234864e+01   1.7666006954e+01    0.3413496    0.2952867 -72.80  0.001813539    1.472    0.321
        32 -12.2713     86.7637    187.7477   6.0051551275e+01   2.3748193382e+01    0.2742045    0.2079405 -81.79  0.001338309    1.588    0.370
        33 -12.3310     95.9596    188.4972   5.7643926533e+01   2.2320795567e+01     0.378196    0.2116724  50.31  0.001657455    2.015    0.504
        34 -11.6095    250.0012    184.6581   2.6303689177e+01   3.1529871454e+00    0.3502369   0.08949339 -33.22  0.001518877    3.399    0.706
        35 -10.0784    192.0000    186.0020   3.5552560141e+01   9.4917298734e+00    0.1980293   0.06153138 -42.66 0.0008048847    2.959    0.662
        36 -12.4920     12.2487    184.0378   8.1478817488e+01   3.2875231360e+01    0.4072712    0.2061888  73.24  0.001860701    1.964    0.491
        37 -10.5323    165.5023    183.9976   4.0312803010e+01   1.3341198447e+01    0.1969413    0.1190839 -41.89  0.001037412    1.603    0.376
        38 -11.8400     93.8776    181.9254   5.7279703546e+01   2.4104072131e+01    0.5370472    0.2434159 -37.41  0.001937851    3.104    0.678
        39 -11.1569    225.2764    193.4675   3.1258698526e+01   4.5097968663e+00     0.340739    0.1678427 -44.30  0.001935269    2.141    0.533
        40 -10.8410    147.4723    179.9661   4.3493136236e+01   1.6661390278e+01    0.1728186    0.1235084 -78.22  0.000756646    2.458    0.593
        41 -11.5441     77.8585    172.7299   6.0558115969e+01   2.8540801723e+01    0.2978137    0.1867345  71.96  0.001261079    2.155    0.536
        42 -11.5864      2.7496    171.7078   8.3812954038e+01   3.6698712379e+01    0.2439518    0.1873122  78.18  0.001005643    1.205    0.170
        43 -11.9100     55.5193    168.3708   6.6847638347e+01   3.2565334473e+01    0.4420059    0.3119011 -78.84  0.002158383    1.516    0.340
        44 -10.3822    120.6223    169.7790   4.8177740228e+01   2.2843878663e+01    0.1956845    0.1396115 -64.14 0.0009526308    1.659    0.397
        45 -10.4212     88.2325    166.4023   5.6549101728e+01   2.8603350031e+01    0.2842262    0.1713289 -48.72   0.00125897    1.757    0.431
        46 -12.2190    212.9819    161.7401   2.7748999074e+01   1.0628367968e+01    0.4699617    0.2433731 -41.72  0.002580692    1.702    0.413
        47 -11.0626    150.2059    169.1027   4.0952054978e+01   1.8371817809e+01    0.3467617    0.2174884 -52.03  0.001716695    1.720    0.419
        48 -10.7215    222.5054    160.9427   2.6156908248e+01   9.5308636038e+00    0.1842965   0.09440046 -37.27   0.00103376    1.592    0.372
        49 -11.8409    171.2091    158.7972   3.4581484171e+01   1.7089095226e+01    0.3073388    0.2173876 -63.51  0.001578584    1.980    0.495
        50 -10.3396     91.6422    158.4847   5.4244665790e+01   3.0024101399e+01    0.2655831    0.1438118 -59.09  0.001095032    1.936    0.484
        51 -11.7212    249.2208    150.2570   2.0660168882e+01   7.8345421108e+00    0.3200958    0.1433426 -38.98  0.001857378    1.718    0.418
        52 -11.5060    244.9752    150.7421   2.1274298292e+01   8.2638654046e+00    0.2625489    0.1520068 -24.91  0.001657207    1.521    0.342
        53  -9.9245    227.2896    158.6419   2.5050968614e+01   9.2751294505e+00     0.108857   0.08217871 -53.12 0.0005712968    1.686    0.407
        54 -12.8280    179.8353    132.0758   2.7546246912e+01   2.0572935479e+01    0.7023655    0.4376928 -63.75  0.003230827    2.378    0.580
        55 -13.2251    187.0920    126.5943   2.5110603265e+01   2.0315410546e+01    0.7670666    0.3303259 -40.32  0.003379511    2.046    0.511
        56 -14.1603    192.2767    138.0708   2.6601211338e+01   1.7478575109e+01     1.190128    0.8216898 -67.50  0.006117615    2.228    0.551
        57 -12.8927    180.1844    123.4283   2.5633344785e+01   2.2067849814e+01    0.8795186    0.3836257 -44.31   0.00379605    2.068    0.517
        58 -13.0323    185.4764    116.1606   2.3134878419e+01   2.2417523514e+01    0.7653748     0.412995 -38.79  0.003726333    1.648    0.393
        59 -11.6662    188.8103    145.8926   2.8762878315e+01   1.6671683887e+01    0.4318361    0.2927253 -50.35  0.002394128    1.542    0.352
        60 -11.2075    240.0268    141.2653   2.0214746731e+01   1.0200920659e+01    0.2015526    0.1585831 -35.82   0.00147629    1.123    0.109
        61 -13.3874    193.9541    129.8335   2.4639806638e+01   1.8617639569e+01    0.6145187    0.4617778 -72.49  0.003418322    1.901    0.474
        62 -10.6007     48.8284    137.6840   6.5070598904e+01   4.1625473110e+01    0.2207064    0.1949792 -60.20  0.001141885    1.164    0.141
        63 -11.4354    207.3988    136.6327   2.3879215593e+01   1.5391588730e+01    0.2249072    0.1786253 -22.83  0.001234813    1.160    0.138
        64  -9.8279     69.2323    135.9480   5.7486332578e+01   3.9280744535e+01    0.1912523    0.1307436 -66.30  0.000310365    1.511    0.338
        65 -10.7660     21.6775    136.3280   7.5063637390e+01   4.4848924314e+01    0.1640082   0.09655987  55.94 0.0007048801    1.691    0.409
        66 -12.8538    154.0856    129.9928   3.2194326756e+01   2.5534874279e+01    0.7855693    0.5270076 -68.99  0.003546041    2.131    0.531
        67 -12.0781    145.5970    131.6622   3.4449020439e+01   2.6763605838e+01    0.5179778    0.4036298  81.45  0.002553856    1.779    0.438
        68 -10.0699     95.7761    133.9734   4.8350994165e+01   3.5424020036e+01    0.2127675    0.1277645 -55.45 0.0008830323    1.693    0.409
        69 -10.6743    204.9996    130.0653   2.2939531980e+01   1.6823144046e+01    0.1917815    0.1444914 -63.56  0.001127779    1.684    0.406
        70 -11.3090     11.3186    126.3383   7.8193551289e+01   4.8443272852e+01    0.2184033     0.130228  85.18 0.0009740341    1.662    0.398
        71 -10.6130     57.5804    120.8039   5.8931767390e+01   4.5103784212e+01    0.2261717    0.1507326 -82.77  0.000954728    1.722    0.419
        72 -12.7267    172.4044    120.9304   2.6498711865e+01   2.3915293780e+01    0.6988158     0.422022 -49.60  0.003251004    1.607    0.378
        73 -11.9012    123.5879    108.3605   3.4302074640e+01   3.6082519167e+01    0.7276568    0.4864495  -9.70  0.002758571    2.794    0.642
        74 -12.1521    130.3635    114.6770   3.4142397434e+01   3.3320325528e+01    0.5968566    0.3531594 -36.89  0.002528826    1.844    0.458
        75 -13.1186    129.6095    102.8764   3.1346130435e+01   3.5998100797e+01      1.18713    0.5349069 -59.01  0.003865983    3.232    0.691
        76 -10.1408    203.4871    115.9883   2.0275131507e+01   1.9359641915e+01    0.1840235   0.09220155 -55.25 0.0008099289    2.495    0.599
        77 -11.2817     78.1600    110.9452   4.9092359598e+01   4.4408661521e+01    0.3787856    0.3055229 -87.02  0.001596645    1.404    0.288
        78 -11.7592     77.5496    105.7373   4.8043582757e+01   4.5854508989e+01    0.3850504    0.2773141 -49.76  0.001411252    1.415    0.293
        79 -10.7840      2.3288    110.0050   8.0654015257e+01   5.3558272241e+01     0.257432   0.04498418 -57.94 0.0007051931    4.361    0.771
        80 -13.6679    169.5522    128.1068   2.8621225203e+01   2.3094049123e+01     1.092672    0.7932699  89.42  0.005247185    2.271    0.560
        81 -11.6317    211.7912    101.1126   1.5996428436e+01   2.0336714180e+01    0.2850843    0.2588877 -29.30  0.001975161    1.158    0.136
        82 -12.5475    200.3762     92.6265   1.5666105130e+01   2.3652054236e+01    0.4912675    0.3933147 -49.75  0.003085444    1.079    0.073
        83 -11.3202     74.0492    101.6579   4.8316853144e+01   4.7529121993e+01    0.3279611    0.2351422 -48.18  0.001477171    1.433    0.302
        84 -12.6206     94.5944     96.8059   3.9737737556e+01   4.4744794773e+01    0.5739872    0.3992806  44.28   0.00217553    1.416    0.294
        85 -11.9162     94.5983     93.1816   3.8715636988e+01   4.5591772653e+01    0.4746118    0.4004251 -12.18  0.002022346    1.489    0.329
        86 -11.0516    249.6560     91.8086   9.9447206117e+00   1.5794550197e+01    0.2730762    0.1469183 -22.61  0.001492129    2.302    0.566
        87 -11.5047    229.9995     91.3442   1.1825720104e+01   1.8818783773e+01    0.2950861    0.1397246 -52.53  0.001513553    2.099    0.524
        88 -10.0046    212.3196    247.6683   4.1324882605e+01  -1.3268396745e+00   0.08696584   0.07672243  14.38 0.0004486494    1.693    0.410
        89 -13.3349    125.6418     86.9920   2.7999740882e+01   4.0149155276e+01     1.053492    0.8069159  39.97  0.005153641    1.436    0.304
        90 -13.3541    120.1547     79.2958   2.7131713101e+01   4.2936785907e+01     0.738526    0.5093627 -38.90  0.003428445    1.518    0.341
        91 -13.3989    116.3155     71.1178   2.5599201224e+01   4.5424258165e+01    0.7753652     0.510338 -74.21  0.003262609    2.051    0.512
        92 -13.7586    105.2861     81.7033   3.1961828366e+01   4.5827738140e+01     1.206173     0.807438 -79.05  0.004890439    2.179    0.541
        93 -13.2843    106.4003     71.2391   2.8332575473e+01   4.7722527133e+01    0.6852263    0.5765155 -21.07  0.003128689    1.454    0.312
        94 -12.9964     95.3709     70.5920   3.1457508414e+01   5.0393008873e+01    0.7965389    0.4552113 -62.33  0.003066092    2.306    0.566
        95 -11.8363     50.4832     85.9851   5.4076446344e+01   5.5524673564e+01    0.3973941    0.2265306  60.81  0.001482824    2.438    0.590
        96 -11.7549     46.4470     81.7204   5.4836858205e+01   5.7235003646e+01    0.2762426    0.2062844 -75.86  0.001030447    1.481    0.325
        97 -11.0013     19.5418     85.7621   6.9429016783e+01   5.9241727069e+01    0.2937848    0.1270983 -65.17  0.001140189    2.098    0.523
        98 -11.9593     74.5233     78.4960   4.1508319654e+01   5.3128286710e+01    0.6184487      0.31116 -50.35   0.00239336    2.028    0.507
        99 -11.5963    161.6069    242.2198   4.9762667663e+01   4.2839455762e+00    0.2748881    0.2112184 -82.22   0.00160995    3.026    0.670
       100 -11.0250    169.5091    242.9082   4.8314853117e+01   3.3639412212e+00    0.1829837    0.1399893  23.96  0.001299929    1.332    0.249
       101 -11.6745    169.9075     71.2978   1.4930510273e+01   3.3120326314e+01    0.4771026    0.2938804  45.71   0.00232847    1.990    0.497
       102 -13.1180    129.0819     69.2951   2.1957098894e+01   4.2751107762e+01    0.5985499    0.4158168  85.16  0.002746893    1.740    0.425
       103 -12.7462     84.1443     74.2652   3.6502369662e+01   5.2094941314e+01    0.5457478    0.3452417  55.59  0.002333555    1.658    0.397
       104 -13.4543    127.9618     75.5987   2.4115364154e+01   4.1846995602e+01    0.8214275    0.5704017  89.74  0.003667468    1.864    0.464
       105 -12.3413     62.1848     71.3839   4.4351468295e+01   5.7172851092e+01    0.6477238    0.2191068 -52.15  0.002091583    3.009    0.668
       106 -13.5771    203.7809     64.1432   8.8052303386e+00   2.7297583820e+01     1.155954    0.5093855 -27.56  0.004969824    2.766    0.638
       107 -11.4160     42.8216     70.4527   5.3407636034e+01   6.0634381551e+01    0.4879015    0.1948003 -53.62  0.001776743    2.404    0.584
       108 -13.3895    157.9322     68.0180   1.5977195150e+01   3.6291270075e+01    0.7481282    0.5063565 -40.92  0.003826762    1.397    0.284
       109 -12.7510    122.6871     63.8648   2.1727639483e+01   4.5249735687e+01    0.5582361    0.3899792 -31.99   0.00264171    1.619    0.382
       110 -14.0882     87.5430     82.1825   3.7834073026e+01   4.9601705495e+01     1.228573    0.9256918 -29.99  0.005639866    1.600    0.375
       111 -11.9118      4.4520     89.3594   7.7769486808e+01   5.9225745571e+01    0.5349708    0.3175016 -84.35   0.00248115    1.635    0.389
       112 -12.7324     73.5546     55.4037   3.3722595574e+01   5.8352342355e+01    0.9517744     0.404078 -40.44  0.003455941    2.607    0.616
       113 -13.1028    165.4974     56.5056   1.1662053116e+01   3.6398273370e+01    0.3990309    0.2461532  56.73  0.002016145    1.745    0.427
       114 -12.1896     22.2461     52.4105   5.9832692894e+01   6.7699229724e+01    0.7474915    0.2733071 -67.38  0.002618552    3.149    0.682
       115 -12.4539     27.8010     46.5361   5.4061911418e+01   6.8440198549e+01    0.4132329    0.2522414  -3.88  0.001500732    2.210    0.547
       116 -12.6434     63.2939     51.6769   3.6546474412e+01   6.1275224747e+01    0.7773408    0.2747429 -47.15  0.002648501    2.997    0.666
       117 -12.1587    131.4104     62.8036   1.9454436758e+01   4.3344124532e+01    0.3614977    0.1447894 -35.38  0.001297418    2.697    0.629
       118 -12.2259     50.1828     64.1110   4.7552833959e+01   6.1011912082e+01     0.544758    0.1433146 -50.37  0.001619707    3.673    0.728
       119 -11.2647     53.4032     52.1621   4.1429874365e+01   6.3118437130e+01    0.3948892    0.1879445 -59.07  0.001445695    2.766    0.638
       120 -10.1568     87.6247     52.2742   2.7394405334e+01   5.5756482541e+01    0.1555866    0.1149209  87.10 0.0007002277    1.691    0.409
       121 -11.4661     44.5102     50.0156   4.5252962414e+01   6.5165499576e+01    0.2196388    0.1430274 -49.40  0.001029189    1.585    0.369
       122 -13.8461    186.6031     41.0277   5.0648053194e+00   3.3936612684e+01    0.5915785    0.2890097  75.46   0.00290198    2.182    0.542
       123 -11.9007    144.7190     45.3939   1.1616457989e+01   4.2894296662e+01    0.2755793    0.1488565 -46.56  0.001260461    1.734    0.423
       124 -11.4837     36.3265     39.0077   4.5325077425e+01   6.8854168195e+01    0.3641215    0.1371334 -47.22  0.001367326    2.709    0.631
       125 -12.1815    167.5811     77.7605   1.6968015130e+01   3.2557762895e+01    0.3834656    0.3052971 -43.19  0.002157465    1.170    0.145
       126 -10.8729     28.4794     42.4737   5.1988750377e+01   6.9269103198e+01    0.1395146    0.1303759   0.10 6.891253e-05    1.001    0.001
       127 -11.7467    126.8796     34.8688   1.1231161656e+01   4.8777548985e+01    0.2178209    0.1961096  50.91  0.001256024    1.265    0.209
       128 -10.7083    104.8492     33.8171   1.5329004123e+01   5.4500389837e+01    0.2094098    0.1622819 -76.31  0.001082081    1.343    0.256
       129 -11.2338     26.6138     31.7794   4.8474220297e+01   7.1812067659e+01    0.5472206    0.1808326 -41.58  0.001885188    3.491    0.714
       130 -11.2287     12.6712     26.9361   5.7398475648e+01   7.4519831071e+01    0.3887358    0.1358259 -65.56  0.001364952    3.815    0.738
