#   1 NUMBER                 Running object number                                     
#   2 MAG_AUTO               Kron-like elliptical aperture magnitude                    [mag]
#   3 X_IMAGE                Object position along x                                    [pixel]
#   4 Y_IMAGE                Object position along y                                    [pixel]
#   5 X_WORLD                Barycenter position along world x axis                     [deg]
#   6 Y_WORLD                Barycenter position along world y axis                     [deg]
#   7 A_WORLD                Profile RMS along major axis (world units)                 [deg]
#   8 B_WORLD                Profile RMS along minor axis (world units)                 [deg]
#   9 THETA_WORLD            Position angle (CCW/world-x)                               [deg]
#  10 FWHM_WORLD             FWHM assuming a gaussian core                              [deg]
#  11 ELONGATION             A_IMAGE/B_IMAGE                                           
#  12 ELLIPTICITY            1 - B_IMAGE/A_IMAGE                                       
         1 -14.5100     68.4001    144.3298   1.0151257798e+02   3.7479613371e+01     4.814357     2.549733  75.77  0.008902567    3.777    0.735
         2 -14.2795    217.3236     27.1175   3.7542303073e+01   2.8126707148e+01     1.218366    0.9777658  23.97  0.007207454    1.898    0.473
         3 -14.4111    204.3202     39.4710   4.1888014442e+01   2.9528187451e+01     1.957609     1.485509  33.28  0.007912331    1.831    0.454
         4 -12.5530    245.3704      4.1363   3.0447541065e+01   2.4768689995e+01    0.4640576    0.4164692  58.24  0.002913502    1.541    0.351
         5 -12.4804    239.9870      3.6844   3.0701932633e+01   2.5917270489e+01     0.445942    0.3103069 -77.28  0.002419325    1.170    0.145
         6  -9.6421     53.2949      4.6807   6.2319703289e+01   6.7673951970e+01    0.1018849   0.09648428 -52.89 0.0002946047    1.610    0.379
         7 -10.2205     47.8157      2.4433   6.3375562115e+01   6.8819135210e+01    0.1963098    0.1478927  -7.58 0.0004999593    1.242    0.195
         8 -10.0073     56.8608      1.6067   5.9435147766e+01   6.7337735461e+01    0.1683038    0.1301533  34.91  0.001115693    1.140    0.123
         9  -9.4313    149.7929    187.5875   8.8318700246e+01   1.3223516208e+01    0.2100313    0.1309007  48.61 0.0006069386    1.661    0.398
        10 -10.8008    139.8996    249.4456   1.0011768786e+02   3.1054930693e+00    0.2496369    0.1875835 -57.66  0.001545219    1.642    0.391
        11 -11.5281    116.8764    248.0061   1.0462063861e+02   6.8504332591e+00    0.4315271    0.2587748 -66.17  0.001905299    2.090    0.522
        12 -13.7605      5.7217    187.3358   1.2264200138e+02   3.3739698958e+01    0.8657187    0.5464823 -79.94  0.001881607    1.310    0.237
        13 -15.9708      7.7307    155.4546   1.1970979618e+02   4.1106253136e+01     9.603985     4.036705  71.69   0.04035077    2.921    0.658
        14 -15.5897      9.8184    207.6993   1.2307487918e+02   2.8825683936e+01     2.001997     1.237734 -60.70  0.008819335    1.780    0.438
        15 -14.4684     38.3651    200.4297   1.1646214989e+02   2.7511099333e+01     1.814765    0.8158045 -80.56  0.008464839    2.187    0.543
        16 -15.1474     48.0244    190.9587   1.1333233833e+02   2.8578897848e+01     3.420817     1.703212  84.23   0.01421617    2.456    0.593
        17 -12.2152     64.6359    174.8573   1.0730983563e+02   3.0337877834e+01    0.5110366    0.3193234 -42.51  0.002420955    1.972    0.493
        18 -12.0393     69.3653    170.1434   1.0541855457e+02   3.0849589247e+01    0.3239897    0.2775493 -37.25 0.0007439888    1.386    0.278
        19 -16.1366      7.6138    246.9518   1.2553708740e+02   2.1021213558e+01     2.443138      1.81568  22.91   0.01749047    1.954    0.488
        20 -12.7365     85.9035    154.3092   9.8354651542e+01   3.2335821085e+01       1.8556     1.000449 -58.21  0.004108022    1.769    0.435
        21 -12.2963     78.5804    160.8094   1.0149908592e+02   3.1838310700e+01     0.544498    0.3995616  53.42 0.0004433329    1.390    0.280
        22 -13.5985     66.1264    156.7113   1.0423926470e+02   3.4657485906e+01    0.5749385    0.4086359 -50.19  0.001313814    1.431    0.301
        23 -14.4753     57.0570    239.0308   1.1582537064e+02   1.6976949793e+01     1.028532    0.7593128 -78.98   0.00395125    1.376    0.273
        24  -9.6815    122.3288    172.6733   9.2148420856e+01   2.1594173226e+01    0.1569536    0.1161905  74.28  0.000705064    1.704    0.413
        25 -16.1848     32.1183    249.3579   1.2129951712e+02   1.7962777739e+01     11.05745     3.546888  24.73   0.01864185   14.550    0.931
        26  -9.5118     79.8712    182.6287   1.0453840794e+02   2.6286882288e+01    0.2950359    0.1793549 -87.15  0.001312862    2.007    0.502
        27  -8.6690    136.3033    164.6976   8.7088990213e+01   2.0817310077e+01    0.1527575    0.1207974  78.28 0.0003799207    1.592    0.372
        28  -9.3020    153.2227    153.4524   8.0549936451e+01   2.0005931232e+01    0.3435779    0.1898393 -68.65  0.001085016    3.551    0.718
        29 -10.9862    133.6800    144.0208   8.3291826757e+01   2.6134869012e+01      1.11256    0.2882788 -54.76   0.00249827    5.919    0.831
        30 -10.2139    174.7846    148.8922   7.4547307520e+01   1.6567246719e+01    0.2698988    0.2535567 -79.38 0.0006306858    1.199    0.166
        31  -9.0518    111.3668    149.6695   9.0446319783e+01   2.9106799305e+01    0.1654254    0.1194598  75.30 0.0007034659    1.817    0.450
        32 -11.6310     54.3109    147.4435   1.0608819011e+02   3.8544581287e+01     0.684558    0.2899056 -54.42  0.002797245    2.139    0.532
        33 -10.1855     48.0724    145.3864   1.0755395371e+02   3.9812587194e+01    0.2942294    0.1946287 -42.53  0.001235205    1.673    0.402
        34 -14.7782     19.6885    219.8785   1.2185256985e+02   2.5243022886e+01     1.281001    0.8391449  55.31  0.006391565    1.282    0.220
        35 -10.2328    198.4351    140.0187   6.7556959390e+01   1.3516670729e+01    0.3248987    0.2291444 -63.11  0.001123174    1.827    0.453
        36 -12.4500     87.6639    139.4567   9.4977827346e+01   3.5781985737e+01    0.3117728     0.264468 -45.20   0.00032436    1.187    0.157
        37 -11.2497     77.5513    138.1998   9.7685190800e+01   3.7696856454e+01    0.3366873    0.3116015 -81.96  0.000465275    1.052    0.049
        38 -11.4501     44.0803    130.0854   1.0629569924e+02   4.4143812440e+01    0.4375992    0.2837048 -54.35  0.002237375    1.385    0.278
        39 -10.7782    100.7415    139.5867   9.1248026198e+01   3.3512111428e+01    0.6033542    0.3742141 -22.03  0.002232405    2.730    0.634
        40 -10.3901    106.0040    130.9885   8.7818401022e+01   3.4665593122e+01    0.3679335    0.3271865 -63.13  0.001607666    1.118    0.106
        41 -10.2149    110.0319    130.4802   8.6552105257e+01   3.4029634833e+01     0.323278     0.250609  -8.78  0.001115787    1.709    0.415
        42 -10.6926    135.5723    128.3222   7.9072642738e+01   2.9387686193e+01    0.4796475    0.1539491 -48.82  0.001422509    3.150    0.683
        43 -11.0996     97.5095    126.2451   8.9183573215e+01   3.7377783622e+01    0.3281735    0.2661363 -22.26  0.001077031    1.437    0.304
        44 -11.0593     46.5304    124.6946   1.0459840004e+02   4.5234677632e+01    0.2741958    0.2381679 -59.74  0.000776789    1.039    0.037
        45  -9.4232    116.7738    124.4148   8.3185240463e+01   3.4167820694e+01    0.2198023    0.1519295  26.42 0.0009179391    1.699    0.412
        46  -9.5239    160.6884    127.3501   7.2630126049e+01   2.4175637327e+01    0.1622917    0.1257979 -81.56 0.0007045527    1.719    0.418
        47  -9.8763    107.0330    119.0365   8.4630135813e+01   3.7353779145e+01    0.2194526    0.2156953 -42.15            0    1.015    0.015
        48 -10.3806    146.4597    171.8682   8.6065636891e+01   1.7248658993e+01    0.2790073    0.2330882  74.86 0.0007333029    1.443    0.307
        49  -9.4277     83.1203    117.3425   9.1464110893e+01   4.2029733232e+01    0.2029216    0.1885752  56.48 0.0006252964    1.150    0.131
        50 -10.7761     22.4049    114.4916   1.1058443499e+02   5.0093996121e+01    0.2924615    0.1977005  81.02 0.0009210087    1.691    0.409
        51  -8.9105    167.9940    112.9940   6.7327564833e+01   2.5573760913e+01    0.3145207    0.1909972 -81.04 0.0009471098    4.035    0.752
        52 -10.0076    135.0000    112.4756   7.5150674257e+01   3.3093050206e+01    0.3492912   0.08932766 -44.89 0.0009238522    3.847    0.740
        53 -10.3842     39.6509    113.1277   1.0468815715e+02   4.8870034732e+01     0.211406    0.1853972  50.62  0.000526629    1.289    0.224
        54 -10.0337    205.5403    110.1804   5.9170928938e+01   1.7752480462e+01    0.3014543    0.2124023  42.73 0.0009525458    1.579    0.367
        55 -10.9164     33.1927    109.0508   1.0608402705e+02   5.0509418945e+01      0.28517    0.2095378  74.38 0.0008944176    1.647    0.393
        56 -12.2210    249.0397    104.1851   5.1082658125e+01   1.0029367425e+01    0.6388414    0.2008326 -36.71  0.002369252    2.804    0.643
        57  -9.2262     45.1910    105.2092   1.0122329726e+02   5.0232829434e+01    0.1842639    0.1581205  82.36 0.0005274181    1.331    0.248
        58 -11.5467    242.4235    101.9753   5.1498260671e+01   1.1647482401e+01    0.2589945    0.2155215  62.28  0.001512494    1.389    0.280
        59 -10.5684     38.7550    101.8949   1.0275929274e+02   5.1720993728e+01    0.3553339    0.1544398  41.09  0.001482719    2.707    0.631
        60  -9.9241    121.0009     99.0048   7.5230562067e+01   3.9085166484e+01    0.1885639    0.1863695   3.86 0.0004956168    1.016    0.016
        61  -9.8885     32.8281     96.6068   1.0375511126e+02   5.3569818841e+01     0.248546    0.1892058  67.48  0.000896081    1.668    0.401
        62  -9.3644    134.6071    104.8166   7.3177030826e+01   3.4856148581e+01    0.2369406    0.1462037 -53.97 0.0009572898    1.761    0.432
        63 -10.3716     52.9974     90.9999   9.5122208638e+01   5.2714569828e+01    0.2225237    0.1971014 -43.75  0.000589474    1.017    0.017
        64 -11.0648     11.0965     92.8484   1.1086413135e+02   5.6126580627e+01    0.2357405    0.1847685  12.63 0.0006937723    1.532    0.347
        65  -9.7216    234.3674     86.1788   4.9068792303e+01   1.5858840546e+01    0.2043481    0.1067101 -46.45 0.0006185165    1.683    0.406
        66 -10.3785     72.5448     83.3169   8.5944572485e+01   5.1684941437e+01    0.4593841    0.2611445  57.56   0.00173831    2.930    0.659
        67  -9.2393    151.2164     83.0317   6.2902584047e+01   3.5428987141e+01    0.2560579    0.1696665 -65.96  0.001051081    2.020    0.505
        68  -9.3746    159.7827     82.4479   6.0838184901e+01   3.3489805653e+01    0.2122086    0.1418232  42.37 0.0005818852    1.594    0.373
        69  -8.8043     93.5396     67.5581   7.3754780326e+01   5.1169309950e+01    0.1423546    0.1385697  -0.97 0.0001666977    1.080    0.074
        70 -10.6928     13.4386     59.9173   1.0286828525e+02   6.3411738230e+01    0.2480151    0.1914685 -56.65 0.0004336417    1.206    0.171
        71  -9.9105     90.0882    213.2380   1.0618617765e+02   1.7759363377e+01     0.392984    0.2128752  70.77  0.001017313    2.620    0.618
        72 -12.7474    195.3751     45.7313   4.4599740337e+01   3.0784347686e+01    0.7244415    0.5462006  45.19   0.00127758    1.555    0.357
        73 -10.5018    107.8804    204.0160   1.0086276955e+02   1.6979533998e+01    0.2088276    0.1890518  64.52 0.0004074085    1.045    0.043
        74  -9.1113    137.2244     43.3754   5.3828803385e+01   4.5325638526e+01     0.194298     0.131096  70.81 0.0002954506    1.585    0.369
        75  -9.2686     48.1463     42.5151   8.1565564382e+01   6.3305198170e+01    0.3229374     0.106597  42.52  0.001175286    3.890    0.743
        76 -10.3003    140.3045     38.0758   5.1483632411e+01   4.5288319660e+01    0.2435144    0.2063282  84.58 0.0003413139    1.234    0.190
        77  -9.0743     73.4869     55.5398   7.6432923457e+01   5.7086913627e+01    0.1374144    0.1263889  -4.21 0.0002130815    1.056    0.053
        78  -9.7621    189.6488     15.0679   3.7490660146e+01   3.5922664997e+01    0.2211199    0.1594617 -87.91 0.0006269035    1.258    0.205
        79 -11.4327    193.3037    195.3909   8.0291958813e+01   3.8807286588e+00    0.9415343    0.4965413 -62.16   0.00306889    4.815    0.792
        80  -8.5693     76.3073    194.2803   1.0699474975e+02   2.4052119383e+01    0.1263801    0.1078965 -25.67 0.0002569166    1.558    0.358
        81  -8.7851    120.2567    194.5801   9.6492792615e+01   1.6982355561e+01    0.1478142    0.1080005  80.62 0.0006938177    1.758    0.431
        82  -9.7894     99.3900    180.9915   9.9384660936e+01   2.3620251509e+01    0.2236487    0.2032193  24.71 0.0006453531    1.215    0.177
