#   1 NUMBER                 Running object number                                     
#   2 MAG_AUTO               Kron-like elliptical aperture magnitude                    [mag]
#   3 X_IMAGE                Object position along x                                    [pixel]
#   4 Y_IMAGE                Object position along y                                    [pixel]
#   5 X_WORLD                Barycenter position along world x axis                     [deg]
#   6 Y_WORLD                Barycenter position along world y axis                     [deg]
#   7 A_WORLD                Profile RMS along major axis (world units)                 [deg]
#   8 B_WORLD                Profile RMS along minor axis (world units)                 [deg]
#   9 THETA_WORLD            Position angle (CCW/world-x)                               [deg]
#  10 FWHM_WORLD             FWHM assuming a gaussian core                              [deg]
#  11 ELONGATION             A_IMAGE/B_IMAGE                                           
#  12 ELLIPTICITY            1 - B_IMAGE/A_IMAGE                                       
         1 -13.0245    243.2694     56.8608   3.5778583703e+02   2.0792926457e+01     1.072634    0.9786683  20.65  0.008024693    1.592    0.372
         2  -9.9533      2.6854     10.5491   4.9088610280e+01   7.8010856722e+01    0.3117446    0.1630233 -22.23  0.001106286    2.227    0.551
         3  -9.5815     19.2292      5.4302   3.0464088469e+01   7.6828650636e+01    0.2133044    0.1981838 -75.04 0.0007845068    1.518    0.341
         4  -9.6305     15.8643      2.6181   3.1003036062e+01   7.7758871448e+01    0.2299366    0.2023135  43.55 0.0007023539    1.343    0.256
         5  -7.7341    112.2026    246.0241   5.5562255379e+01   9.0211315479e+00     0.130284   0.09563299 -54.28  0.000308545    1.658    0.397
         6 -12.6364      8.1112    239.0739   7.7973369119e+01   2.1344679524e+01     1.637752    0.9502326  78.66   0.01013636    1.665    0.399
         7 -11.7174     16.5774    137.6950   7.0191193465e+01   4.4866755468e+01    0.7753475    0.6466145 -22.16 0.0002937462    1.445    0.308
         8 -13.6762      2.9918     91.1049   7.0811909141e+01   5.8567709260e+01     10.15989     1.075569 -79.24   0.01634569   14.029    0.929
         9 -10.9397     42.0546    154.6734   6.3483749430e+01   3.7777644336e+01    0.3658909    0.3021947  -5.96 0.0006227482    1.489    0.329
        10 -14.3912      8.9936    202.8203   7.6481339320e+01   2.8980730101e+01     3.734466      2.47794   6.86   0.02043927    1.889    0.471
        11  -8.9080     72.7672    242.3572   6.3805098571e+01   1.4213580004e+01    0.3306826   0.08586637  38.03  0.001357075    2.715    0.632
        12 -10.3915     74.4171    220.0545   6.1471244523e+01   1.8355803382e+01    0.4871737    0.1266173  38.81  0.001833514    2.901    0.655
        13  -9.1147     28.1511    238.4279   7.3534194575e+01   1.9648085094e+01     0.184204    0.1239586  80.57 0.0006908524    1.522    0.343
        14  -9.2400     76.6216    230.1343   6.1888573394e+01   1.6084650592e+01    0.2869074    0.1980165  59.84 0.0008057128    1.531    0.347
        15  -9.1175    140.4531    206.1541   4.4446684619e+01   1.2446933199e+01    0.3163369    0.2079317 -63.94  0.001480074    2.094    0.522
        16 -13.1452      5.6597    172.7520   7.6022988043e+01   3.6484391895e+01     1.377496    0.7710835  86.07  0.003070953    1.647    0.393
        17 -10.7276     69.4547    184.2896   5.8921445605e+01   2.6901860309e+01    0.3917975     0.253751  69.63  0.000659518    1.785    0.440
        18 -10.0858     77.7963    185.1843   5.6768804774e+01   2.5583530052e+01    0.3561267    0.1993912  33.50  0.001652744    1.626    0.385
        19 -10.0935     74.8137    182.5784   5.7246317473e+01   2.6599441209e+01    0.2460051    0.1970829 -87.30  0.001255025    1.340    0.254
        20  -9.9374     98.8708    181.3421   5.0649215446e+01   2.3490744586e+01     0.317177    0.2427537  37.49 0.0008022271    1.221    0.181
        21  -8.0053    145.9987    173.9660   3.7958433919e+01   1.7809202035e+01    0.1683367    0.1451851 -36.86 0.0004123022    1.146    0.127
        22  -8.2264    127.4820    173.0633   4.2102868984e+01   2.0923119016e+01    0.2093727     0.137943 -52.05  0.001024406    1.569    0.363
        23 -10.6629     95.8804    169.5534   4.9624463658e+01   2.6664208669e+01    0.4245234    0.2877786  50.67  0.002042062    1.523    0.343
        24 -10.5784     85.0806    164.4563   5.1816014139e+01   2.9522668107e+01    0.5430151    0.2715577  58.16   0.00198522    2.764    0.638
        25  -7.6853    156.2000    169.0553   3.4826044812e+01   1.7165017087e+01    0.1719598     0.102361 -43.80 0.0003014684    1.631    0.387
        26  -9.0103    230.4705    166.5029   2.1058776930e+01   6.8736834531e+00    0.1178209   0.09267905 -24.30 0.0004043584    1.031    0.030
        27 -10.8964     69.9962    160.7925   5.5655235728e+01   3.2623494724e+01     0.622272    0.5004513  43.23  0.002916598    1.183    0.155
        28  -9.3697     77.9177    157.2918   5.2762229640e+01   3.2371049927e+01    0.3955406    0.2665065  39.93  0.001152136    1.417    0.294
        29  -9.2805     73.3081    156.1406   5.3959165651e+01   3.3337861349e+01    0.4615446    0.2823217   9.37   0.00155157    2.327    0.570
        30  -9.8831     58.8908    161.2081   5.9058937767e+01   3.4013890118e+01    0.3617811    0.2455244  84.92  0.000857233    1.630    0.387
        31 -11.6721     52.9715    118.3494   5.4248188231e+01   4.6253830886e+01     2.582914    0.8378612 -76.22    0.0052502    8.030    0.875
        32 -11.4446     71.5564    130.4416   5.0045695263e+01   4.0290071917e+01    0.5353971    0.4309722  11.06 0.0004187935    1.476    0.322
        33 -10.6004     63.5147    147.9393   5.5713406268e+01   3.6854492025e+01     0.433989    0.2889034 -77.64  0.001087476    1.581    0.367
        34 -12.5199     67.2569    143.5057   5.3802738682e+01   3.7491103022e+01     1.004599     0.804268  80.74  0.002415052    1.314    0.239
        35 -13.3687     15.9142    166.6906   7.2674541022e+01   3.7205169733e+01     2.471215    0.9875541  77.69  0.009394046    2.805    0.643
        36 -12.2241     40.2088    142.4655   6.2592849262e+01   4.1264809209e+01    0.5420505    0.3747425  -2.72  0.001566538    1.928    0.481
        37  -8.9820     89.1575    131.3529   4.4578145056e+01   3.7164641433e+01    0.2989174    0.2309131 -49.10 0.0009096952    1.309    0.236
        38  -8.7214    105.2254    130.2815   3.9556642455e+01   3.4564870867e+01    0.3203198    0.2156065 -64.32  0.001415823    1.610    0.379
        39  -9.7578     84.8459    133.9531   4.6452993609e+01   3.7233839138e+01    0.3317266    0.2929012  -1.03 0.0008905894    1.323    0.244
        40 -10.4274     56.1412    147.7096   5.8043499613e+01   3.7909679000e+01    0.3618008    0.3166197  12.33 0.0004181233    1.289    0.224
        41  -8.7792    101.1784    125.8331   3.9737067474e+01   3.6391355863e+01    0.3910619    0.2442409  16.91  0.001255456    2.413    0.586
        42  -9.3962     86.9676    120.6080   4.2923882130e+01   4.0269013440e+01    0.3025595      0.25332  35.37 0.0006597526    1.232    0.188
        43  -7.8594    183.6690    116.6673   1.8454334764e+01   2.2352903053e+01    0.1385551    0.1051515  -5.19 0.0007052119    1.725    0.420
        44  -8.4701    100.9464    115.3669   3.7338251979e+01   3.8980201532e+01    0.2102706    0.1915482  40.82 0.0003827089    1.129    0.114
        45  -9.1486     43.9605    113.5782   5.6777689868e+01   4.8730018535e+01    0.2814741    0.1995669  85.20 0.0006768245    1.547    0.354
        46 -10.1715     28.9467    111.1635   6.2329239074e+01   5.1076446482e+01    0.4698973    0.2713676  73.97  0.001920732    2.060    0.515
        47  -8.8946    204.3477    110.8370   1.3839411369e+01   1.9619474038e+01    0.3066259    0.2181711  23.61  0.001660174    1.960    0.490
        48  -9.3510     24.3057    105.6070   6.3380097697e+01   5.3054252373e+01    0.2697457    0.1704019 -89.37 0.0008301383    1.640    0.390
        49 -10.2580     52.4812     92.4577   4.8767957081e+01   5.3238684748e+01    0.6126712    0.1600676 -57.33  0.001825874    3.388    0.705
        50  -9.7050     18.3536     82.0863   6.2035729318e+01   5.9967178233e+01    0.3854241    0.2267472  61.08  0.001454286    2.061    0.515
        51  -8.2878    184.6767     77.6341   8.9184922870e+00   2.8891005652e+01    0.1342473    0.1074143   3.72 0.0007038349    1.793    0.442
        52 -12.6351    224.7361     65.4122   1.2415296061e+00   2.2900219500e+01     1.056243     0.829328 -66.34  0.007021812    1.231    0.188
        53  -8.6842     58.5229    249.0211   6.7431751403e+01   1.4549394870e+01    0.1567114    0.1158433 -77.36  0.001039826    1.616    0.381
        54  -9.1503     62.9139     64.1978   3.5726338231e+01   5.8374949279e+01    0.2716174    0.2107501 -81.49  0.001278506    1.636    0.389
        55  -8.2373     82.8770     61.8664   2.7167990053e+01   5.4849168975e+01    0.1979258    0.1736469 -87.87 0.0002888342    1.250    0.200
        56 -10.8444     12.1844     59.5770   6.0487246594e+01   6.6287139881e+01    0.5782005    0.2853476  46.82  0.001536153    2.462    0.594
        57  -7.9753     85.3486     72.1508   2.9932235947e+01   5.2171583021e+01    0.2158789    0.1388569 -57.18 0.0004709881    1.671    0.401
        58  -8.4719     77.7474     68.1797   3.1276276427e+01   5.4606009167e+01    0.2161922    0.1973834 -85.78 0.0004953743    1.158    0.136
        59 -11.5194     33.7138    158.9140   6.6577179365e+01   3.7560240768e+01    0.8937479    0.4865785   0.25  0.001140218    2.855    0.650
        60  -8.4440     60.2121     20.9781   1.7547245106e+01   6.6828021959e+01    0.1965747    0.1812082 -87.29 0.0006355009    1.228    0.185
        61  -8.6329     94.0255     18.6899   6.0544162949e+00   5.9141681122e+01    0.1956436    0.1627824  65.74 0.0004676878    1.107    0.096
        62  -7.9490    189.4854     15.4787   3.5238425579e+02   3.6345341575e+01    0.1276924    0.1006699 -62.08 0.0003756164    1.012    0.012
        63  -7.7616     90.6658     14.3243   4.8749302492e+00   6.0461833983e+01    0.1439373   0.09777188 -68.25 0.0007050973    1.711    0.416
        64  -8.8436    210.3228    247.6651   3.7113644546e+01  -1.9508319462e+00   0.08845528   0.07935498  23.55 0.0007050593    1.709    0.415
        65  -9.2850     50.9514    243.8227   6.8758185643e+01   1.6312518168e+01    0.3911675    0.1586374 -75.96  0.001898976    2.982    0.665
