#   1 NUMBER                 Running object number                                     
#   2 MAG_AUTO               Kron-like elliptical aperture magnitude                    [mag]
#   3 X_IMAGE                Object position along x                                    [pixel]
#   4 Y_IMAGE                Object position along y                                    [pixel]
#   5 X_WORLD                Barycenter position along world x axis                     [deg]
#   6 Y_WORLD                Barycenter position along world y axis                     [deg]
#   7 A_WORLD                Profile RMS along major axis (world units)                 [deg]
#   8 B_WORLD                Profile RMS along minor axis (world units)                 [deg]
#   9 THETA_WORLD            Position angle (CCW/world-x)                               [deg]
#  10 FWHM_WORLD             FWHM assuming a gaussian core                              [deg]
#  11 ELONGATION             A_IMAGE/B_IMAGE                                           
#  12 ELLIPTICITY            1 - B_IMAGE/A_IMAGE                                       
         1 -14.0313    196.2261     42.7775   4.3732630946e+01   3.0988125586e+01    0.9609824    0.8811594  84.98  0.003327801    1.089    0.082
         2 -14.2749    203.6171     34.9797   4.0870381758e+01   3.0279097498e+01    0.8013869    0.7334617  49.38   0.00141353    1.318    0.241
         3 -14.1349    227.7193      8.2811   3.2500012820e+01   2.8008160854e+01     0.864895    0.6968763 -72.85  0.004125344    1.028    0.027
         4 -12.4497     45.5000      3.9990   6.5148188494e+01   6.9040816945e+01    0.3291275    0.1704166  24.73  0.001758759    1.900    0.474
         5 -12.6355     59.6202      3.1518   5.9195717977e+01   6.6698966357e+01    0.3648253    0.2105612  38.07  0.002102568    1.452    0.311
         6 -11.6279     28.1317      2.2720   7.2350359453e+01   7.1782920780e+01    0.2564737   0.08941077  39.80  0.001213245    2.849    0.649
         7  -9.8945     62.8296    213.9828   1.1234450328e+02   2.1457305362e+01    0.4743691    0.2645038 -76.59   0.00171088    1.827    0.453
         8 -16.8888     72.3972    150.3838   1.0143468342e+02   3.5374834166e+01     17.22039     8.709682  83.40   0.04091685    5.181    0.807
         9 -10.6744    151.0087    193.0060   8.9034349064e+01   1.1869858948e+01    0.2519443     0.218798 -45.71 0.0008565456    1.216    0.177
        10 -12.2830    147.3194    187.5719   8.8889185681e+01   1.3680400312e+01    0.5872719    0.3550495 -70.81  0.002329379    2.672    0.626
        11 -11.2544     62.1998    250.4485   1.1573743477e+02   1.4108847875e+01    0.2802974    0.1369368  42.37  0.001546081    1.661    0.398
        12  -9.9072     22.4198    192.6409   1.1935275048e+02   3.0992476353e+01    0.1844223    0.1074765  62.93 0.0006514764    1.566    0.362
        13 -13.5775     60.7855    183.5821   1.0941318303e+02   2.8729945746e+01    0.9083832     0.723212   8.44   0.00502763    1.718    0.418
        14 -10.2764     38.9078    186.6021   1.1503446194e+02   3.0667823338e+01     0.252388    0.1600077  72.48 0.0007240417    1.522    0.343
        15 -10.1038     82.0376    194.9785   1.0571352248e+02   2.3051910454e+01    0.2155287    0.1968499  74.92   0.00129117    1.030    0.029
        16  -9.4784     48.7133    187.5291   1.1280260152e+02   2.9307195866e+01    0.1794345    0.1096072  49.64 0.0009314037    1.548    0.354
        17 -10.7852     42.3294    208.6715   1.1631896354e+02   2.5195268745e+01     0.277077    0.1517157  71.94 0.0007505494    1.837    0.456
        18 -18.3655     17.1644    233.6240   1.2315059244e+02   2.2664806297e+01     6.332442     4.505778  69.87   0.04394113    1.060    0.057
        19 -12.3111    194.7995    196.8065   8.0255379915e+01   3.3696543619e+00     1.141902     0.826809 -80.79  0.005048563    2.954    0.662
        20 -12.0120     61.9797    199.3815   1.1098540579e+02   2.4850367693e+01    0.3326836    0.2181399 -62.96 0.0005792486    1.526    0.345
        21 -11.6590    186.8313    174.8421   7.7563936851e+01   8.9158554952e+00    0.3845059    0.3308897 -51.32  0.001054587    1.289    0.224
        22 -10.5850    147.8871    174.1561   8.6182227286e+01   1.6471975273e+01    0.2206642    0.2029112  78.34 0.0003252739    1.215    0.177
        23 -11.0156     49.0608    170.9674   1.1079521910e+02   3.3279010378e+01    0.4164762    0.2386076 -41.82  0.001912517    2.270    0.560
        24 -11.0897     45.6244    168.3012   1.1135010002e+02   3.4341518477e+01    0.5003346    0.2016563 -52.22  0.001150155    2.554    0.608
        25 -10.7126     66.0122    194.5031   1.0947714746e+02   2.5440944279e+01    0.2939942    0.2439868  29.19 0.0005517768    1.382    0.276
        26 -11.2397     72.0000    248.0581   1.1363546236e+02   1.3269641354e+01    0.2468297    0.1493142 -72.72 0.0007303429    1.795    0.443
        27 -11.2217    240.2433    169.5806   6.6281021862e+01   5.1244496263e-01    0.1753347    0.1203637  24.04  0.000474925    1.599    0.375
        28 -10.2628     33.1265    165.7719   1.1426699887e+02   3.6329918953e+01    0.3282954    0.1650848  78.29  0.001417956    2.400    0.583
        29 -10.9822     37.3562    162.1461   1.1275500414e+02   3.6785047131e+01    0.4208155    0.2457068   6.46  0.001899767    2.830    0.647
        30  -8.9618    132.9558    161.0000   8.7165629013e+01   2.2315942983e+01    0.2626118    0.0867376  39.74 0.0008116234    3.006    0.667
        31 -11.8204     90.4676    152.6930   9.6789577502e+01   3.2004104245e+01    0.6485674    0.4174574  21.07 0.0004831544    1.991    0.498
        32 -11.7782     93.4977    149.4955   9.5330922321e+01   3.2300341478e+01    0.4659814    0.3952406  78.65  0.001802023    1.262    0.207
        33 -12.0284    133.8717    145.5777   8.3595359834e+01   2.5732349805e+01     1.252375    0.3270174 -54.98  0.002814811    5.948    0.832
        34 -13.1858     49.5454    195.6926   1.1346990400e+02   2.7286768492e+01    0.4164788    0.3488052 -31.24   0.00128648    1.655    0.396
        35 -10.3603    174.8482    149.1116   7.4583173953e+01   1.6508067582e+01    0.2313948     0.212348 -77.44 0.0005300736    1.250    0.200
        36 -12.5239     49.0839    248.4039   1.1808458771e+02   1.6146942321e+01    0.2222502    0.1576085 -87.75 0.0008217855    1.362    0.266
        37 -10.9628    104.7629    137.5418   8.9660377557e+01   3.3290585207e+01    0.5820248    0.3214875 -30.90  0.002065409    2.732    0.634
        38 -11.3177    106.0296    130.8866   8.7787394563e+01   3.4685641020e+01    0.3873925     0.335769 -65.00  0.001251048    1.165    0.142
        39 -12.5104     92.3964    137.0711   9.3104223009e+01   3.5589445935e+01    0.2944045    0.2696474 -40.13 0.0004417194    1.122    0.109
        40  -9.4945     65.5540    206.6920   1.1097194738e+02   2.2710278735e+01    0.3460153    0.2019275 -66.58  0.001028837    1.695    0.410
        41 -11.6206     56.9953    211.2221   1.1335097728e+02   2.2826145802e+01    0.3310597    0.2798713  41.61  0.001066913    1.262    0.208
        42 -11.1279    136.0000    129.5076   7.9253790794e+01   2.9025162173e+01      0.52385   0.08936256 -46.99  0.001139709    5.770    0.827
        43 -11.1651    113.2662    128.6671   8.5207269569e+01   3.3844069678e+01    0.3336308     0.279005   8.22 0.0008413346    1.424    0.298
        44 -11.0996    100.3410    124.6830   8.7978295169e+01   3.7247462293e+01    0.2885269    0.2450416 -16.29 0.0004622806    1.358    0.264
        45 -11.6355    119.4191    123.1438   8.2130404854e+01   3.3936618176e+01    0.4084755    0.2989292  12.40  0.001754979    1.845    0.458
        46 -10.4861    135.0000    120.0100   7.7124503100e+01   3.1405168631e+01    0.2679102   0.08943348 -45.93 0.0008027593    2.945    0.660
        47 -10.1303    108.9387    118.0625   8.3828935855e+01   3.7216792390e+01    0.2264071    0.2215742 -42.35 0.0003367786    1.010    0.009
        48 -10.6316    231.3504    113.7853   5.5744828665e+01   1.1780831906e+01    0.2501825    0.2313836 -42.30 0.0007352845    1.055    0.052
        49 -11.7687    118.7542    109.9989   7.8905070814e+01   3.7116007833e+01    0.3392099    0.2656837  83.83  0.001525757    1.701    0.412
        50 -11.5966    115.4692    109.5390   7.9714870576e+01   3.7897550467e+01    0.4589955      0.24142 -29.04  0.001359176    2.853    0.649
        51 -10.1586    205.5638    110.2337   5.9179641094e+01   1.7737521310e+01    0.2538799    0.2087172  56.48 0.0005948658    1.319    0.242
        52  -9.0142    141.6775    108.3241   7.2316790920e+01   3.2522579638e+01    0.1622562    0.1268387 -85.02 0.0005011447    1.682    0.405
        53 -11.8952     55.3565    206.2365   1.1321950512e+02   2.4148597386e+01    0.4193737    0.2533738 -85.24  0.001065795    1.650    0.394
        54 -10.2293    134.6300    102.1968   7.2444822573e+01   3.5413957358e+01      0.22826    0.1465283 -33.33 0.0009438954    1.688    0.408
        55 -10.8983     59.8686     97.3328   9.4276727019e+01   5.0337377692e+01    0.2548184    0.2068934  63.38  0.001050414    1.532    0.347
        56  -9.3743    129.3259     96.6752   7.2286509804e+01   3.7766736031e+01    0.1602546    0.1259269 -85.49 0.0007049015    1.692    0.409
        57 -16.7649      1.5944     96.5792   1.1480249352e+02   5.5767135869e+01     13.94931          nan -70.56   0.02120215   19.121    0.948
        58  -9.3074    157.5988     89.7928   6.3388897130e+01   3.2627605405e+01    0.2214206    0.1396364 -51.24 0.0006930078    1.672    0.402
        59 -11.3950     71.8426    244.6060   1.1336344553e+02   1.3948611675e+01    0.4216291     0.183015  43.40  0.001912688    1.852    0.460
        60  -9.4442    184.3614     77.2918   5.4601553252e+01   2.8513182670e+01    0.1489019    0.1157172  24.07 0.0007028339    1.699    0.411
        61 -13.6761    183.4529     52.7291   4.8169456346e+01   3.2650253255e+01    0.8103702    0.6733131  32.89 0.0007473225    1.471    0.320
        62 -11.0426    184.7546    212.8784   8.5256866363e+01   2.2127174066e+00    0.2351712    0.1982664 -63.36   0.00135482    1.619    0.382
        63 -11.5233     78.9396    237.0292   1.1122031370e+02   1.4452200191e+01    0.2870916    0.1993299 -60.75 0.0008530192    1.630    0.386
        64  -9.8899    168.0016    231.3202   9.1775684996e+01   1.7625517729e+00    0.1848007    0.1501628  27.73 0.0004915218    1.062    0.059
        65  -9.8342    189.5103     14.9861   3.7484967559e+01   3.5964294131e+01      0.18099    0.1239728 -34.96 0.0006708661    1.555    0.357
        66 -10.6714     89.1472    210.8322   1.0609989672e+02   1.8422630893e+01    0.2269932    0.1853887  75.77 0.0005641059    1.188    0.159
        67 -11.2879     48.5488    217.7665   1.1577954672e+02   2.2453179835e+01    0.5477198    0.1695592  36.21  0.002294135    2.843    0.648
