#   1 NUMBER                 Running object number                                     
#   2 MAG_AUTO               Kron-like elliptical aperture magnitude                    [mag]
#   3 X_IMAGE                Object position along x                                    [pixel]
#   4 Y_IMAGE                Object position along y                                    [pixel]
#   5 X_WORLD                Barycenter position along world x axis                     [deg]
#   6 Y_WORLD                Barycenter position along world y axis                     [deg]
#   7 A_WORLD                Profile RMS along major axis (world units)                 [deg]
#   8 B_WORLD                Profile RMS along minor axis (world units)                 [deg]
#   9 THETA_WORLD            Position angle (CCW/world-x)                               [deg]
#  10 FWHM_WORLD             FWHM assuming a gaussian core                              [deg]
#  11 ELONGATION             A_IMAGE/B_IMAGE                                           
#  12 ELLIPTICITY            1 - B_IMAGE/A_IMAGE                                       
         1 -14.6451     68.4026    144.1222   1.0580361196e+02   3.8464671478e+01     4.255732     1.666154  64.62  0.005267977    4.141    0.758
         2 -13.5615    192.2840     40.1246   5.2463063594e+01   3.1296052632e+01     1.168287     1.030134 -33.79  0.002991773    1.101    0.092
         3 -14.2589    201.3645     33.8979   4.9310169125e+01   2.9656137813e+01     2.205487     1.327623  17.95  0.009062715    2.260    0.557
         4 -14.2191    215.4323     18.6181   4.3097397645e+01   2.7640462448e+01     1.653856     1.162144  31.00  0.004486994    1.650    0.394
         5 -12.5859      2.7817     23.2121   1.0864388462e+02   7.2146371394e+01    0.7903938    0.3032364 -74.59  0.003752297    2.287    0.563
         6 -12.8404      3.3169      4.9612   1.0226722587e+02   7.6065967122e+01    0.9763985     0.438469 -60.74  0.005325756    1.704    0.413
         7 -10.7804     42.7124      3.6072   7.6250431782e+01   7.2057353517e+01     0.205658     0.167689  51.39  0.001157644    1.523    0.343
         8  -9.3944     61.5400      1.4513   6.6109113093e+01   6.9104895016e+01    0.1334015    0.1175722  -7.13 1.511825e-05    1.039    0.037
         9  -9.5106    211.0269    202.2970   8.6053104513e+01   6.5507393178e+00     0.154046    0.1115808  34.62 0.0003055757    1.087    0.080
        10 -15.8573     79.8588    245.8725   1.1216225556e+02   2.0140753077e+01     7.126559     2.099923  34.28   0.01985175    4.162    0.760
        11 -16.5016     11.5517    241.3750   1.2279567921e+02   2.8061244690e+01     2.388705     1.773373  33.44   0.01505755    1.745    0.427
        12 -16.4917      7.1782    202.7591   1.2252083502e+02   3.4336875018e+01     5.649141     1.366883 -79.22  0.005930663    3.839    0.740
        13  -9.4300     82.0424    195.0065   1.0809064044e+02   2.7287665739e+01     0.148587    0.1325209  16.81 0.0006349193    1.658    0.397
        14  -9.2074     96.5136    201.1332   1.0590192308e+02   2.4330588903e+01    0.1303401     0.104508 -81.94 0.0002875339    1.429    0.300
        15  -9.4560     95.8296    189.6823   1.0491671845e+02   2.6247387857e+01    0.2154556     0.130688  30.78  0.001262652    1.924    0.480
        16 -10.2739     73.5920    188.0944   1.0913797481e+02   2.9560132806e+01    0.2103097    0.1211503  59.31 0.0007638286    1.432    0.302
        17  -9.0918     98.7598    186.5317   1.0401553940e+02   2.6340342638e+01    0.1571195   0.08596683  51.05 0.0003050581    1.460    0.315
        18 -12.1682     67.5218    179.7789   1.0964032633e+02   3.1793866545e+01    0.3139975    0.2564784 -37.00  0.002173534    2.011    0.503
        19 -11.9623     72.0167    174.4573   1.0822826548e+02   3.2161305344e+01    0.2360897    0.2149721 -53.54   0.00101607    1.544    0.352
        20  -9.6430     99.6183    180.8024   1.0322147011e+02   2.7167185240e+01    0.1917717    0.1358459  41.51 0.0007228143    1.289    0.224
        21 -10.5427     39.7109    177.4706   1.1516607594e+02   3.5513713393e+01    0.2339642    0.1268541  62.87 0.0008313641    1.469    0.319
        22 -13.4926     68.5712    160.8630   1.0762677575e+02   3.5145521957e+01    0.4487111    0.3978697 -54.19  0.001080056    1.520    0.342
        23 -12.5293     87.6215    157.6400   1.0303037468e+02   3.3084556735e+01    0.8764285    0.6978241 -89.24  0.001641212    1.240    0.194
        24 -12.4907     81.4576    164.4030   1.0518073648e+02   3.2710894464e+01    0.8792218      0.28174  47.23 0.0006977126    2.549    0.608
        25  -9.7503    173.9378    248.2251   9.7507864671e+01   7.4828025702e+00    0.1547355    0.1017698  45.67  0.001221665    1.240    0.194
        26 -10.5992    230.6386    167.1060   7.7294240248e+01   6.9656244561e+00    0.2143254   0.09764158 -35.86  0.001100806    2.574    0.611
        27 -10.5010    194.0219    166.8596   8.3219313298e+01   1.3336153067e+01    0.2523015    0.2270401  48.45 0.0008702384    1.248    0.199
        28 -13.5865     41.8141    208.1040   1.1651659879e+02   3.0036675347e+01    0.4722577    0.3228322  50.65  0.001270871    1.165    0.141
        29 -11.9221     34.4744    166.6733   1.1556592848e+02   3.8081419089e+01    0.3804785    0.2187949  54.43  0.002510721    1.352    0.260
        30 -11.0655    134.0000    145.9821   9.1115273857e+01   2.7497413217e+01    0.7066023    0.1703819 -51.19  0.002256784    5.025    0.801
        31 -12.1003     54.5450    147.9482   1.0951474015e+02   3.9475375247e+01    0.4037668    0.2891869 -82.71  0.002646333    1.307    0.235
        32 -11.0559     38.8319    146.2403   1.1307086625e+02   4.1632683199e+01    0.2724617    0.1804249  56.13 0.0009022898    1.255    0.203
        33 -11.7864     30.0795    144.1157   1.1498025597e+02   4.2977731417e+01    0.3912431    0.2515965  51.99  0.002422223    1.322    0.244
        34 -10.5472     85.2989    144.6463   1.0186727250e+02   3.5944966730e+01    0.3365564    0.1788809  64.69  0.001608209    2.123    0.529
        35 -12.3703     89.2368    142.0168   1.0057066132e+02   3.5866460730e+01    0.2405532    0.2282259  62.94 0.0004563462    1.213    0.175
        36 -10.2743    100.5395    143.4717   9.8146704147e+01   3.3785171812e+01    0.2611251    0.2180489  87.55 0.0007632559    1.179    0.152
        37  -9.9469    103.5097    139.9620   9.6910288650e+01   3.3974912507e+01    0.3102497    0.2199278 -35.24  0.000891906    2.045    0.511
        38 -10.0152     79.3448    139.7742   1.0261729508e+02   3.7805301085e+01    0.2091893    0.1466191  57.97  0.001236549    1.257    0.204
        39  -9.6226     36.8163    140.2471   1.1304376004e+02   4.3078787243e+01    0.1765043    0.1232148  66.34 0.0004196449    1.167    0.143
        40 -10.3571    174.7483    148.7656   8.3432991090e+01   1.9355775420e+01    0.2426331    0.2233624 -13.53 0.0009242937    1.197    0.164
        41 -14.9061     51.7742    197.4243   1.1406167366e+02   3.0668993463e+01     1.697255    0.8785346  56.46  0.007866612    1.450    0.310
        42 -10.2165    111.2613    131.4093   9.3646368650e+01   3.4307329661e+01    0.2635039    0.2269204  14.76 0.0007936484    1.532    0.347
        43 -10.2318    106.0805    130.7378   9.4758368044e+01   3.5347235848e+01    0.3024454    0.2503494  77.38  0.001188882    1.174    0.148
        44 -10.7763    135.5864    124.2260   8.6648925959e+01   3.1104540519e+01     0.280643    0.1385104 -46.56   0.00122681    2.196    0.545
        45 -10.7602    117.2616    126.7570   9.1372023974e+01   3.4129237990e+01    0.4436074     0.196342 -59.22   0.00179801    2.734    0.634
        46 -11.5642     45.2040    129.5743   1.0990107491e+02   4.4402674923e+01    0.3688552    0.1971171  31.71  0.001992639    2.085    0.520
        47 -11.0287     98.5236    127.9116   9.6098493167e+01   3.7204201694e+01    0.2457372    0.2331254   5.90 0.0005968168    1.368    0.269
        48 -10.1921    161.1609    127.9944   8.1965303955e+01   2.5283692008e+01    0.2219147    0.1610726 -74.24  0.001089702    2.018    0.504
        49 -10.5048    125.5884    127.4487   8.9567072281e+01   3.2439929646e+01    0.3275502    0.2019511  80.32  0.001364851    2.745    0.636
        50  -9.8355    155.9938    200.0988   9.4924660760e+01   1.5500648770e+01    0.2952361    0.1636773 -60.50  0.001638493    2.927    0.658
        51  -9.8932    107.7326    120.0085   9.2374375659e+01   3.7203306004e+01     0.208197    0.1753059  55.00 0.0002943555    1.106    0.096
        52 -11.0071    125.7399    173.1218   9.7019767664e+01   2.4349051078e+01    0.2939202    0.1421165  35.53  0.001428923    2.118    0.528
        53  -9.9034     47.0335    172.0701   1.1327390231e+02   3.5688248412e+01    0.1784705    0.1328179  63.12  0.001282582    1.023    0.023
        54 -11.3813     23.9308    115.7150   1.1419902920e+02   4.9593268572e+01    0.3639389    0.1333838 -73.96  0.001747236    2.309    0.567
        55  -9.2973    117.2195    115.4358   8.9118650193e+01   3.6361220879e+01    0.2057793    0.1210728  57.31 0.0009422586    1.761    0.432
        56  -9.9201    168.0619    112.8055   7.7196175741e+01   2.6327460697e+01     0.319909    0.2369229 -74.22   0.00117492    1.934    0.483
        57 -10.5242    134.6209    112.9241   8.4439048195e+01   3.3402849316e+01    0.2980425    0.1362584 -45.73  0.001216583    2.320    0.569
        58  -9.6762    121.3132    112.3519   8.7463058396e+01   3.6180159988e+01    0.1378435    0.1133745  -0.63 0.0007045798    1.728    0.421
        59 -10.0770    205.5040    110.2711   6.9707680047e+01   1.8587046010e+01    0.2929502    0.2015353  40.79 0.0008842463    1.380    0.275
        60 -11.0199     53.0104    110.6635   1.0540051503e+02   4.7610359225e+01    0.3292814    0.1693725  67.01  0.001540376    2.259    0.557
        61 -11.4985     22.6918    108.8175   1.1389636202e+02   5.1228188740e+01    0.2869595     0.229711  25.67  0.001461766    1.580    0.367
        62 -10.2353    134.5193    102.9948   8.2148381816e+01   3.5301654752e+01    0.3114945    0.1425318 -44.53  0.001114365    2.280    0.561
        63 -11.9698     42.6431    104.4342   1.0753020464e+02   5.0226647352e+01    0.5778116    0.1795144  46.24  0.002378754    3.041    0.671
        64 -10.7306    137.5050    170.9158   9.4370279105e+01   2.2731534589e+01     0.203022    0.1438715  45.68   0.00101357    1.169    0.144
        65  -9.8627     66.6544    103.1520   1.0024417876e+02   4.7482295971e+01    0.2346053    0.1671081  55.63  0.001240788    1.361    0.265
        66 -11.4842    242.3152    101.9997   6.2171680160e+01   1.1984133734e+01    0.2207262    0.1937511 -74.81  0.001344998    1.582    0.368
        67  -9.0913     91.4802    102.5278   9.3066170112e+01   4.3724524211e+01    0.1408334    0.1222959  81.43 0.0008082068    1.087    0.080
        68  -9.6243     32.3060     99.5665   1.0999926016e+02   5.2413719087e+01    0.2261467     0.102143  38.21  0.001143203    2.192    0.544
        69  -9.6989    121.5502     98.5173   8.4205883035e+01   3.8874652179e+01    0.1429882    0.1350717  77.88 6.446584e-05    1.007    0.007
        70  -9.7633    158.4435     80.5025   7.0822802350e+01   3.3951235813e+01     0.147528    0.1448304  33.63 0.0001115345    1.018    0.018
        71  -9.4254     61.8967     71.3685   9.4984246046e+01   5.5351177387e+01     0.176682    0.1689604  76.53 0.0005717788    1.120    0.108
        72 -11.6229    193.2268    193.2910   8.7595745159e+01   1.0322188611e+01    0.5975776    0.3790194 -50.36  0.003642787    2.412    0.585
        73 -10.4831     13.5425     60.0045   1.1091700396e+02   6.3117928656e+01    0.2369407    0.1680141 -86.96 0.0006234011    1.214    0.177
        74 -14.1126     46.4432    220.0843   1.1630543456e+02   2.7656119361e+01     1.068882    0.7927638  33.92  0.001457688    1.627    0.386
        75 -11.6735    169.3566    232.6379   9.6562327565e+01   9.6807881477e+00    0.2455243    0.1864015  49.58  0.001701422    1.278    0.218
        76 -12.5604    209.9090     24.6732   4.5485835475e+01   2.8446610227e+01    0.5876095    0.3976338  46.99  0.001100084    1.573    0.364
        77 -10.3217     76.3921    233.2892   1.1195653186e+02   2.2244814250e+01    0.1603378     0.131474  56.88 0.0005440084    1.248    0.199
        78 -11.6399    146.4519     50.7947   6.4039692923e+01   4.1866575438e+01    0.6661446    0.3998217 -77.67  0.002022708    2.970    0.663
        79  -9.0668    234.6417    198.9754   8.1957658249e+01   3.2766759358e+00    0.1479007   0.08035289 -48.52 0.0007041362    4.583    0.782
        80  -9.3276    141.1016    198.0525   9.7328366214e+01   1.8128496472e+01     0.170909    0.1155532  61.91 0.0004449156    1.571    0.363
        81 -10.9712    147.8538     44.0632   6.1388514992e+01   4.2551352964e+01    0.3275719    0.2753073 -66.52 0.0005241592    1.301    0.231
        82  -9.3590    143.8670     40.8659   6.1062829251e+01   4.4076363614e+01    0.2384203    0.1784398 -65.85 0.0002509581    1.568    0.362
        83  -9.2319    137.1963     35.4057   6.0438306770e+01   4.6633104512e+01    0.2215397     0.152123  62.85 0.0003286438    1.481    0.325
        84 -10.4341     71.9829    230.2963   1.1251021946e+02   2.3198347344e+01     0.190216    0.1178688  58.59  0.001020148    1.198    0.166
        85  -9.7219    162.6448    212.5592   9.5335721941e+01   1.2917881899e+01    0.1646325    0.1399233 -48.19 0.0007074756    1.597    0.374
        86 -10.5431    189.9016     15.1713   4.4670752239e+01   3.4764642732e+01    0.2644981    0.2141758 -23.16 0.0008194392    1.221    0.181
        87 -10.0641     72.9698    203.8802   1.1052942992e+02   2.7039560327e+01    0.2155912    0.1688149 -55.59  0.001473575    1.827    0.453
