#   1 NUMBER                 Running object number                                     
#   2 MAG_AUTO               Kron-like elliptical aperture magnitude                    [mag]
#   3 X_IMAGE                Object position along x                                    [pixel]
#   4 Y_IMAGE                Object position along y                                    [pixel]
#   5 X_WORLD                Barycenter position along world x axis                     [deg]
#   6 Y_WORLD                Barycenter position along world y axis                     [deg]
#   7 A_WORLD                Profile RMS along major axis (world units)                 [deg]
#   8 B_WORLD                Profile RMS along minor axis (world units)                 [deg]
#   9 THETA_WORLD            Position angle (CCW/world-x)                               [deg]
#  10 FWHM_WORLD             FWHM assuming a gaussian core                              [deg]
#  11 ELONGATION             A_IMAGE/B_IMAGE                                           
#  12 ELLIPTICITY            1 - B_IMAGE/A_IMAGE                                       
         1 -14.0363    227.6781     35.6486   3.1873830817e+01   2.5723164517e+01     1.392123    0.9419852  47.24  0.008352391    2.128    0.530
         2 -12.6706      2.4101     24.0474   8.9204635020e+01   7.1330161514e+01    0.7653871    0.2801162 -42.17   0.00389712    2.166    0.538
         3 -11.2049      2.2357     38.2486   9.4549324929e+01   6.8827604539e+01    0.3102611    0.2466043 -67.60  0.001893625    1.719    0.418
         4 -11.9609    249.8566     14.6341   2.6286305561e+01   2.4025055920e+01      0.49631    0.1878789 -39.78  0.002339855    2.283    0.562
         5 -12.5642      2.4640      3.4618   7.9566729296e+01   7.4416266959e+01    0.6298502    0.5643413 -88.70  0.004221713    2.955    0.662
         6 -11.1665     17.1912      3.1173   7.0246234006e+01   7.2866606699e+01    0.2459599    0.2263124 -57.88  0.001750023    2.263    0.558
         7 -14.5003     23.0069    195.1763   1.1370159910e+02   2.9454144248e+01     2.625198     1.067627  49.90  0.007226959    2.437    0.590
         8 -12.8235      8.8623    229.4877   1.1934655646e+02   2.2759156893e+01     1.353928    0.7772816  88.15   0.00419757    1.554    0.356
         9 -12.3291     43.8491    216.2535   1.1058533239e+02   2.2139443073e+01     1.070741    0.6189195  74.79  0.002821421    1.890    0.471
        10 -11.3144     82.8376    215.7495   1.0107010157e+02   1.7217400308e+01    0.6153682    0.3813666  82.77  0.001101723    2.208    0.547
        11 -14.6609    101.8645    229.0947   9.8202375787e+01   1.1465674040e+01     6.438057     1.202267  37.96   0.01915185    4.099    0.756
        12 -14.2733     19.2123    248.1142   1.1831668927e+02   1.7766691090e+01     4.549413     1.127411  24.78   0.01456035    6.170    0.838
        13  -9.1183    187.4033    176.2513   6.8774789569e+01   8.8066050366e+00    0.2071528    0.1330393 -50.77 0.0009526711    1.652    0.395
        14 -13.2723     75.0413    155.3710   9.3881580367e+01   3.3594085746e+01     2.792972     1.221545  55.03  0.001633604    3.847    0.740
        15 -13.5786     68.1076    144.2735   9.3928881967e+01   3.7526242116e+01     2.308448     1.298277  74.24  0.003198253    3.569    0.720
        16 -12.7492     51.6861    113.4831   9.3067618531e+01   4.7693456110e+01     1.637716     0.525817 -63.69 0.0006098806    3.691    0.729
        17 -14.2517     11.4669    205.1224   1.1723152532e+02   2.8106229908e+01     1.108965    0.9062588 -27.82  0.006967495    1.667    0.400
        18  -9.0644    110.9401    167.7144   8.5829836516e+01   2.4564415940e+01    0.2120941    0.1981675  38.16 0.0003562918    1.082    0.076
        19  -9.5828     28.1819    218.8572   1.1443745591e+02   2.3255300685e+01    0.1982359    0.1452856  65.55 0.0006491654    1.206    0.171
        20 -11.0979     66.1603    161.4298   9.7623074700e+01   3.3249700022e+01    0.2870523    0.2718977  -7.00 0.0004293411    1.149    0.130
        21 -13.3262     51.7574    157.2578   1.0127150247e+02   3.6204477442e+01     0.668092    0.4503969 -48.61  0.001883742    1.447    0.309
        22 -12.2229     33.1821    156.3611   1.0672372156e+02   3.8464320815e+01    0.5829411    0.3095471 -51.17  0.002636263    1.776    0.437
        23  -8.5635    134.5067    149.0205   7.5408949926e+01   2.4787244544e+01    0.2221121     0.143659 -74.33 0.0008096354    2.475    0.596
        24  -9.7095    184.2352    216.3907   7.7183472718e+01   1.4198350352e+00    0.1920752    0.1211592  38.83  0.000955952    1.689    0.408
        25 -10.5399     91.2741    142.0682   8.6228269031e+01   3.4509246401e+01    0.3765109    0.3396413  64.59 0.0006443171    1.219    0.180
        26  -9.7881     94.8268    138.9022   8.4436664568e+01   3.4713290668e+01    0.3389168    0.2528336 -19.14  0.000899438    1.624    0.384
        27 -12.1033     78.6601    139.9724   8.9713931459e+01   3.7094783758e+01    0.3532086     0.303265 -42.53 0.0004223936    1.128    0.113
        28 -11.5682    242.6855    134.7773   5.0217493870e+01   7.4194410791e+00    0.5838821    0.2336196 -27.65  0.001783816    5.049    0.802
        29  -8.2564    140.4909    134.5628   7.0438123681e+01   2.6989163009e+01      0.15677     0.153819 -62.58 0.0003562806    1.063    0.059
        30 -10.7260    105.8400    130.8167   7.9200748164e+01   3.4754975145e+01    0.4342576    0.3572628  16.54   0.00103232    1.326    0.246
        31 -11.2546     66.7213    126.9808   9.0821190672e+01   4.2246545821e+01    0.4807737    0.3218341 -80.45  0.002052272    1.965    0.491
        32 -10.5599     91.6781    126.8428   8.2609763826e+01   3.8310726777e+01    0.3357354    0.2786444 -18.66 0.0005636211    1.310    0.236
        33  -8.6872    112.5361    125.4776   7.5893925593e+01   3.4771639656e+01    0.1603069    0.1525804 -19.76 0.0001905888    1.036    0.035
        34 -12.5608     47.0159    176.5731   1.0539646485e+02   3.1665024346e+01     1.050822    0.6048815 -33.87  0.001026165    2.361    0.577
        35 -11.8422     54.1012    170.7142   1.0259719836e+02   3.2356449308e+01    0.3797994    0.2956344 -34.77  0.000430713    1.458    0.314
        36  -9.6903    103.6656    119.1208   7.6938391608e+01   3.8010648045e+01    0.2577288    0.2219583  24.49 0.0002202264    1.195    0.163
        37  -8.5257     67.6492    117.3256   8.8305087675e+01   4.4573801103e+01    0.1556997    0.1189041  70.13 0.0007048402    1.758    0.431
        38  -8.3242    142.3805    137.6818   7.0704615560e+01   2.5882244460e+01    0.1652059    0.1277457  82.80 0.0006903384    1.821    0.451
        39  -9.7545    204.6700    110.6799   5.1046099161e+01   1.8634832350e+01    0.3937463    0.2265096  37.16  0.001742708    2.306    0.566
        40  -8.8365     62.9600    101.6605   8.6078250342e+01   4.9099493130e+01    0.2012746    0.1885069  16.96 0.0006444544    1.122    0.109
        41  -8.6186     88.5583    100.3891   7.6727978329e+01   4.5210571415e+01    0.1501137    0.1443802  -0.84  0.000154419    1.036    0.035
        42 -11.1096     53.2549     91.3722   8.6998204252e+01   5.2854278596e+01    0.6308919    0.3217093 -47.61  0.002249604    1.776    0.437
        43  -9.9566     41.5998     92.0944   9.1784374370e+01   5.4101266678e+01    0.2458321    0.1962176   1.43 0.0004532098    1.289    0.224
        44 -10.5540    163.6098     84.7245   5.2243239543e+01   3.2255862593e+01     0.325157    0.1662083  43.34  0.001308606    2.194    0.544
        45  -8.7680    184.5301     77.4443   4.6575930013e+01   2.8793647219e+01    0.1372456    0.1298469 -72.68 0.0001030704    1.056    0.053
        46  -9.5001     61.6999     69.0764   7.6907969728e+01   5.6427348420e+01     0.340666    0.2271196 -69.11  0.001379071    2.683    0.627
        47 -10.8220      1.7743     61.9747   1.0159698161e+02   6.4075352558e+01    0.2302116    0.2073954  67.30  0.001558622    1.540    0.351
        48 -10.2719     13.3513     60.1521   9.5554839743e+01   6.3771136724e+01    0.2332051    0.1932949 -48.26 0.0004313815    1.216    0.178
        49 -12.3452    206.9320     51.7557   3.7397943012e+01   2.7838358722e+01    0.9012719     0.457719 -57.96  0.004359246    1.993    0.498
        50 -12.7961    213.6550     47.2135   3.5645361389e+01   2.7052843887e+01    0.9668028    0.4794087 -53.28  0.004903369    1.845    0.458
        51 -13.2430     55.4695    240.9159   1.1018341196e+02   1.5198863117e+01     1.292175    0.9409959  -7.30  0.002189087    2.146    0.534
        52 -10.5316      7.1304     53.3066   9.6653570741e+01   6.5592990276e+01    0.2695777    0.1003936  18.32  0.001231446    2.750    0.636
        53  -8.6081     94.5624     46.5228   5.7419026651e+01   5.4136426319e+01     0.137364    0.1249012  32.05  3.37541e-05    1.032    0.031
        54 -10.1359      1.6045     43.7373   9.6660796264e+01   6.7818113422e+01    0.3108401    0.1300006 -51.96  0.001584443    1.927    0.481
        55 -15.5958     31.1838    187.8430   1.1094451413e+02   3.0482020765e+01     10.65294     3.948007  86.06   0.02941367    5.618    0.822
        56 -10.0429    192.7954    193.8155   7.1150125944e+01   4.4063170326e+00    0.5956085    0.3074124 -60.50  0.002047899    3.950    0.747
        57 -10.5711      1.8900     50.5200   9.8520149561e+01   6.6458204598e+01    0.2703011    0.1540988 -56.85  0.001410002    1.596    0.373
        58 -10.2402    120.8323     28.8677   4.4766958281e+01   5.0497530018e+01    0.2210936    0.1917156  76.29 0.0002707094    1.154    0.134
        59 -13.1941     81.0569    236.5433   1.0397933733e+02   1.2812580084e+01      1.14681    0.7695768  52.27    0.0027819    1.411    0.291
        60  -8.4609    122.4622     19.4744   4.1436003189e+01   5.1104286675e+01    0.1298112    0.1113087  61.69 0.0001101867    1.004    0.004
        61 -10.9672     59.3774    226.3525   1.0792309474e+02   1.7922058437e+01    0.3760001    0.2338823  70.55  0.001154124    1.755    0.430
        62  -9.4911    189.6544     15.2452   3.1096000200e+01   3.6079543181e+01    0.1849572    0.1284608 -60.67 0.0008024591    1.320    0.243
