#   1 NUMBER                 Running object number                                     
#   2 MAG_AUTO               Kron-like elliptical aperture magnitude                    [mag]
#   3 X_IMAGE                Object position along x                                    [pixel]
#   4 Y_IMAGE                Object position along y                                    [pixel]
#   5 X_WORLD                Barycenter position along world x axis                     [deg]
#   6 Y_WORLD                Barycenter position along world y axis                     [deg]
#   7 A_WORLD                Profile RMS along major axis (world units)                 [deg]
#   8 B_WORLD                Profile RMS along minor axis (world units)                 [deg]
#   9 THETA_WORLD            Position angle (CCW/world-x)                               [deg]
#  10 FWHM_WORLD             FWHM assuming a gaussian core                              [deg]
#  11 ELONGATION             A_IMAGE/B_IMAGE                                           
#  12 ELLIPTICITY            1 - B_IMAGE/A_IMAGE                                       
         1 -12.9064    119.0543     40.1078   3.1576635154e+01   5.0568929318e+01      1.28508    0.6484099 -21.54  0.004850688    2.339    0.572
         2 -11.0010    105.4641      2.5090   1.8255400819e+01   5.8495362286e+01    0.5573608    0.3027492 -51.10  0.002317188    2.355    0.575
         3 -12.4173    104.6403     13.4956   2.3603238010e+01   5.7637263975e+01    0.6133866    0.5318573 -24.49   0.00346668    1.176    0.150
         4 -12.1719    105.6341     20.5611   2.6614862493e+01   5.6577492472e+01    0.4024503     0.312357 -41.36 0.0006584747    1.367    0.269
         5 -11.0340      6.0641     10.9155   6.7355511535e+01   7.5226559181e+01    0.5229304    0.4053848  16.13  0.003577327    1.482    0.325
         6 -11.6874     26.3025     28.5762   6.2873430743e+01   6.9918947570e+01     0.528438    0.3633067 -42.63  0.002285745    1.202    0.168
         7 -10.1838     12.8663      8.8358   6.1319188052e+01   7.5054135670e+01    0.4235968     0.204417 -58.61  0.001830245    2.663    0.624
         8 -11.9164     20.4240     21.7400   6.3162875948e+01   7.1883136954e+01     0.780457    0.3327916 -37.44  0.002520069    2.133    0.531
         9 -11.7158     16.6371     13.2524   6.1221586325e+01   7.3881144978e+01    0.8124743    0.3078506 -32.62  0.003358779    2.951    0.661
        10 -11.1576    136.2227     22.4861   2.0823674241e+01   4.8573324116e+01    0.6441193    0.4126563  66.17  0.002992373    1.549    0.355
        11 -10.2979    127.7215     11.8430   1.8098792786e+01   5.1949513188e+01    0.3722568    0.2704427 -50.75  0.001275183    1.500    0.334
        12 -11.3036    134.6685     15.0636   1.8179596221e+01   4.9805054590e+01    0.7241207    0.3426409  57.89  0.003006704    1.939    0.484
        13 -12.1328     47.6835     12.7765   4.2959707299e+01   6.9801148931e+01    0.6950417    0.3579956  44.05  0.003389549    2.087    0.521
        14 -11.6768     35.6243     18.1228   5.2351621160e+01   7.0776820694e+01    0.6543819    0.2431147 -36.33   0.00239301    2.515    0.602
        15 -11.6018     67.8357     18.9846   3.7728579346e+01   6.5210675938e+01    0.4457545    0.4341856  85.31 0.0008851889    1.309    0.236
        16 -11.8572    228.7007     15.9434   7.7336827739e+00   2.5911986945e+01    0.4019797    0.3391435 -38.69  0.001725103    1.101    0.092
        17 -11.0328    225.7327     14.0140   7.4558017770e+00   2.6792974585e+01    0.3154861    0.2283631 -25.66 0.0007604614    1.356    0.263
        18 -12.5865    164.6746     18.0946   1.4759161196e+01   4.1565225237e+01    0.6284355    0.3217219  40.30  0.002532119    2.373    0.579
        19 -11.7396     85.8263     14.0006   2.8905271612e+01   6.2033094810e+01    0.7254896    0.5185928   3.97  0.003012861    1.496    0.332
        20 -10.1624     87.7635      7.6300   2.5047807198e+01   6.2291800236e+01    0.6163736    0.3353911  57.91   0.00262087    1.783    0.439
        21 -10.0294    218.7795     13.0553   7.7308409415e+00   2.8504059432e+01    0.2402272     0.189732   1.64  0.001366417    1.580    0.367
        22 -11.1549    192.1922      8.8562   8.7749407366e+00   3.5404584464e+01    0.7306699    0.3674125  -1.98  0.002846227    3.089    0.676
        23 -11.4628    212.2027      9.1139   7.1745878620e+00   3.0464578546e+01    0.6277171    0.3593991   1.13  0.002775693    2.649    0.622
        24 -10.8371    218.5031      3.8717   5.3125427788e+00   2.9491920034e+01    0.3112139    0.2898096 -67.45  0.001387769    1.110    0.099
        25 -11.2037    223.6716      2.6099   4.6453489994e+00   2.8415799046e+01    0.3463455    0.2390774 -70.39 0.0003898267    1.352    0.260
        26  -9.7733    120.7443     11.7318   1.9350883118e+01   5.3765488092e+01    0.3376296    0.1752302  61.72 0.0005891511    1.802    0.445
        27 -11.6334    238.9854     16.1381   7.0429727037e+00   2.3604998383e+01    0.3051295    0.2168448 -69.16  0.001796784    1.353    0.261
        28 -11.2432    169.8670      9.2329   1.1144552098e+01   4.1107258219e+01    0.4309775    0.2247791  58.38  0.001923267    1.854    0.461
        29 -10.2617    145.3352      9.6849   1.4418709547e+01   4.7531780471e+01    0.2499141    0.2202956  32.70 0.0004042423    1.192    0.161
        30 -11.2313    243.0011      3.8226   3.7950990013e+00   2.4004661721e+01    0.3450449    0.1707872 -66.36  0.001727577    2.009    0.502
        31  -9.6029    245.7504      1.3790   3.0657879221e+00   2.3658390954e+01    0.1964832    0.1501246  66.87 0.0002805016    1.517    0.341
        32 -11.2775    247.1466      6.1456   4.1145311754e+00   2.2891750512e+01    0.2640681    0.2405527  12.74  0.001178498    1.428    0.300
        33 -10.0813    163.7890      6.4327   1.0889977291e+01   4.2964025874e+01    0.5452577    0.2971422   0.49  0.002268419    2.515    0.602
        34  -9.7278      1.2239      7.7928   6.9367562544e+01   7.6163084619e+01    0.3275816   0.07359169 -55.50  0.001284066    3.265    0.694
        35 -10.7821      2.6993      1.9242   6.4903839613e+01   7.7167257839e+01    0.3421905    0.1886251  -3.08  0.001934136    2.092    0.522
        36 -11.0997    232.6020      7.3024   5.2689083294e+00   2.5931966073e+01    0.3132197    0.2218286 -87.74 0.0009225281    1.423    0.297
        37 -12.0675    233.3660      2.7584   4.0896520180e+00   2.6211384930e+01    0.4266719    0.2310919 -62.57 0.0008645121    1.732    0.423
        38 -10.8087    184.4874      6.1728   8.6714826362e+00   3.7617171845e+01    0.4446391     0.225104 -47.25  0.001944158    1.874    0.466
        39  -9.3391    157.4846      7.5033   1.2007263628e+01   4.4525433294e+01    0.2454645    0.1372371  -0.13  0.001024361    2.371    0.578
        40 -11.1234    122.2551      5.7603   1.6518244860e+01   5.3942634044e+01    0.4168686    0.2127151 -27.67 0.0006493484    1.956    0.489
        41  -9.1750     78.1847      7.4560   2.7780432618e+01   6.4482080189e+01    0.2957403    0.2248314 -88.14  0.001108509    1.922    0.480
        42 -10.8481     74.6405      3.4363   2.6646220303e+01   6.5678943578e+01    0.5690902    0.3206558  48.25  0.002821022    1.640    0.390
        43  -9.8571     62.3019      6.7386   3.2924309554e+01   6.7908818937e+01    0.2939476    0.1899817  17.05  0.001508218    1.663    0.399
        44 -10.4277    176.7159      5.8420   9.3175332461e+00   3.9646156010e+01     0.381582    0.2015572  89.22  0.001078702    2.042    0.510
        45  -9.9631     41.2950      4.2917   4.0801423076e+01   7.2058981622e+01    0.3281099    0.1923675  -4.78  0.001435382    2.034    0.508
        46 -11.8289     22.4868     11.3379   5.6290849776e+01   7.3609209638e+01    0.4964204    0.3207353   5.89  0.002651917    1.730    0.422
        47 -10.9723    206.1770      3.2196   6.0055729255e+00   3.2489652132e+01    0.4142571    0.3440596  87.43  0.002506871    1.182    0.154
        48 -10.0590    141.8275      3.5143   1.2574710640e+01   4.9015929782e+01    0.3540761    0.2401671  83.15  0.001758743    1.496    0.332
        49 -11.4666    134.0926      2.7509   1.3372331034e+01   5.1115967903e+01    0.4460945    0.3070866  71.53  0.001599664    1.388    0.279
        50  -9.3962    128.7166      1.3633   1.3616550110e+01   5.2637441710e+01    0.2085946    0.1319805  72.47 0.0006765538    1.525    0.344
        51 -10.7321     22.1505      3.3243   5.1414223679e+01   7.4983050061e+01    0.2360968    0.1652976 -20.79 0.0005886367    1.209    0.173
        52  -9.1122     25.7686      3.6867   4.9310545165e+01   7.4462678589e+01    0.1597871    0.1328237   0.04 0.0001449961    1.115    0.103
        53 -10.4207    154.3737      2.0860   1.0462485016e+01   4.5826448794e+01     0.544104    0.2332191 -81.81  0.001858923    3.419    0.707
        54 -10.8473    113.5976      2.2506   1.6545264606e+01   5.6466864552e+01    0.3834784    0.2568972  80.66  0.000772004    1.623    0.384
        55  -9.9164     13.2314      2.0110   5.6779645354e+01   7.6212457975e+01    0.2131149    0.1531421   0.82 0.0006063012    1.361    0.265
        56  -9.1899     33.5623      1.5455   4.3121172045e+01   7.3659136080e+01    0.1259798    0.1021665  -6.74 0.0001568847    1.004    0.004
        57  -9.0477     64.1762      2.1690   2.9450103103e+01   6.8035305981e+01    0.1630565    0.1425807 -26.18 0.0002831045    1.247    0.198
        58 -10.4608     80.0723    138.2844   7.1739240336e+01   3.6849449797e+01    0.3290449    0.2728466  56.41 0.0008259169    1.186    0.157
        59 -10.4800     40.2357    138.1113   8.2850147592e+01   4.2045629945e+01    0.3398024    0.2196443  66.66  0.001009634    1.530    0.346
        60  -9.6761     39.3931    133.4476   8.2515995462e+01   4.3283391411e+01    0.2056907    0.1354888  21.49 0.0006243059    1.898    0.473
        61 -11.6599     23.3413    137.0204   8.7427437441e+01   4.3963197961e+01    0.4989568    0.3280017  49.82  0.001271018    1.488    0.328
        62  -9.7788     32.0551    137.5298   8.5064679872e+01   4.3026575328e+01    0.3028258    0.1963315  37.49  0.001012682    1.621    0.383
        63 -10.8950     29.9955    133.0871   8.5155403465e+01   4.4315664464e+01    0.3706261     0.285817 -44.29 0.0009802786    1.555    0.357
        64  -9.4532     47.4582    134.6044   8.0360941757e+01   4.2106803447e+01    0.2831536    0.1194727 -69.48  0.001196994    2.131    0.531
        65 -10.0128     72.4592    133.7260   7.3085897033e+01   3.9081808343e+01    0.4767945    0.3020994  -7.52   0.00184205    3.405    0.706
        66  -9.9205    104.0179    131.1763   6.3797519079e+01   3.4594236066e+01    0.2118841    0.2052563 -75.89 0.0007093994    1.034    0.033
        67  -9.8434     61.8658    151.8976   7.8734147279e+01   3.6143276705e+01     0.201857    0.1794208 -57.98 0.0006253071    1.253    0.202
        68  -9.3262     93.0217    129.6976   6.6522509020e+01   3.6847654035e+01    0.2093837    0.1942762  62.32  0.001168416    1.076    0.071
        69  -9.9309     26.9047    126.5543   8.5314734331e+01   4.6218117444e+01    0.3714356      0.11394 -64.99   0.00116558    2.565    0.610
        70  -9.8820     32.8635    125.7645   8.3459299130e+01   4.5855427893e+01    0.2717701     0.142964  77.69  0.001226133    2.155    0.536
        71  -8.7542     22.7068    126.7162   8.6562828830e+01   4.6547596723e+01    0.1232868   0.08759243 -50.81 0.0002254241    1.538    0.350
        72 -10.0869      2.2274    125.8431   9.2377104780e+01   4.8284445243e+01    0.2462338    0.1441363  73.10  0.001367374    1.517    0.341
        73  -9.6015     83.0756    124.4707   6.8307472931e+01   3.9739620157e+01    0.4033359    0.2552748  -3.22  0.001467814    3.499    0.714
        74  -8.8887     44.6445    125.2885   7.9877806708e+01   4.4744243485e+01    0.1435174   0.09128448  66.40 0.0004747216    1.677    0.404
        75 -11.6624    104.2207    122.4275   6.1837846511e+01   3.6612494672e+01    0.3809615    0.3384415  66.23  0.001005228    1.158    0.137
        76 -10.0183     49.5980    123.2235   7.8073980156e+01   4.4693965572e+01    0.2534433    0.2192185 -31.26  0.001479868    1.422    0.297
        77  -9.7735     56.2557    122.4059   7.5921431880e+01   4.4086388533e+01    0.1886442    0.1227169  47.45 0.0007040078    1.589    0.371
        78 -10.0438     44.3894    119.7098   7.9123352819e+01   4.6174628574e+01    0.2599198    0.1900205  54.23   0.00106248    1.409    0.290
        79 -10.1764     43.5188    116.4870   7.8893532895e+01   4.7084388425e+01    0.3117194    0.2535298  48.69  0.001586136    1.304    0.233
        80 -10.2891      7.6903    114.9760   8.9873310695e+01   5.0590548779e+01    0.3742861    0.1704666 -63.19  0.001167322    1.838    0.456
        81 -12.3395      2.7184    111.7162   9.1105079328e+01   5.1704490830e+01    0.4961522    0.2932684 -85.84   0.00134957    1.363    0.267
        82 -11.3444      5.1057    105.6223   8.9786766337e+01   5.3069423156e+01    0.3853202    0.3371879  44.77  0.002053876    1.336    0.252
        83  -9.8215     37.1696    116.5060   8.0891533892e+01   4.7752093619e+01    0.3002711    0.1371672 -54.35  0.001333148    2.036    0.509
        84  -9.6359     58.1073    115.4630   7.4129065294e+01   4.5595232745e+01    0.2989441    0.1754436 -84.54 0.0008777239    1.992    0.498
        85  -9.8005     78.9887    114.7240   6.7500849509e+01   4.2781605343e+01    0.2788757    0.2052585 -53.88 0.0008160616    1.287    0.223
        86  -9.2555     67.8050    114.8397   7.0975158550e+01   4.4431243078e+01    0.2061456    0.1613175  73.77  0.001069635    1.373    0.272
        87 -10.6884     30.0739     97.9550   8.0350861751e+01   5.3136809835e+01    0.8661845     0.560741 -19.54  0.004341873    2.209    0.547
        88 -11.6837      9.6803     97.2179   8.7342306525e+01   5.4884846287e+01     0.522359    0.4787539  46.98  0.001474685    1.294    0.227
        89 -11.0912     26.7241     85.5215   7.9379704209e+01   5.6573886641e+01    0.7378225    0.4914727  30.45   0.00332159    1.740    0.425
        90 -10.4804     35.3276     92.3430   7.7476525234e+01   5.4061083125e+01    0.4101384    0.2451989 -85.57  0.001567393    1.809    0.447
        91 -11.9720     43.2878     85.0566   7.3006837956e+01   5.5057869284e+01    0.9700596    0.6324737  37.44  0.002909338    1.718    0.418
        92 -11.6046     25.7719    106.9717   8.3192855074e+01   5.1232534187e+01    0.7364811     0.408127 -45.79   0.00364201    1.949    0.487
        93 -10.2622     35.7071    102.9339   7.9240827471e+01   5.1338276160e+01     1.079718    0.5625333 -19.18  0.002010528    4.065    0.754
        94 -12.8200     17.6952    100.4493   8.5007398688e+01   5.3524843491e+01    0.3205391    0.2667342 -82.44 0.0004241602    1.036    0.035
        95 -11.1807     22.8331     94.6241   8.2370532549e+01   5.4599269192e+01    0.3459247    0.3065808  10.03  0.001500445    1.406    0.289
        96 -11.1106     18.3151     90.7611   8.3399143598e+01   5.5920447583e+01    0.5547213    0.2854836 -80.70   0.00237106    1.780    0.438
        97 -11.3494     21.4972    114.5673   8.5554450417e+01   4.9677083635e+01    0.4241152    0.2619003   8.26  0.002125169    2.284    0.562
        98 -11.3355     28.1632    113.2375   8.3279428443e+01   4.9440076739e+01    0.3559947    0.2985423 -10.37 0.0007356741    1.575    0.365
        99  -8.9795     86.3213    113.6932   6.5049056277e+01   4.1845685480e+01    0.1525516    0.1130167  78.08 0.0007032848    1.640    0.390
       100  -9.9601     48.9175    112.3166   7.6484946017e+01   4.7525610004e+01     0.250645      0.23663 -71.48 0.0009209668    1.117    0.105
       101  -8.9308    104.3099    112.6800   5.9520346020e+01   3.8892532835e+01    0.1553395    0.1189376  84.94 0.0002577381    1.644    0.392
       102  -9.8438    120.9014    108.8397   5.3923697325e+01   3.6508212501e+01    0.3703458    0.2727457   7.41  0.001598403    1.975    0.494
       103 -11.1881     79.9536    108.3443   6.5783518027e+01   4.4201413620e+01    0.4767387    0.3376846  29.35 0.0009288254    1.620    0.383
       104  -9.6428     67.4961    110.5248   7.0192121107e+01   4.5555138570e+01    0.2954296     0.145182  33.20  0.001229643    2.238    0.553
       105  -9.4929    101.9941    109.4951   5.9400937811e+01   4.0077848623e+01    0.2284973    0.1519872  40.06 0.0007790518    1.575    0.365
       106 -10.5290     16.0240    109.1067   8.6645032256e+01   5.1471958507e+01     0.270108    0.1713172  45.70   0.00151426    1.680    0.405
       107  -9.7596    181.6851    104.8174   3.8666139844e+01   2.3940989618e+01    0.3628677    0.2487171   7.02  0.001531098    2.090    0.522
       108  -9.3608    143.0448    105.9961   4.7469417414e+01   3.2388128544e+01    0.2492612    0.1947686 -80.89  0.001125406    1.692    0.409
       109 -10.1111     86.1183    103.7688   6.2763282863e+01   4.4297998973e+01    0.3145128    0.2561493  66.42  0.001596644    1.365    0.267
       110  -9.9397     50.7761    102.0098   7.3945451761e+01   4.9914584738e+01    0.2973541    0.1779576 -72.18 0.0009271502    1.595    0.373
       111 -10.1655     52.7531     98.3256   7.2510336045e+01   5.0602517594e+01    0.4648127    0.1921125 -58.56 0.0008237684    2.058    0.514
       112  -8.9003    120.4611    101.4829   5.2061605432e+01   3.8246657645e+01    0.1553001    0.1496053 -41.84 3.335014e-05    1.022    0.021
       113 -11.6964     68.6107     96.0533   6.6558413303e+01   4.8999560941e+01    0.5271039    0.3853677 -23.74 0.0008140416    1.775    0.436
       114  -9.1944    158.9668     99.7124   4.2021771119e+01   3.0068371584e+01    0.2071601    0.1945682  49.15 0.0002052453    1.111    0.100
       115 -11.5622     89.7646     88.3261   5.7457171370e+01   4.7342674277e+01    0.6756703    0.3407932 -45.75   0.00168389    1.879    0.468
       116 -11.3567     79.8464     93.2560   6.2077873697e+01   4.7907413914e+01     0.803086    0.5963655  41.78  0.003992832    1.445    0.308
       117 -10.2732     80.2820     84.0860   5.9368426904e+01   5.0026486582e+01    0.4528548    0.3774393  15.62  0.002339153    1.413    0.292
       118 -10.8331     76.4874     79.1046   5.9197987678e+01   5.1844891020e+01    0.6429821    0.3129419 -58.85  0.002474452    2.207    0.547
       119 -10.2280     72.2552     78.0863   6.0395282204e+01   5.2785247863e+01    0.3654088    0.3242361 -78.09  0.001526222    1.214    0.176
       120 -11.1610     42.3402     93.9476   7.5264664597e+01   5.2926451171e+01    0.4821146    0.3694998  68.02  0.002649663    1.448    0.309
       121  -9.9118    120.7937     85.1454   4.7179474705e+01   4.1740342363e+01    0.3860445    0.2545374  32.04  0.001394567    1.800    0.444
       122 -10.5391    120.4813     90.0585   4.8764196830e+01   4.0754421025e+01    0.3463746    0.2371525 -43.19  0.001012047    1.406    0.289
       123 -11.2205    125.9727     94.6422   4.8627445633e+01   3.8565536270e+01     0.283336    0.2750513 -41.02 0.0001757161    1.009    0.008
       124 -10.2913    121.6344     94.1791   4.9665796403e+01   3.9608647409e+01    0.3134887    0.2524623 -41.57 0.0008131266    1.203    0.168
       125 -11.2683     99.2122     91.2712   5.5332226246e+01   4.4873287191e+01    0.6150646    0.2920282  51.35  0.002251694    2.493    0.599
       126 -11.6184      7.1203     88.7438   8.7191748233e+01   5.7156839343e+01    0.5059057    0.3936329  16.35  0.002269873    1.623    0.384
       127  -9.8791     66.4369     88.6581   6.5440310143e+01   5.1145193384e+01    0.3490761    0.2366332 -13.20    0.0013031    2.280    0.561
       128  -8.7313    199.5199     88.4737   3.1006573460e+01   2.2742807270e+01    0.1495951    0.1369307 -28.33 0.0002093922    1.004    0.004
       129 -10.0204    104.3138     87.3005   5.2603380152e+01   4.4765331850e+01    0.2689989    0.2333891 -17.38 0.0007192271    1.282    0.220
       130 -10.5768    143.2552     84.5164   4.1197997024e+01   3.6722394338e+01     0.282077    0.2597497 -35.59  0.000352792    1.049    0.047
       131  -9.4549    133.5058     84.9703   4.3750404579e+01   3.8904914801e+01    0.3093829    0.1970903 -88.07  0.001020889    3.335    0.700
       132 -10.5734    113.3878     82.8952   4.8564928144e+01   4.3838144937e+01    0.3387856    0.3073359 -69.89  0.001167686    1.174    0.149
       133  -9.3280     46.6794     76.1028   6.9501620323e+01   5.6881031576e+01    0.2719228    0.1510397 -54.88 0.0009304992    1.534    0.348
       134  -9.6398     66.1784     74.6837   6.1590540019e+01   5.4549503126e+01    0.3821937    0.1813743  48.50  0.001332486    2.640    0.621
       135 -11.4681     53.2963     75.0946   6.6631475851e+01   5.6293695215e+01    0.6706532    0.3457113 -61.27  0.002914117    1.833    0.454
       136  -9.5017     60.1683     82.8132   6.6148008106e+01   5.3482016120e+01    0.3062843    0.1878012 -49.81  0.001441163    1.465    0.317
       137 -10.9704     58.8739     77.6793   6.5217448552e+01   5.4910401534e+01    0.4798016    0.3430972  -6.14  0.002301787    1.946    0.486
       138  -9.8819     66.8491     81.7862   6.3426505458e+01   5.2753749839e+01    0.3861312      0.30518  19.76   0.00200768    1.493    0.330
       139  -9.0693    120.2092     80.8520   4.5990014186e+01   4.2776027830e+01    0.2776751    0.1793023 -80.57 0.0009603918    3.010    0.668
       140  -9.5638      1.2491     80.5035   8.8324697121e+01   5.9511610873e+01    0.2756079   0.08754039 -76.09 0.0005908079    2.501    0.600
       141  -9.2378    103.4382     80.0039   5.0603616212e+01   4.6565345013e+01    0.2364682    0.1461036 -46.50 0.0004420662    1.543    0.352
       142  -9.7257     88.9117     73.6885   5.3202558525e+01   5.0846778867e+01    0.2981968     0.238407 -36.65 0.0004056012    1.212    0.175
       143  -9.2425     92.2910     71.6895   5.1410631806e+01   5.0631433228e+01     0.307667    0.2324082 -70.11  0.001133269    1.644    0.392
       144 -10.4538     87.6830     77.4035   5.4820611515e+01   5.0245482410e+01      0.59922    0.3695864  60.72  0.002456898    2.248    0.555
       145 -10.1970     93.7736     76.5754   5.2545083127e+01   4.9265810507e+01    0.5374128    0.2761038  43.95  0.002150681    2.069    0.517
       146  -8.5655    170.3207     78.3145   3.3410338246e+01   3.1365254641e+01    0.1584785    0.1209573  13.86 0.0007039723    1.656    0.396
       147 -11.5599     13.1327     74.0524   8.2639201881e+01   6.0452768158e+01    0.5625593    0.4212367 -79.95  0.003409751    1.188    0.158
       148  -9.3045     15.0847     67.4947   8.0571328419e+01   6.1942256485e+01    0.3763735    0.1988724  10.91  0.001880542    2.443    0.591
       149  -9.2978    233.0269     77.7625   2.3255028737e+01   1.7058987904e+01    0.1625396    0.1200215  61.50 0.0003766835    1.584    0.369
       150  -8.6416    134.6780     77.3154   4.1036227100e+01   4.0166040973e+01    0.1613789    0.1245368 -74.77 0.0007041384    1.661    0.398
       151  -9.1703    112.2847     75.4311   4.6472616096e+01   4.5663375300e+01    0.2062226    0.1523941  60.74 0.0006877041    1.555    0.357
       152  -9.7688    103.3880     74.8289   4.8931545894e+01   4.7697575381e+01    0.3279843    0.2473504  77.13  0.001470062    1.816    0.449
       153 -10.9599      2.0207     71.7082   8.6812606406e+01   6.1643223296e+01    0.3855242    0.1639649 -67.41  0.001654097    1.746    0.427
       154 -10.7469    186.6357     72.2506   2.8617476712e+01   2.8428022443e+01    0.5332403    0.3688596 -33.18  0.002508509    1.348    0.258
       155 -11.7956     40.6349     70.0581   7.0330734440e+01   5.9050947273e+01    0.5043838    0.3067859 -63.88  0.001760554    1.493    0.330
       156 -11.1881     35.1225     71.9215   7.3096628335e+01   5.9180124928e+01     0.695787    0.2580427  28.18  0.002818746    3.026    0.669
       157  -9.4065     24.6057     74.2868   7.7978935168e+01   5.9558089450e+01    0.1993364   0.09897007 -57.89 0.0008901227    1.609    0.378
       158 -10.1657    153.7132     72.8181   3.5141577736e+01   3.6413001927e+01    0.4409643    0.1924481  42.91  0.001508311    2.633    0.620
       159  -9.4369     19.3276     71.8664   7.9660462111e+01   6.0568503802e+01    0.2345343    0.1324033 -34.46 0.0007289539    1.995    0.499
       160 -11.4440    123.0556     68.8025   4.1219059164e+01   4.4563765218e+01    0.5749782    0.3200791  44.98  0.002305038    1.873    0.466
       161 -11.1986     78.5979     67.5623   5.4719123856e+01   5.4112550981e+01     1.579384    0.5905581 -59.10  0.004148873    5.087    0.803
       162 -12.3968     74.2603     51.0256   5.0192442380e+01   5.8404180895e+01    0.7610039    0.3921445 -53.36  0.001899223    2.225    0.551
       163 -11.4133     72.5231     47.4700   4.9410484002e+01   5.9430086129e+01    0.2537992    0.2300439  -5.69 0.0001025044    1.092    0.084
       164 -10.3620    219.3894     66.9554   2.2215433910e+01   2.1574579674e+01     0.440508    0.2189487  65.53  0.001874673    2.374    0.579
       165  -9.3335     52.0625     65.7332   6.4349630084e+01   5.8686534329e+01    0.1866491    0.1764378  -3.47 0.0005726258    1.158    0.137
       166 -12.7452      4.8077     61.8655   8.3994608628e+01   6.3913393839e+01    0.8022994    0.4263701 -42.28  0.001087653    1.789    0.441
       167 -10.9228      9.6984     62.3555   8.1899799050e+01   6.3531823648e+01    0.3051049    0.1928129 -83.99 0.0009797432    1.555    0.357
       168 -11.0779     91.9325     62.5320   4.8309210695e+01   5.2647765411e+01    0.3943104    0.2891546  56.69 0.0009203141    1.583    0.368
       169  -9.8776    200.3866     64.0699   2.4065198536e+01   2.6400733394e+01    0.4519278    0.2499091 -89.11  0.001610528    3.290    0.696
       170 -10.3894    158.4839     63.0152   3.0984052375e+01   3.6934601328e+01    0.5290622    0.2510696  47.17  0.001362071    2.227    0.551
       171  -9.6173    154.6010     60.5670   3.0968386481e+01   3.8324306889e+01    0.2355085    0.1535561  58.17 -0.0001541599    1.588    0.370
       172  -9.6319    106.4975     63.2758   4.3970188890e+01   4.9414122665e+01    0.3227625    0.2260852  25.78 0.0007239786    1.755    0.430
       173 -10.3292    106.2398     58.4823   4.2283286734e+01   5.0405390380e+01    0.3732436    0.2841028  89.70  0.001285073    1.889    0.471
       174 -10.5298     58.8740     63.3069   6.0791860997e+01   5.8291711318e+01    0.4065121    0.3616354  48.14  0.001233662    1.289    0.224
       175  -9.9268     65.3618     61.8745   5.7719314628e+01   5.7618996726e+01    0.2952141    0.2695612 -88.74 0.0004742519    1.290    0.225
       176  -9.4922     51.0390     56.5140   6.1729512248e+01   6.0943011053e+01    0.2647597    0.2036908  19.90  0.001110698    1.480    0.324
       177 -11.0483     40.6933     56.9320   6.6415870584e+01   6.2155372571e+01    0.3359936    0.2394837  36.23 0.0008299643    1.617    0.381
       178 -10.5305     50.5498     61.3041   6.3560063062e+01   5.9917666087e+01    0.2900265    0.2768615  32.52  0.001420224    1.194    0.163
       179 -11.4103     43.1763     62.1823   6.6983445491e+01   6.0640516139e+01    0.3084712    0.2406407 -46.08 0.0004783899    1.119    0.106
       180 -10.7193     46.1680     59.1693   6.4733483407e+01   6.0976559467e+01    0.3363922    0.2765482 -81.76  0.001084157    1.447    0.309
       181 -10.6911    234.0805     61.3696   1.8953825494e+01   1.9135018682e+01     0.298724      0.17436 -38.81  0.001474182    1.449    0.310
       182  -9.6966    113.8921     61.3328   4.1106469108e+01   4.8126874583e+01    0.2781324    0.2092545 -49.52  0.001190655    1.365    0.268
       183  -9.9161    125.2119     56.5255   3.6298909341e+01   4.6336767333e+01    0.2946185    0.2540958 -28.09 0.0007516788    1.141    0.123
       184 -11.4917    118.3397     55.7540   3.7820481162e+01   4.8122828014e+01     1.217285    0.6080014 -59.18   0.00374285    3.735    0.732
       185 -10.1274    122.9577     44.5032   3.2335753762e+01   4.8916241809e+01    0.2911962    0.2669744  -5.47 0.0006595255    1.109    0.098
       186 -10.7249    110.3713     40.1396   3.3864370543e+01   5.2670612234e+01    0.6011937    0.4756224 -21.08  0.001596974    1.274    0.215
       187 -10.5474    112.0806     50.7150   3.7625331188e+01   5.0495711955e+01     0.295939    0.2788359 -36.05 0.0007453522    1.052    0.050
       188  -9.1238    113.3414    249.3087   7.8299593676e+01   1.0258487955e+01    0.1042465   0.07856658  13.61 0.0006392261    1.691    0.409
       189  -9.4413     84.1523     61.2179   5.0488315915e+01   5.4453915317e+01    0.2035751    0.1803155 -79.97  0.001067824    1.349    0.259
       190 -11.2806     25.0424     57.7281   7.3796439180e+01   6.3549509268e+01     0.703865    0.4879459  42.95  0.003664282    1.752    0.429
       191  -9.3560    135.2988     59.3937   3.4837292631e+01   4.3360808951e+01    0.2454909     0.184393  16.38 0.0007055826    1.682    0.406
       192  -9.9957     91.8194     57.1809   4.6348381589e+01   5.3756518093e+01    0.3110569    0.2225889  56.82 0.0006852865    1.628    0.386
       193 -10.3733     88.3771     55.3731   4.6815326203e+01   5.4817383245e+01    0.5107129    0.2016039 -35.04   0.00164473    2.761    0.638
       194  -9.3273     79.9836     58.2580   5.0874794515e+01   5.5862450639e+01    0.2375593    0.1689758   2.31 0.0008353953    1.963    0.490
       195 -10.7337    158.1909     55.3830   2.8526276492e+01   3.8258564653e+01    0.5680877    0.4427498 -76.59  0.002679866    1.522    0.343
       196  -9.6594    154.1880     51.4276   2.7972220404e+01   3.9907383507e+01    0.3737653    0.2061408 -10.54    0.0012137    2.798    0.643
       197  -8.7367    219.7625     56.3403   1.9319923834e+01   2.2991442872e+01     0.146746   0.09205583 -50.27 0.0001735445    1.551    0.355
       198 -10.6941     31.7761     53.0140   6.9256452067e+01   6.4028150068e+01    0.4740932    0.2565239  10.69  0.001977125    2.521    0.603
       199  -9.1011     66.9799     55.0386   5.4588373627e+01   5.8844775298e+01    0.1806747    0.1526925 -40.03 0.0009826185    1.073    0.068
       200  -9.3956    246.9897     54.2285   1.5790442721e+01   1.7371275880e+01    0.1562826     0.111799  70.33 0.0008769345    1.647    0.393
       201 -11.1923     60.9427     48.1747   5.4365859248e+01   6.1275219443e+01     0.906808    0.3171993 -43.96  0.003217822    2.578    0.612
       202  -9.6839     57.2881     41.6510   5.3211442467e+01   6.3183711959e+01     0.301857    0.1306742  44.59  0.001206228    2.725    0.633
       203  -9.8714     55.7738     50.7040   5.7557846511e+01   6.1543772631e+01    0.2084719    0.1762923   6.89 0.0004100211    1.288    0.223
       204 -10.2201     51.9203     48.1955   5.8267629479e+01   6.2644285488e+01    0.2792951    0.2399246  47.83 0.0006286897    1.397    0.284
       205 -11.1173     45.3780     48.8781   6.1479480410e+01   6.3391857013e+01    0.5092044    0.3494914 -46.24  0.001876565    1.260    0.206
       206 -11.1393     44.0364     43.9718   6.0209967614e+01   6.4625772632e+01    0.2820295    0.2305791   7.57  0.001644397    1.338    0.253
       207 -11.0028     39.7889     44.0864   6.2282601458e+01   6.5137876048e+01    0.4327879    0.2734213 -24.87  0.001308321    1.782    0.439
       208  -9.3006    201.2044     53.5818   2.0941826102e+01   2.7737343687e+01     0.199034    0.1313987  49.43 0.0006878031    1.667    0.400
       209 -10.1978    145.1268     50.8120   2.9601396618e+01   4.2325078505e+01    0.3119668    0.2298695 -20.01  0.000492478    1.447    0.309
       210  -9.6072    146.5176     47.4817   2.8134267902e+01   4.2489844216e+01    0.3149469    0.2516593  -4.42 0.0008826228    1.428    0.300
       211  -9.9705    240.1847     50.8544   1.5630332327e+01   1.9227671168e+01    0.2141248    0.1984793  30.38 0.0006943836    1.291    0.226
       212 -11.5489     83.1887     47.1037   4.5304119014e+01   5.7462057705e+01    0.3772205    0.2851037 -20.75 0.0007117498    1.377    0.274
       213 -10.0190    172.3276     48.6549   2.3780537935e+01   3.5663648711e+01    0.2907231    0.1548866  70.11   0.00115152    2.132    0.531
       214 -10.7483     26.6038     48.0029   7.0146846936e+01   6.5679302169e+01    0.5524175    0.2699098 -16.20  0.002126403    3.661    0.727
       215 -10.5465     26.0471     42.8111   6.8672795580e+01   6.6903130840e+01    0.3556128    0.2826954  71.81   0.00150593    1.751    0.429
       216  -9.7284     22.6088     37.2214   6.8466756770e+01   6.8453100491e+01    0.4119946    0.1863603  40.52  0.001861549    2.904    0.656
       217  -9.5859      1.9057     49.1497   8.2837532700e+01   6.7094631442e+01    0.1891046    0.1542667 -63.57 0.0007829228    1.053    0.050
       218  -9.6175      3.6970     44.2228   8.0789741486e+01   6.8165870463e+01    0.4613361    0.1246854 -37.78  0.001663717    4.021    0.751
       219  -9.8500     13.3529     46.6686   7.6427067495e+01   6.7041156579e+01    0.2690156    0.1273057 -39.13  0.001206929    2.002    0.500
       220 -10.2843    200.2191     45.2235   1.8651480465e+01   2.9134175485e+01    0.4185351     0.255013  83.77  0.001788526    1.995    0.499
       221 -10.1651    135.0620     45.7929   2.9972410111e+01   4.5679110150e+01    0.3672788    0.2110997  58.41 0.0007411678    1.769    0.435
       222 -10.2290    139.4491     43.7907   2.8275059351e+01   4.4867766893e+01    0.3981242    0.2819446  22.72  0.001592115    1.763    0.433
       223 -10.0485    160.4516     43.4837   2.4097230248e+01   3.9478720914e+01    0.4237926    0.2215989  87.65  0.001316401    3.321    0.699
       224 -10.4837    156.0049     42.3037   2.4487486020e+01   4.0803580381e+01     0.353936     0.300848  22.60 0.0009697939    1.317    0.241
       225  -8.5203    101.2807     44.6190   3.8328324087e+01   5.4045328884e+01    0.1545538    0.1150582 -62.68 0.0007008029    1.720    0.419
       226  -9.5143     91.3455     41.8060   4.0274283840e+01   5.6726814512e+01    0.2688434    0.2074212  83.92  0.001269996    1.890    0.471
       227  -9.3577     17.3007     41.8866   7.2935295714e+01   6.7856397122e+01    0.3009653   0.08956911 -43.34  0.001147583    2.964    0.663
       228  -9.0206    189.0000     40.4577   1.8710129285e+01   3.2559920619e+01    0.3347672   0.07957575 -27.61  0.000943632    4.007    0.750
       229 -10.5064     20.3528     46.2251   7.2720723137e+01   6.6628029134e+01    0.4416208    0.2394517 -32.03  0.001893255    1.960    0.490
       230 -11.7183     79.3547     35.3210   4.1524826687e+01   6.0346887391e+01    0.8017209    0.5548582 -31.27  0.004013672    1.370    0.270
       231  -9.3639    231.4398     38.3829   1.3304052435e+01   2.2705732510e+01    0.3137943    0.1222849 -26.42  0.001254085    2.385    0.581
       232  -9.1252    194.2113     38.5798   1.7460279592e+01   3.1499128955e+01    0.1945479    0.1272417  51.34 0.0004384731    1.655    0.396
       233 -10.3013     59.8130     23.5589   4.3454825179e+01   6.6028960599e+01    0.4685643    0.1626707 -36.18  0.001771609    2.685    0.628
       234 -10.9953     61.2394     35.7217   4.8850347549e+01   6.3670815451e+01    0.5018882    0.3462932 -11.03  0.001709463    1.720    0.419
       235  -9.5282     70.6322     34.1970   4.4288827581e+01   6.2250024537e+01    0.2591842    0.2194349 -33.34  0.001005435    1.132    0.117
       236  -9.8995     67.5154     32.0727   4.4519612173e+01   6.3202516285e+01    0.2985805    0.2271522   5.76  0.001042226    1.451    0.311
       237 -10.8085     56.9540     31.2083   4.8578442559e+01   6.5219481076e+01    0.4380986     0.295689 -29.49  0.001260688    1.378    0.274
       238 -11.6276     49.0085     30.4648   5.1881662385e+01   6.6624385461e+01    0.6563063    0.2861712  35.28  0.001844856    2.522    0.604
       239 -10.6548     43.0214     28.0746   5.3652617529e+01   6.7950362487e+01    0.1963867    0.1669142 -23.12 0.0002923447    1.005    0.005
       240 -11.0609      4.8141     36.1414   7.8016331624e+01   6.9963199248e+01    0.3754067    0.2991191 -13.06  0.002184388    1.389    0.280
       241  -9.4730    206.1653     37.4965   1.5701891150e+01   2.8696955536e+01    0.1905935    0.1394209  73.09 0.0003979762    1.451    0.311
       242 -10.5155    176.5980     35.3796   1.8842994977e+01   3.6392916638e+01    0.4994547    0.2313546 -40.61  0.001334177    2.013    0.503
       243 -10.1756    175.6371     30.7023   1.7468005012e+01   3.7233911803e+01    0.2689749    0.1709377  54.05 0.0006805828    1.614    0.380
       244  -9.6990    132.6244     37.0112   2.7189381362e+01   4.7614785060e+01    0.3814805    0.2148182  87.22  0.001331147    3.065    0.674
       245  -9.2933     12.9600     36.8444   7.3650743858e+01   6.9306730211e+01    0.1949551   0.09588253 -48.74 0.0005989315    1.583    0.368
       246  -9.5949    213.7497    248.2310   6.0592008441e+01  -3.1081500705e+00      0.15119   0.09603667  13.35  0.001050649    1.336    0.251
       247 -10.1960    174.8215    246.5559   6.6980263910e+01   2.2373546685e+00    0.2225351    0.1383468  34.54  0.001484353    1.247    0.198
       248 -11.9412    126.4324    241.6898   7.5151305876e+01   9.5939714291e+00    0.3756224    0.2421204  51.52  0.002434162    1.440    0.305
       249 -11.8284    106.8720     32.1528   3.1440994694e+01   5.4722538702e+01    0.7649218    0.4349467  11.48  0.002626626    3.113    0.679
       250 -12.1380    114.1331     24.9089   2.6458307807e+01   5.3936837432e+01    0.7569031    0.3355345  57.69  0.001903915    2.166    0.538
       251  -9.9330    240.7158     32.7506   1.1041211000e+01   2.1355190572e+01    0.2876129    0.1485243  52.86   0.00137977    2.318    0.569
       252  -9.8973    170.5610     31.1886   1.8344508346e+01   3.8493579637e+01    0.4077424    0.2193302 -33.92  0.001374421    1.743    0.426
       253 -12.3048    160.0570     29.7067   1.9426723059e+01   4.1430427280e+01     0.412456    0.3851441   3.05 0.0003815382    1.149    0.130
       254 -11.9003    164.3773     27.6579   1.8063628854e+01   4.0547081039e+01    0.3186356    0.2925811 -69.75 0.0004887271    1.072    0.067
       255 -10.8874    188.9707     28.4655   1.5048336226e+01   3.4082722219e+01    0.5089815    0.3309525  -1.26  0.002300388    2.041    0.510
       256  -9.0481    183.3321     32.2909   1.6940132167e+01   3.5052808527e+01    0.1470339    0.1085389  32.78 0.0003744543    1.630    0.386
       257 -11.0071     32.4460     30.8335   6.0492043601e+01   6.8781998310e+01    0.3167936    0.1985416 -51.30 0.0003820507    1.476    0.322
       258 -10.5607    131.1533    240.8286   7.4186714532e+01   9.0643560214e+00    0.1831181     0.143817  34.68 0.0009440917    1.070    0.066
       259 -11.2798     67.7013    240.9281   8.5957548226e+01   1.7394857033e+01    0.2951997    0.1820579  22.11  0.001570816    2.196    0.545
       260 -11.5660    147.1328    237.9330   7.0906292130e+01   7.2297992072e+00    0.4383998    0.2620379  48.22  0.002374803    1.590    0.371
       261 -10.5509    167.3300    238.0420   6.7234743986e+01   4.3521606948e+00    0.1512574    0.1320495  17.64 0.0009132285    1.146    0.127
       262  -9.8667    199.9890    234.7575   6.1023643190e+01   1.9979240057e-01    0.1482439   0.07649296  33.83 0.0004691758    1.559    0.359
       263  -9.6421     11.9848     30.3403   7.1933989325e+01   7.0805659098e+01    0.3212826    0.1414547 -27.64  0.001207044    2.755    0.637
       264  -8.8501      7.8776     29.8657   7.4214623877e+01   7.1182448874e+01    0.5594116    0.2997826 -18.17  0.002162636    2.195    0.544
       265 -10.2785    198.3042     28.6843   1.4035992579e+01   3.1711978395e+01    0.4106814    0.3370858 -41.17  0.002284147    1.120    0.107
       266  -9.9227     86.7330     29.7222   3.6364715072e+01   5.9697973695e+01    0.4175018    0.2362432  22.19  0.001637034    2.595    0.615
       267 -12.0349    126.0476     28.3380   2.5188544028e+01   5.0484277918e+01    0.5261961    0.4371068  84.65  0.002721971    1.341    0.254
       268 -10.8328    183.0150     25.4879   1.4846434762e+01   3.5956182220e+01    0.3944221    0.3088094 -25.03  0.001973965    1.288    0.223
       269  -9.6650    187.1453     23.1774   1.3638523969e+01   3.5165694895e+01    0.2770261    0.2170526  21.10 0.0006931939    1.573    0.364
       270  -9.5258    149.6431     27.8734   2.0477831744e+01   4.4399022312e+01    0.3135889    0.2080624  55.99  0.001466417    1.476    0.323
       271 -11.0155    143.6993     25.0664   2.0466947903e+01   4.6305460769e+01    0.7355239    0.3445832  51.22  0.002929671    2.080    0.519
       272  -8.9362     15.3922    233.8336   9.5006956620e+01   2.4297979451e+01    0.1296718   0.08243027 -76.63 0.0009459885    1.696    0.410
       273  -8.7958    205.6692    233.6992   5.9898165159e+01  -4.5236929284e-01    0.1165272   0.07070802  11.12  0.000601061    1.648    0.393
       274 -10.7087    126.8504     16.7334   2.0277081519e+01   5.1665284071e+01    0.3333173    0.2302054  49.54 0.0008155762    1.396    0.283
       275  -8.8947     64.3043    239.3028   8.6470127467e+01   1.8072323203e+01     0.091585   0.08372274   8.98 0.0003502219    1.595    0.373
       276 -10.3656    155.0421     24.2748   1.8301143042e+01   4.3409460884e+01    0.3741549    0.2163598 -78.59  0.001383255    2.354    0.575
       277 -10.1508     91.0511     22.7176   3.1660990872e+01   5.9743401965e+01    0.3125633    0.2491327   0.27  0.001448787    1.286    0.222
       278  -9.0835    247.4272    231.4673   5.2755254227e+01  -5.6172270167e+00    0.1081894   0.07727892   8.19 0.0001114043    1.015    0.015
       279 -10.5638     38.8257     22.1516   5.2800919323e+01   6.9623974578e+01    0.2342864     0.190673 -35.46 0.0003996573    1.149    0.129
       280  -9.0345    181.2885    228.3458   6.3412277617e+01   3.6259307213e+00    0.1170636   0.07823582   6.65 0.0007023781    1.655    0.396
       281  -9.5250    223.1130     22.1137   9.7894821270e+00   2.6514365689e+01     0.219737     0.131678 -57.78 0.0006634908    1.603    0.376
       282 -10.7936    179.0092     20.7778   1.3839843112e+01   3.7526830189e+01    0.5374843    0.2548898  41.73  0.002068612    2.696    0.629
       283  -9.7470    233.8535    223.1695   5.3607733610e+01  -3.0409000682e+00    0.1588624    0.1035533   6.01 0.0005367732    1.311    0.237
       284  -9.5567      6.1749     22.0127   7.2332009636e+01   7.2972133867e+01    0.2250884    0.1602095   5.22  0.001436726    1.586    0.370
       285  -9.4144     97.2636     26.5917   3.1646875764e+01   5.7783280277e+01    0.3807249    0.1327648 -23.55  0.001202133    3.512    0.715
       286 -10.9896    246.6532     19.5033   7.3360837705e+00   2.1594551907e+01     0.263947    0.1335567 -32.70  0.001343934    1.624    0.384
       287  -9.6440     49.6343    222.6912   8.8131013876e+01   2.2694770812e+01   0.09710477   0.08741289 -15.63 0.0007037937    1.753    0.429
       288  -9.1511    153.2800    219.3361   6.7385119986e+01   9.0373530108e+00    0.1170402   0.08644924   4.54 0.0003534226    1.616    0.381
       289  -8.9085    216.5072     20.5446   9.9354218105e+00   2.8232218298e+01    0.1348685    0.1200568 -52.82 0.0002658331    1.025    0.024
       290  -9.4237    164.5130    211.9881   6.4180842367e+01   8.4286586983e+00    0.1841735    0.1415767  32.45 0.0004424879    1.095    0.087
       291 -10.0705     74.7416     19.4949   3.5419646671e+01   6.3738771356e+01    0.2648275    0.2004048  13.29 0.0006688018    1.368    0.269
       292  -9.9561     47.2205     18.9460   4.6752623039e+01   6.8916577994e+01    0.2986391    0.1724874 -33.33  0.001227312    1.563    0.360
       293  -9.1394     61.5096    206.5311   8.4562600127e+01   2.4332267550e+01    0.1197013   0.09613521  61.48  9.36659e-05    1.008    0.008
       294 -10.0841     16.4935    205.4880   9.3632687481e+01   2.9443644635e+01     0.113407   0.08223857  66.57 -6.100661e-05    1.017    0.016
       295 -10.1874    147.7984     16.2870   1.6516147047e+01   4.6216139538e+01    0.3810183     0.208821  47.61  0.001290686    1.861    0.463
       296  -9.4224    120.1538     16.2522   2.1402705430e+01   5.3442227678e+01    0.2735662    0.1647597  -1.44  0.001058429    2.056    0.514
       297  -9.9166    186.9593     15.0833   1.1168159161e+01   3.6098831587e+01    0.2056204    0.2019971 -84.62 0.0006393244    1.095    0.087
       298 -10.8084      4.5658    204.5553   9.5918962895e+01   3.0707868680e+01    0.3065896    0.1034144 -75.47  0.001596097    2.683    0.627
       299  -9.5025     74.9427     13.7675   3.2299192639e+01   6.4451867614e+01    0.2035791    0.1611593 -85.71  0.001059052    1.908    0.476
       300  -9.2047     78.5629    203.7268   8.0728783961e+01   2.2684242795e+01    0.1538854     0.108446  88.03  0.000710312    1.487    0.327
       301  -9.6083    233.8596    196.8803   4.9204497858e+01  -4.6314643038e-03    0.2046412    0.1439845 -25.02 0.0009776556    1.388    0.280
       302  -9.4565     16.7530    191.4444   9.2890486600e+01   3.2248772596e+01    0.1355977    0.1078297  24.92 0.0009473044    1.625    0.385
       303  -9.1694     79.4949    190.4836   7.9137879786e+01   2.5200253084e+01    0.1272021    0.1081492  62.24 0.0002391863    1.001    0.001
       304  -9.1225     52.8436    190.3924   8.5047642369e+01   2.8644871581e+01    0.1578441    0.1130592  24.36 0.0009412877    1.719    0.418
       305 -12.1447      4.5808    184.3629   9.5104756368e+01   3.4796405952e+01    0.5459116    0.3243883  78.58   0.00266557    1.327    0.246
       306  -8.7726     85.6673    185.6799   7.7193312183e+01   2.5325467735e+01    0.1211376    0.1016943 -17.37 0.0006762719    1.697    0.411
       307  -9.7482     28.0424    176.0886   8.9483249440e+01   3.4439718393e+01    0.2125974    0.1502852 -85.36 0.0009028525    1.247    0.198
       308  -9.4087     66.5575     10.3530   3.3418698835e+01   6.6617292635e+01    0.2309416    0.1204207  49.58  0.001079566    1.905    0.475
       309  -8.9739    250.6700    176.6546   4.2794279856e+01   6.4458019543e-02    0.1296544   0.07729799   3.00 0.0007050277    1.755    0.430
       310  -9.2600     52.1317    174.4494   8.3742004466e+01   3.2168249529e+01    0.2472495    0.1262644  78.73  0.001150227    2.253    0.556
       311  -9.2338     39.5092    173.5199   8.6628580586e+01   3.3814792260e+01     0.126065    0.1010114  73.27  2.31776e-05    1.019    0.018
       312 -10.6781     14.0402    159.2984   9.1617116716e+01   3.9502362412e+01    0.3264726    0.1837184 -84.32  0.001342064    1.489    0.328
       313 -11.9063      8.9603    166.8931   9.3277069673e+01   3.8212107606e+01    0.4496599    0.2472301  44.22  0.001962527    1.648    0.393
       314 -11.5053     11.4924    163.0078   9.2460383407e+01   3.8873481411e+01    0.3872524    0.2013425  79.62  0.002012513    1.658    0.397
       315 -10.5300     19.0675    164.6729   9.0774272166e+01   3.7839585588e+01    0.2696794    0.2196766  18.30  0.001805903    1.635    0.389
       316  -9.6136    204.8692    163.3052   4.7874275323e+01   9.2607191665e+00    0.2091598     0.171405 -31.57 0.0005354399    1.254    0.203
       317 -10.4912     28.0020    161.9390   8.8418243247e+01   3.7624834382e+01    0.3112848    0.2395954 -68.26   0.00165042    1.334    0.251
       318  -9.4643     38.0874    160.3323   8.5788851849e+01   3.6966539505e+01    0.1787879    0.1473113  60.69   0.00114638    1.129    0.115
       319 -10.7732      9.3182    155.5152   9.2520628610e+01   4.0757775739e+01    0.2447305    0.1802337  84.78  0.001051861    1.071    0.066
       320  -9.9063    104.3322    154.7265   6.8209689194e+01   2.9137883837e+01    0.2703952    0.2570117 -31.95  0.001594877    1.194    0.162
       321 -12.4595     22.6690    149.3379   8.8716732226e+01   4.1066375965e+01    0.6324189    0.3408658 -43.81  0.001819638    2.590    0.614
       322 -10.9408     16.5177    148.0432   9.0197428471e+01   4.1909297913e+01    0.3198395    0.1897196 -86.00 0.0004406413    1.407    0.289
       323 -10.4911     30.7878    152.4175   8.6897121136e+01   3.9570102663e+01     0.356605    0.2301086  74.96  0.002030561    1.401    0.286
       324 -10.5771      4.5208    153.7581   9.3584872732e+01   4.1532041736e+01    0.1984617    0.1516973  47.18 0.0006972237    1.336    0.252
       325 -11.3590     47.2697    147.1332   8.2008512377e+01   3.9071451161e+01    0.6425814    0.3650405 -51.56  0.003159935    1.938    0.484
       326 -10.9443      3.1797    147.8306   9.3570191059e+01   4.2999298657e+01    0.5747896    0.1898354  33.05  0.002744717    2.815    0.645
       327 -11.4238      5.7164    142.3098   9.2577679966e+01   4.4109019664e+01    0.5032176    0.2072885  70.52 0.0002925802    2.377    0.579
       328 -11.0613      2.1905    141.1440   9.3417058450e+01   4.4632855562e+01    0.4050807    0.1511881 -80.13   0.00184015    2.152    0.535
       329  -9.3734    104.2185    147.3717   6.6925794401e+01   3.0816116874e+01    0.1942991    0.1261507  49.68            0    1.534    0.348
       330  -9.0385     74.0456    146.0509   7.4655458697e+01   3.5873410286e+01    0.1681153    0.1479731 -84.31 0.0005798518    1.052    0.049
       331 -11.0940     33.1251    144.2230   8.5482339001e+01   4.1294591849e+01    0.2926155    0.2406605  74.78  0.000836567    1.072    0.067
       332 -11.8720     12.9241    136.8535   9.0264445173e+01   4.4869148139e+01    0.8868573    0.4709677  76.76  0.004650592    1.741    0.426
       333 -10.9296     10.7878    127.1879   9.0052563912e+01   4.7374631919e+01    0.4985189    0.2185954 -79.21  0.001585539    1.868    0.465
       334 -10.1111     13.1850    122.7339   8.8954895736e+01   4.8291649626e+01    0.4907461    0.1183742 -62.63  0.001868764    3.092    0.677
       335  -9.1940    217.6782    138.9446   4.0377366960e+01   1.0756175827e+01    0.1910991    0.1581795 -21.55 0.0003912718    1.087    0.080
