#   1 NUMBER                 Running object number                                     
#   2 MAG_AUTO               Kron-like elliptical aperture magnitude                    [mag]
#   3 X_IMAGE                Object position along x                                    [pixel]
#   4 Y_IMAGE                Object position along y                                    [pixel]
#   5 X_WORLD                Barycenter position along world x axis                     [deg]
#   6 Y_WORLD                Barycenter position along world y axis                     [deg]
#   7 A_WORLD                Profile RMS along major axis (world units)                 [deg]
#   8 B_WORLD                Profile RMS along minor axis (world units)                 [deg]
#   9 THETA_WORLD            Position angle (CCW/world-x)                               [deg]
#  10 FWHM_WORLD             FWHM assuming a gaussian core                              [deg]
#  11 ELONGATION             A_IMAGE/B_IMAGE                                           
#  12 ELLIPTICITY            1 - B_IMAGE/A_IMAGE                                       
         1 -14.0588    236.6147     87.7064   1.8209942892e+01   1.5243265140e+01     4.144517     1.847463 -26.12   0.01365586    4.538    0.780
         2 -15.7343    244.2078    115.6346   2.3043499361e+01   9.0560297676e+00     4.968981     4.891543 -79.41  0.007287698    1.167    0.143
         3 -14.4725    246.6588     78.3649   1.5029761707e+01   1.4750309449e+01     5.288444     2.333167 -62.36   0.01118204    3.094    0.677
         4  -8.3355    115.8242     12.2015   1.7590411331e+01   5.3875507295e+01    0.2473489    0.2069224  58.68   0.00156737    1.020    0.019
         5  -9.4274    120.1522      8.9998   1.5672808538e+01   5.3169114920e+01    0.3125906    0.2770084  58.47  0.001271381    1.055    0.052
         6  -8.6658    229.3731     10.0052   2.7682366771e+00   2.7685414153e+01    0.2207685    0.1586828  89.84 0.0005710095    1.165    0.142
         7  -8.8684    232.9412      3.3567   1.2034870821e+00   2.7666002741e+01    0.4274342    0.1537269  59.18  0.001991314    3.094    0.677
         8  -8.0075    171.8995      9.2664   8.0215639759e+00   4.0834887811e+01    0.2232213    0.1519733  32.05  0.001208459    2.114    0.527
         9  -7.5232    238.6018      5.8512   1.2967198389e+00   2.6218993176e+01    0.1551682   0.08271571 -53.02 0.0004031973    1.549    0.354
        10  -8.8786     96.8052      5.1642   1.9228516466e+01   5.8749456108e+01    0.2151333    0.1669189  50.60 0.0003144943    1.066    0.062
        11  -7.7368    243.0331      4.4629   7.4068005699e-01   2.5467543146e+01    0.1706851   0.09417894  80.17  0.001031828    1.602    0.376
        12  -8.4959    112.9981      3.1317   1.5069251231e+01   5.5310552603e+01    0.1856767    0.1730402  35.51  0.000409705    1.165    0.141
        13  -8.0673    221.9950      8.9918   3.1332368807e+00   2.9381774529e+01    0.2526156    0.1232087  54.50  0.001276566    2.517    0.603
        14  -9.1702    248.8274    202.6512   3.9385678667e+01  -6.2511146706e+00    0.3564024    0.2077114  22.43  0.001951503    1.889    0.471
        15 -11.3531    247.0254    247.2056   4.7324351826e+01  -1.2288145529e+01    0.7299947    0.5321198  -2.69  0.005165292    1.104    0.094
        16  -8.2097    242.7462    199.4104   3.9828351834e+01  -4.8911576589e+00    0.2028924    0.1538872  37.67  0.001240654    1.490    0.329
        17  -8.9589    236.7766    197.2052   4.0457419694e+01  -3.6662783019e+00    0.4221028    0.2072138  43.77  0.002041386    2.340    0.573
        18  -9.4691    230.1697    194.7843   4.1178308483e+01  -2.2684140069e+00    0.3806596    0.3342839 -81.87  0.001581339    1.749    0.428
        19 -10.0906    224.9216    189.2806   4.1088238296e+01  -5.1391614233e-01    0.5306196    0.3800024  59.31 0.0007093145    2.055    0.513
        20  -9.3769    192.7280    194.3456   4.8287624122e+01   4.0082224527e+00    0.7498617     0.390459 -63.46  0.002474808    4.481    0.777
        21  -9.4636    250.0607    195.1543   3.7811425068e+01  -5.2682995347e+00    0.5266056    0.1971995 -33.91  0.002294483    2.510    0.602
        22  -7.0589    125.6556    250.7326   7.1419968709e+01   4.8169331751e+00    0.1230822   0.09411892  13.03 0.0002652094    1.609    0.378
        23  -7.5975     79.7930    247.5312   8.0549138824e+01   1.2351597146e+01    0.1840191    0.0917581  49.12 0.0004449255    1.657    0.397
        24  -8.2327    200.5458    185.0680   4.4927246967e+01   4.3653277471e+00    0.3155939    0.1822704  31.48  0.001266111    1.846    0.458
        25  -7.5549    229.9213    182.0383   3.8798038980e+01  -7.7201970590e-02    0.1508468    0.1360803  -2.94 0.0003030233    1.066    0.062
        26  -7.7488    243.5877    174.4046   3.4974177594e+01  -9.5369412538e-01    0.1699106    0.1467278 -60.47 0.0005908145    1.462    0.316
        27  -7.9390    145.9760    171.0223   5.4117118686e+01   1.7634849696e+01    0.1821878    0.1768983 -60.02 0.0004904755    1.054    0.051
        28 -10.2714    192.7208    165.5449   4.2576444457e+01   9.5867161384e+00    0.5537735     0.389613 -42.06  0.001774305    1.383    0.277
        29  -9.5235    200.2014    165.1328   4.0986909553e+01   8.2393928341e+00    0.4017355    0.3842432 -13.98  0.001395336    1.018    0.018
        30  -8.7555    202.3580    160.0271   3.9498685104e+01   8.8225081628e+00    0.3161504    0.2931661  33.65 0.0009440021    1.123    0.109
        31  -8.1778     20.7771    166.1832   8.5974454638e+01   3.8102089483e+01    0.1852749    0.1489045  80.35 0.0003880501    1.097    0.088
        32  -7.2081    215.2831    168.6388   3.8809501641e+01   4.7998785516e+00    0.1356187    0.1085739 -70.63 0.0006089321    1.678    0.404
        33  -7.2840     66.0047    162.7726   7.3488606020e+01   3.3668461547e+01    0.1749731    0.1171994  36.07 0.0003069325    1.551    0.355
        34  -8.8182    126.6371    159.9148   5.6672046894e+01   2.4001725523e+01    0.3605105    0.2570028 -33.12  0.000980986    1.689    0.408
        35  -9.9392    191.8804    153.7025   4.0240642577e+01   1.2125071592e+01    0.7171417    0.3831777 -55.45  0.002864041    2.239    0.553
        36  -9.0179    181.7620    150.8535   4.1721601450e+01   1.4761069896e+01    0.4991615    0.2436469 -54.33  0.001447535    2.404    0.584
        37  -9.4606    201.7243    148.9004   3.7253594046e+01   1.1120789091e+01    0.6569977    0.3622327 -63.61  0.002397249    3.055    0.673
        38 -10.6680    134.2291    146.1387   5.1793498739e+01   2.5722755377e+01     1.010759    0.6540971 -52.79  0.004265497    1.564    0.361
        39  -8.8694    132.3496    138.1618   5.0476500022e+01   2.7971750705e+01    0.3514259    0.2077288 -57.11  0.000964321    1.814    0.449
        40 -10.6684    149.5573    143.9863   4.7494835016e+01   2.3015032035e+01    0.8244332    0.4276866  56.62  0.003005055    2.375    0.579
        41 -11.0013    151.5272    149.5946   4.8274558695e+01   2.1337484848e+01     1.492499    0.7518002  63.42  0.004542004    3.743    0.733
        42  -9.2705    146.4651    151.0099   4.9810824654e+01   2.2071306533e+01    0.4533347    0.2865806 -56.54  0.001928652    1.689    0.408
        43 -10.3562    156.2887    141.0305   4.5213887100e+01   2.2241835069e+01    0.6511117    0.3758724 -50.53  0.002464528    1.757    0.431
        44 -10.1981    160.6001    146.8112   4.5516350293e+01   2.0048509342e+01    0.6288702    0.4612669 -20.07  0.002229397    1.779    0.438
        45  -9.3269     68.3770    144.9329   6.9845830559e+01   3.7824751933e+01    0.5425962    0.3009454  52.41  0.002320418    2.023    0.506
        46  -7.8314     48.4840    140.4886   7.4959272962e+01   4.1574572128e+01    0.2551448     0.141108  27.76  0.001169434    2.033    0.508
        47  -9.1736     12.6588    139.6991   8.5317737819e+01   4.5268139507e+01    0.2262252    0.1875968 -77.45 0.0004083382    1.007    0.007
        48  -8.6265     18.9547    245.9452   9.2360610411e+01   2.0402665200e+01    0.1687954    0.1310838  71.44 0.0004305516    1.083    0.076
        49  -8.6711    166.1451    147.3003   4.4356516922e+01   1.8771252251e+01     0.281252    0.2707983 -56.08 0.0006309121    1.032    0.031
        50 -10.2220    162.5410    136.4951   4.2714743703e+01   2.1888860142e+01    0.5202413    0.2012134  43.15  0.001747118    2.667    0.625
        51 -10.4978    160.7589    129.4253   4.1459057835e+01   2.3811163127e+01    0.6235746    0.3231255 -51.41  0.002222966    2.009    0.502
        52  -7.8075     46.5234    131.0455   7.3974252275e+01   4.4171399105e+01    0.2044922    0.1257166 -65.43 -8.74564e-06    1.473    0.321
        53  -8.5439    149.9923    129.9998   4.4133081540e+01   2.6052822834e+01    0.2519554    0.1946491  88.44 0.0007464256    1.649    0.394
        54  -9.1512    136.2731    128.9188   4.7289581955e+01   2.9272259309e+01    0.3820653    0.1359813 -45.15  0.001206736    2.848    0.649
        55 -10.4111     35.4988    127.8641   7.6868099711e+01   4.6162775716e+01    0.2316104    0.2257808  40.66  0.001483758    1.163    0.140
        56  -8.7281    115.8394    121.9365   5.1064517805e+01   3.5162993174e+01    0.5312076    0.2218907 -50.33  0.001854253    2.396    0.583
        57 -10.1456    138.4760    120.4884   4.4661731998e+01   3.0693119224e+01    0.4521244    0.3816289  69.31  0.001255996    1.269    0.212
        58 -10.2999    135.4711    120.4950   4.5431881351e+01   3.1348318994e+01    0.4859738    0.4243304  33.59  0.001420361    1.213    0.176
        59 -11.6534     12.7148    116.2146   8.2298315258e+01   5.0959457451e+01    0.8558104    0.7518181 -89.85  0.004975223    1.147    0.128
        60  -9.3527    193.1658    119.1467   3.2211290922e+01   1.8774939010e+01    0.3273399    0.2856832 -33.47  0.001630061    1.186    0.156
        61 -10.9524     58.9299    117.3183   6.7397319836e+01   4.6015510284e+01    0.5830202    0.3954767 -37.55  0.001675234    1.582    0.368
        62 -11.8975     51.8889    114.8633   6.9198847354e+01   4.7519261753e+01     1.004236    0.8254411  -6.51  0.004003401    1.429    0.300
        63 -10.3755    156.5192    111.9764   3.8145554532e+01   2.8481478327e+01    0.5199898    0.4415297 -88.75  0.002579077    1.303    0.232
        64 -10.4520    156.1223    105.9944   3.6708380923e+01   2.9811263195e+01    0.5656285    0.5097975  70.35  0.002202278    1.111    0.100
        65  -7.1762     93.5421    113.5396   5.5513319693e+01   4.1438365879e+01    0.1501151    0.1450015 -82.39 8.775616e-05    1.050    0.048
        66  -8.2430    147.0425    112.4580   4.0505499773e+01   3.0535118852e+01    0.2441671    0.1526955  49.26  0.001030272    1.595    0.373
        67 -10.3688     41.9037    115.3929   7.2611684737e+01   4.8553135932e+01    0.3706988    0.3578835  14.14 0.0008558756    1.155    0.134
        68 -10.5734    170.0604    103.4509   3.3010756279e+01   2.7092558671e+01    0.4662095    0.3409544 -37.38  0.002074808    1.424    0.298
        69  -9.2412    134.1134    104.1904   4.1574332861e+01   3.5208170154e+01    0.5874858    0.2212274 -41.47  0.001929807    2.792    0.642
        70  -7.2857     87.4322    121.5940   5.9317622220e+01   4.0603029309e+01    0.1468552    0.1430991 -66.57 8.502413e-05    1.009    0.009
        71  -8.5723    140.6245    104.3593   3.9973071165e+01   3.3704762925e+01    0.2971808    0.2497313  75.43 0.0006823841    1.296    0.228
        72  -8.3666    248.3028    177.3520   3.4764435751e+01  -2.1659477670e+00    0.2004919    0.1600133  -8.50  0.001244502    1.227    0.185
        73  -7.3960    116.6224    102.7411   4.5893881705e+01   3.9330675050e+01    0.1555067    0.1215418  11.01 0.0006974282    1.663    0.399
        74  -8.2133    109.9589     98.9902   4.6776135584e+01   4.1533163584e+01    0.2156938     0.212984  22.83  0.001179419    1.021    0.020
        75  -9.7976    164.9134    113.9622   3.6753597891e+01   2.6152039047e+01    0.4266916    0.2543527 -36.51  0.001769636    1.808    0.447
        76 -10.1868    177.2655     73.0446   2.3801981536e+01   3.0970728188e+01     0.615038     0.388975 -34.32  0.002315101    1.726    0.420
        77 -10.2983    177.6752     83.3441   2.6377284737e+01   2.9085781140e+01    0.9169702    0.3553588 -31.38  0.002909088    3.639    0.725
        78  -8.8279    202.4490     85.2580   2.2574638151e+01   2.2989626174e+01    0.4183255    0.2164692 -27.21   0.00161388    2.758    0.637
        79  -9.2506    186.0428     84.1624   2.5064207281e+01   2.6966098098e+01    0.2529108    0.2068817 -45.68 0.0005753015    1.210    0.174
        80  -8.7129     82.9703     83.0158   5.0624937523e+01   5.0112707206e+01    0.2077969    0.1979759  -8.38  0.001195726    1.010    0.010
        81 -10.1940    183.6577     78.8963   2.4163976178e+01   2.8448746157e+01    0.4790316    0.3178788  52.09  0.001495927    1.546    0.353
        82  -8.6057     54.0520    186.0570   7.9777770255e+01   2.9527086147e+01    0.1971256    0.1718465  80.71  0.000297844    1.014    0.014
        83 -10.2790    206.2447     64.9572   1.7220091518e+01   2.5476804400e+01    0.4839898    0.3114022  59.78  0.002478901    1.574    0.365
        84  -7.6585     82.3281     66.9889   4.5872153839e+01   5.3376693463e+01    0.1861402    0.1748671  -3.34 0.0004510925    1.020    0.019
        85  -7.9488    133.7754     65.6333   3.0705256257e+01   4.2669575358e+01    0.2208156    0.1962233 -12.54 0.0003999263    1.295    0.228
        86  -8.9924    208.4885     55.7462   1.4775245658e+01   2.6370544081e+01    0.4277179    0.2353897 -27.49  0.001921326    2.389    0.581
        87  -8.0148    195.0312     56.4566   1.6776763311e+01   2.9383012877e+01    0.2116593     0.127194  64.77  0.001028575    1.595    0.373
        88  -8.8945    199.3138     50.6586   1.4787268266e+01   2.9233824898e+01    0.3610014    0.2265942  52.13  0.001822571    1.756    0.430
        89  -9.1435    202.2273     47.6129   1.3684626188e+01   2.8991900298e+01    0.3768746     0.261874  35.63  0.001896352    2.172    0.540
        90  -8.5916    191.9999     52.0312   1.6128270500e+01   3.0754250517e+01    0.2030324    0.1818129 -86.99 0.0003379718    1.050    0.047
        91  -8.2436    180.4781     52.5236   1.7967527669e+01   3.3436802885e+01    0.1406034     0.125476  89.65 6.776676e-05    1.016    0.016
        92  -8.5551    185.4956     49.0136   1.6317592569e+01   3.2740194487e+01    0.1751162    0.1259749   3.41 0.0008095603    2.461    0.594
        93  -8.7986    172.4582     48.4792   1.8184311852e+01   3.5964696514e+01    0.2507834    0.2299197  35.27 0.0008139946    1.319    0.242
        94  -9.5298    150.0372     45.6103   2.1312260712e+01   4.1836902316e+01    0.3554749    0.2733157  -6.21 0.0008965392    1.775    0.437
        95  -7.7978    196.7180     37.4002   1.1959960170e+01   3.1674970242e+01    0.1905838    0.1676463   6.87 0.0006073526    1.649    0.394
        96  -9.7665    231.6224     25.0757   5.6235746181e+00   2.5426186324e+01    0.4060521    0.1877411 -70.38  0.001910927    2.345    0.574
        97  -7.5135    246.3010     26.2756   4.6513238521e+00   2.2231242982e+01    0.1003979   0.09007119  61.31  0.000230489    1.537    0.350
        98  -7.7499    250.4861     24.5095   3.9911262542e+00   2.1612386502e+01    0.1219988    0.0893112 -69.16 0.0008100963    1.042    0.040
        99  -8.5306    238.1838    175.8698   3.6165848639e+01  -3.4888395189e-01    0.3976967    0.2798704  82.51  0.001784521    3.312    0.698
       100  -8.5115    246.6009    185.7579   3.6638666711e+01  -3.2784611751e+00    0.3728027    0.2841675  46.37  0.002277238    1.630    0.386
       101  -7.0170     76.4882     21.4482   3.1206323722e+01   6.1338323628e+01    0.1260393    0.1083303  30.09 0.0001652274    1.029    0.028
       102  -8.1956    236.6653     19.8720   4.1626342519e+00   2.4999896274e+01    0.1981905    0.1404126  73.62  0.000781948    1.402    0.287
       103  -8.5447    211.0836     18.9615   6.1874297090e+00   3.0660576819e+01    0.1882048    0.1498918 -78.36  0.000386473    1.016    0.016
       104  -8.5262    203.3526     18.1790   6.7628306621e+00   3.2505141914e+01    0.2268172    0.1475101 -52.30   0.00131583    1.435    0.303
       105  -8.5024    248.9677     16.7739   2.6441205628e+00   2.2858337608e+01    0.2472557    0.1540524  53.25  0.001464681    2.247    0.555
       106  -7.6824     92.7585     17.0101   2.4696992990e+01   5.8518568238e+01    0.1651853    0.1469164  26.59 -0.000430966    1.091    0.083
       107  -9.3850    244.5426    179.7696   3.5846041554e+01  -1.9920320305e+00    0.4516645    0.3575814 -71.43  0.002581804    1.992    0.498
       108  -9.4168    220.7182    245.0063   5.1653084102e+01  -8.6230096400e+00     0.172111    0.1395106  -6.01  0.001178309    1.103    0.093
       109  -7.7204    116.7842    201.6420   6.6597863350e+01   1.6157352207e+01    0.2073432    0.1204171  46.93 0.0003023922    1.611    0.379
       110  -6.9066    119.6886    236.2785   7.0860838427e+01   8.4546332458e+00    0.1345695   0.09105578  60.61  0.000234002    1.563    0.360
       111  -8.5335     21.6671    221.8201   9.0355131678e+01   2.5115826506e+01     0.173581    0.1549959  53.55 0.0006762609    1.307    0.235
       112  -7.8288     27.9206    220.2773   8.8961107685e+01   2.4764550427e+01    0.1738077    0.1343434  64.65  0.000631778    1.074    0.069
       113  -7.6707      2.6944    216.6361   9.3848899157e+01   2.8138314396e+01    0.1599719    0.1193773 -56.67 0.0007155846    1.709    0.415
       114  -7.9367    233.9651    216.0258   4.4358925667e+01  -6.2114420412e+00     0.161779    0.1540211 -82.88 0.0004847468    1.632    0.387
       115  -8.1590     57.0471    213.9593   8.2120507053e+01   2.2601598119e+01    0.2700285    0.1897676  -3.83  0.001302488    2.743    0.635
       116  -9.6018    110.3941    203.5153   6.8400171026e+01   1.6835467380e+01    0.2466116    0.2375649 -61.51 0.0005991955    1.153    0.133
