#   1 NUMBER                 Running object number                                     
#   2 MAG_AUTO               Kron-like elliptical aperture magnitude                    [mag]
#   3 X_IMAGE                Object position along x                                    [pixel]
#   4 Y_IMAGE                Object position along y                                    [pixel]
#   5 X_WORLD                Barycenter position along world x axis                     [deg]
#   6 Y_WORLD                Barycenter position along world y axis                     [deg]
#   7 A_WORLD                Profile RMS along major axis (world units)                 [deg]
#   8 B_WORLD                Profile RMS along minor axis (world units)                 [deg]
#   9 THETA_WORLD            Position angle (CCW/world-x)                               [deg]
#  10 FWHM_WORLD             FWHM assuming a gaussian core                              [deg]
#  11 ELONGATION             A_IMAGE/B_IMAGE                                           
#  12 ELLIPTICITY            1 - B_IMAGE/A_IMAGE                                       
         1 -12.1563    212.8949     46.8474   2.0803335056e+01   2.5578005839e+01     1.362119     1.060194  34.68  0.006920475    1.603    0.376
         2 -11.6539    229.7168     32.9128   1.5317287457e+01   2.3403008081e+01    0.7753552    0.6888821 -65.85  0.002867909    1.048    0.046
         3  -9.5856    250.2518     11.0938   8.5216607033e+00   2.1378732761e+01    0.6010633    0.1350996 -33.37  0.002224991    3.738    0.732
         4  -9.8187    119.2327     10.0498   2.5347390599e+01   5.3494422979e+01    0.5878092    0.3252531  36.46  0.002817025    1.794    0.443
         5  -7.9953      9.6557      9.3225   6.5326868413e+01   7.1743475568e+01   0.08938786   0.08824971 -51.66 0.0007050225    1.732    0.423
         6  -7.2039     84.6791      7.7022   3.3169004650e+01   6.1260363394e+01    0.1359022   0.08238895  25.18 0.0001867958    1.620    0.383
         7  -7.2528    171.6691      3.6706   1.4464392615e+01   4.1091764774e+01     0.142101   0.09016934  42.02 -0.0001062462    1.716    0.417
         8  -8.0013    100.1863      1.3619   2.6318906999e+01   5.8582611632e+01    0.1661283    0.1139944  65.56   0.00019965    1.540    0.351
         9 -10.4637    123.9987    230.4746   7.9195386660e+01   1.0187402856e+01    0.4297285    0.2200963  38.68  0.002168902    1.738    0.424
        10  -7.4342    237.3133    250.2878   6.0836546829e+01  -1.0909445006e+01    0.1175657   0.07038637  13.04 0.0002707937    1.584    0.369
        11  -8.4093     95.1371    249.8126   8.6740733176e+01   1.1359460293e+01    0.2047827    0.1530436 -57.81  0.001291408    1.710    0.415
        12  -8.3998     80.0945    247.9835   8.9273782156e+01   1.3840443407e+01    0.2696886    0.1466112 -85.58  0.001538035    2.159    0.537
        13  -8.1306     61.4594    249.9595   9.2690456133e+01   1.6029342432e+01    0.1840303    0.1118153  63.25  0.000420666    1.291    0.226
        14  -8.8388     57.7444    249.1799   9.3270773121e+01   1.6647480721e+01     0.297045    0.1513759 -77.24  0.001810914    2.022    0.505
        15 -13.2209     81.2303    220.3210   8.6466710407e+01   1.8758913869e+01     4.658582      1.18828  47.06    0.0179593    3.187    0.686
        16 -11.7976      4.9216    249.1243   1.0182703971e+02   2.2687523703e+01    0.6644601    0.2214003  39.52  0.003843839    2.639    0.621
        17  -7.1594     87.6674    198.7321   8.2700999478e+01   2.2168172720e+01    0.1155796    0.1047809  -2.35 0.0003510656    1.585    0.369
        18 -11.0724     14.8202    246.4244   1.0017307368e+02   2.2147702165e+01    0.3732049    0.1742364  81.30  0.000542376    1.810    0.448
        19  -8.4670     66.9640    190.9935   8.6235336925e+01   2.6832500662e+01    0.1942225    0.1561794  78.96 0.0003671074    1.061    0.057
        20 -14.0974      8.4822    237.8746   1.0077873271e+02   2.4319118332e+01     2.325136      1.07116  37.17  0.006986033    2.262    0.558
        21  -9.6512    138.0712    184.0356   6.9353599314e+01   1.6583000620e+01    0.2550523    0.2155525 -60.32 0.0003884539    1.276    0.216
        22  -7.9497    143.8207    181.3373   6.7586050951e+01   1.6040903456e+01     0.223692    0.1661535  56.83 0.0008428728    1.356    0.263
        23  -9.6879    110.8561    230.6236   8.1786204262e+01   1.2290264787e+01    0.2517534    0.1977081 -78.61  0.000905462    1.408    0.290
        24  -8.8477     81.7114    172.1497   8.0477833795e+01   2.8904768521e+01    0.2170817    0.1865527  42.93  0.000341645    1.249    0.199
        25 -10.0134     57.0209    170.5305   8.6042739259e+01   3.2712493974e+01    0.4039695     0.295085 -35.61  0.001541135    1.980    0.495
        26  -9.9122     62.4822    165.9869   8.4180432295e+01   3.3046476175e+01    0.2909741    0.2708257  -8.23 0.0006340661    1.459    0.314
        27 -10.5597     40.1215    211.8549   9.3665084700e+01   2.5865579931e+01     0.488223     0.224874  70.80  0.002490628    2.222    0.550
        28  -8.0901    110.6748    167.9518   7.2902525556e+01   2.5091446538e+01    0.2040273    0.1749002 -73.74 0.0006795078    1.167    0.143
        29  -8.8954     96.7339    166.4590   7.6007842442e+01   2.7824096995e+01    0.2481099    0.2200958 -81.86 0.0002362802    1.076    0.071
        30 -10.5577     56.9847    117.5411   7.7921619646e+01   4.5218953472e+01    0.5286865    0.2414163 -51.87 0.0005119054    1.948    0.487
        31 -10.7869     80.3387    152.0906   7.7699965805e+01   3.3768637769e+01     1.067433     0.400357 -47.99  0.003875967    2.995    0.666
        32 -10.4656     72.8083    157.2076   8.0414314874e+01   3.3670699982e+01    0.4883754    0.3317958 -62.06 0.0006488952    1.383    0.277
        33 -12.4368     68.3240    145.0202   7.9632442601e+01   3.7181000114e+01     2.722103     1.422967  89.06   0.01019031    3.197    0.687
        34 -12.4332     52.4063    229.5719   9.2757567038e+01   2.0898943945e+01     1.312045    0.7385429  87.21  0.005375048    1.712    0.416
        35  -7.6814    224.6789    159.0244   4.6145226787e+01   4.0912719386e+00    0.1917769    0.1658852 -23.84 0.0003970351    1.105    0.095
        36  -7.8570     46.7842    156.6758   8.6748071643e+01   3.7152705942e+01    0.1665244    0.1590988 -20.68 0.0006619793    1.384    0.277
        37  -7.5400    155.6633    229.6828   7.2856566725e+01   4.9793447863e+00    0.1276195   0.09431167  13.80 0.0005340668    1.700    0.412
        38 -11.3909     59.5480    152.8990   8.3088726887e+01   3.6482499636e+01     0.440968    0.3435432 -53.86  0.001383088    1.339    0.253
        39  -8.5037     52.5250    154.2899   8.5031332836e+01   3.7031446614e+01    0.3009035    0.1757166  76.60 0.0007525833    2.003    0.501
        40 -11.3944     27.2486    194.6873   9.4826049711e+01   3.0840818326e+01    0.4876482    0.4305648 -13.55 0.0009296234    1.870    0.465
        41  -8.1251    237.4576    148.4694   4.1546208713e+01   3.3915246704e+00    0.1400529     0.125039 -11.23 0.0001017572    1.008    0.008
        42  -7.9799    134.0000    147.5081   6.3240830942e+01   2.5251392837e+01    0.3390037   0.08680613 -49.20 0.0009403679    3.980    0.749
        43  -7.8431     90.9927    148.1873   7.4284029222e+01   3.3016580091e+01    0.1902359    0.1796334 -89.04 0.0003211316    1.041    0.040
        44  -8.2512     24.5115    148.5045   9.1186714050e+01   4.1347833645e+01     0.200804   0.09241172  45.03 0.0009663017    2.232    0.552
        45  -8.7449    150.7406    138.7954   5.7226650575e+01   2.3658796931e+01    0.3323995    0.2512385 -16.45  0.001099132    1.724    0.420
        46  -8.8020     96.8811    138.7194   7.0928599946e+01   3.4268177925e+01     0.413575      0.31086 -16.60  0.001946748    1.946    0.486
        47 -10.2268     83.7454    137.3212   7.4173983641e+01   3.6750772164e+01    0.2820006    0.2474645 -55.03 0.0004736823    1.133    0.118
        48  -8.2278     36.7650    135.5652   8.6502779858e+01   4.3190821101e+01    0.1818654    0.1325843  78.80 0.0007310967    1.375    0.273
        49  -8.8510     35.2977    132.0311   8.6401395772e+01   4.4169889907e+01    0.2878318    0.2045752  23.53 0.0007771397    1.762    0.432
        50 -13.3014     39.1040    185.2246   9.1594369532e+01   3.1577747831e+01      2.14036     1.201079  65.87  0.009956392    1.687    0.407
        51  -7.9029    108.4967    129.2977   6.5813779222e+01   3.4404292581e+01    0.2519712    0.1909768  11.30 0.0009910655    1.807    0.447
        52  -7.2250    128.7566    123.6832   5.9121281643e+01   3.1685446447e+01    0.1496178    0.1214488 -16.35 0.0002140227    1.516    0.340
        53  -7.3824    232.4611    218.4983   5.6395177966e+01  -6.3155830829e+00    0.1240306    0.1030183  14.20 0.0002274697    1.068    0.064
        54  -7.9359    231.1081    118.0229   3.5700935945e+01   9.8309800599e+00    0.2200999    0.1672533 -64.56 0.0004770681    1.630    0.386
        55  -7.9459    105.4821    118.5535   6.4154931850e+01   3.7461578116e+01    0.1488129    0.1441707 -64.43 6.079098e-05    1.006    0.006
        56  -7.7185     85.1830    118.1666   6.9828700619e+01   4.1073236624e+01    0.1984966     0.167088  82.57 0.0006838391    1.321    0.243
        57 -10.0793      4.0430    112.7022   9.2400799298e+01   5.1125251619e+01    0.4433855     0.212767 -50.93   0.00243946    1.889    0.471
        58  -7.2979    108.0205    105.0000   6.0040085586e+01   4.0070740449e+01    0.2294122   0.08686348  41.63 0.0003926659    2.725    0.633
        59  -7.5095    234.5268     86.5122   2.7634552121e+01   1.4381054070e+01    0.1431973    0.1306254 -49.63  0.000809927    1.012    0.012
        60  -9.5975      2.8885     82.4315   8.8538198121e+01   5.7974562069e+01    0.2690732    0.1375294 -63.79  0.001548353    1.459    0.315
        61  -8.0215    128.4011     79.9309   4.7189919467e+01   4.1073471140e+01    0.2233251    0.1946689  43.29 0.0001541418    1.142    0.124
        62  -7.6222    214.4300     77.8360   2.8552128693e+01   2.0453646436e+01    0.1881717     0.141294 -20.53 0.0002209107    1.517    0.341
        63  -8.3217    201.9105     81.0268   3.1468745436e+01   2.2951972375e+01    0.2152713    0.2118624 -77.79 0.0003265041    1.031    0.030
        64  -8.4097     99.0361     67.1199   5.1548414408e+01   4.9732629019e+01    0.2101911    0.1970714 -13.44 0.0003798369    1.016    0.016
        65  -9.5344    198.2997     60.0652   2.6454950470e+01   2.7260707229e+01    0.3978704    0.1782575 -29.43  0.001488811    2.455    0.593
        66  -7.3906    167.6719     60.7208   3.2139634378e+01   3.4940444451e+01    0.1547662    0.1152218  28.66 0.0003280716    1.597    0.374
        67 -10.6664    203.6361     52.3577   2.3555979794e+01   2.7082599863e+01    0.4363231    0.3639423  45.63  0.001267524    1.310    0.237
        68 -14.0016      9.1724    209.4260   9.9204727490e+01   2.9637069560e+01     6.174098     1.333077 -77.96   0.02496516    4.066    0.754
        69 -10.3935    222.8018     38.6722   1.7493931459e+01   2.4291425884e+01    0.4086676    0.3449129  40.15  0.001000027    1.442    0.307
        70 -10.2571    100.7689    246.5888   8.5405876449e+01   1.1064883562e+01    0.2162767    0.1915507  71.92 0.0005143606    1.191    0.160
        71  -7.2809     96.7110     51.7047   4.6979165666e+01   5.2954809161e+01    0.1424509    0.1052163   5.99 0.0002196661    1.551    0.355
        72  -8.2235    147.9637     44.3353   3.1093209450e+01   4.2417432371e+01    0.2225159    0.1957664 -45.21 0.0003510537    1.210    0.174
        73  -8.4474    185.0015     23.0441   1.8210513752e+01   3.5682835871e+01    0.2058733    0.1854104  63.35 0.0003426118    1.100    0.091
        74  -8.8963     71.8725    246.0717   9.0574338192e+01   1.5314820364e+01    0.1841949    0.1201774  65.15 0.0006997937    1.245    0.197
        75  -8.1750    243.6916    240.3051   5.8131607110e+01  -1.0692615820e+01   0.09879185    0.0888909  38.05  0.000671428    1.609    0.378
        76  -7.3839    149.3988    216.4178   7.2169945323e+01   8.3207212214e+00    0.1318056    0.1130802  46.90 0.0007958633    1.027    0.026
        77  -9.1598    231.8102    237.1071   5.9682649049e+01  -8.5782673363e+00     0.168161    0.1465631  29.30 0.0006891367    1.346    0.257
        78  -9.5045    125.4224    235.2401   7.9502839835e+01   9.1283791974e+00    0.2297646    0.2116885  71.85  0.000321622    1.171    0.146
