#   1 NUMBER                 Running object number                                     
#   2 MAG_AUTO               Kron-like elliptical aperture magnitude                    [mag]
#   3 X_IMAGE                Object position along x                                    [pixel]
#   4 Y_IMAGE                Object position along y                                    [pixel]
#   5 X_WORLD                Barycenter position along world x axis                     [deg]
#   6 Y_WORLD                Barycenter position along world y axis                     [deg]
#   7 A_WORLD                Profile RMS along major axis (world units)                 [deg]
#   8 B_WORLD                Profile RMS along minor axis (world units)                 [deg]
#   9 THETA_WORLD            Position angle (CCW/world-x)                               [deg]
#  10 FWHM_WORLD             FWHM assuming a gaussian core                              [deg]
#  11 ELONGATION             A_IMAGE/B_IMAGE                                           
#  12 ELLIPTICITY            1 - B_IMAGE/A_IMAGE                                       
         1 -13.2251    187.6976     23.6447   7.0672229611e+01   3.5142135268e+01     1.750776     1.215341   0.17  0.007019317    1.556    0.357
         2 -12.9834    194.3728     17.2966   6.7642748820e+01   3.4038346220e+01     1.196095    0.8257614 -46.06  0.004404296    1.534    0.348
         3 -13.4010    200.4626      9.3261   6.4305010376e+01   3.3193701982e+01     1.709778    0.9371969  50.61  0.001531927    1.788    0.441
         4 -11.4434     32.7515      6.0629   1.0673454575e+02   7.0705402275e+01    0.8649547    0.1235554 -44.14  0.002551521    5.333    0.812
         5  -9.0974    221.3523    245.3114   1.1509777813e+02   3.0332676543e-01    0.1085613   0.05774893  23.01 0.0007044918    1.724    0.420
         6 -10.1259    143.5618    249.1143   1.2734620674e+02   1.0801197861e+01    0.2229318    0.1475197  70.51  0.001623784    2.008    0.502
         7 -10.0599    132.9052    249.1553   1.2898473269e+02   1.2230299056e+01    0.1883555     0.107938  44.21 0.0005659681    1.244    0.196
         8  -9.8723    107.9744    240.8093   1.3213824513e+02   1.6520427389e+01    0.2351416    0.1372706 -71.50 0.0008441732    2.245    0.555
         9 -10.6432    101.6618    241.9502   1.3321119422e+02   1.7176737619e+01    0.3407386    0.1329422 -64.10  0.002075914    3.345    0.701
        10  -9.8095    104.1517    237.8590   1.3250082038e+02   1.7393592236e+01    0.1648685    0.1402183  41.99 0.0009150239    1.315    0.240
        11 -11.4792    110.3582    248.4886   1.3237923547e+02   1.5250479200e+01    0.6770054    0.1609462  45.09   0.00340051    2.854    0.650
        12 -10.3254    101.1771    250.1643   1.3389883317e+02   1.6195365390e+01    0.3650357    0.1275679  40.29    0.0021531    2.221    0.550
        13 -10.7663     98.0946    246.4034   1.3409310692e+02   1.7050221504e+01      0.29281    0.1414102  49.86  0.002061299    1.489    0.328
        14 -10.5565     87.7980    247.4158   1.3572666044e+02   1.8172706920e+01    0.2470209    0.1393108  45.05  0.001897738    1.324    0.245
        15 -10.4619     81.4481    246.7867   1.3664239264e+02   1.9006770857e+01    0.3210253    0.1733892  88.07  0.002305354    2.295    0.564
        16 -10.5579     73.9260    249.4183   1.3792776957e+02   1.9532634897e+01    0.2879914    0.1958859  81.87  0.002514562    1.467    0.318
        17 -12.2639     50.4859    228.2928   1.4027862085e+02   2.5050098155e+01    0.3596278    0.3170536 -59.35  0.001122872    1.756    0.430
        18 -14.6730     58.8970    217.0154   1.3826591530e+02   2.5825012964e+01     3.190014     1.866531 -86.10   0.02371095    1.725    0.420
        19  -9.8947     73.5015    237.7371   1.3727401618e+02   2.1148109835e+01    0.2250008    0.1164071  68.79  0.001260156    1.890    0.471
        20  -8.7432    119.0370    236.9628   1.3006918883e+02   1.5564221864e+01    0.1932155    0.1249573  82.02  0.001229179    2.073    0.518
        21  -9.8446    121.3509    232.8349   1.2932610669e+02   1.5783720176e+01    0.1776363    0.1436866  32.57  0.000756638    1.365    0.267
        22 -10.1837    117.3601    224.3700   1.2918582763e+02   1.7450443518e+01    0.2579143    0.1604737  41.97  0.001207896    1.301    0.231
        23 -10.7500     98.7206    231.7298   1.3287195086e+02   1.8907820167e+01    0.2637895    0.1889351  53.17  0.002128184    1.027    0.027
        24 -12.0796    110.8271    229.8201   1.3075673654e+02   1.7592418092e+01    0.6545366    0.2428918  42.19  0.002903907    2.052    0.513
        25  -9.9256     83.6083    242.2090   1.3601394367e+02   1.9355625512e+01     0.190933    0.1527584  30.61  0.001446462    1.646    0.393
        26  -9.7897    156.4595    231.6622   1.2353693007e+02   1.0995968879e+01    0.2120197    0.1431896  28.21  0.001101732    1.480    0.325
        27 -10.2268    121.7484    244.5985   1.3030828974e+02   1.4251906039e+01    0.2248364    0.1167058  52.55 0.0009254342    1.540    0.350
        28 -10.7490    150.4561    247.5364   1.2613479022e+02   1.0034954467e+01    0.3665575    0.1062938  39.61  0.001833004    2.676    0.626
        29  -9.4617     92.7508    232.1874   1.3386323665e+02   1.9598167334e+01    0.1261621     0.105859  40.04  0.001073325    1.373    0.272
        30 -12.6568     45.7657    246.1780   1.4188725263e+02   2.3018443482e+01    0.5264975    0.4106591  52.35  0.005042639    1.314    0.239
        31 -10.9802    136.3033    227.7409   1.2639691414e+02   1.4366421931e+01    0.2081479    0.1823656 -68.15  0.001742229    1.472    0.320
        32  -9.9059     79.5194    229.0915   1.3574764841e+02   2.1650937833e+01    0.1264042    0.1115908  77.41 0.0004991657    1.301    0.231
        33  -8.8156    180.5460    229.4636   1.1940708034e+02   7.7082559814e+00    0.1091255   0.07986803  34.60 0.0001252878    1.050    0.048
        34 -10.1291    142.7543    228.5454   1.2542489829e+02   1.3346418373e+01    0.2364966    0.1711944 -83.70  0.001355637    2.038    0.509
        35  -9.5776    190.9323    228.0311   1.1756930841e+02   6.3146137682e+00    0.1602515    0.1183926  35.06 0.0003058294    1.018    0.018
        36  -9.9749    164.7298    226.6264   1.2162064867e+02   1.0374117260e+01    0.1740048    0.1489343 -74.49 0.0009303439    1.671    0.402
        37  -7.9669     93.6370    227.3241   1.3333917557e+02   2.0163557548e+01    0.1095311   0.05806683  62.08 0.0007040692    1.787    0.441
        38 -12.2284     42.9874    237.3367   1.4188167846e+02   2.4529127448e+01    0.2736239    0.2218311  37.34 0.0001459183    1.629    0.386
        39 -10.6165     98.4566    223.1003   1.3220088044e+02   2.0144708509e+01    0.2497981    0.1881452  58.27 0.0002833954    1.049    0.046
        40  -9.1823     79.0383    223.3611   1.3541131547e+02   2.2535582335e+01    0.1684476    0.1429375 -78.52  0.001395221    1.419    0.295
        41 -11.2808    146.1242    240.5594   1.2612016677e+02   1.1425235992e+01    0.2820626    0.2108879  38.11  0.000467323    1.142    0.125
        42 -10.0668    149.9739    222.3335   1.2355228301e+02   1.3075210282e+01    0.1590617    0.1500399  43.47 0.0001814791    1.236    0.191
        43 -10.6714    142.0140    221.9460   1.2483455546e+02   1.4289672696e+01    0.2182544    0.1543205  53.94 0.0003984625    1.249    0.199
        44 -10.8799    142.3210    218.6905   1.2442070141e+02   1.4667717542e+01    0.3789577    0.2001973  60.40 0.0004630149    2.349    0.574
        45  -9.9883    105.0424    218.9567   1.3073690739e+02   1.9871188794e+01    0.1760653    0.1252102  55.22 0.0003058598    1.103    0.093
        46  -9.3475    110.7677    222.4139   1.3009703909e+02   1.8614778073e+01    0.1401361    0.1110497  58.46  0.001112486    1.078    0.072
        47  -9.3383    163.9703    221.0413   1.2107673813e+02   1.1149470274e+01    0.1711303    0.1170732  18.75  0.001133533    1.750    0.429
        48  -9.6582     90.1246    219.0213   1.3324322462e+02   2.1801823499e+01    0.2845348    0.1364296  61.85   0.00156617    2.117    0.528
        49  -9.6966    177.5829    218.3672   1.1848803089e+02   9.3970850440e+00     0.220342    0.2029863  31.16  0.001371507    1.230    0.187
        50 -10.2320    105.0094    222.9506   1.3110274037e+02   1.9308401704e+01    0.2433902    0.1795006  21.48  0.001298194    1.936    0.483
        51  -9.4036    183.8039    214.2604   1.1691316050e+02   8.9104928757e+00    0.2760478    0.1589031  56.99 0.0006566393    2.204    0.546
        52  -9.1345    141.7767    212.9749   1.2385872916e+02   1.5507241369e+01    0.2512756    0.1477666  56.06  0.001562527    1.665    0.399
        53  -8.6280     88.4973    213.5054   1.3305634454e+02   2.2830165923e+01    0.1605023   0.08993673 -86.65 0.0005595264    2.230    0.552
        54  -9.8587    101.6407    212.1478   1.3068520561e+02   2.1320254665e+01    0.3288738    0.1830547  46.20  0.002169805    1.414    0.293
        55  -8.7918    152.1871    211.9146   1.2194649351e+02   1.4080284618e+01    0.1629831    0.1285818  53.48 0.0005086248    1.190    0.160
        56 -15.3431      2.0401     63.1033   1.3702434776e+02   6.1129579468e+01     18.14053     1.071026 -72.94    0.0351453   13.980    0.928
        57  -8.7734    131.0281    211.5038   1.2554261166e+02   1.7295299890e+01    0.1687844   0.08645543  44.70 0.0009503467    1.534    0.348
        58  -8.9534    134.6282    208.3510   1.2455806083e+02   1.7207230985e+01     0.203582    0.1482212  12.74  0.000881825    2.033    0.508
        59  -8.9157     97.1869    207.4254   1.3101413220e+02   2.2627067817e+01    0.1691404   0.09989642  64.37 0.0007481131    1.663    0.399
        60 -10.3426     91.8069    204.9711   1.3172898125e+02   2.3715287819e+01    0.4805028    0.1734125  40.96  0.001841499    2.295    0.564
        61 -10.2160    174.4260    205.9689   1.1735733699e+02   1.1377030523e+01    0.3034783    0.2065106  33.14 0.0009456276    1.241    0.194
        62 -10.1302    166.5020    204.4925   1.1851897412e+02   1.2821556200e+01    0.3481684    0.2726491 -12.90  0.001386899    1.642    0.391
        63  -8.6472    169.5309    200.4749   1.1743634409e+02   1.2858116980e+01    0.1171314   0.09380145  38.26 3.564639e-05    1.008    0.007
        64  -9.7641     88.4893    250.6455   1.3583793909e+02   1.7676552555e+01    0.2398422   0.09729835  43.66  0.001237354    1.765    0.433
        65  -9.5640    247.6486    205.3040   1.0535562916e+02  -6.4343843506e-02    0.1222068    0.0841451  19.98  0.000848803    1.086    0.079
        66  -9.2136    125.8242    205.8439   1.2581567468e+02   1.8863623979e+01    0.1566236    0.1085717  58.61 0.0004912829    1.330    0.248
        67  -8.2137    114.4473    206.5281   1.2789544870e+02   2.0397798916e+01    0.1090383   0.08763195  52.11 2.123967e-05    1.029    0.028
        68  -9.8720     41.1119    204.2858   1.4043426468e+02   2.9741444300e+01    0.2829904    0.1167212 -86.73  0.001677719    2.563    0.610
        69 -15.2831      8.6045    245.7389   1.4712040981e+02   2.6604567878e+01     1.350812     1.035364 -74.55   0.01361114    1.776    0.437
        70  -8.6641    148.5173    205.4949   1.2178339047e+02   1.5501403152e+01    0.1141172   0.09122019  42.56 0.0008103262    1.021    0.021
        71 -10.0167    108.7426    203.1457   1.2855021909e+02   2.1709542739e+01    0.2207469    0.1721628 -50.79 0.0004758482    1.642    0.391
        72  -8.5052    156.6871    204.2916   1.2019958463e+02   1.4394862624e+01    0.1102913   0.07887521  62.19 0.0003549469    1.590    0.371
        73 -10.4283    133.2263    202.7542   1.2414510080e+02   1.8215336167e+01    0.1965008    0.1725203  46.33 0.0002461757    1.105    0.095
        74  -9.0179    103.2306    203.4097   1.2955781784e+02   2.2430617918e+01    0.1833524    0.1531134  17.83 0.0009763768    1.660    0.398
        75  -8.8229    224.8849    202.3299   1.0842976715e+02   3.7279408104e+00    0.1630578    0.1098682  31.72 0.0004318437    1.142    0.124
        76 -10.1880    196.8444    200.7075   1.1278296185e+02   8.4034415242e+00     0.258564    0.2016928  60.88  0.001713169    1.711    0.416
        77 -11.5162     96.4682    239.3232   1.3381968176e+02   1.8171333319e+01    0.3137117    0.2276514  73.10  0.001675016    1.339    0.253
        78  -8.2438    115.2943    201.2956   1.2718103973e+02   2.1065687049e+01   0.09869839   0.08323539  17.64 0.0003152249    1.562    0.360
        79  -9.7120    134.3973    197.3610   1.2327538305e+02   1.8827545924e+01    0.2773456    0.1864944 -39.43  0.001268878    1.967    0.492
        80 -10.3046    249.5133    243.0265   1.1068441619e+02  -3.3770868631e+00      0.16303   0.09060255 -26.88  0.001174562    2.252    0.556
        81 -11.6357     84.7001    237.6748   1.3553478403e+02   1.9834836152e+01    0.4230988    0.2217197  35.43  0.002338478    1.938    0.484
        82  -9.3938    141.7284    198.1825   1.2205722921e+02   1.7578544615e+01    0.2277404    0.1642662  21.78  0.001082064    1.677    0.404
        83  -9.5284    100.6956    198.1504   1.2947695358e+02   2.3601490839e+01    0.1742636    0.1448158  50.84 0.0003220822    1.119    0.106
        84  -8.2705     86.2800    199.2674   1.3218417117e+02   2.5338104250e+01   0.08866163   0.08174909  24.36  0.000184528    1.487    0.327
        85  -9.1957     52.7020    198.1629   1.3805270334e+02   2.9521404454e+01    0.1715103    0.1261301  45.82 0.0006192118    1.324    0.245
        86 -11.0982     73.2076    194.5657   1.3411965742e+02   2.7750198807e+01    0.3046469    0.1991739 -51.76  0.001673841    2.044    0.511
        87 -11.0321     77.7879    187.7280   1.3266003792e+02   2.8338233688e+01    0.2268822    0.2048405 -49.64 0.0009091179    1.521    0.343
        88  -7.9747     95.6266    196.7300   1.3025196215e+02   2.4516782655e+01   0.09924777   0.08287943  18.26 0.0002679787    1.677    0.404
        89  -9.9914    172.8687    193.1080   1.1578170799e+02   1.3281364117e+01      0.29854    0.1984553 -20.87  0.001731916    2.021    0.505
        90  -9.7011    159.7234    194.0945   1.1827026089e+02   1.5300098750e+01     0.251904    0.1618427  51.09    0.0011721    1.436    0.304
        91  -8.2201    114.0652    196.0000   1.2681189376e+02   2.2059790630e+01     0.190204   0.05385825  41.08 0.0008045764    2.957    0.662
        92  -9.2363    177.3569    194.1844   1.1515045075e+02   1.2399045147e+01    0.2352496    0.1343374  26.56  0.001276575    1.906    0.475
        93  -8.6019    120.6071    194.5595   1.2544679206e+02   2.1327807254e+01    0.2689134   0.06424457  51.23 0.0008071157    5.988    0.833
        94  -8.2735     82.2362    194.3240   1.3245727962e+02   2.6664564656e+01   0.08838391   0.08260055 -44.61 0.0001736358    1.519    0.342
        95  -9.7829    191.4631    191.3627   1.1225247814e+02   1.0410120351e+01    0.2333088     0.179213  27.81 0.0005956679    1.099    0.090
        96  -9.2514    173.3461    240.1234   1.2179953483e+02   7.6185495199e+00    0.2070735    0.1659188 -86.54 0.0008601933    2.073    0.518
        97  -9.6528    135.4820    190.2738   1.2216734454e+02   1.9723878514e+01    0.2051387    0.1696049  46.66 0.0003333625    1.020    0.019
        98  -8.8967     70.8269    189.9877   1.3415612862e+02   2.8811736741e+01    0.1375875    0.1258902  72.53 0.0002581037    1.251    0.200
        99 -10.1680    250.2633    187.6750   1.0197726043e+02   1.1535326980e+00    0.2875216    0.1405205 -13.32  0.001546873    2.245    0.555
       100  -8.5097    113.0091    192.0124   1.2654874596e+02   2.2842441265e+01    0.1313087     0.111756  60.08 0.0003300451    1.047    0.045
       101 -11.7258    134.9780    236.5645   1.2749346754e+02   1.3448906493e+01    0.2899073    0.2383899 -80.36  0.001830295    1.579    0.367
       102  -9.4772     44.0617    188.6819   1.3893215809e+02   3.2053850388e+01    0.2254983    0.1673897  25.76  0.001675524    1.877    0.467
       103  -8.9768    175.5460    186.9438   1.1436425379e+02   1.3658919781e+01    0.1538253    0.1198536 -34.59 0.0004102517    1.520    0.342
       104  -8.3177     67.7399    186.4467   1.3441734859e+02   2.9791710008e+01    0.1317967   0.09610125  35.65 0.0007805997    1.536    0.349
       105  -8.1298    123.7300    185.7008   1.2376956256e+02   2.2254494490e+01    0.1036879   0.08884821  10.46 0.0001864971    1.525    0.344
       106  -8.7235    143.1818    184.6163   1.1995957414e+02   1.9362706782e+01    0.1668474    0.0983158  35.46 0.0006258276    1.607    0.378
       107  -9.0379     38.5343    184.0607   1.3962134806e+02   3.3426928645e+01    0.1458361    0.1106323  68.40 0.0003907207    1.035    0.034
       108  -8.8872     87.7720    183.5099   1.3035500109e+02   2.7771251997e+01    0.3317499   0.09071294  40.53  0.001437409    3.094    0.677
       109  -8.9083     48.2020    179.7987   1.3752717307e+02   3.3178978257e+01    0.1533694    0.1082565  63.30 0.0004443867    1.140    0.123
       110  -9.3743     37.1112    179.9595   1.3960728501e+02   3.4296509032e+01    0.1557868    0.1167634  73.39 0.0003668073    1.016    0.016
       111  -8.9283    128.9296    179.3398   1.2192901946e+02   2.2472543748e+01    0.1668563    0.1298199  47.17 0.0003455726    1.103    0.093
       112  -9.9693    181.9118    177.2325   1.1164018860e+02   1.3885006494e+01    0.3206651    0.1702463  35.09  0.001658119    1.712    0.416
       113 -11.4458     91.8673    167.5805   1.2773807813e+02   3.0039139906e+01    0.6704528    0.4098887 -45.75  0.001795128    2.115    0.527
       114  -9.6220     31.5015    177.5016   1.4048426723e+02   3.5285610086e+01    0.1711738    0.1298394  75.64  0.001369565    1.026    0.026
       115  -9.8357     28.6783    177.3307   1.4099627046e+02   3.5584377227e+01    0.1554791    0.1084783  54.32  0.000392107    1.247    0.198
       116 -10.5400     73.4482    174.1085   1.3215879804e+02   3.1280858201e+01     0.329907    0.2852141 -36.47  0.002400141    1.682    0.405
       117 -12.6020     18.8261    170.9389   1.4244578703e+02   3.7634610749e+01    0.7388297    0.2880708 -89.26  0.004163321    2.398    0.583
       118 -10.6495    249.0663    171.9680   9.9300542575e+01   2.8923105672e+00    0.3292317    0.2034644  40.74  0.001969968    1.503    0.335
       119  -8.7313     36.8621    162.3465   1.3837300820e+02   3.7567035527e+01    0.1663718    0.1018259  57.89 0.0006638289    1.404    0.288
       120 -10.1512     23.5024    149.0543   1.4008947087e+02   4.1378151874e+01    0.2314931    0.1398519  83.12  0.001515295    1.386    0.278
       121 -11.5890     30.9772    169.8596   1.4007590593e+02   3.6728641121e+01    0.4188043    0.3492027 -81.83  0.003438897    1.279    0.218
       122 -11.7550     34.3782    159.6161   1.3865932844e+02   3.8329847961e+01    0.4378691    0.3472567 -76.13  0.002956089    1.273    0.214
       123 -12.1270     23.6998    155.4296   1.4051000777e+02   4.0120036575e+01    0.4847139    0.2723177  37.32 0.0009056181    1.850    0.460
       124  -8.3580    154.6781    172.6566   1.1597303599e+02   1.9284321553e+01    0.1246952   0.09279697  11.19 0.0007050239    1.728    0.421
       125  -8.6088    100.7783    170.4032   1.2628769124e+02   2.8266398622e+01    0.1482212    0.1046878  36.28 0.0001551263    1.463    0.316
       126 -10.0304     43.8649    169.4269   1.3754718497e+02   3.5527787317e+01    0.2454679    0.1754449 -43.57  0.001667646    2.127    0.530
       127  -8.7614     69.1413    168.3890   1.3243203192e+02   3.2862047226e+01    0.2479558    0.1037457 -54.29  0.001258463    2.728    0.633
       128  -9.4307    107.6152    168.1697   1.2461564458e+02   2.7658081217e+01    0.2085089    0.1544468  41.45 0.0003795116    1.285    0.222
       129  -9.6684     84.9915    166.1008   1.2896234033e+02   3.1251099846e+01    0.3310766    0.1583001 -63.09 0.0008718669    2.145    0.534
       130 -10.0460    115.7608    240.2411   1.3087114771e+02   1.5581249467e+01    0.1756977    0.1407104  65.89 0.0007670573    1.222    0.181
       131  -8.7860    175.8332    166.1757   1.1085257570e+02   1.6530271674e+01    0.1817749    0.1591599  54.14 0.0002528398    1.240    0.193
       132 -11.1846    245.2664    162.4499   9.8066070258e+01   4.5298881794e+00    0.2647054    0.1739568  -4.91  0.001562793    1.443    0.307
       133 -11.0606     12.2690    161.2373   1.4314003745e+02   3.9981930591e+01    0.2443206    0.1462449  70.00  0.001773651    1.327    0.246
       134  -9.0187     80.2240    163.6341   1.2965195431e+02   3.2343496923e+01    0.1778966    0.1233009  58.08  0.001139967    1.291    0.226
       135 -11.3399    243.8110    155.3862   9.6889244645e+01   5.5548253012e+00    0.2628717    0.2077672  32.52  0.001674213    1.221    0.181
       136  -9.8341     59.0915    159.5370   1.3358363865e+02   3.5729813316e+01    0.1901363    0.1427969 -83.09 0.0003342052    1.206    0.171
       137  -8.7647    119.8728    159.0941   1.2079123289e+02   2.7374939050e+01    0.1793987    0.1501499  69.66 0.0003676336    1.186    0.157
       138 -10.7152     89.0595    176.0314   1.2929232534e+02   2.8904998736e+01    0.1865644    0.1606192  84.81  0.000370941    1.117    0.105
       139  -8.4692     52.5375    158.4486   1.3483712039e+02   3.6678780536e+01    0.1108011   0.09081405  78.27 8.153497e-05    1.022    0.021
       140  -8.6282     46.4990    158.5327   1.3609409432e+02   3.7314158653e+01    0.1110545   0.08789521  77.05 2.321842e-05    1.014    0.014
       141 -10.6460     85.7713    175.9654   1.2993117062e+02   2.9357886079e+01    0.2234702    0.1917091 -78.53 0.0004442397    1.221    0.181
       142  -9.1091     73.7268    156.7015   1.3019950449e+02   3.4501335473e+01    0.3122091    0.1188153  41.15  0.001512208    2.403    0.584
       143  -8.8293    134.3262    155.9237   1.1728179092e+02   2.5536217921e+01    0.1664366    0.1625247 -73.88  0.000392141    1.117    0.104
       144 -10.7363     33.1282    153.8689   1.3845969411e+02   3.9559634645e+01    0.2675997    0.1769358 -74.19 0.0002938822    1.366    0.268
       145  -9.1611    113.9979    152.5067   1.2100549724e+02   2.9517213214e+01     0.222869    0.1699245 -80.55 0.0006165373    1.476    0.323
       146 -11.3309    249.7209    150.0860   9.4874530105e+01   5.0955318242e+00    0.3835686    0.2236083 -28.02  0.002106061    1.729    0.421
       147  -9.6005    103.3201    151.0093   1.2307429431e+02   3.1462094917e+01    0.2574463    0.2238119 -51.96  0.001039574    1.285    0.222
       148  -8.9996    106.0310    146.2677   1.2174883946e+02   3.1950519850e+01    0.3122908    0.2292304 -20.69  0.001680592    2.181    0.541
       149  -8.0032    145.7161    151.7290   1.1419951537e+02   2.4267584543e+01     0.122632   0.09857371  12.29 0.0001950944    1.499    0.333
       150  -9.2751     55.6610    150.2736   1.3334931386e+02   3.7929056548e+01    0.2120001    0.1143454  52.02   0.00123661    1.721    0.419
       151 -11.0712     73.8092    139.5363   1.2800285726e+02   3.7891549321e+01    0.5742435    0.3350539  54.46  0.001865005    1.695    0.410
       152 -12.3691     67.2799    143.5167   1.3000600981e+02   3.7910090232e+01     0.715433    0.4346416  79.15   0.00401658    1.835    0.455
       153 -10.8546     65.3651    134.2601   1.2924410672e+02   4.0036188332e+01     0.321187    0.1981263 -88.94  0.001271546    1.739    0.425
       154 -11.2648     32.8195    142.4413   1.3755557823e+02   4.1853928796e+01    0.4970707    0.1088881 -69.11  0.002060437    3.587    0.721
       155  -9.9059    134.0000    145.0005   1.1544465791e+02   2.7535780492e+01    0.4790662    0.1778132 -52.51  0.001881657    3.091    0.676
       156 -10.6185     21.6956    144.2835   1.4011270778e+02   4.2476654944e+01    0.2068266    0.1313016 -47.36  0.001343697    2.143    0.533
       157 -14.0910      8.9439    206.5938   1.4580218744e+02   3.2382032613e+01     1.532449     1.207085  79.27   0.01273791    1.242    0.195
       158  -9.0514    119.0908    138.6328   1.1755602006e+02   3.1295282691e+01    0.1817804    0.1519789  46.88 0.0004803503    1.144    0.126
       159  -9.6158     46.6981    139.0709   1.3413162188e+02   4.1162445233e+01    0.1658846    0.1390435 -66.85 0.0003496776    1.266    0.210
       160  -9.1479     51.0198    138.2194   1.3305506150e+02   4.0874929908e+01    0.2080829    0.1189499  46.76  0.001235428    1.690    0.408
       161 -10.1655    133.1331    140.8463   1.1486692236e+02   2.8445939462e+01    0.3477142    0.2768435 -41.17  0.001426249    1.368    0.269
       162 -10.5461     58.9117    133.7163   1.3068604625e+02   4.0917417276e+01     0.273403    0.1549745 -68.64  0.001181176    1.601    0.375
       163 -10.6983     13.3477    137.5170   1.4141244347e+02   4.4506617363e+01    0.2086308    0.1045624 -76.82 0.0009513842    1.614    0.380
       164 -10.2447    113.4373    136.0736   1.1837059139e+02   3.2733523512e+01    0.3373154    0.2728866  49.66  0.001858283    1.184    0.155
       165  -9.0676    137.0044    134.2211   1.1274419547e+02   2.8965579111e+01    0.1830138     0.164346  45.45 0.0002026715    1.058    0.055
       166  -8.5579     52.0000    132.9557   1.3221212983e+02   4.1855386944e+01     0.185641   0.05879004 -67.72 0.0003639204    2.839    0.648
       167 -11.0114     44.4219    130.3262   1.3368566547e+02   4.3207627517e+01    0.3834156    0.1833448 -70.40  0.001493866    1.821    0.451
       168  -8.0059    129.7265    132.2647   1.1397362289e+02   3.0653148844e+01    0.1267665    0.1016782  78.39            0    1.472    0.321
       169  -9.2807     17.3019    133.3159   1.4022380023e+02   4.5047500220e+01    0.1019849    0.0717595 -55.98 0.0002445568    1.618    0.382
       170  -9.1739    118.3884    128.7755   1.1587439276e+02   3.3322437446e+01    0.1858314    0.1220675 -41.25 0.0009456792    1.678    0.404
       171  -9.7337     66.2212    127.1677   1.2805082385e+02   4.1411351007e+01    0.3829835    0.1662425 -70.04  0.001767877    2.345    0.573
       172 -10.8779     32.8871    126.9818   1.3605065519e+02   4.5027760215e+01    0.2877155     0.153579 -88.80  0.001349756    1.768    0.434
       173  -8.2945     93.4210    127.5166   1.2153215147e+02   3.7612860288e+01    0.1277788    0.1150988  87.82 7.651565e-05    1.038    0.037
       174  -9.2660     85.8436    126.7995   1.2323482513e+02   3.8872739321e+01    0.2131598     0.185809   2.94 0.0009773483    1.541    0.351
       175  -9.4656    209.8861    125.7136   9.6201308498e+01   1.5781811536e+01    0.2422122    0.1892621 -27.01 0.0005295808    1.300    0.231
       176 -12.5989    248.4939    134.4382   9.1729597610e+01   7.0759128514e+00     1.174389    0.6879001 -11.66  0.006085299    1.666    0.400
       177  -8.1724    124.7232    125.6553   1.1378891022e+02   3.2816950385e+01    0.1322403    0.1067154 -11.21 0.0002337844    1.628    0.386
       178  -8.9022    114.7402    122.9948   1.1558921908e+02   3.5093545547e+01    0.1821253    0.1647249 -63.75 0.0002077403    1.103    0.093
       179 -10.3650    243.7895    120.8374   8.9392163427e+01   9.5772651402e+00     0.347657    0.1599033 -31.40   0.00156091    2.088    0.521
       180  -8.7907    143.1353    120.4562   1.0847671403e+02   3.0354533794e+01     0.323935    0.1554301 -56.42  0.001227848    2.878    0.653
       181 -11.5187     32.0642    116.9680   1.3516064348e+02   4.7224928537e+01    0.4987585    0.1935234 -70.35  0.002498542    2.122    0.529
       182  -8.9143     72.8462    115.1422   1.2450142675e+02   4.3124284670e+01    0.1635454    0.1448328 -38.95  0.000397182    1.328    0.247
       183  -9.6757    168.4882    113.5294   1.0133797278e+02   2.6409168804e+01    0.2903332    0.2531623 -86.04  0.001128723    1.478    0.323
       184  -8.6054     82.4374    114.4491   1.2191848028e+02   4.1958062145e+01    0.1283459    0.1152227 -84.07 3.422535e-05    1.027    0.027
       185 -10.6638     59.0924    110.4335   1.2729833866e+02   4.5855823753e+01    0.3913991    0.2266937 -77.29  0.002067916    1.745    0.427
       186  -9.8513     70.0861    111.0598   1.2451188238e+02   4.4364540707e+01    0.1877389     0.167447 -81.18  0.000289407    1.012    0.012
       187  -8.4289     79.7985    108.8381   1.2155349492e+02   4.3533217909e+01    0.1726514    0.1397035  84.95   0.00027151    1.286    0.222
       188 -11.2578     21.3517    119.5646   1.3807652403e+02   4.7580605017e+01    0.4130784    0.1324839 -56.33  0.001929568    2.970    0.663
       189 -11.0998    248.4347     99.5274   8.3590366161e+01   1.1222612008e+01     0.570083    0.3609464   5.37  0.002799772    1.687    0.407
       190  -9.4418    134.5086    104.4711   1.0672221534e+02   3.5084970213e+01    0.3008874    0.1391809 -43.28  0.001209423    2.161    0.537
       191  -8.1087     76.3256     99.2584   1.2059438601e+02   4.6093586521e+01     0.122547   0.09969901 -24.25 0.0002807592    1.555    0.357
       192  -8.8152     63.4963     98.4421   1.2400309783e+02   4.7954018157e+01    0.1272829    0.1111225 -77.21 -0.0001548581    1.033    0.032
       193 -11.5371    248.6494    112.7200   8.6746066256e+01   9.5957991547e+00    0.5456322    0.3996581 -10.83  0.002922776    1.213    0.176
       194  -9.6741     33.1600     94.2023   1.3189694070e+02   5.2096452166e+01    0.3111667   0.07941397 -70.71  0.001114797    3.713    0.731
       195  -8.5528    101.9947     87.9834   1.1086991222e+02   4.4499879425e+01     0.166606    0.1509963 -50.39 0.0009601138    1.039    0.038
       196 -14.1080     27.0024    248.1926   1.4464692991e+02   2.4597067628e+01    0.8120791    0.3459269  38.65  0.005986017    2.079    0.519
       197  -9.4105    204.9844    249.4847   1.1804685099e+02   2.2282766861e+00    0.1553533   0.07224054  40.58 -9.428371e-05    1.520    0.342
       198 -12.1365    126.2849    240.7800   1.2926426754e+02   1.4115916197e+01    0.6138923    0.3221986 -51.15  0.003873265    2.595    0.615
       199  -9.8766    152.6996    243.9964   1.2543569103e+02   1.0117835538e+01    0.1393182    0.1266381 -65.79 0.0008225957    1.524    0.344
       200 -12.1158     19.0233    249.9999   1.4581743548e+02   2.5094955612e+01    0.1614503     0.103892  58.81 0.0003692673    1.066    0.062
