#   1 NUMBER                 Running object number                                     
#   2 MAG_AUTO               Kron-like elliptical aperture magnitude                    [mag]
#   3 X_IMAGE                Object position along x                                    [pixel]
#   4 Y_IMAGE                Object position along y                                    [pixel]
#   5 X_WORLD                Barycenter position along world x axis                     [deg]
#   6 Y_WORLD                Barycenter position along world y axis                     [deg]
#   7 A_WORLD                Profile RMS along major axis (world units)                 [deg]
#   8 B_WORLD                Profile RMS along minor axis (world units)                 [deg]
#   9 THETA_WORLD            Position angle (CCW/world-x)                               [deg]
#  10 FWHM_WORLD             FWHM assuming a gaussian core                              [deg]
#  11 ELONGATION             A_IMAGE/B_IMAGE                                           
#  12 ELLIPTICITY            1 - B_IMAGE/A_IMAGE                                       
         1 -15.3363      7.9360    151.8023   1.4289960637e+02   4.2614110857e+01     8.782572     4.345075  74.76   0.04423952    2.386    0.581
         2 -13.3937    195.3509     30.2802   6.7360387746e+01   3.2818744619e+01      1.19128     1.127312  84.38  0.006692973    1.129    0.114
         3 -13.7448    211.0203     11.8464   6.1116973859e+01   3.1206342577e+01     1.250228    0.9648344  35.66  0.007447872    1.785    0.440
         4 -11.4262      2.2469      5.1324   1.1164109023e+02   7.1829319663e+01    0.5867339    0.1236467 -40.29  0.002659804    3.603    0.722
         5 -10.3037     81.7080    249.2415   1.3791302403e+02   1.2769858092e+01    0.2169103     0.151647  52.83  0.001038876    1.212    0.175
         6 -11.7782    248.5443    246.4986   1.0641503830e+02  -1.3814343168e+01    0.5960451     0.308807 -26.24  0.003345051    1.970    0.492
         7 -12.0610    239.4190    248.0706   1.0828677292e+02  -1.2698041542e+01    0.6388502    0.2674332  27.55   0.00297654    2.505    0.601
         8  -9.7106     66.1796    249.6875   1.4071034639e+02   1.4921495787e+01    0.1971501    0.1313611  82.64 0.0006785228    1.329    0.248
         9 -10.7292     46.3651    248.9199   1.4405395093e+02   1.7717877052e+01    0.3375089    0.1618917  76.09  0.001347458    2.095    0.523
        10 -11.8817     29.7326    249.3008   1.4683324007e+02   1.9691362653e+01    0.5816622    0.3477984  45.87  0.003843598    1.622    0.384
        11 -11.7544     35.7675    244.0383   1.4547728376e+02   1.9967723789e+01    0.3980313    0.2951472  59.53  0.002740091    1.230    0.187
        12 -11.6619     19.9726    243.2355   1.4802626163e+02   2.1958495671e+01    0.3880579    0.1943654  75.57  0.002381712    1.668    0.400
        13 -12.5177     11.5254    239.3202   1.4915059627e+02   2.3624056020e+01    0.7522732    0.2860532  82.50  0.002676089    2.687    0.628
        14 -11.3547     14.4594    249.7943   1.4929342628e+02   2.1331834453e+01    0.4762464     0.252994  41.44  0.003128193    1.973    0.493
        15 -11.4098      3.2633    248.3093   1.5093808983e+02   2.2789302729e+01    0.5030937    0.3426304  71.60  0.003424312    1.078    0.072
        16 -11.2718      1.9951    240.1819   1.5070820359e+02   2.4439546398e+01    0.5098727    0.1272958 -75.54  0.002416111    3.223    0.690
        17 -10.2900    198.5044    246.4937   1.1551770533e+02  -6.0831684302e+00    0.1261689    0.1054904  27.69 -2.139916e-05    1.008    0.008
        18 -10.0775     88.3528    249.0069   1.3668781185e+02   1.1817404169e+01    0.1709674    0.1359313  76.32 0.0004984465    1.096    0.088
        19 -10.1894    185.6368    238.8621   1.1675185857e+02  -2.7489073566e+00    0.1677483    0.1223182 -57.28  0.000876593    1.800    0.444
        20 -10.4760     22.7557    236.7571   1.4715067000e+02   2.2897006876e+01    0.2532683    0.1578225 -49.57  0.001362112    2.669    0.625
        21 -10.7683     50.8849    235.2793   1.4217359046e+02   1.9776123151e+01    0.2624864    0.1693701 -77.19 0.0009768213    1.425    0.298
        22 -11.3806    124.1723    250.0058   1.3015606015e+02   5.9311874001e+00    0.5097946    0.1461172  40.90  0.001940377    3.065    0.674
        23 -13.3761      9.4905    206.9803   1.4739649258e+02   3.0333063084e+01    0.8876054     0.722051  80.23  0.003281742    1.185    0.156
        24 -10.9492    162.7165    249.1024   1.2270853266e+02  -4.3955010858e-01    0.2685132    0.1669012  37.50  0.001484867    1.402    0.287
        25 -12.6942     34.1946    230.5278   1.4474639119e+02   2.2808346576e+01    0.3058533    0.2350817 -70.53 0.0007203366    1.451    0.311
        26 -13.8404     40.2103    222.5841   1.4302542198e+02   2.3701133352e+01    0.8013601    0.5930339  68.29   0.00248412    1.115    0.103
        27 -11.3327     17.0737    228.6217   1.4756366570e+02   2.5125986270e+01    0.3833965    0.1144714 -71.38  0.001848573    2.765    0.638
        28  -8.9849    152.6789    212.9619   1.1914516275e+02   7.7728456275e+00    0.1800821    0.1712819 -83.53  0.000332454    1.124    0.110
        29  -9.5907    229.3155    229.6536   1.0692785676e+02  -8.6608959397e+00    0.1127252     0.102621  81.14 0.0007047826    1.720    0.419
        30 -11.5792     61.0493    197.0126   1.3634787108e+02   2.6536089411e+01    0.3257448    0.2359339 -54.29 0.0005281251    1.572    0.364
        31 -14.2423     51.3367    211.8136   1.3992655077e+02   2.4572068117e+01     3.373917     1.101075  50.28   0.01447999    2.811    0.644
        32 -11.8080     67.2064    188.9463   1.3402460668e+02   2.7513845335e+01    0.2884906    0.2406332 -57.72 0.0004396749    1.340    0.254
        33 -10.9018     77.3379    176.4895   1.2998915339e+02   2.8935100189e+01    0.2494012     0.218992 -76.89  0.000368224    1.082    0.076
        34 -13.2303     64.0977    174.3283   1.3274249794e+02   3.1342541527e+01    0.5054942    0.2829573 -45.30  0.001903375    2.209    0.547
        35 -11.9308     84.9846    167.0915   1.2668095712e+02   2.9983691699e+01    0.6629228    0.5940622 -74.77  0.003876653    1.063    0.059
        36 -10.3150     55.1267    229.9120   1.4093136306e+02   2.0294169588e+01     0.298452    0.1465219  58.06  0.001571605    1.798    0.444
        37  -9.9458     97.7397    151.5214   1.2067799229e+02   3.1605143425e+01    0.2810905    0.2756191  76.82 0.0008425429    1.111    0.100
        38  -9.1661    100.7445    147.4453   1.1909213858e+02   3.2056956975e+01    0.2359615     0.169882 -36.87 0.0006176565    1.612    0.380
        39 -12.1679     86.2731    150.6319   1.2343106233e+02   3.3720310512e+01    0.3063249    0.2514935 -45.28 0.0004930004    1.290    0.225
        40 -12.5640     67.3432    143.6472   1.2703948844e+02   3.8218584604e+01    0.7716893       0.5027  69.04  0.003162927    1.910    0.477
        41  -8.5447    192.2753    144.2769   9.6752338878e+01   1.3682122272e+01    0.1473142    0.1210486   1.95 0.0002354823    1.494    0.331
        42  -9.8027    109.6169    136.7178   1.1448916765e+02   3.2994315188e+01    0.3635857    0.2520014 -22.04  0.001546266    2.125    0.529
        43 -10.4759     96.6923    134.0269   1.1731014236e+02   3.5958015685e+01    0.2748825    0.2307358 -33.63 0.0004928596    1.312    0.238
        44 -11.4163     55.9709    128.9668   1.2738549511e+02   4.3204275292e+01    0.3224496    0.2645248  87.46  0.001883804    1.294    0.227
        45  -8.9668    106.5776    123.5358   1.1222969003e+02   3.6638713537e+01    0.1502306    0.1411886 -54.74 0.0001395252    1.015    0.014
        46 -12.2121      6.3891    226.4386   1.4921752587e+02   2.6666592972e+01    0.4289235    0.3432243  37.39  0.003288561    1.749    0.428
        47 -10.3816    168.0471    113.0603   9.4259072828e+01   2.5705401278e+01    0.3620371    0.2888712 -82.11  0.001075795    1.512    0.339
        48  -9.3342    203.3935    111.7587   8.6720338944e+01   1.7649736931e+01    0.2126409    0.1437548 -29.86 0.0005075565    1.617    0.382
        49  -9.4772    157.5385     77.4720   8.6857442401e+01   3.5091287090e+01    0.1493763     0.146216  62.66  8.93923e-05    1.017    0.017
        50 -10.0098      2.0000     51.9767   1.2787742949e+02   6.4359710456e+01    0.1879379   0.04945478 -57.77 0.0008097111    2.993    0.666
        51 -11.6874    140.5562    248.6750   1.2688072081e+02   3.4115495863e+00    0.4345979    0.2641731  61.68  0.002291655    1.797    0.444
        52 -11.7747     99.8310    246.8461   1.3434919047e+02   1.0442797205e+01    0.4414002    0.3037777 -42.39  0.002522236    2.191    0.544
