#   1 NUMBER                 Running object number                                     
#   2 MAG_AUTO               Kron-like elliptical aperture magnitude                    [mag]
#   3 X_IMAGE                Object position along x                                    [pixel]
#   4 Y_IMAGE                Object position along y                                    [pixel]
#   5 X_WORLD                Barycenter position along world x axis                     [deg]
#   6 Y_WORLD                Barycenter position along world y axis                     [deg]
#   7 A_WORLD                Profile RMS along major axis (world units)                 [deg]
#   8 B_WORLD                Profile RMS along minor axis (world units)                 [deg]
#   9 THETA_WORLD            Position angle (CCW/world-x)                               [deg]
#  10 FWHM_WORLD             FWHM assuming a gaussian core                              [deg]
#  11 ELONGATION             A_IMAGE/B_IMAGE                                           
#  12 ELLIPTICITY            1 - B_IMAGE/A_IMAGE                                       
         1 -14.8741    168.6414     41.8773   7.3553060986e+01   3.7954195123e+01     1.230412      1.12987  25.11  0.004687737    1.261    0.207
         2 -14.9287    188.0070      9.1118   6.2212584103e+01   3.7061643974e+01     2.194899     0.859215  63.70  0.006702043    2.099    0.524
         3 -10.2859    133.7673    246.9148   1.2669846193e+02   4.6642414559e+00    0.1491545    0.1346011 -87.65 0.0003723609    1.220    0.180
         4 -19.9344     64.8899    171.0732   1.3109925490e+02   3.2047091161e+01     18.84415     6.359721 -65.59   0.06978174    2.828    0.646
         5 -10.4241    138.7423    200.3647   1.1869190485e+02   1.2863939057e+01    0.2211286    0.1887848  63.94 0.0005510056    1.135    0.119
         6 -10.4902    141.5653    198.7425   1.1778826270e+02   1.2672382850e+01    0.2658236    0.2086287  69.36 0.0005961819    1.371    0.271
         7 -10.4870    112.8017    196.5256   1.2384909149e+02   1.8465863382e+01    0.4187155    0.2848496  -4.05   0.00161435    3.469    0.712
         8 -12.3057    180.6028    193.6292   1.0836481467e+02   6.1159676719e+00    0.3695137    0.2856761 -82.49  0.001802296    1.824    0.452
         9 -11.5328    152.6187    192.7191   1.1425906959e+02   1.1809534208e+01    0.3352631    0.2644546 -85.39  0.001230872    1.549    0.354
        10 -11.2950    168.2201    176.4778   1.0763168639e+02   1.2108543530e+01    0.3038397     0.241212 -71.78 0.0002999664    1.498    0.332
        11 -12.4450    169.2823    182.0968   1.0853431531e+02   1.0711044883e+01    0.5507432    0.2956241  36.03  0.001976138    1.973    0.493
        12 -13.1673    172.5121    188.9968   1.0919396333e+02   8.6407499949e+00    0.6277636    0.3913728  25.07  0.002149951    2.041    0.510
        13 -13.1054    175.5612    186.1809   1.0798293205e+02   8.6032029187e+00    0.5957715    0.4417784 -87.23  0.002402032    1.997    0.499
        14 -10.0984    139.6359    249.3693   1.2587757108e+02   3.2402798453e+00    0.2850528    0.2056701 -61.68  0.001694369    1.645    0.392
        15 -12.2292    163.9706    187.9215   1.1084581641e+02   1.0567188098e+01    0.4383159    0.2417365  30.12  0.001745582    2.227    0.551
        16  -9.8551    150.7886    245.0645   1.2311089313e+02   2.0762241704e+00    0.1429164    0.1066242 -55.82 0.0004417573    1.584    0.368
        17 -11.5320    152.5688    185.3562   1.1288615708e+02   1.3387571876e+01    0.3107303    0.2482414 -84.03  0.001542592    1.498    0.333
        18 -11.1838    125.0981    243.6188   1.2796998963e+02   6.7232037769e+00    0.1866136    0.1588567 -69.80 0.0005502305    1.321    0.243
        19 -12.6439    204.6612    176.4630   9.9926943871e+01   4.6997589740e+00    0.5164178    0.4186214 -60.65  0.001517208    1.448    0.310
        20 -12.6927    203.5075    166.1368   9.7968335774e+01   6.9375817528e+00    0.6755117    0.5171548 -25.50  0.002092676    1.392    0.282
        21 -10.8339    198.5860    177.7198   1.0141948920e+02   5.6656396039e+00    0.5049427    0.3236544 -75.09  0.001885776    3.188    0.686
        22 -11.7718    190.2089    155.9527   9.8467003853e+01   1.1774174643e+01    0.4884538    0.4734646  74.42  0.002162824    1.074    0.069
        23 -12.5847    193.9775    166.9036   1.0008051263e+02   8.7473345531e+00    0.5199299    0.3540516 -48.35 0.0007722219    1.503    0.335
        24 -11.7381    190.9804    161.1586   9.9456783112e+01   1.0541118999e+01    0.4269513    0.3894261 -53.34  0.001185298    1.122    0.108
        25 -12.3207    142.3468    175.3630   1.1328341153e+02   1.7627721322e+01    0.9245226    0.5847098 -20.81  0.003445931    2.931    0.659
        26 -13.1180    137.7396    171.3318   1.1356523782e+02   1.9459518778e+01    0.5724307    0.4125078  52.89  0.001603781    1.381    0.276
        27 -10.9537      7.9001    175.8710   1.4452218590e+02   3.7242126342e+01    0.1677806    0.1266519  82.67  0.000398335    1.106    0.096
        28 -10.6400    129.5099    175.4812   1.1631537790e+02   2.0132994917e+01    0.2515385    0.1473326 -55.39 0.0007668479    1.740    0.425
        29 -11.9328    125.5696    172.3647   1.1665691216e+02   2.1610623129e+01    0.4237567    0.2934265  57.60  0.001056353    1.499    0.333
        30  99.0000     13.4128    240.5319   1.4817731525e+02   2.3072426793e+01     0.406825   0.08434076 -68.68  0.001745928    3.835    0.739
        31 -11.3784    230.2663    167.2438   9.3067166899e+01   1.4557340972e+00    0.4607913    0.1568271 -50.37   0.00137787    4.315    0.768
        32 -10.3257    177.2754    169.6254   1.0421508892e+02   1.1671969928e+01    0.1538037    0.1200483 -82.73 0.0007004199    1.692    0.409
        33 -10.7022     23.5627    166.0024   1.4013025562e+02   3.8066823660e+01    0.2809723    0.1832459  10.34  0.001131394    2.486    0.598
        34 -10.8614    141.3118    164.0849   1.1124652088e+02   2.0387344384e+01    0.2143509    0.1934277 -67.12 0.0003724898    1.112    0.101
        35 -10.7079     21.8280    240.6225   1.4678305713e+02   2.2130685800e+01   0.09966536   0.06545267 -70.64 0.0004419796    1.570    0.363
        36 -14.4956    133.9812    145.6651   1.0904742524e+02   2.6137355282e+01     1.698593    0.5324852 -52.21  0.005041661    3.376    0.704
        37 -13.5269    135.5773    127.8107   1.0445283207e+02   2.9894052801e+01     1.161651    0.3081802 -50.45   0.00308937    4.119    0.757
        38 -10.9430     15.1337    156.9840   1.4107754906e+02   4.0915173749e+01    0.1878369    0.1783728  30.23 0.0005171825    1.400    0.286
        39 -10.9437    166.8161    155.5759   1.0348114606e+02   1.6905255659e+01    0.2226409    0.1460971  57.07 0.0007065199    1.670    0.401
        40  -9.2630    154.3356    239.6732   1.2163519790e+02   2.3953424857e+00    0.1346732   0.09507646  67.88  0.000290359    1.721    0.419
        41 -13.1346    144.1990    145.8036   1.0657180641e+02   2.3959347981e+01    0.7307177    0.4526829 -73.15  0.002729149    2.462    0.594
        42 -10.7916    174.4002    148.8595   1.0026888295e+02   1.6704705060e+01     0.328705    0.2736666 -89.85 0.0009322906    1.428    0.300
        43 -10.2319    131.3121    237.8931   1.2598507050e+02   6.7207192111e+00    0.1537852    0.1437304 -88.43 0.0002444829    1.173    0.148
        44 -12.5112     13.7179    143.8036   1.3990884789e+02   4.4069929682e+01    0.3314319    0.1882454 -80.21  0.001859626    1.513    0.339
        45 -13.0311      6.9538    139.6478   1.4108351295e+02   4.5537536705e+01    0.4684117    0.4495701 -33.35  0.002376404    1.352    0.260
        46 -12.2051    134.6764    109.4789   1.0000724163e+02   3.4134740667e+01     1.512583    0.1919132 -45.56  0.002914911    7.930    0.874
        47  -7.9487     13.4593    233.4740   1.4773877127e+02   2.4452040782e+01     0.112731   0.08061741  79.09 0.0005305163    1.018    0.018
        48 -12.3932      4.0928    112.5482   1.3834897969e+02   5.1845436238e+01    0.4527219     0.304915 -22.76  0.002875742    1.869    0.465
        49 -12.2345      3.9937    130.9901   1.4080040509e+02   4.7710463369e+01    0.2746625    0.2321905  77.70  0.001355297    1.251    0.201
        50 -12.2791      2.6416    126.2836   1.4057154571e+02   4.8861139650e+01    0.4099067    0.1794978 -63.91  0.001938326    1.677    0.404
        51 -11.6305    160.6670    127.9628   9.8415944164e+01   2.4305827926e+01    0.4200479    0.3121455 -66.30  0.001653151    1.553    0.356
        52 -12.8357    114.0892    118.8032   1.0784406230e+02   3.6359995684e+01    0.5266173    0.3198695 -56.53 0.0008595086    1.718    0.418
        53 -10.5849    168.1828    113.0879   9.2968751791e+01   2.5721526303e+01    0.3618731    0.2367761 -74.72  0.001387734    2.322    0.569
        54 -13.7434    117.8379    110.1734   1.0461814502e+02   3.7538836438e+01    0.8382408    0.4723795  55.08  0.003364422    2.086    0.521
        55 -10.9138    205.1823    110.7341   8.4887162799e+01   1.7522649335e+01    0.3663895     0.303092  11.52  0.001117104    1.589    0.371
        56 -11.5657     15.1436    109.7964   1.3476573692e+02   5.1724877714e+01    0.2797764    0.1668626  -1.58  0.001546258    2.417    0.586
        57 -12.7574      4.7054    120.3883   1.3926458463e+02   5.0055162977e+01    0.4275989    0.3229273  22.57  0.002817687    1.707    0.414
        58 -10.0246    143.0950    226.8805   1.2201552779e+02   6.7216217395e+00    0.2039591    0.1625915  59.02 0.0002876543    1.193    0.162
        59 -11.3099     19.5876    223.0446   1.4598138375e+02   2.5904150021e+01     0.158365    0.1360566 -76.04  0.001183311    1.422    0.297
        60 -10.9057     14.6369    221.1874   1.4673248430e+02   2.6811489400e+01    0.2040169   0.09400176 -55.42 0.0008214025    2.790    0.642
        61 -10.4957    146.6940     81.0072   8.9170854040e+01   3.7083684007e+01    0.2099403    0.1985208 -36.92 0.0005011549    1.088    0.081
        62 -10.9422    125.0735     81.3144   9.4608930601e+01   4.1926075521e+01     0.210764    0.1905465  50.49 0.0006723853    1.112    0.100
        63 -10.3233     20.5822    219.2311   1.4552769188e+02   2.6586197188e+01    0.1222591   0.06252815  63.22 0.0006886407    1.697    0.411
        64 -11.3231     95.8564     80.0165   1.0242341438e+02   4.8052265572e+01    0.2759818    0.1987912  47.34 0.0004267147    1.489    0.328
        65 -11.1005      1.3619    214.4685   1.4863465526e+02   2.9507386563e+01    0.1083462   0.08011304 -81.78 0.0007173961    1.234    0.190
        66 -14.3669    156.3691     56.9950   8.0129163083e+01   3.8794683258e+01     1.348892     1.092447  55.49  0.002029725    1.160    0.138
        67 -11.5068    106.7393    206.6624   1.2673204802e+02   1.7286405442e+01    0.2257467    0.1845051  58.03 0.0004725459    1.106    0.096
        68 -12.9822    172.7965     34.6377   7.0884059813e+01   3.7872772016e+01    0.3827188    0.3489635  46.83 0.0009556961    1.188    0.159
        69 -12.5639    105.3149    203.1275   1.2652649049e+02   1.8304440316e+01    0.3702266    0.2986409  41.32  0.001048672    1.285    0.222
        70 -10.7724     13.5577     59.7061   1.2489064142e+02   6.2307164904e+01    0.1971795     0.164609 -44.92 0.0004296998    1.143    0.125
        71 -10.7433    169.1978    202.0416   1.1236998026e+02   6.6798612150e+00    0.2269613    0.1682892 -83.57  0.001074822    1.948    0.487
        72 -10.2161    153.2105    200.7813   1.1558890332e+02   1.0016089273e+01    0.2443072    0.1926282 -67.83  0.001268276    1.438    0.305
        73 -11.4487    187.8686     30.6898   6.7607342365e+01   3.4680911516e+01     0.213978    0.1968193 -12.18 0.0008318413    1.366    0.268
        74 -10.0708    133.2513     29.5520   7.6591468757e+01   4.7953852929e+01    0.2530938    0.1257449  64.89   0.00110664    2.060    0.515
