#   1 NUMBER                 Running object number                                     
#   2 MAG_AUTO               Kron-like elliptical aperture magnitude                    [mag]
#   3 X_IMAGE                Object position along x                                    [pixel]
#   4 Y_IMAGE                Object position along y                                    [pixel]
#   5 X_WORLD                Barycenter position along world x axis                     [deg]
#   6 Y_WORLD                Barycenter position along world y axis                     [deg]
#   7 A_WORLD                Profile RMS along major axis (world units)                 [deg]
#   8 B_WORLD                Profile RMS along minor axis (world units)                 [deg]
#   9 THETA_WORLD            Position angle (CCW/world-x)                               [deg]
#  10 FWHM_WORLD             FWHM assuming a gaussian core                              [deg]
#  11 ELONGATION             A_IMAGE/B_IMAGE                                           
#  12 ELLIPTICITY            1 - B_IMAGE/A_IMAGE                                       
         1 -14.0986    182.9002     30.1000   7.0176807065e+01   3.5994618137e+01    0.9072378    0.8621165  67.62   0.00306315    1.123    0.109
         2 -14.3494    189.8542     19.1631   6.6351157858e+01   3.5565388119e+01    0.7677343    0.6931044  10.29  0.001454133    1.426    0.299
         3 -13.6978     73.5516    198.5583   1.3475117401e+02   2.4504552431e+01    0.8576565    0.6592516 -61.47  0.003923621    1.382    0.276
         4 -19.3324     26.9317    136.1892   1.3737458951e+02   4.4474574848e+01     19.50867     5.012367 -70.63   0.06683359    3.852    0.740
         5 -12.0704    198.8362    199.6788   1.0822127267e+02   1.5692531329e+00     0.419149    0.2340617  31.15  0.001864549    1.922    0.480
         6 -11.9969    191.7436    192.3589   1.0825193094e+02   4.2766557422e+00     1.040137     0.455175 -59.58  0.002904827    5.642    0.823
         7 -10.2751     93.1585    197.9903   1.3049130875e+02   2.1612520930e+01     0.206768    0.1569524  76.67 0.0002811678    1.245    0.197
         8 -11.0802    110.5342    197.4989   1.2664573483e+02   1.8797173470e+01     0.248224    0.1339999  30.94  0.001037995    2.410    0.585
         9 -11.2508    190.5103    229.6259   1.1520189960e+02  -1.9845660405e+00    0.3414207    0.2096521 -60.03  0.001651978    2.476    0.596
        10 -10.9031    208.7980    188.4239   1.0403561272e+02   1.6737779225e+00    0.2061556    0.1271943  32.19 0.0006944258    1.675    0.403
        11 -12.3081     60.8597    228.1306   1.4043021834e+02   2.0043496507e+01    0.3408006    0.2746015  75.12  0.001778418    1.076    0.071
        12 -12.2075     84.0741    181.8993   1.3020960740e+02   2.6681394140e+01    0.4204331    0.2530294 -43.87    0.0019718    2.137    0.532
        13 -12.1194     87.1437    176.6041   1.2870988436e+02   2.7423585174e+01    0.3597443    0.2624803 -48.61  0.001299698    1.538    0.350
        14 -10.7578    200.6413    181.1287   1.0419369753e+02   4.6175782050e+00    0.2738258    0.2463366  63.74  0.001074889    1.252    0.201
        15 -12.3681     67.9828    233.9177   1.3965895243e+02   1.7901886917e+01    0.4491239    0.2581631  54.80 0.0008844177    1.450    0.310
        16 -12.6101      8.8001    226.0446   1.4941239817e+02   2.6633522379e+01    0.2240529    0.2063038 -56.26  0.001653102    1.774    0.436
        17 -11.6657     81.4908    193.4972   1.3240465992e+02   2.4446076397e+01    0.3351121    0.2253086 -80.45  0.001476365    1.446    0.308
        18 -11.6277    126.4084    173.0920   1.1892965323e+02   2.1331591109e+01    0.3142114    0.2098103  52.24  0.001472084    1.470    0.320
        19 -11.8416    135.8229    170.0087   1.1614251082e+02   2.0189936765e+01    0.5040999    0.2240929  52.91  0.001812241    2.506    0.601
        20 -12.4640     98.7672    158.7041   1.2290404168e+02   2.9713257865e+01     0.673759    0.3637725 -41.75  0.002774537    2.276    0.561
        21 -16.0230     70.2098    149.1140   1.2836079176e+02   3.6453200286e+01     4.409303     2.336537  69.76   0.01319858    3.056    0.673
        22 -10.5716      6.2980    160.8490   1.4501282336e+02   4.0621210926e+01    0.1733246    0.1327989  64.55 0.0004650743    1.320    0.242
        23 -11.1129      4.3591    228.2975   1.5027015239e+02   2.6637204776e+01    0.1775925     0.157924 -51.95 0.0007414169    1.879    0.468
        24 -11.7524    169.4432    235.1751   1.2020626273e+02   8.5310083338e-01     0.294373    0.1318895 -50.69  0.001314471    2.703    0.630
        25 -10.7938    163.2749    155.4355   1.0675548767e+02   1.7702604537e+01    0.2803518    0.1973763 -69.99  0.001209724    1.804    0.446
        26 -11.3651    133.8676    144.8049   1.1135700150e+02   2.6329887088e+01    0.9661731    0.2159114 -54.72  0.001931657    7.672    0.870
        27 -10.3848    179.8316    147.8222   1.0135760480e+02   1.5695252016e+01     0.212501    0.1854136 -87.74  0.000491414    1.302    0.232
        28 -11.8656    109.2451    142.4440   1.1704510839e+02   3.1698180432e+01    0.5370775    0.2794407 -35.34  0.001944717    2.800    0.643
        29 -12.3526     97.8740    143.3025   1.2015814681e+02   3.3520681570e+01    0.2707946    0.2651425  27.80 0.0004059669    1.160    0.138
        30 -11.4821    139.8612    217.7289   1.2349236462e+02   9.3559636558e+00    0.2589911     0.173639  87.93  0.001234054    2.104    0.525
        31 -12.0393    116.6424    131.5348   1.1271539537e+02   3.2849740767e+01    0.5171509    0.3563061  -6.09   0.00202561    2.663    0.625
        32 -11.7663    104.9058    129.6431   1.1538035664e+02   3.5497625294e+01    0.4841573     0.354263 -89.33  0.001178553    1.768    0.434
        33 -10.5367    160.4933    127.4863   1.0087436534e+02   2.4406227171e+01    0.1584834    0.1523598 -86.36 -9.812307e-06    1.038    0.036
        34 -10.4757    110.9995    120.5155   1.1160615015e+02   3.6472313185e+01    0.2208903    0.1996206 -56.42 0.0004142117    1.064    0.060
        35 -10.9762    168.6977    113.5828   9.5498903365e+01   2.5447220954e+01    0.3310635    0.2602751 -76.67 0.0009051614    1.527    0.345
        36 -10.6193     70.4277    228.7485   1.3870590468e+02   1.8581512494e+01    0.2333817    0.1459441  68.63 0.0009074189    1.414    0.293
        37 -10.1379    205.0436    110.4794   8.7248696992e+01   1.7461978981e+01    0.2359147    0.1501133  51.68  0.001034902    1.611    0.379
        38  -9.8858    123.7460    101.9773   1.0340681461e+02   3.8020243520e+01    0.1974119    0.1288577 -44.21 0.0004141593    1.506    0.336
        39 -12.9529    110.7663    207.3809   1.2804958063e+02   1.6638461778e+01    0.3861272    0.3290526  83.05  0.001484888    1.096    0.088
        40  -9.6223    249.3207     55.3031   6.7599545060e+01   1.6682559017e+01    0.1211562    0.1056912  28.96 0.0004665392    1.631    0.387
        41 -13.4943    172.5079     39.6657   7.4450021966e+01   3.7352809817e+01    0.6332474    0.5465561  -0.28 0.0007469982    1.424    0.298
        42 -11.6133      2.1895    237.7102   1.5112503137e+02   2.5053865131e+01    0.1463736    0.1299312  87.88  0.001074364    1.536    0.349
        43 -12.1066    103.0223    208.3356   1.2981527718e+02   1.7751389608e+01    0.2926849    0.2232962  63.85  0.001670946    1.174    0.148
