#   1 NUMBER                 Running object number                                     
#   2 MAG_AUTO               Kron-like elliptical aperture magnitude                    [mag]
#   3 X_IMAGE                Object position along x                                    [pixel]
#   4 Y_IMAGE                Object position along y                                    [pixel]
#   5 X_WORLD                Barycenter position along world x axis                     [deg]
#   6 Y_WORLD                Barycenter position along world y axis                     [deg]
#   7 A_WORLD                Profile RMS along major axis (world units)                 [deg]
#   8 B_WORLD                Profile RMS along minor axis (world units)                 [deg]
#   9 THETA_WORLD            Position angle (CCW/world-x)                               [deg]
#  10 FWHM_WORLD             FWHM assuming a gaussian core                              [deg]
#  11 ELONGATION             A_IMAGE/B_IMAGE                                           
#  12 ELLIPTICITY            1 - B_IMAGE/A_IMAGE                                       
         1 -13.0987    248.7478    133.0535   7.9908608234e+01   4.1051710872e+00     1.582404    0.6881434 -42.46  0.006685706    2.019    0.505
         2 -13.0193    196.5920     32.7106   6.4805953640e+01   3.2175077917e+01     1.004282    0.7880394  52.67  0.005875173    1.385    0.278
         3 -13.8326    211.9426     15.0228   5.9013660146e+01   3.0662829577e+01     1.299681    0.9937786  38.60  0.007832349    1.859    0.462
         4 -11.8545      2.1559      3.6305   1.0959101971e+02   7.2241262549e+01     0.488983    0.2833174 -14.33  0.003511108    1.362    0.266
         5 -11.7068    177.2312    242.8588   1.1531691504e+02  -2.6720029380e+00     0.554894    0.2347122  46.01  0.002215021    2.259    0.557
         6 -10.4707    184.1785    250.3637   1.1509421778e+02  -5.0577046834e+00    0.2286042    0.1530172  36.26  0.001294404    1.261    0.207
         7 -10.7341    169.5926    248.8393   1.1779208185e+02  -2.3607302433e+00     0.323033    0.2319492  11.91 0.0008171531    1.670    0.401
         8 -11.3186    150.0573    248.7553   1.2174785329e+02   9.9442090410e-01    0.3495342    0.2806019 -87.27   0.00206908    1.611    0.379
         9 -12.3187    133.7511    248.8168   1.2507494099e+02   3.7704860680e+00      1.27597    0.2847528  38.42   0.00394618    4.199    0.762
        10 -11.1271    121.7942    244.8339   1.2699093522e+02   6.5313781498e+00    0.2880397     0.233808  70.91   0.00175196    1.225    0.184
        11 -12.3136    124.8758    240.6986   1.2581430913e+02   6.7929012167e+00    0.6414782    0.4423308  33.03  0.003326536    1.476    0.322
        12 -11.4878    115.2685    250.4405   1.2901068529e+02   6.5701219375e+00    0.6172974    0.2833251  37.12  0.001331264    2.045    0.511
        13 -11.3520    109.4274    246.4369   1.2970147148e+02   8.2842718555e+00    0.5133469    0.3136696 -77.36  0.001739411    2.025    0.506
        14 -11.0438     99.2125    247.6664   1.3188920665e+02   9.6997817675e+00    0.4488874    0.2853246  70.95  0.001911335    1.663    0.399
        15 -10.5415    102.5459    247.4942   1.3120589142e+02   9.1993014426e+00    0.4179586    0.2097827  56.73   0.00200677    1.924    0.480
        16 -11.2659     87.8785    248.4968   1.3421248368e+02   1.1313470126e+01    0.5408399    0.2929747  51.85 0.0009567249    1.541    0.351
        17 -10.4588     81.8128    246.6455   1.3520369477e+02   1.2598448372e+01    0.3450177    0.2209543 -84.12  0.001971274    1.644    0.392
        18 -10.6198     73.4807    243.2289   1.3648192586e+02   1.4514527356e+01    0.4763293    0.3761729  14.69  0.002813847    2.057    0.514
        19 -11.5053     60.6118    245.9647   1.3919836848e+02   1.5799397271e+01    0.6045264    0.4133585  56.24   0.00289727    1.198    0.165
        20  -9.9032     66.3612    244.2806   1.3795533099e+02   1.5329976321e+01    0.2640828    0.1733229  30.93  0.001244193    1.923    0.480
        21 -14.6206      3.0958    187.5676   1.4559543175e+02   3.4916501353e+01     8.895308          nan -71.63   0.02148145    8.922    0.888
        22 -13.2149     28.2502    246.8745   1.4513383945e+02   1.9759550518e+01     1.119145    0.6596689  53.76  0.006479946    1.394    0.283
        23 -13.5412     39.7674    242.6086   1.4277811714e+02   1.9213013901e+01     1.485618    0.8665727  52.18  0.009141724    1.433    0.302
        24 -12.7392     32.9972    227.4423   1.4285292549e+02   2.3157317715e+01    0.4695675     0.303863 -67.12 0.0008275904    1.564    0.361
        25 -14.0538     39.6417    218.6448   1.4082570578e+02   2.4241876997e+01     1.399082     1.099272  23.19  0.008844061    1.833    0.454
        26 -11.1803    128.8791    235.0044   1.2419786508e+02   7.1998673149e+00    0.4702009    0.2594464  58.63  0.002145757    2.018    0.505
        27 -11.1199    116.8891    238.1062   1.2712977556e+02   8.6529883031e+00    0.4833193    0.3027265 -33.76  0.001716013    2.639    0.621
        28 -10.8481    142.1183    221.6102   1.1935441763e+02   7.4849662064e+00    0.4376693    0.2590148  31.58  0.001003396    1.780    0.438
        29 -11.5368    135.3492    241.1507   1.2370340320e+02   4.9046734168e+00    0.3970202    0.2725796  12.44  0.001513334    2.263    0.558
        30 -12.7302    134.8845    234.0933   1.2279953486e+02   6.3254799098e+00     1.116949     0.698053 -78.87   0.00519184    2.396    0.583
        31 -11.2769    105.3292    237.7866   1.2948439431e+02   1.0645763161e+01     0.617882    0.3282869  21.99   0.00228929    3.910    0.744
        32 -10.1028     91.2621    225.3118   1.3088893708e+02   1.5499867910e+01    0.5815727    0.1884019  51.37   0.00207992    3.168    0.684
        33 -10.7200     84.7812    229.3809   1.3273273596e+02   1.5657646387e+01    0.2287056    0.2182447  68.16 0.0001194836    1.254    0.203
        34 -11.2452     85.2397    234.8748   1.3326287499e+02   1.4443919779e+01    0.4867571    0.3823963 -77.65  0.003001162    1.291    0.225
        35 -11.4570    113.3523    231.2008   1.2696021480e+02   1.0629185369e+01    0.4023089    0.3810194  23.62  0.001556424    1.284    0.221
        36 -11.4345     98.6910    232.5121   1.3021201322e+02   1.2798815780e+01    0.6210256    0.2879484 -70.57    0.0022135    2.662    0.624
        37 -11.6481    104.8416    227.7350   1.2831043536e+02   1.2773927236e+01    0.6519238    0.4030722  64.49  0.003242475    1.706    0.414
        38 -11.2898     98.7105    223.4545   1.2906481881e+02   1.4689230704e+01    0.6556922    0.3627911  59.76  0.002894015    1.868    0.465
        39 -10.6879     96.8944    239.7196   1.3144435859e+02   1.1628381852e+01    0.3179889    0.2333139 -45.65  0.001207535    1.812    0.448
        40 -11.6113     91.7185    242.2198   1.3277416906e+02   1.1950024169e+01     0.914215     0.240556  44.70  0.003411412    3.044    0.671
        41 -11.3326    166.5614    242.2460   1.1740444490e+02  -7.2812324581e-01    0.4151662    0.1887987  41.87  0.001800655    1.888    0.470
        42 -10.8026     89.9306    238.0896   1.3267120437e+02   1.3058450421e+01    0.5133101    0.3789716  -8.50 0.0008643008    2.889    0.654
        43 -11.2024    244.3065    240.9081   1.0194200170e+02  -1.2988910443e+01    0.2607584    0.1625097  44.68  0.001472569    1.991    0.498
        44 -10.7469    135.8471    225.0723   1.2125605604e+02   7.9272781086e+00    0.4189957    0.2084828 -51.16   0.00139475    2.238    0.553
        45  -9.1629     61.2743    239.0333   1.3844451934e+02   1.7104861199e+01    0.1719827    0.1364688  72.52 0.0009839018    1.021    0.020
        46  -9.3649    173.1200    236.1275   1.1508503260e+02  -8.1324733721e-01    0.1714634    0.1524957  63.35            0    1.299    0.230
        47 -10.6703    156.7213    231.8265   1.1783140619e+02   2.8703963280e+00    0.2588769    0.2397015 -19.77 0.0004652846    1.229    0.186
        48  -8.8909     62.8688    233.0549   1.3756507192e+02   1.8117450663e+01    0.1602018    0.1489933 -43.55 0.0003221001    1.561    0.360
        49  -8.8523     57.3662    231.1466   1.3846757177e+02   1.9276872164e+01    0.1666165    0.1016319 -87.94 0.0009234066    1.571    0.363
        50  -9.2863     45.7914    230.9699   1.4070476508e+02   2.0841645412e+01    0.2315355    0.1349759  78.55  0.001187086    1.597    0.374
        51 -11.0041    122.4973    233.2250   1.2529845921e+02   8.6560748981e+00    0.4071905    0.3021668 -55.60  0.001886415    1.525    0.344
        52 -10.5750     79.4310    225.5333   1.3340378336e+02   1.7293462004e+01    0.4423125    0.2736995 -84.99  0.001726657    1.721    0.419
        53  -9.3260     77.5204    220.7850   1.3325785543e+02   1.8606497792e+01    0.2357817    0.1613156  64.95 0.0004547617    1.336    0.252
        54  -9.4726    249.6712    228.6588   9.8793067932e+01  -1.2030229900e+01     0.131624   0.08223872  -0.84 -1.428624e-06    1.741    0.426
        55  -9.3241    142.5714    227.7143   1.2020883565e+02   6.1959160835e+00    0.1830356    0.1341713 -72.58 0.0009482684    1.693    0.409
        56 -10.5358    116.9962    224.5647   1.2526846550e+02   1.1364199721e+01    0.3174309    0.2732317  32.24 0.0005401189    1.271    0.213
        57  -9.4354     65.0180    224.4980   1.3627006886e+02   1.9629266546e+01    0.2338996    0.1608217 -55.54 0.0009073361    1.708    0.414
        58 -10.3200    160.3485    223.6353   1.1573413745e+02   3.7530972215e+00    0.2727228    0.1942977   3.20 0.0008913623    2.026    0.506
        59  -9.7753    245.6748    218.6808   9.7690549505e+01  -9.9779721689e+00    0.1777888    0.1011231  35.97 0.0007206995    1.747    0.428
        60 -10.5339     69.8682    217.7624   1.3453035684e+02   2.0400052353e+01    0.6636285    0.3276687 -86.01  0.002858188    2.576    0.612
        61  -8.9060    118.5033    217.9542   1.2398504805e+02   1.2486347277e+01    0.1924886    0.1380621 -60.15 0.0004184892    1.501    0.334
        62  -8.3759    104.5141    218.5216   1.2714598568e+02   1.4778810285e+01    0.1401388    0.1211106  65.12 -6.889999e-05    1.011    0.011
        63  -8.7209     99.2818    218.3405   1.2826665398e+02   1.5692675983e+01    0.1263235    0.1093284 -24.18 0.0002974379    1.629    0.386
        64  -8.8045     89.1585    218.4084   1.3047769656e+02   1.7321812247e+01     0.197598    0.1578459  62.00  0.000584338    1.093    0.085
        65  -9.4713     88.2935    213.2050   1.2999804831e+02   1.8604921612e+01    0.4106586    0.2155795 -86.81  0.001515248    2.774    0.640
        66  -9.1457     62.5762    217.9670   1.3608474296e+02   2.1393156304e+01    0.1928296    0.1668938  43.71 0.0005784358    1.331    0.249
        67 -10.3350    137.3187    214.5629   1.1928404437e+02   9.8034571338e+00    0.2855843    0.2189276 -78.54  0.001161224    1.556    0.357
        68  -9.0345    101.8242    211.6680   1.2678525965e+02   1.6727941441e+01    0.4113565    0.1866673  63.79  0.001369925    3.686    0.729
        69  -9.4209     97.3687    210.8022   1.2766047473e+02   1.7664808398e+01    0.2483071    0.2031485 -60.94 0.0005344696    1.308    0.236
        70  -8.7609     96.7156    207.3527   1.2732365286e+02   1.8544956002e+01    0.2038553    0.1700143  56.90 0.0003033208    1.094    0.086
        71  -9.9756     91.9964    204.6556   1.2801374326e+02   1.9931179337e+01    0.5809531    0.3177597  39.35  0.002666506    1.786    0.440
        72  -9.3962    106.6880    209.9679   1.2544822400e+02   1.6275727648e+01    0.1964837    0.1726671 -77.41 0.0004232333    1.156    0.135
        73  -9.9195    112.5928    208.3951   1.2387784524e+02   1.5596350853e+01    0.2596063    0.2368268  71.62 0.0006963885    1.032    0.031
        74  -9.1896    159.9508    213.6824   1.1413228242e+02   5.7611557249e+00    0.1969137    0.1700868  40.99 0.0004072355    1.057    0.053
        75  -9.2875     74.9110    208.3194   1.3232568824e+02   2.1766082631e+01    0.2525513    0.1529492  42.86  0.001288661    1.581    0.367
        76  -9.5347    132.4807    223.9680   1.2181934190e+02   8.7534980815e+00    0.2388024    0.2095217 -73.50   0.00127733    1.244    0.196
        77 -10.5491    246.8246    206.2398   9.5138839218e+01  -8.2258178328e+00    0.2540652    0.1958035  -6.03  0.001531604    1.202    0.168
        78  -9.1475     32.9335    207.0061   1.4113205377e+02   2.7597199555e+01    0.1700441    0.1326188 -55.52 0.0004205366    1.559    0.358
        79  -8.8088    125.8079    205.8295   1.2046292191e+02   1.3784890020e+01    0.2017018     0.161667  72.01 0.0005172772    1.307    0.235
        80  -8.3101    148.6709    205.6668   1.1524027543e+02   9.5317694295e+00     0.147326    0.1156208  -1.00 0.0006598784    1.721    0.419
        81  -9.0567     74.6731    203.7276   1.3180197435e+02   2.2847925291e+01    0.2751063    0.1840952  18.49 0.0009633061    2.310    0.567
        82  -9.1756    103.9144    203.0910   1.2505911065e+02   1.8292103630e+01    0.2126748    0.1765157 -20.33 0.0008257746    1.709    0.415
        83 -10.0532    250.1272    201.1323   9.3566022017e+01  -7.9236354704e+00    0.3383846     0.150087 -24.18   0.00133754    2.983    0.665
        84  -9.1946    114.0085    201.6089   1.2249882310e+02   1.6858757110e+01    0.3551652    0.2387702  -4.77  0.001352247    3.337    0.700
        85 -10.1312     84.5301    201.0188   1.2921110380e+02   2.1960310665e+01    0.4195236    0.2616701 -39.89  0.001625031    2.285    0.562
        86  -8.8772     85.9523    195.7393   1.2814055470e+02   2.2960700110e+01    0.1926019    0.1686157  63.01 0.0003488746    1.076    0.070
        87  -8.9582     64.3150    201.6374   1.3385559784e+02   2.4827630983e+01    0.1679275    0.1252513  33.18  0.000634499    1.561    0.359
        88 -11.3769     41.6262    205.9033   1.3922790004e+02   2.6820182756e+01    0.5586134    0.2343139  47.88  0.002335204    2.191    0.544
        89  -9.0715    183.0589    200.3032   1.0664801665e+02   4.0038284970e+00    0.1976763    0.1730385  37.41 0.0003221957    1.090    0.083
        90  -8.9990    127.8929    199.7018   1.1896477514e+02   1.4749156241e+01    0.1984636    0.1772131  57.73 0.0004502235    1.037    0.036
        91  -9.7699     44.7742    199.1031   1.3786240497e+02   2.7982037480e+01    0.2967517     0.259286   4.26  0.001871276    1.709    0.415
        92  -9.5826     28.0808    198.1673   1.4132729713e+02   3.0123537452e+01      0.30733    0.1440454 -69.25  0.001577448    1.819    0.450
        93  -9.0802     32.2843    195.4579   1.4018065150e+02   3.0278744716e+01    0.2441246   0.09064785  43.26  0.001113339    2.515    0.602
        94  -8.6456    119.8220    199.3864   1.2078858639e+02   1.6309259585e+01    0.1880551    0.1354154  33.73 0.0001302561    1.460    0.315
        95  -9.8842     54.1851    198.3709   1.3571996528e+02   2.6956277987e+01    0.3860224    0.1804917  47.00  0.001366397    2.020    0.505
        96 -11.6470     59.9887    194.3394   1.3394015140e+02   2.7119928987e+01    0.4545256    0.3979449 -47.22   0.00107978    1.422    0.297
        97  -8.6443    145.3532    198.2264   1.1467200163e+02   1.1751347295e+01    0.1953241    0.1400917 -64.68 0.0003646794    1.599    0.375
        98  -9.8463    102.6612    196.1694   1.2428967713e+02   2.0091632405e+01    0.3973936    0.2953797  -8.99  0.001261222    2.316    0.568
        99  -8.5003    107.6398    196.2970   1.2313920712e+02   1.9196090896e+01    0.1554814    0.1040353  69.17 0.0007033551    1.709    0.415
       100 -10.6101    249.5635    194.1163   9.2302702453e+01  -6.7011132819e+00      0.32579    0.2620673   6.58  0.001982142    1.204    0.170
       101 -11.4239     39.6583    230.3682   1.4182662393e+02   2.1738180815e+01    0.3281549    0.2540655  88.97 0.0009058009    1.125    0.111
       102  -8.7121     72.5449    192.9824   1.3087933934e+02   2.5661441847e+01    0.1902551    0.1248717 -65.73 0.0003232749    1.447    0.309
       103  -9.7494     25.8672    192.6083   1.4127680462e+02   3.1623130887e+01    0.2471155    0.1723679  71.94 0.0008261685    1.273    0.215
       104  -9.7180    191.4975    191.5028   1.0311786235e+02   4.0996046543e+00    0.2477015    0.2367579  -5.34 0.0006498407    1.039    0.037
       105  -9.8563     96.4592    195.8707   1.2570066507e+02   2.1214414406e+01    0.3325891    0.1920649  45.80  0.001537136    1.635    0.388
       106  -9.3367     38.5023    192.4261   1.3852549457e+02   3.0270340304e+01    0.2007541    0.1084839 -71.82 0.0001163675    1.609    0.378
       107  -9.8080     40.6321    188.4123   1.3762025044e+02   3.0955934068e+01    0.2811538    0.2187734  88.08 0.0006969044    1.082    0.075
       108  -9.1167     15.4843    191.0295   1.4332272956e+02   3.3022893922e+01    0.3042113   0.09891719 -74.47  0.001319233    2.569    0.611
       109 -13.5200      5.8350    245.2263   1.4883305770e+02   2.2555177596e+01     1.215416    0.6231069  72.01  0.007719459    1.539    0.350
       110  -9.5824     31.5757    189.9836   1.3979024534e+02   3.1614832011e+01    0.3487966    0.1241664  42.44  0.001564416    2.646    0.622
       111 -10.5251    250.1001    188.0607   9.1015891701e+01  -5.7872485178e+00    0.3409015    0.1662944 -29.00  0.001528471    2.107    0.525
       112  -9.5267     77.0848    188.6250   1.2920826256e+02   2.6014481893e+01    0.2148004    0.1725441 -86.30 0.0003115682    1.159    0.137
       113 -11.5348     66.5088    187.0035   1.3148550472e+02   2.7948515631e+01    0.3053381    0.2545335 -50.51 0.0004996951    1.378    0.274
       114 -10.9474     83.7983    186.8202   1.2734077390e+02   2.5406835367e+01    0.2383365    0.2137857  85.40 0.0002237273    1.015    0.015
       115  -8.6117     45.2654    186.6698   1.3637548985e+02   3.0813344078e+01    0.1349166   0.08584961  76.48 0.0004130446    1.576    0.365
       116 -10.0770     28.6312    184.4331   1.3987428587e+02   3.3215932373e+01    0.2877243    0.2640075   2.15  0.001304564    1.552    0.356
       117  -9.1901     24.1681    184.1458   1.4083047575e+02   3.3742262565e+01    0.1969036    0.1820358  -1.63 0.0006163651    1.551    0.355
       118  -9.2322    140.0835    183.0722   1.1308465972e+02   1.6138611354e+01    0.2218533     0.211825  73.78 0.0003223434    1.032    0.031
       119 -10.3538    127.7375    182.6272   1.1596716825e+02   1.8653630217e+01     0.261873    0.2396388  88.47 0.0003082564    1.096    0.087
       120  -9.4476    107.8417    182.3978   1.2077741507e+02   2.2408902613e+01    0.2300832     0.191512 -78.61 0.0003938337    1.207    0.172
       121  -9.1461     36.7112    183.1475   1.3792318425e+02   3.2638931439e+01    0.2136961    0.1414405  89.80  0.001199514    1.368    0.269
       122 -11.9625    248.3093    173.0084   8.8306413847e+01  -2.9306089776e+00     0.612586    0.4062877 -29.85  0.003249896    1.396    0.284
       123 -10.0617     86.0500    180.3615   1.2579615308e+02   2.6597005255e+01    0.3338104    0.2260173 -88.07  0.001035232    1.667    0.400
       124  -8.6611     65.8229    182.1326   1.3098142773e+02   2.9209589059e+01    0.1713175    0.1545633 -55.28 0.0002790012    1.258    0.205
       125  -8.4797     92.5178    178.4137   1.2388161564e+02   2.6010907336e+01    0.1441906    0.1340625  81.97 -0.0001607233    1.033    0.032
       126  -8.7263     12.5093    178.5077   1.4284674215e+02   3.6147886981e+01    0.1225067   0.09572775 -84.99 0.0008104015    1.029    0.028
       127  -9.4790    125.9876    177.2830   1.1538743143e+02   2.0235038213e+01    0.2099803    0.1867232  55.64 0.0002475674    1.082    0.076
       128 -10.3396    103.0377    176.0436   1.2085367377e+02   2.4779696908e+01    0.2408945    0.2312853 -52.47  0.001349354    1.151    0.131
       129 -11.8966    107.8762    172.9076   1.1907416891e+02   2.4669739041e+01    0.2873509    0.2686822  72.77 0.0002837743    1.022    0.021
       130 -10.7924     76.6515    174.9525   1.2727209571e+02   2.9368471057e+01    0.2902749     0.245025 -62.88 0.0004514752    1.165    0.142
       131 -11.4709     63.5465    173.2826   1.3027735267e+02   3.1662739920e+01    0.3827901    0.2777516 -85.13 0.0005932683    1.332    0.249
       132 -10.4053     19.2392    172.9619   1.4081237501e+02   3.6816995048e+01    0.3852821    0.2341168  66.62  0.001683375    1.657    0.397
       133 -10.9439     14.5091    167.2346   1.4131215702e+02   3.8575906010e+01    0.3021679    0.2722247  56.22  0.001409545    1.290    0.225
       134 -10.8911     11.8323    173.5017   1.4253116462e+02   3.7357448566e+01     0.358257    0.1751063 -54.86  0.001884067    2.026    0.506
       135 -11.0828     45.9835    172.2716   1.3444309873e+02   3.4154929936e+01    0.4088898     0.236058 -53.09 0.0003425563    1.741    0.426
       136 -10.7945     43.6945    168.7045   1.3453709713e+02   3.5281424724e+01    0.6455383     0.214688 -56.89   0.00257676    2.606    0.616
       137  -8.6916    150.9491    170.0492   1.0787507897e+02   1.6886171059e+01     0.181783    0.1716217 -58.03 0.0009453901    1.081    0.075
       138 -11.7484     84.5431    166.4758   1.2387851571e+02   3.0214091614e+01     0.650445    0.5071996  37.36  0.003407307    1.370    0.270
       139  -9.0625    133.9869    167.6472   1.1150798765e+02   2.0914195135e+01    0.2109763    0.1907703  49.97 0.0006194072    1.082    0.075
       140 -12.1936    245.0035    162.9246   8.6805631362e+01  -5.8146174653e-01    0.5843523    0.3424124 -47.27  0.002819547    1.694    0.410
       141 -12.1721    247.0208    158.2446   8.5488160105e+01  -1.0495827768e-01     1.109064    0.7751753 -85.32  0.004975599    2.782    0.641
       142  -8.4990    126.3298    167.6565   1.1341867142e+02   2.2435982609e+01    0.1640227       0.1196  79.43 9.819766e-06    1.749    0.428
       143 -10.9861      7.0979    167.2010   1.4299795711e+02   3.9202870146e+01    0.3451066    0.1938302 -81.78  0.001202781    1.453    0.312
       144  -9.2783     58.2271    162.4813   1.3001239989e+02   3.5006764824e+01    0.2068714     0.163304  85.25 0.0003956544    1.239    0.193
       145 -10.0661     22.5003    163.0749   1.3898791087e+02   3.8833062253e+01    0.2581995    0.1747022 -14.46 0.0009882044    2.447    0.591
       146 -13.0902     13.7127    238.7032   1.4712753610e+02   2.3013400201e+01    0.9694514    0.5385535  67.65   0.00241395    1.431    0.301
       147 -10.5459     12.2334    161.4430   1.4124666389e+02   4.0116622735e+01     0.245004    0.1673279  88.39  0.001300425    1.285    0.222
       148  -9.9797     89.9451    160.0514   1.2132363024e+02   3.0912719878e+01    0.2177521      0.20656 -76.74 0.0003135471    1.049    0.046
       149  -9.0933     73.4974    159.5262   1.2556342741e+02   3.3614261530e+01    0.1443903    0.1292894 -85.79 0.0001276848    1.034    0.033
       150 -10.1173     27.8594    171.5503   1.3867321970e+02   3.6313552613e+01    0.3560573    0.1766529 -59.41  0.001350933    1.788    0.441
       151 -10.9600     31.8495    155.8777   1.3580984843e+02   3.9643554842e+01    0.3804405    0.2450726 -52.24  0.001299982    1.516    0.340
       152 -12.0696     11.8680    153.2465   1.4045671600e+02   4.2057067160e+01    0.5232382    0.3021706 -79.28  0.002959797    1.448    0.309
       153 -10.3127     84.1263    155.4345   1.2201414680e+02   3.2992308800e+01    0.3862392    0.2343541  22.82 0.0008501027    2.209    0.547
       154 -10.9560     24.1663    154.9753   1.3762520984e+02   4.0596685289e+01    0.3259356    0.2108733  27.01  0.001871427    1.892    0.472
       155  -8.6944    228.4315    155.5065   8.8181359288e+01   3.8569021707e+00    0.1430064    0.1312495 -35.76 0.0001161772    1.032    0.031
       156  -9.4933    104.7241    153.3543   1.1610262201e+02   2.9984067151e+01    0.2470143     0.212105  82.84 0.0005655687    1.229    0.186
       157 -10.1222     90.0852    153.2302   1.1999818857e+02   3.2564184636e+01    0.3154123    0.2164719 -47.09 0.0003257397    1.482    0.325
       158 -12.8611    247.6689    100.7129   7.3186734632e+01   1.0053564683e+01     1.155729    0.5986335 -40.19  0.005367332    1.754    0.430
       159 -12.0618    247.7708    142.3629   8.2033575548e+01   2.6111911956e+00    0.7999019    0.6225274  60.98   0.00445251    1.540    0.351
       160 -10.9692    192.8691    247.5028   1.1291067552e+02  -6.0458471818e+00    0.4063679    0.2534313 -21.27  0.002114129    2.042    0.510
       161 -10.3206     97.1677    151.0484   1.1765940573e+02   3.1893002914e+01    0.3623533    0.3297039 -57.32  0.001476619    1.081    0.075
       162  -9.5105     69.9072    152.1232   1.2523808894e+02   3.5955610450e+01      0.21464    0.1801089  82.14 0.0003276473    1.213    0.176
       163  -9.3729     58.3145    148.3214   1.2772289875e+02   3.8461494831e+01    0.1406492    0.1002704 -36.32 0.0003516266    1.657    0.397
       164  -9.3245     86.2027    149.9462   1.2041323124e+02   3.4007739359e+01    0.2278297    0.1886962 -86.30 0.0004467707    1.254    0.202
       165  -9.4962     84.2726    146.6771   1.2030327509e+02   3.5120693611e+01    0.2404526    0.1942146  87.38 0.0005681508    1.351    0.260
       166 -10.2359     23.9730    149.6706   1.3700994384e+02   4.1873870023e+01    0.1722888    0.1509301 -81.12 0.0005964371    1.080    0.074
       167 -12.1433     68.4386    144.3739   1.2424407922e+02   3.8066254227e+01    0.6718504    0.4998861  84.29  0.002103648    1.542    0.352
       168 -10.6306     72.8226    139.5091   1.2209201795e+02   3.8627852885e+01    0.3423134    0.2534561 -38.65 0.0008861967    1.462    0.316
       169  -8.8865     18.3569    148.2545   1.3826239810e+02   4.2698015873e+01    0.1200805   0.08363427 -42.40 0.0003503799    1.611    0.379
       170  -9.3520    100.8051    146.2628   1.1568829954e+02   3.2417984628e+01    0.2973327    0.1859063 -32.54  0.001212645    2.119    0.528
       171  -9.2281     40.5014    147.5241   1.3239504981e+02   4.0757104329e+01    0.1340117    0.1138107 -78.79 8.838571e-05    1.043    0.041
       172 -10.2459    236.1176    145.9971   8.4764119253e+01   4.1512340371e+00     0.238614    0.2076871  39.31 0.0007582397    1.257    0.204
       173  -8.9670     52.9592    146.2717   1.2883807051e+02   3.9632891572e+01    0.1821539    0.1709833 -84.28 0.0003685078    1.083    0.077
       174  -9.9766    133.3763    141.1503   1.0587003444e+02   2.7265029460e+01    0.5624372    0.2772859 -53.99  0.002064319    2.145    0.534
       175  -9.4984     32.3995    145.2710   1.3422107493e+02   4.2131742662e+01    0.2087885    0.1287187 -43.73 0.0009320413    1.747    0.428
       176  -8.7693    104.9929    142.7645   1.1379766938e+02   3.2506103169e+01    0.1992559     0.192463  55.30  0.000250694    1.062    0.058
       177 -10.4589     32.8177    140.5908   1.3342808655e+02   4.3211728275e+01    0.3026927    0.1912318 -88.77 0.0009203115    1.708    0.414
       178  -9.3899     37.1835    140.1945   1.3217812629e+02   4.2871495887e+01    0.1814562    0.1410847  85.31 0.0006284729    1.322    0.244
       179  -8.9065     25.3249    139.6863   1.3531939029e+02   4.4123736172e+01    0.1293022   0.08750989  73.96 0.0007041866    1.664    0.399
       180 -11.0598     60.3336    136.6429   1.2509023387e+02   4.1049535118e+01    0.3111792    0.2480625 -79.73  0.001715685    1.261    0.207
       181 -10.2592     49.0893    138.0242   1.2852035268e+02   4.2097139694e+01    0.5034477    0.1073453  36.58  0.001638092    4.380    0.772
       182  -9.7906    109.3032    136.1035   1.1112911995e+02   3.3300172381e+01    0.3706907    0.2687899 -12.51   0.00143322    2.049    0.512
       183 -12.1200     54.8915    207.0339   1.3653208368e+02   2.4880356303e+01     1.256133    0.6661537  51.60  0.005646365    1.748    0.428
       184 -10.8327     44.8463    130.5683   1.2843127507e+02   4.4370579599e+01     0.344143    0.2657817  67.42  0.001479256    1.492    0.330
       185 -11.0398     33.3728    129.9771   1.3162378394e+02   4.5688032895e+01    0.4337555    0.1696185 -61.44  0.001898263    2.058    0.514
       186 -10.2135     29.7944    126.5979   1.3209921958e+02   4.6819664003e+01    0.2373112    0.1216845  30.30  0.001189358    2.236    0.553
       187  -8.9777    115.2956    129.3252   1.0789079434e+02   3.3739901694e+01    0.1563845    0.1235804 -13.92  0.000240279    1.624    0.384
       188 -11.1922     67.3252    128.5251   1.2147503635e+02   4.2071986020e+01    0.3660969    0.2906998  51.04  0.001984641    1.389    0.280
       189 -10.6386     59.6096    127.7562   1.2359183642e+02   4.3287841128e+01    0.3214266    0.2277785 -44.52    0.0011167    1.363    0.266
       190 -10.9986     24.0329    126.8089   1.3378142720e+02   4.7272846734e+01    0.2899911    0.1892237 -67.82  0.001310429    1.279    0.218
       191 -10.1335    209.9279    125.7882   8.4965631301e+01   1.3452288055e+01    0.2962177    0.2276981 -42.31 0.0005403153    1.243    0.196
       192 -12.2866     16.6333    217.6997   1.4520006475e+02   2.7044274763e+01     0.844653     0.685842 -21.60  0.005578084    2.239    0.553
       193 -10.2495    249.5320    117.9099   7.6575421287e+01   6.6636276877e+00    0.3491462     0.233205 -34.87  0.001025878    1.449    0.310
       194  -8.7254     49.9777    122.4853   1.2542010177e+02   4.5718551429e+01    0.1858509    0.1030389  55.13 0.0008095048    2.467    0.595
       195 -12.0467     21.3570    121.7498   1.3376111181e+02   4.8671364172e+01    0.5151855    0.2345774  10.20  0.002294857    3.373    0.704
       196  -9.3140     67.4821    116.4812   1.1883906192e+02   4.4905884997e+01    0.1416907    0.1285525 -47.26 0.0003833492    1.015    0.014
       197 -11.2781     11.0569    115.9392   1.3586279862e+02   5.0761260868e+01    0.2787687    0.1851567 -53.17 0.0007135153    1.252    0.201
       198 -11.8175      9.4234    112.2426   1.3578240628e+02   5.1706111414e+01    0.2848191    0.2285225  16.18  0.001505156    1.552    0.356
       199 -10.2702    168.0713    113.1533   9.0481488927e+01   2.5657235491e+01    0.3706915    0.2906339 -84.49 0.0009762303    1.568    0.362
       200  -9.9201    232.0313    116.2991   7.8944182900e+01   1.0495936766e+01     0.198172    0.1837503 -64.07 0.0006108366    1.042    0.040
       201 -11.7413    248.4400    112.8481   7.5660375517e+01   7.7748460485e+00    0.7369705    0.5498621   7.50  0.003667189    2.180    0.541
       202  -8.8785    203.4864    111.5113   8.2806667888e+01   1.7685880854e+01    0.1500205    0.1439192 -63.00 7.908229e-05    1.031    0.030
       203  -8.7892     29.2854    109.3399   1.2923687171e+02   5.0869603706e+01    0.1351297   0.07969242 -40.23 0.0003596929    1.635    0.388
       204 -11.5547     15.2882    105.5143   1.3290969087e+02   5.2828353628e+01    0.4539369    0.1478414 -54.42  0.001882909    2.216    0.549
       205  -8.3760     71.7110    100.2672   1.1361562266e+02   4.7988234059e+01    0.1292861    0.1103666  79.23 0.0001919849    1.502    0.334
       206 -10.0789     17.1172     99.1255   1.3118804203e+02   5.4121317933e+01    0.1905012    0.1350157 -44.36 0.0003292685    1.216    0.178
       207 -13.6219     10.8033    208.9245   1.4567064416e+02   2.9517341619e+01     2.113691    0.8982124 -60.26   0.01101352    2.348    0.574
       208  -8.7972     28.6679     94.3165   1.2642929465e+02   5.4279650189e+01    0.1194617   0.09466437  76.11 0.0003500661    1.687    0.407
       209  -9.2679    114.0345    150.7709   1.1309111137e+02   2.8871375500e+01    0.3131593    0.2051468 -59.65 0.0006863856    1.561    0.359
       210 -11.0283    249.1988    150.9867   8.3610609299e+01   8.0155556833e-01     0.449434    0.3041822 -46.24  0.002363197    1.381    0.276
       211 -11.7612    199.7820    246.7209   1.1141502508e+02  -7.0536531613e+00    0.5326267    0.2551996  41.35  0.002575661    1.881    0.468
       212 -10.2468    222.5887    243.7043   1.0648081662e+02  -1.0196358935e+01    0.2282471    0.1130344 -32.51 0.0009463803    2.148    0.534
       213  -9.1597     16.4887     25.4982   1.1153842961e+02   6.8090473938e+01    0.1108188    0.0844687 -16.15 4.067835e-06    1.055    0.052
