#   1 NUMBER                 Running object number                                     
#   2 MAG_AUTO               Kron-like elliptical aperture magnitude                    [mag]
#   3 X_IMAGE                Object position along x                                    [pixel]
#   4 Y_IMAGE                Object position along y                                    [pixel]
#   5 X_WORLD                Barycenter position along world x axis                     [deg]
#   6 Y_WORLD                Barycenter position along world y axis                     [deg]
#   7 A_WORLD                Profile RMS along major axis (world units)                 [deg]
#   8 B_WORLD                Profile RMS along minor axis (world units)                 [deg]
#   9 THETA_WORLD            Position angle (CCW/world-x)                               [deg]
#  10 FWHM_WORLD             FWHM assuming a gaussian core                              [deg]
#  11 ELONGATION             A_IMAGE/B_IMAGE                                           
#  12 ELLIPTICITY            1 - B_IMAGE/A_IMAGE                                       
         1 -12.2582     57.1481    130.6033   1.0533964375e+02   4.2422420291e+01       2.8264     1.292974 -86.56  0.006400615    7.678    0.870
         2 -13.2257    217.3497     31.4040   4.1265206846e+01   2.7618509932e+01     1.385225    0.8732535  37.32  0.007410165    2.463    0.594
         3 -10.1263      1.5935     19.7071   1.0178720407e+02   7.3357772348e+01    0.2782511    0.1091959 -56.70  0.001293269    2.581    0.613
         4 -12.5414    239.1783     11.2763   3.5450440881e+01   2.5471972362e+01    0.6543102    0.4585103 -60.99  0.002688139    1.134    0.118
         5 -10.2366     12.3319      7.3250   8.7622340139e+01   7.4534954921e+01    0.1816628    0.1019214 -24.06  0.001018532    1.625    0.385
         6  -9.7978      2.4208      2.7277   9.2517818494e+01   7.6217309092e+01    0.2045408    0.1043302 -46.39  0.001133862    2.057    0.514
         7  -7.9025     91.7060      1.3205   4.9600378326e+01   6.0180175035e+01    0.1231867   0.09666905 -70.40 0.0005564354    1.611    0.379
         8 -11.9353     86.4674    226.6273   1.1074523628e+02   1.5755963680e+01    0.7896793    0.4245309  38.26 0.0009141003    1.574    0.364
         9 -12.4387    113.7012    244.4736   1.0655766809e+02   8.7909527539e+00    0.7330617     0.527135  -1.90  0.004272247    1.629    0.386
        10 -13.7574    117.8033    229.9583   1.0383738964e+02   1.0856740833e+01      4.86793    0.5740706  35.35    0.0132034    5.351    0.813
        11 -10.6174     31.2525    248.5966   1.2476812695e+02   1.7828105021e+01    0.4513711     0.349022  -9.49   0.00299879    1.899    0.473
        12  -9.7312     28.5204    245.5045   1.2516045138e+02   1.8685141924e+01    0.3138396    0.2338323  22.72  0.002134571    1.447    0.309
        13 -14.8485      3.8191    177.1285   1.2690911201e+02   3.5615193376e+01     9.371118     1.328331 -76.93   0.02696089    5.703    0.825
        14  -9.6328     21.0416    239.3781   1.2638486038e+02   2.0589328131e+01     0.203087    0.1515801  82.20 0.0006120559    1.285    0.222
        15 -13.1739     97.4088    247.0578   1.1044697545e+02   1.0464143228e+01     2.248033    0.5894722  24.58  0.006202779    6.119    0.837
        16 -10.9378     22.7906    224.1549   1.2518832123e+02   2.3494627980e+01    0.4050548    0.2129438  89.42  0.002212851    1.957    0.489
        17 -10.4451    164.2245    218.4126   9.1637573889e+01   6.2631687695e+00    0.3091062    0.1572088 -43.73  0.001478868    2.136    0.532
        18 -10.4897     44.3522    217.3804   1.1980658845e+02   2.2751950723e+01    0.3742391    0.2267094  88.42  0.002020703    1.813    0.448
        19  -9.6659     61.4820    234.9113   1.1731374242e+02   1.7198871814e+01    0.2486221    0.1903725  59.08  0.000600224    1.233    0.189
        20 -11.4520     61.5023    249.5852   1.1849471071e+02   1.4386744573e+01    0.8833536    0.3673077  28.65  0.004324174    2.096    0.523
        21  -9.4439    183.8239    215.5974   8.6989053089e+01   3.9219122116e+00     0.180434     0.110279  36.75 0.0009461574    1.680    0.405
        22  -8.5506     29.3069    219.3155   1.2343075270e+02   2.3887052335e+01    0.1126608   0.09088828 -35.45  0.000431606    1.627    0.385
        23  -9.4983    192.1454    193.0197   8.1230533309e+01   6.4794661821e+00     0.292785    0.1820692 -59.85  0.001247334    3.168    0.684
        24  -9.4906     39.8507    233.8126   1.2204199954e+02   1.9819538310e+01    0.2694166    0.1545897  62.95  0.001137841    1.701    0.412
        25 -10.9315     54.7047    181.0288   1.1360761097e+02   2.9918667162e+01      0.42104    0.2880214 -27.64  0.001854389    1.905    0.475
        26 -10.8333     60.8448    174.9913   1.1113874106e+02   3.0652350483e+01    0.3300139    0.2546244 -37.84 0.0004886573    1.454    0.312
        27 -10.6708     71.8251    164.8900   1.0651784416e+02   3.1726145474e+01    0.3123891    0.2719743 -42.43 0.0004506232    1.193    0.162
        28 -12.5172     58.1767    161.3369   1.1004100145e+02   3.4388089733e+01     0.563871    0.3395132 -41.20  0.001433348    1.864    0.463
        29 -12.4566     82.5458    244.1838   1.1344514766e+02   1.2869770620e+01     1.267508    0.6585178   9.26  0.005354613    3.226    0.690
        30 -11.4277     67.7641    142.5650   1.0401783639e+02   3.7937383178e+01    0.4819053    0.3516093  49.30  0.001223904    1.469    0.319
        31 -10.5265     33.2538    156.7825   1.1694824578e+02   3.8257298357e+01    0.2747405    0.2131687 -43.25  0.001516002    1.373    0.271
        32  -9.1128    124.3633    153.2069   8.9227076172e+01   2.6064017017e+01    0.3572645    0.2584603  87.36  0.001211437    2.353    0.575
        33  -8.7915    134.3275    148.7933   8.5597454906e+01   2.5212822889e+01    0.3202277     0.144292 -54.83  0.001099317    2.729    0.634
        34 -10.6178     23.5598    147.5621   1.1887040570e+02   4.1473187864e+01    0.3206607    0.1612584  60.21  0.001365724    2.368    0.578
        35  -9.8448     94.7227    143.9268   9.5815213891e+01   3.3477901207e+01    0.3227298    0.2979642 -84.60  0.001142797    1.210    0.173
        36  -8.5795     98.1881    140.5998   9.4056748540e+01   3.3707316593e+01    0.3460088    0.2230968  -7.18 0.0009304755    2.390    0.582
        37 -11.3318     82.6006    142.4822   9.9275237036e+01   3.5788457268e+01    0.3348315    0.2888126 -44.94 0.0006181117    1.151    0.131
        38 -13.3480      5.3518    237.0959   1.2948987135e+02   2.2442595901e+01     1.983147     1.121801 -88.55   0.01250922    1.705    0.413
        39 -11.7311     14.6746    214.0665   1.2642828657e+02   2.6365318741e+01    0.4918137    0.4225648  83.32  0.002064411    1.123    0.110
        40  -9.8253    106.7598    131.6543   8.9445962940e+01   3.4342166976e+01    0.3805064    0.3380565  11.53  0.001247413    1.133    0.118
        41  -9.4147     94.3653    128.3721   9.2510403543e+01   3.7358671522e+01    0.3195428    0.2446963 -18.08 0.0008211801    1.505    0.336
        42 -12.0924     79.2439    158.2747   1.0323000774e+02   3.2330110252e+01     1.219834    0.6956178  53.58  0.001267705    2.121    0.529
        43  -8.4239     44.4299    230.2806   1.2077798919e+02   2.0046371536e+01    0.1601187    0.1058045  79.88 0.0009362236    1.596    0.373
        44  -8.7187    114.9781    125.0310   8.5401945214e+01   3.4340199193e+01    0.2688947    0.1932531 -10.28  0.001138684    1.803    0.445
        45 -10.1853     66.1478    127.3198   1.0161632614e+02   4.2073274834e+01    0.3890275    0.2271303  64.53  0.001439227    2.774    0.640
        46  -8.8539    105.1131    120.1428   8.7148073869e+01   3.7376138039e+01    0.2299722    0.2013634  -7.87 0.0002879419    1.188    0.158
        47  -8.3472    167.8419    113.2347   6.8917777658e+01   2.5847327222e+01    0.2480783     0.167714 -79.45 0.0009478469    2.824    0.646
        48  -9.1301    205.1689    110.4074   6.1144435563e+01   1.8731325298e+01    0.3163597    0.2064484  35.76  0.001577265    1.788    0.441
        49 -10.0296     52.5103    109.5808   1.0275729086e+02   4.8410098365e+01    0.3200871    0.1389529 -59.42  0.001216541    2.185    0.542
        50  -8.3397    134.4717    103.0183   7.4137061352e+01   3.5113656535e+01    0.2387469     0.152504 -41.65 0.0007987667    1.567    0.362
        51  -9.6131    162.9543     82.0112   6.1680390824e+01   3.2615097809e+01    0.2286259    0.2255628  47.41  0.001057757    1.027    0.026
        52  -8.3417     24.5762     82.5620   1.0818825991e+02   5.8051531414e+01    0.1373497    0.1207737 -42.10 9.431556e-05    1.025    0.024
        53 -13.0668      9.4120    207.1803   1.2725193362e+02   2.8306723570e+01      1.09497    0.7746267 -15.99  0.004104035    2.075    0.518
        54 -11.5124     69.9977    145.5079   1.0383525738e+02   3.6875382529e+01    0.5254977    0.4480365  11.22  0.001305998    1.243    0.195
        55  -9.8866     13.2593     60.1091   1.0817624094e+02   6.4192902722e+01    0.2279415    0.1811649 -35.00 0.0005640488    1.046    0.044
        56 -12.0048     24.7123    208.9835   1.2381116200e+02   2.6564537134e+01    0.4007004     0.329807 -46.95 0.0007430859    1.474    0.321
        57 -14.2733     35.5012    198.1192   1.2037916461e+02   2.7963749745e+01     3.044447     1.623049  60.99   0.01248661    1.945    0.486
        58 -11.0590     90.6592    232.2473   1.1038626524e+02   1.4100391059e+01     0.409556    0.2784686 -63.92  0.001106424    1.738    0.424
        59 -10.1883      2.3346     37.9619   1.0801227658e+02   6.9685634904e+01    0.2903407    0.1017846 -61.11  0.001251474    2.592    0.614
        60  -9.0937    130.1543     37.5365   5.4881326488e+01   4.7205851932e+01    0.2539581    0.2030489 -72.06 0.0009538205    1.453    0.312
        61 -11.0073     70.4111    247.4369   1.1640129533e+02   1.3743462783e+01    0.6193159    0.3872822  18.75  0.003523759    1.697    0.411
        62  -9.4380     26.7668    250.4070   1.2577507749e+02   1.7933088086e+01    0.2624066    0.1465697  27.29  0.001372153    1.696    0.410
        63  -8.6888    189.5044     15.5110   4.0077310931e+01   3.5381274675e+01    0.1241415    0.1065222 -78.88 0.0008105757    1.004    0.004
        64  -9.5895     57.0105    238.9329   1.1863969295e+02   1.6924836713e+01    0.1857494     0.152392  44.79 0.0005171961    1.011    0.011
        65  -8.6963     33.8631    237.8874   1.2360141289e+02   1.9627173072e+01    0.1641213    0.1497639  36.21 0.0006833625    1.205    0.170
