#   1 NUMBER                 Running object number                                     
#   2 MAG_AUTO               Kron-like elliptical aperture magnitude                    [mag]
#   3 X_IMAGE                Object position along x                                    [pixel]
#   4 Y_IMAGE                Object position along y                                    [pixel]
#   5 X_WORLD                Barycenter position along world x axis                     [deg]
#   6 Y_WORLD                Barycenter position along world y axis                     [deg]
#   7 A_WORLD                Profile RMS along major axis (world units)                 [deg]
#   8 B_WORLD                Profile RMS along minor axis (world units)                 [deg]
#   9 THETA_WORLD            Position angle (CCW/world-x)                               [deg]
#  10 FWHM_WORLD             FWHM assuming a gaussian core                              [deg]
#  11 ELONGATION             A_IMAGE/B_IMAGE                                           
#  12 ELLIPTICITY            1 - B_IMAGE/A_IMAGE                                       
         1  -8.9960    214.2105      8.6086   4.3914405871e+01   2.9659769766e+01    0.1863159    0.1168284  60.98 0.0009374951    1.673    0.402
         2  -8.9118    191.7335    248.5699   9.9758740858e+01   4.1267554763e+00    0.1948517    0.1314943   6.58 0.0008702316    1.478    0.323
         3  -9.2126    233.5023    250.3877   9.3563288832e+01  -1.1599460607e+00    0.4312033    0.1029893  39.79  0.002036148    3.606    0.723
         4 -10.1401    245.8344    244.2628   9.0949238029e+01  -2.1173424132e+00    0.6558686    0.2615368  23.06  0.003908007    2.210    0.548
         5  -9.5553    238.7379    244.9045   9.2070470846e+01  -1.3355025251e+00    0.3725098    0.1842762 -15.17  0.002543826    2.164    0.538
         6  -9.9329    226.3215    240.4833   9.3332895437e+01   5.3534435614e-01    0.3910855    0.1868899  23.07   0.00252011    1.726    0.421
         7  -8.4653    226.8124    250.5744   9.4580716386e+01  -3.8200159832e-01    0.2175481   0.06694643  32.72  0.001179977    2.429    0.588
         8  -9.4415    224.1901    247.8187   9.4620477289e+01   1.6446132542e-01    0.3940404    0.1980981  -1.44   0.00241998    2.553    0.608
         9  -8.3898    229.1958    247.3419   9.3806875800e+01  -3.9858626697e-01    0.2196148   0.09817236  34.32 0.0007993777    1.675    0.403
        10  -9.4517    233.5162    243.9356   9.2713111536e+01  -6.3379705323e-01    0.4572525    0.2165318   2.69    0.0026177    2.816    0.645
        11  -9.0398    248.3549    250.4034   9.1408665313e+01  -2.8800111240e+00     0.328595    0.1411358  27.11  0.002077156    1.700    0.412
        12  -8.6468    243.2052    250.3706   9.2144329676e+01  -2.2885127129e+00     0.237221    0.1174958  37.97  0.001652582    1.844    0.458
        13  -9.2926    219.1136    244.9025   9.5014953901e+01   1.0369499101e+00    0.2760309    0.1509292  12.30  0.001118621    1.762    0.432
        14  -8.2604    197.0076    250.5071   9.9153608770e+01   3.2765899666e+00    0.2697852    0.0738229  37.45   0.00135023    2.679    0.627
        15  -9.5609    203.4681    249.0252   9.7958626386e+01   2.6070901008e+00    0.4469842    0.2489982   3.34  0.002910926    2.196    0.545
        16  -9.0860    216.2172    250.3459   9.6152153988e+01   9.1563461247e-01    0.4501313    0.1153813  33.99  0.002197495    2.968    0.663
        17  -9.6934    210.9379    246.7494   9.6511286169e+01   1.8845455534e+00    0.4614064    0.2316966   5.61  0.002641363    2.794    0.642
        18  -8.7652    184.4541    250.5348   1.0115620699e+02   4.8562754132e+00    0.3053572   0.07427121  37.67  0.001426257    2.996    0.666
        19  -8.2702    177.7542    250.6331   1.0224938901e+02   5.6973764456e+00    0.1443031   0.07134932  39.89 0.0009177912    1.587    0.370
        20  -9.7385    167.0622    250.0885   1.0393593638e+02   7.1188176982e+00    0.4084843     0.177028  29.36  0.002408092    1.960    0.490
        21  -8.9507    171.0214    246.4901   1.0288224641e+02   6.9936748199e+00    0.2312977    0.1343275  21.05  0.001301998    1.627    0.385
        22  -9.2758    151.1289    249.4049   1.0651069897e+02   9.2339909506e+00       0.2281    0.1347405  21.31 0.0009862791    1.715    0.417
        23  -9.6079    143.0230    249.9395   1.0792738086e+02   1.0206709203e+01     0.338553    0.1075459  34.45  0.001720386    2.478    0.596
        24 -10.2322    126.2041    245.5590   1.1037443416e+02   1.2871040896e+01    0.3154338    0.1191315  36.05  0.001769003    1.984    0.496
        25 -10.2794    118.3112    245.3424   1.1171965146e+02   1.3892053666e+01    0.5143999    0.2502972  17.20  0.002134935    5.153    0.806
        26 -10.9038    128.9026    249.1022   1.1024142572e+02   1.2092924716e+01    0.8208297     0.180334  34.18  0.003226364    4.219    0.763
        27 -10.2968    132.8470    245.8280   1.0925632640e+02   1.1993612723e+01    0.2928995    0.1967074  48.98  0.002185965    1.373    0.271
        28  -7.9578    102.4835    250.5026   1.1487897759e+02   1.5165297237e+01    0.1024832   0.07416222  42.19 -3.395083e-05    1.007    0.007
        29  -8.7186     89.6490    249.9606   1.1703632191e+02   1.6752399869e+01    0.2350555    0.1089123  38.65  0.001294216    1.556    0.357
        30  -9.2359     75.3270    250.2785   1.1950514553e+02   1.8342061073e+01    0.2903752   0.09932964  37.16  0.001675833    2.097    0.523
        31 -10.0400     50.6498    249.6596   1.2365002996e+02   2.1073476949e+01    0.3908202    0.1411136  36.21  0.002395739    2.050    0.512
        32 -10.2130     34.6479    248.3363   1.2626667871e+02   2.2853756928e+01    0.6364786   0.07264586  42.28   0.00311222    3.246    0.692
        33  -8.7733     10.1892    244.2062   1.3016209028e+02   2.5687113794e+01    0.1798659    0.1141972  57.73  0.001544207    1.086    0.079
        34  -9.3919     18.7256    249.0647   1.2891044520e+02   2.4226785052e+01    0.2834965    0.1268972  42.26  0.002083836    1.525    0.344
        35  -9.2145     13.6307    248.1202   1.2970937259e+02   2.4814447664e+01    0.2426601    0.1151144  41.26  0.001509373    1.490    0.329
        36  -8.3902      8.7739    247.6045   1.3047998635e+02   2.5308922811e+01    0.2010649    0.0836656  53.62  0.001462581    1.591    0.371
        37  -9.9367     14.8251    240.2168   1.2928345064e+02   2.5879705640e+01    0.3838313    0.1178176  56.74  0.002323307    2.328    0.570
        38 -10.1492      9.4557    239.8130   1.3016461384e+02   2.6406399032e+01    0.2951952    0.1918203 -60.66  0.002382161    2.212    0.548
        39  -9.5007      3.8304    248.7811   1.3129957080e+02   2.5554303695e+01    0.4478925   0.08815297  38.07  0.002589221    2.693    0.629
        40 -10.0322      3.3200    242.5815   1.3124093569e+02   2.6508157605e+01    0.5693033    0.1459341  62.60  0.003195061    3.002    0.667
        41  -9.6931    157.5055    245.1670   1.0499057695e+02   8.8918096720e+00    0.2581056    0.1798142  -7.65  0.001820693    1.901    0.474
        42  -9.2642    109.6278    249.0723   1.1353905281e+02   1.4486461716e+01    0.2058337    0.1021024  46.45 0.0008829252    1.578    0.366
        43  -8.5457    105.7026    246.4273   1.1399830012e+02   1.5308922157e+01    0.2012628   0.07087971  39.55  0.001122167    2.005    0.501
        44 -10.5388     65.0965    248.5016   1.2114184489e+02   1.9713547656e+01    0.3981206     0.144954  40.49  0.002315348    1.872    0.466
        45  -9.3483    198.2173    245.2373   9.8320225210e+01   3.6260955443e+00    0.3262835     0.160125  16.72  0.001339864    2.365    0.577
        46  -8.5746    201.8287    239.9498   9.7078934744e+01   3.6754522381e+00    0.2428659    0.1360093  -2.66  0.001266489    2.311    0.567
        47  -8.8782    187.9752    245.5096   9.9995918063e+01   4.9087565409e+00    0.2183014    0.1317465 -10.73  0.001362865    2.129    0.530
        48  -8.9260     99.2945    247.4299   1.1518760535e+02   1.5950814203e+01    0.1959121   0.07838462  34.02 0.0009079344    2.016    0.504
        49  -8.8085     25.9514    249.0381   1.2772932066e+02   2.3572998541e+01    0.2149018   0.08923992  47.42  0.001030671    1.580    0.367
        50  -9.5117    177.6850    243.5742   1.0144558011e+02   6.4389374803e+00    0.3924155    0.1836159  27.37   0.00234211    1.860    0.462
        51 -10.2028    139.3535    245.6331   1.0812185985e+02   1.1184437613e+01    0.2885956    0.1505037  25.38  0.001772488    1.933    0.483
        52 -10.1999    143.6371    241.9867   1.0701431260e+02   1.1069146609e+01    0.2028868    0.1585073  16.50  0.001556429    1.312    0.238
        53  -9.7083    152.0007    244.0000   1.0579616407e+02   9.7413898957e+00    0.3221134    0.1126994  29.99  0.001495507    2.905    0.656
        54  -9.0413     83.0252    244.0958   1.1776630347e+02   1.8321989795e+01    0.2081102    0.1185667  51.59   0.00148287    1.408    0.290
        55  -9.9103     43.9325    244.4121   1.2453531477e+02   2.2510993630e+01    0.3681766    0.1470697  33.86  0.002298639    2.059    0.514
        56  -9.1819    109.6304    243.7323   1.1308905338e+02   1.5181770558e+01    0.1903127    0.1036156  30.40  0.001238052    1.633    0.388
        57  -9.8120     95.1820    244.2456   1.1565506855e+02   1.6871117971e+01    0.3075818    0.1309094  26.10  0.001555402    3.042    0.671
        58  -9.4381     28.4937    243.4802   1.2710630468e+02   2.4148931193e+01    0.1814805    0.1077355  49.30 0.0009022246    1.166    0.142
        59  -9.5473     26.6553    240.3192   1.2729790229e+02   2.4792340327e+01    0.1806926    0.1025189  56.52 0.0009637128    1.275    0.216
        60  -8.5784     20.4521    240.3166   1.2834450208e+02   2.5362623668e+01    0.2133221   0.07445221  55.07  0.001347057    2.038    0.509
        61  -8.0573     24.2506    244.2380   1.2784329892e+02   2.4431370249e+01    0.1449773   0.08759563  46.65 0.0007504305    1.175    0.149
        62  -8.9766     20.2237    244.1761   1.2851017034e+02   2.4807585596e+01    0.2016097    0.1043528  53.09  0.001249846    1.328    0.247
        63  -8.9842    192.9581    242.2909   9.8798203128e+01   4.5890941214e+00    0.2607489    0.1369828  23.46  0.001248163    1.650    0.394
        64  -9.3714    114.5401    242.8292   1.1215215375e+02   1.4689531574e+01      0.21386    0.1139285  26.32   0.00131515    1.945    0.486
        65  -8.9730    216.8038    229.4725   9.3300674733e+01   2.7465405871e+00    0.4657408    0.2174505   7.79  0.002194949    3.670    0.728
        66  -8.2293    210.9029    241.1384   9.5797677912e+01   2.4035977899e+00    0.2403011     0.115368  22.62  0.001183201    1.852    0.460
        67  -8.3440    214.8564    239.1441   9.4918559465e+01   2.0878710741e+00    0.2076322    0.1096246  31.07 0.0008431083    1.395    0.283
        68  -8.1873    216.2800    235.1900   9.4167443012e+01   2.2737427907e+00    0.3714041    0.1245676  27.72  0.001771303    3.011    0.668
        69 -11.0077    126.9663    239.3962   1.0965335126e+02   1.3555692413e+01    0.4090361    0.2137112  41.20  0.002669428    1.435    0.303
        70  -9.3174     37.5179    240.7240   1.2546360567e+02   2.3692537269e+01    0.1932809   0.09955154  39.37  0.001389736    1.470    0.320
        71  -8.0501    206.0732    240.1397   9.6428629021e+01   3.1123058151e+00    0.1599488     0.102774  16.60 0.0006175632    1.276    0.217
        72  -9.1390     72.1063    239.1878   1.1934966101e+02   2.0268469378e+01    0.3383782     0.123383  36.87  0.001940718    2.047    0.511
        73  -9.0212    248.9154    237.8161   8.9616259452e+01  -1.9677068387e+00    0.1834099    0.1524771 -15.04   0.00154605    1.712    0.416
        74 -10.1523    243.4808    236.9512   9.0287087814e+01  -1.2523207080e+00    0.4121507    0.2133889   6.77  0.002181356    1.904    0.475
        75  -8.9625    220.5784    238.0530   9.3885751182e+01   1.4658888954e+00    0.2136222   0.09400208  25.00 0.0007600625    1.951    0.487
        76  -9.1623    184.1158    236.6798   9.9546913936e+01   6.3249550397e+00    0.2783842    0.1746555  19.59   0.00129274    1.409    0.290
        77  -8.5727    175.5604    237.7013   1.0109820148e+02   7.3501576732e+00    0.1798553    0.1293868   7.88 0.0008520332    1.419    0.295
        78  -8.1557    112.9893    237.7637   1.1197035856e+02   1.5557763885e+01    0.1468326    0.0680645  37.28 0.0008810507    1.623    0.384
        79  -8.6563     81.1058    236.3209   1.1754971507e+02   1.9651495950e+01    0.3009077    0.1100487  48.03  0.001679197    2.146    0.534
        80  -9.3609     44.4510    236.5088   1.2406593595e+02   2.3634524322e+01    0.3259673   0.08836155  43.02   0.00179778    2.320    0.569
        81  -8.7977    195.7687    236.4819   9.7609410341e+01   4.8077839548e+00    0.2718068    0.1529752  19.81   0.00144586    1.615    0.381
        82  -8.7791    207.1934    234.8092   9.5551207677e+01   3.4815005550e+00    0.2189029    0.1551159  11.90  0.001081946    1.179    0.152
        83  -8.5093    208.0273    230.0031   9.4769416240e+01   3.8445878635e+00    0.2645141    0.1323096  11.47  0.001249916    2.627    0.619
        84  -9.3849    161.8571    235.3229   1.0314081579e+02   9.4495628320e+00    0.2833937    0.1423326  25.04  0.001649159    1.974    0.493
        85  -8.3323     93.3361    235.8161   1.1531721330e+02   1.8266782154e+01    0.2019858    0.1065893  30.07  0.001260142    1.785    0.440
        86  -8.7187     34.2351    236.3658   1.2583978522e+02   2.4669990480e+01    0.1461293   0.05916525  43.50 0.0009442255    1.691    0.409
        87  -9.4092    231.6170    234.5009   9.1713245167e+01   4.0252842031e-01    0.2729616    0.1355464  31.52  0.001647258    1.515    0.340
        88  -8.6859    237.9248    233.8262   9.0671319708e+01  -3.1750576592e-01    0.2576678     0.112615  34.08  0.001597171    1.769    0.435
        89  -8.4806    189.8730    234.8577   9.8365529946e+01   5.7535038070e+00    0.2200806    0.1251332  15.25    0.0013869    1.851    0.460
        90  -8.6208    195.2083    230.1320   9.6870589609e+01   5.5368065786e+00    0.2816299    0.1297469  23.18  0.001542821    2.228    0.551
        91  -9.4448     53.1682    239.3807   1.2269017276e+02   2.2303437457e+01    0.3737883    0.1420151  45.30  0.002321037    1.816    0.449
        92  -9.6279     30.6850    237.6776   1.2650750322e+02   2.4811467408e+01    0.1575697    0.1090228  26.81 0.0007798122    1.665    0.400
        93  -9.3896      5.6545    235.5990   1.3068646022e+02   2.7369277860e+01    0.1918355    0.1093352  54.48 0.0009198577    1.195    0.163
        94  -8.9228    169.9658    240.5718   1.0237740295e+02   7.7745612815e+00    0.2715991    0.1577935  14.04  0.001700439    2.041    0.510
        95  -7.7631    153.3258    233.2870   1.0438248700e+02   1.0839621648e+01    0.1064945   0.07038692  16.62 0.0004044416    1.608    0.378
        96  -8.3662    102.3840    234.0000   1.1353561306e+02   1.7410102572e+01    0.2426309   0.04685024  36.18 0.0009365086    3.949    0.747
        97  -8.5339     27.7615    232.3171   1.2679768521e+02   2.5911989347e+01    0.2439643   0.05695809  57.70    0.0011211    3.783    0.736
        98  -8.2625     20.6529    233.4368   1.2807340879e+02   2.6394988109e+01    0.1919755   0.05846896  38.62  0.001135262    2.196    0.545
        99  -9.1697    249.5458    229.4835   8.8338265646e+01  -1.3659344076e+00    0.2955641    0.1262041 -24.12  0.001865869    2.393    0.582
       100  -8.7468    246.6577    228.6668   8.8641814265e+01  -9.4793566136e-01    0.1928654   0.08797634  22.69   0.00101752    1.838    0.456
       101  -9.1841    163.7794    244.3572   1.0384729863e+02   8.1662117260e+00    0.2541885     0.150193  22.49  0.001432293    1.573    0.364
       102  -8.8846     11.1607    231.4982   1.2964116648e+02   2.7536472389e+01    0.1636092   0.08796054  59.12 0.0007717141    1.342    0.255
       103  -8.3465    203.2307    230.4271   9.5600214791e+01   4.4364286436e+00    0.2860669    0.1306574  11.26  0.001181616    4.596    0.782
       104  -9.1313     61.1387    230.4695   1.2075210295e+02   2.2792612224e+01    0.3318944    0.1365992  47.98  0.002015722    1.810    0.447
       105  -8.3855    225.9687    230.0119   9.1947758220e+01   1.5152682668e+00    0.1688207   0.09277344  16.23 0.0007834663    1.603    0.376
       106  -8.2717    188.2331    229.8878   9.7994486766e+01   6.5019834496e+00    0.2207229    0.1107043  19.79  0.001231757    2.207    0.547
       107  -8.5173    146.5410    230.2791   1.0523315318e+02   1.2129739976e+01    0.1920758    0.1097293  23.63  0.001171596    1.781    0.438
       108  -8.6255     47.8408    229.3586   1.2309217106e+02   2.4386051209e+01    0.3614254   0.02448335  46.52  0.001361807    4.835    0.793
       109  -9.9415      3.0529    221.9593   1.3077678364e+02   2.9737209336e+01     0.485122    0.1374034  69.04  0.002528441    3.230    0.690
       110  -8.7819    236.2782    226.6465   8.9893593862e+01   5.1218959900e-01     0.256082    0.1498815  -2.59  0.001778134    1.634    0.388
       111  -9.7189      5.5086    229.5416   1.3055309282e+02   2.8322760253e+01    0.2325142    0.1074115  43.14  0.001640313    1.533    0.347
       112  -8.4061    230.3696    226.0917   9.0712218466e+01   1.3119666152e+00    0.1883354   0.08489683 -18.39  0.001092759    2.545    0.607
       113  -8.2181    175.2913    227.1685   9.9832934677e+01   8.5711539709e+00    0.2068615    0.1157636  29.26  0.001313059    1.438    0.305
       114  -7.7543     21.9543    228.0000   1.2764843435e+02   2.7129077903e+01    0.1554256   0.04409992  31.98 0.0008033234    2.949    0.661
       115  -9.0402     10.5687    226.3785   1.2958913024e+02   2.8395990198e+01     0.226815    0.0857836  58.84  0.001443317    1.964    0.491
       116  -8.3379    212.8507    225.2314   9.3333510753e+01   3.6795443297e+00    0.2046865     0.114363   2.46  0.001240405    2.097    0.523
       117  -7.9748    184.8030    226.4343   9.8116521158e+01   7.3478061203e+00    0.1600872   0.07964092  28.31 0.0009384864    1.698    0.411
       118  -8.1735    199.9051    224.8470   9.5381088872e+01   5.4581048822e+00    0.1762827    0.1122919  18.58  0.001083529    1.331    0.249
       119  -8.3597    224.3656    224.6339   9.1429887276e+01   2.2223113305e+00    0.2318731    0.1205384  22.07  0.001470705    1.622    0.383
       120  -8.2900    206.3849    223.0592   9.4070313035e+01   4.7662760812e+00    0.2147243    0.1232359   2.03  0.001133777    2.065    0.516
       121  -8.5108    249.2334    222.9772   8.7427187626e+01  -7.8186643111e-01    0.1896054    0.1362819  20.76  0.001280839    1.195    0.163
       122  -9.9337    248.7361    215.5420   8.6374171094e+01  -7.5429518705e-02     0.363667    0.1862424 -10.22  0.002310767    1.945    0.486
       123  -9.1643      8.8870    220.7329   1.2971248355e+02   2.9451095670e+01    0.3101435   0.05324038  43.68  0.001610468    2.810    0.644
       124  -9.0580      7.0908    216.8218   1.2991437379e+02   3.0246065975e+01    0.1564977    0.1092858  60.40 0.0007941589    1.020    0.020
       125  -8.3656    232.8587    219.4478   8.9355329756e+01   1.6041822118e+00    0.2093117    0.1140869  -3.77  0.001079248    1.956    0.489
       126  -8.7089    226.5787    219.2332   9.0295009145e+01   2.4464713618e+00    0.2557175    0.1452364  12.97  0.001653728    1.628    0.386
       127  -7.9947    186.2352    219.7767   9.6975081468e+01   7.9001235502e+00    0.1572903    0.1063518  14.86  0.001063668    1.374    0.272
       128  -8.0278    202.9453    218.5296   9.3989728089e+01   5.7119036211e+00    0.1583452   0.07293935  21.83 0.0008070889    2.388    0.581
       129  -7.9693     55.9607    216.6567   1.2082759914e+02   2.5555352636e+01    0.1425604    0.1123888  74.46 0.0006006731    1.208    0.172
       130  -9.6077     13.0616    216.1070   1.2881069643e+02   2.9856725675e+01    0.2460401    0.1056419  45.42  0.001284092    1.648    0.393
       131  -8.1862    241.5906    217.2032   8.7691437450e+01   6.8414084608e-01     0.141589   0.08106674  -7.30 0.0009416283    1.667    0.400
       132  -8.5288    221.7213    213.4838   9.0197980226e+01   3.6610203241e+00    0.3012566    0.1302614  18.22  0.001398105    3.149    0.682
       133  -9.0897      2.0929    212.9719   1.3070471986e+02   3.1299355383e+01     0.227891    0.1120208  70.53  0.001211251    1.632    0.387
       134  -7.9040    238.7975    212.8139   8.7440517036e+01   1.4484996342e+00    0.1328582    0.1107876  12.58 0.0006761019    1.343    0.255
       135  -8.4045    233.6788    211.5415   8.8027161994e+01   2.2439289953e+00    0.2002614    0.1159705  19.49 0.0008731829    1.413    0.293
       136 -10.4837      8.4972    208.0211   1.2937647945e+02   3.1614968767e+01    0.6762382    0.1378763  59.78  0.002911831    4.132    0.758
       137  -8.9029    215.9249    208.3669   9.0347115369e+01   4.9866733004e+00    0.2193694    0.1259284  -5.52  0.001284719    1.970    0.492
       138  -8.3178      1.5686    205.7439   1.3059708150e+02   3.2573548233e+01    0.2207594   0.08103852 -88.66    0.0012849    2.547    0.607
       139  -9.6437    248.0171    205.2471   8.4861988974e+01   9.4603759298e-01    0.2426957    0.1551634  11.65  0.001603429    1.220    0.180
       140  -8.8233    250.2504    199.4988   8.3596084514e+01   1.1870852606e+00    0.3280112    0.1366666 -10.99  0.001575071    3.165    0.684
       141  -9.2094    240.8019    205.5134   8.5988135903e+01   1.8724641535e+00    0.2213998    0.1317225   8.57 0.0008947011    1.490    0.329
       142  -8.5129    229.2651    204.9793   8.7684642937e+01   3.4857222180e+00    0.2120737    0.1318209  34.72  0.001417525    1.430    0.301
       143  -8.7766    216.9882    220.3374   9.1970463181e+01   3.6139712730e+00    0.2428914    0.1369745  12.51  0.001521045    1.756    0.431
       144  -8.1278    236.0046    201.7197   8.6111694165e+01   2.8877462635e+00    0.2270571    0.1115456  -1.41  0.001162922    2.669    0.625
       145  -7.7344    197.7491    202.2560   9.2437541292e+01   8.2763544951e+00     0.167368    0.0864053 -19.94 0.0006396943    2.426    0.588
       146  -9.0579    244.6785    198.8038   8.4312614161e+01   1.9959989898e+00    0.2319454    0.1138393 -13.33  0.001212399    2.103    0.524
       147  -7.2151    138.7454    199.2815   1.0286346192e+02   1.7516463713e+01    0.1074388   0.08322157  59.08            0    1.470    0.320
       148  -7.9099    132.9035    199.1556   1.0399215531e+02   1.8400173128e+01    0.1568055    0.1216579  20.75  0.001030323    1.310    0.237
       149  -8.6769      9.4645    198.9622   1.2887502618e+02   3.3120453079e+01    0.1529942   0.05450358  68.03 0.0008093367    2.533    0.605
       150  -9.5023      4.2900    197.4006   1.2982325099e+02   3.3823020892e+01    0.2669671    0.1052815  82.58   0.00154359    2.333    0.571
       151  -8.2368    236.7463    196.0486   8.5065936239e+01   3.3520307162e+00    0.2063442    0.1367872 -31.16  0.001384409    1.779    0.438
       152  -7.5900    215.5112    197.4912   8.8692005420e+01   6.2199289115e+00    0.1179639   0.08767939  14.90 0.0008099765    1.052    0.049
       153  -9.6330    248.0166    191.1263   8.2525522409e+01   2.2873594127e+00    0.3003972    0.1529642 -10.10  0.001733161    2.001    0.500
       154  -8.4443    231.7947    191.8501   8.5133931303e+01   4.4808003146e+00    0.2391795    0.1342868 -10.42  0.001418643    1.821    0.451
       155  -8.8385    223.7978    189.3450   8.5983898167e+01   5.9071232709e+00    0.2907066    0.1699561 -29.69  0.001786652    1.805    0.446
       156  -9.7586      4.6643    189.5118   1.2947979436e+02   3.5225203280e+01    0.3006122    0.1159188  50.61  0.001797493    1.905    0.475
       157  -8.0168    230.1970    185.7698   8.4344810540e+01   5.3587960750e+00     0.166532    0.1084358  10.56 0.0007688962    1.354    0.261
       158  -8.8419    249.6927    183.8322   8.1015034865e+01   2.7750519133e+00    0.2417912    0.1147812 -13.88  0.001071678    2.157    0.536
       159  -9.4834    243.2948    180.9170   8.1460019938e+01   3.9745303188e+00    0.3107748      0.16327   5.52  0.001662592    2.179    0.541
       160  -7.6601     11.6417    191.3314   1.2814929260e+02   3.4319516628e+01    0.1189496    0.0521532  57.97 0.0007042433    1.795    0.443
       161  -9.2921      2.1514    177.6642   1.2956679390e+02   3.7649142827e+01    0.2423871    0.1069185  81.92  0.001421458    1.986    0.496
       162  -8.3464      5.6431    174.2968   1.2869377755e+02   3.8031394143e+01    0.1184109   0.05559113  57.71  0.000703407    1.700    0.412
       163  -8.6091    246.4328    166.3207   7.8318369123e+01   5.0526276079e+00    0.2260852   0.09897693 -20.33  0.001138643    2.229    0.551
       164  -8.5480    213.6077    160.4145   8.2412297404e+01   1.0924563033e+01     0.213833    0.1716314 -11.65 0.0007144444    1.167    0.143
       165  -7.5471    246.6600    156.6488   7.6431876950e+01   6.0668462990e+00    0.1307178   0.07553191   9.44 0.0007043862    1.799    0.444
       166  -8.9149      4.5076    154.9760   1.2808675482e+02   4.2001195289e+01    0.1729869    0.0913573 -85.74  0.001046356    1.630    0.387
       167  -7.4795    243.7141    147.6321   7.5078974264e+01   7.5368897829e+00    0.1300338   0.07861775   5.91 0.0005466362    1.701    0.412
       168  -7.8803    234.4739    144.9867   7.5938855028e+01   9.3511824917e+00     0.182257   0.09401607  -3.97 0.0006762665    2.560    0.609
       169  -7.8096    243.5229    138.9661   7.3329024847e+01   8.5638582293e+00    0.1835772   0.09251201  -3.82 0.0008101325    2.600    0.615
       170  -8.2080    237.7686    122.0264   7.0528337262e+01   1.1564057978e+01    0.1766807   0.09380945 -25.92 0.0006763513    1.673    0.402
       171  -9.5467    117.0173     67.0189   7.9477936434e+01   4.6041309263e+01    0.2854289    0.2513641   1.63            0    1.219    0.180
       172  -7.3855     14.7525     18.3058   1.0275156876e+02   7.2598385937e+01    0.1104628   0.09198234 -81.32   0.00068812    1.501    0.334
