#   1 NUMBER                 Running object number                                     
#   2 MAG_AUTO               Kron-like elliptical aperture magnitude                    [mag]
#   3 X_IMAGE                Object position along x                                    [pixel]
#   4 Y_IMAGE                Object position along y                                    [pixel]
#   5 X_WORLD                Barycenter position along world x axis                     [deg]
#   6 Y_WORLD                Barycenter position along world y axis                     [deg]
#   7 A_WORLD                Profile RMS along major axis (world units)                 [deg]
#   8 B_WORLD                Profile RMS along minor axis (world units)                 [deg]
#   9 THETA_WORLD            Position angle (CCW/world-x)                               [deg]
#  10 FWHM_WORLD             FWHM assuming a gaussian core                              [deg]
#  11 ELONGATION             A_IMAGE/B_IMAGE                                           
#  12 ELLIPTICITY            1 - B_IMAGE/A_IMAGE                                       
         1  -9.4863     39.5832      7.2410   8.7681824048e+01   6.7293271420e+01    0.3374787    0.2296447  12.84  0.001854518    1.218    0.179
         2 -10.3253     51.0378     36.3927   9.4923040799e+01   6.2258955883e+01    0.6322754    0.5113298 -66.41  0.003809252    2.319    0.569
         3 -10.5566     39.6016     29.4218   9.6703725438e+01   6.4753903518e+01    0.5302125    0.3037616 -39.35  0.002344529    1.897    0.473
         4 -11.8814     44.2134     21.2984   9.1707160684e+01   6.5138019165e+01    0.9966131    0.8827485 -72.53  0.006768455    2.214    0.548
         5 -10.6045     97.2863      3.8875   6.9299786552e+01   5.7428461791e+01     1.317598    0.7422166 -62.95  0.006011609    3.793    0.736
         6 -12.5439    139.5685     15.4564   6.4786441399e+01   4.7349857926e+01     1.972418     1.309203  34.48   0.01130387    1.758    0.431
         7 -10.5031    128.0751     17.8511   6.7468536586e+01   4.9683611406e+01    0.5324157    0.3852896  32.00  0.002321353    1.520    0.342
         8 -11.2573     84.3376      3.8502   7.2310185504e+01   5.9995369258e+01    0.8502321    0.3750502  54.61  0.003658293    1.864    0.464
         9 -10.1212     71.0578      5.5921   7.6492780148e+01   6.2337349113e+01    0.5170674    0.2735541  42.20  0.002492936    1.510    0.338
        10 -11.4843    131.7008      3.4944   6.2732697050e+01   5.0145208808e+01     1.550326    0.2647577  62.17  0.005400727    3.845    0.740
        11 -10.8262    120.7313      3.9007   6.4688625743e+01   5.2505166656e+01    0.7312219    0.4804407  80.79  0.004330457    1.632    0.387
        12 -10.7415    109.3585      4.4659   6.6979590199e+01   5.4887622082e+01    0.8629841    0.3307943  55.01  0.004229031    1.979    0.495
        13 -11.6240    155.5367     20.7528   6.3692019621e+01   4.3203877411e+01    0.8885431    0.4475472  65.53  0.003267409    1.686    0.407
        14 -13.6754    169.1858     13.0267   5.9883381717e+01   4.0885801799e+01      2.24873     1.526469  68.20   0.01143504    1.233    0.189
        15  -9.7892    116.9392     17.7127   6.9582727909e+01   5.2130179303e+01    0.5045828    0.2344947 -26.85  0.002501531    2.505    0.601
        16  -9.8831    111.7485     15.9278   7.0099057476e+01   5.3408753794e+01    0.4773267    0.2236165  44.79  0.002388089    1.887    0.470
        17  -9.5131     93.8694     17.6887   7.4767483105e+01   5.6934720281e+01    0.3314764    0.3083794 -70.57  0.001508889    1.391    0.281
        18  -8.7820     63.5709     15.8054   8.2694182720e+01   6.2722344207e+01    0.3587115    0.2013595  59.74  0.001845688    2.604    0.616
        19  -8.9836     20.1155     14.2420   9.8853877623e+01   6.8981686905e+01    0.4650611    0.2107961 -17.23    0.0024043    2.647    0.622
        20  -9.8554    244.2607      1.7280   5.0620604318e+01   2.6047150361e+01    0.3741715    0.1692044  77.83  0.002187342    1.894    0.472
        21 -10.1538    248.6524     14.6013   5.2536042996e+01   2.3733098828e+01    0.3057445    0.2466585 -48.04  0.001726932    1.460    0.315
        22 -10.2456    250.0057      6.3444   5.1021570110e+01   2.4424602987e+01    0.5085539    0.2365583 -38.60  0.002958385    2.263    0.558
        23  -9.0082     69.9798     13.9992   8.0000216260e+01   6.1789045533e+01    0.2569993     0.219311 -24.55  0.001833689    1.395    0.283
        24 -10.1728     60.4777      4.2431   7.9137307815e+01   6.4298808715e+01    0.6485273    0.4351754 -17.54  0.004389622    1.592    0.372
        25  -8.4869     54.4909      7.5215   8.2409016327e+01   6.5004880042e+01    0.2330831    0.1822645 -65.07  0.001436071    2.673    0.626
        26  -8.7607     49.8518      6.2882   8.3499492292e+01   6.5851727673e+01    0.3212452    0.1653583  19.98  0.001440679    2.066    0.516
        27  -8.7661     52.0736      1.9635   8.0942029936e+01   6.5874290288e+01    0.2098018    0.1433685  44.50  0.001436488    1.386    0.279
        28 -10.1903    200.0770      7.9919   5.5351349073e+01   3.4520882165e+01    0.2806903     0.195462  66.28   0.00125161    1.355    0.262
        29  -9.6921    203.6503      3.8628   5.4174503548e+01   3.4168763692e+01    0.3439628    0.1734783 -45.15  0.001976758    1.946    0.486
        30  -9.5522    229.8954      6.3955   5.2478656461e+01   2.8400648430e+01    0.1947442    0.1608299 -50.99 0.0009893322    1.400    0.286
        31 -10.9856     77.9294     15.3853   7.8188704871e+01   6.0219887457e+01    0.8095206    0.5556069 -14.67  0.005138386    1.581    0.368
        32  -8.0158      1.5503      3.7615   1.0321455160e+02   7.2035134723e+01    0.3606191   0.09940661 -35.63  0.001807902    3.152    0.683
        33  -9.7534    222.9065      4.9872   5.2764174249e+01   2.9986769090e+01    0.2360794    0.1860179  89.34  0.001711643    1.125    0.111
        34 -10.6652    212.0431      4.3391   5.3534238847e+01   3.2328946376e+01    0.5033059    0.1743044  72.61  0.002399171    2.421    0.587
        35  -8.8189     26.4845      2.9736   9.1133720577e+01   6.9465119693e+01    0.2641371    0.1702719 -29.49  0.001862962    1.715    0.417
        36  -8.8862     16.8838      2.3823   9.5129764524e+01   7.0667274447e+01    0.2714414    0.2364258  26.57  0.002204599    1.702    0.413
        37  -8.3243     40.5034      1.5225   8.4868945369e+01   6.7688399567e+01    0.2137943   0.08964859  42.98 0.0009384351    2.086    0.521
        38  -7.9320     61.4968     62.5339   1.0015477669e+02   5.6708272316e+01    0.1315207    0.1125719  -5.72 5.462172e-05    1.030    0.029
        39  -8.8298     83.2098     69.4799   9.5117814360e+01   5.1985401812e+01    0.2392268    0.1849139 -82.23  0.001187981    2.199    0.545
        40  -8.3966     92.9660     56.9289   8.8149098330e+01   5.2250309763e+01    0.2113546    0.1956246  21.16 0.0009682289    1.045    0.043
        41  -9.4163    198.9846     55.2598   6.5780378666e+01   2.8876257579e+01    0.2548907    0.2056411  57.06 0.0004999499    1.342    0.255
        42  -9.1103     66.1078     53.5807   9.5594594810e+01   5.7473209029e+01    0.3962625    0.1776634 -49.61  0.001648663    3.088    0.676
        43  -7.8513     35.5719     52.7926   1.0666618219e+02   6.1730783898e+01     0.154679     0.109254 -48.94 0.0009335078    1.589    0.371
        44  -8.0563     23.0271     51.9875   1.1147302171e+02   6.3149745626e+01    0.1585606    0.1485208  59.43  0.001128881    1.656    0.396
        45 -10.2312     84.4307     48.3201   8.7867322082e+01   5.5124354163e+01    0.6306974    0.4121073  53.41  0.003188846    1.714    0.417
        46 -10.2313      3.3681     40.4486   1.1623839482e+02   6.6662552926e+01     0.386798    0.3417043  19.12  0.003031898    1.498    0.333
        47  -9.5091    172.7752    247.8907   1.1165008504e+02  -3.3722313958e+00    0.2557319    0.1630293  56.66  0.001258897    2.103    0.524
        48 -10.4095    184.6020    246.5957   1.0902602399e+02  -5.0184906861e+00    0.4245715    0.2119457  45.70  0.001966869    2.152    0.535
        49  -8.7030    199.5005    240.4894   1.0501273109e+02  -6.2939712156e+00    0.1307418    0.1125343   6.34 8.374584e-05    1.020    0.020
        50  -9.9729    163.7782    245.3844   1.1311996409e+02  -1.4765188225e+00    0.3382851    0.2341665  73.05  0.001621895    2.438    0.590
        51  -9.5991     10.3752     34.2887   1.1104184149e+02   6.7135593713e+01     0.554902    0.3034995   4.24  0.003195064    1.858    0.462
        52  -8.4625     27.0755     35.2539   1.0406707200e+02   6.5423123851e+01    0.2329771    0.1365288  10.98  0.001389752    1.695    0.410
        53  -9.0830     86.3603     31.6063   8.1576365808e+01   5.6928626299e+01    0.2427087    0.1978648  23.94  0.001556079    1.098    0.089
        54 -10.2915    224.9549     28.9720   5.7192037744e+01   2.6775342062e+01    0.4205155    0.3037075  77.37  0.001663976    1.258    0.205
        55  -9.4431     66.7029     29.8758   8.6991934010e+01   6.0654537104e+01    0.2864465     0.194711 -12.44  0.001728293    1.519    0.342
        56 -10.1623    196.1402    224.6399   1.0292926006e+02  -2.9977818619e+00    0.3307998    0.2112293   6.94  0.001556248    2.067    0.516
        57 -10.2323    206.5474    223.5762   1.0064525580e+02  -4.4740027901e+00    0.2858643    0.1795281 -21.97  0.001424512    1.784    0.439
        58  -9.9100    123.9984    205.9883   1.1551982512e+02   1.3475333467e+01    0.2055977    0.1959351  65.24  0.001160301    1.004    0.004
        59  -9.1773    237.8843    201.5343   9.0588723295e+01  -5.4342197465e+00    0.2711889     0.164986 -53.00  0.001346006    2.010    0.503
        60 -12.7535    241.3873    132.7090   7.6293979065e+01   6.6419312157e+00     1.327075     1.306076  56.10  0.005177478    1.198    0.165
        61 -10.7257     12.5966    139.7499   1.3382418304e+02   4.5116186111e+01    0.4763222     0.160383 -66.49  0.002000446    2.309    0.567
        62  -8.3334     40.3212    142.6514   1.2647299670e+02   4.1833721998e+01    0.1421116   0.09874833  75.82 0.0007048929    1.740    0.425
        63  -9.6372     17.5852    126.6264   1.3046720469e+02   4.7868251033e+01    0.3348935     0.174704  74.70  0.001354636    3.379    0.704
        64 -10.4978     11.6270    117.9433   1.3086476770e+02   5.0358857672e+01    0.3528797    0.2574066 -52.92  0.002187361    1.135    0.119
        65  -7.7191    192.5388    116.4810   8.1070109514e+01   1.9620290066e+01    0.1494424    0.1386431 -62.91 0.0002809318    1.008    0.007
        66  -8.6354     90.6130     28.6120   7.9359557588e+01   5.6450886182e+01    0.2322196    0.2150513  45.79   0.00158403    1.178    0.151
        67  -9.4393     81.5538     38.5250   8.5393788292e+01   5.6978334443e+01    0.3422688    0.2912943 -67.45  0.002103091    1.744    0.427
        68 -10.1021     74.9305     26.1462   8.3006031254e+01   5.9659381163e+01    0.6056115    0.3401353  61.03  0.002970327    2.564    0.610
        69  -8.9125    104.0703     26.1493   7.5101140151e+01   5.4009294846e+01    0.3835272    0.2211349  55.97  0.002053282    1.559    0.359
        70  -8.0177     10.2864     26.2783   1.0818174974e+02   6.8340565700e+01    0.2017622    0.1120641   6.48  0.001260472    1.747    0.428
        71  -9.0880     68.3931     36.5370   8.8863325936e+01   5.9541112908e+01     0.310416    0.2653581  49.77  0.002032317    1.431    0.301
        72  -8.5370     19.2065     22.4123   1.0260833979e+02   6.8042856320e+01    0.2106215     0.163833  32.64 0.0009494756    1.692    0.409
        73  -7.6886     73.6663    118.3400   1.1158735846e+02   4.3417722228e+01    0.1479029    0.1139885  79.77  0.000436759    1.751    0.429
        74  -9.4660     16.7721    104.2248   1.2681573717e+02   5.3128978554e+01    0.3407194    0.3033773 -85.25  0.002284467    1.279    0.218
        75  -9.0559     29.9942    102.1317   1.2199535996e+02   5.2491165054e+01    0.3110958    0.1999545 -15.67  0.001642963    1.867    0.464
        76  -8.7498     97.5727     28.0957   7.7351541084e+01   5.5127611140e+01    0.3898471    0.2170258  -3.34  0.001800834    2.782    0.640
        77 -10.1410     46.8895     99.6307   1.1573604548e+02   5.1282263948e+01     0.528468    0.1765612 -54.64  0.002011788    2.643    0.622
        78  -8.9902      2.8934     89.0004   1.2856946590e+02   5.7387714030e+01    0.3357894    0.2260762 -81.67  0.001998785    1.770    0.435
        79  -8.3304      8.5267     16.4793   1.0518181396e+02   6.9842807376e+01    0.2559616    0.1170489  -2.02  0.001262243    3.047    0.672
        80  -7.4451     83.3235     89.6717   1.0110302874e+02   4.8155034756e+01    0.1386165    0.1150066  85.51 0.0007049339    1.695    0.410
        81 -11.7692     43.2337     82.0217   1.1250367986e+02   5.5437599233e+01     1.128086    0.7417196   2.68   0.00604906    1.768    0.434
        82  -9.4488      9.4645     80.9521   1.2454822930e+02   5.8678803048e+01    0.3413046    0.2768948  84.41  0.001431144    1.704    0.413
        83 -10.0201     24.8138     65.4563   1.1479580163e+02   6.0559128395e+01    0.6170917    0.2316937 -42.60  0.002884035    2.198    0.545
        84  -9.1473    226.8277     14.3228   5.4199715052e+01   2.8144169414e+01    0.1945429    0.1190993 -83.77 0.0009932789    1.395    0.283
        85  -9.6697     13.5115     76.9910   1.2213947215e+02   5.9213123272e+01     0.356939    0.2266268  -7.27  0.002122446    1.727    0.421
        86 -10.4592      4.1259     75.9069   1.2539394242e+02   6.0044766059e+01      0.48863    0.4136122 -24.08  0.002716519    1.163    0.140
        87 -10.9296     13.8264     71.6158   1.2070420359e+02   6.0266557986e+01    0.7456607    0.5139783  39.41  0.004612186    1.922    0.480
        88  -8.0086     71.4980     80.4604   1.0225905193e+02   5.1913032802e+01    0.1374996    0.1235385 -11.98 0.0002253913    1.017    0.017
        89  -8.8825    138.2776     77.8479   8.2600496026e+01   3.9271244554e+01    0.4220519    0.2737437  74.49  0.001827496    2.087    0.521
        90  -8.6558     80.4805     79.5228   9.9051834971e+01   5.0627215380e+01    0.2047344    0.1309556  48.19 8.655028e-05    1.776    0.437
        91  -9.4643     14.7944     61.7649   1.1772319701e+02   6.2087761741e+01    0.4837957    0.3349986 -34.64  0.003164826    1.152    0.132
        92  -9.3161    227.9789     79.1245   6.7074523419e+01   1.8816589900e+01    0.4267125    0.2914551 -18.05  0.002033234    2.533    0.605
        93 -10.3133     75.1784     68.9649   9.7545476399e+01   5.3446667883e+01    0.4724374    0.4499463  52.84  0.002964461    1.285    0.222
        94  -8.0872     33.6771     68.5984   1.1227834174e+02   5.9107583535e+01    0.2308225    0.1164461  18.30  0.001146359    2.217    0.549
        95  -8.6278     49.6131     62.2031   1.0433615812e+02   5.8417307743e+01    0.3310723    0.1929866 -32.95  0.001759389    1.609    0.378
        96  -8.7318     46.4993     61.5388   1.0528321669e+02   5.8931690694e+01    0.2565477    0.1991099 -10.50   0.00159481    1.176    0.150
        97  -8.9851     69.5635     61.2268   9.6948431549e+01   5.5687533577e+01    0.2321884    0.2140462 -34.26  0.001478856    1.232    0.188
