#   1 NUMBER                 Running object number                                     
#   2 MAG_AUTO               Kron-like elliptical aperture magnitude                    [mag]
#   3 X_IMAGE                Object position along x                                    [pixel]
#   4 Y_IMAGE                Object position along y                                    [pixel]
#   5 X_WORLD                Barycenter position along world x axis                     [deg]
#   6 Y_WORLD                Barycenter position along world y axis                     [deg]
#   7 A_WORLD                Profile RMS along major axis (world units)                 [deg]
#   8 B_WORLD                Profile RMS along minor axis (world units)                 [deg]
#   9 THETA_WORLD            Position angle (CCW/world-x)                               [deg]
#  10 FWHM_WORLD             FWHM assuming a gaussian core                              [deg]
#  11 ELONGATION             A_IMAGE/B_IMAGE                                           
#  12 ELLIPTICITY            1 - B_IMAGE/A_IMAGE                                       
         1 -10.6274    239.5917     62.3614   4.1956596088e+01   1.8596514566e+01     1.200578    0.4635809 -49.11  0.005178289    2.279    0.561
         2 -10.9447    247.5268     58.1570   4.0233660361e+01   1.7616661479e+01     1.473623    0.4506272 -46.37  0.006009545    2.643    0.622
         3 -11.9649    230.3189      3.6341   3.0350854595e+01   2.8034101230e+01     1.863819    0.6620217  80.71  0.008563824    2.727    0.633
         4 -12.8182    246.8636     11.9632   3.0909031967e+01   2.3725835985e+01     1.871004     1.687683  64.47   0.01394497    1.502    0.334
         5 -11.5319    217.9990     27.9389   3.6563935833e+01   2.7920218434e+01     0.811483    0.5482547 -59.71  0.003466818    1.297    0.229
         6 -10.0120    152.0152     19.3460   4.2243957855e+01   4.4497944979e+01    0.4480323    0.2262158 -60.33  0.001908375    2.610    0.617
         7 -11.1266    146.8237     15.4533   4.1860185225e+01   4.6158408873e+01    0.4403251    0.3572119 -82.70  0.002527409    1.238    0.192
         8 -10.4240    211.5920     15.8370   3.4424454164e+01   3.0772644903e+01    0.4297769    0.1950013 -39.37  0.002154545    2.026    0.506
         9  -9.6789     92.6704     15.1668   5.2606033546e+01   5.8808084733e+01    0.3307791     0.284121  43.90  0.002109002    1.045    0.043
        10  -9.1671    220.7783     12.5663   3.2928165407e+01   2.9109140910e+01    0.3283789    0.2126448 -89.77  0.001523931    1.370    0.270
        11  -8.9871    221.3883      8.7667   3.2063429069e+01   2.9392222618e+01    0.2200508    0.1830449 -44.36  0.001220596    1.312    0.238
        12 -10.5221    133.0756     10.1661   4.2376426250e+01   4.9977108978e+01    0.4782895    0.2319443 -72.27  0.001723479    4.013    0.751
        13  -9.5031     80.5068     11.4998   5.4437148196e+01   6.1726142047e+01    0.2267248    0.1199055  66.81  0.001040706    2.463    0.594
        14  -9.6884     94.8851      9.1030   4.9633913533e+01   5.8892869960e+01    0.2581462    0.1690801 -47.53  0.001316848    1.974    0.493
        15  -9.4411     14.2743      9.6035   8.1417105635e+01   7.2490780785e+01    0.2473487    0.1532113 -16.27  0.001595908    1.394    0.283
        16  -8.1626    161.9047      9.0898   3.7934616940e+01   4.3122008829e+01    0.2070441    0.1527997 -74.67  0.001205929    1.340    0.254
        17  -9.7401    184.6931      4.2397   3.4164258725e+01   3.8156356454e+01    0.4641622     0.256748 -39.43  0.002529391    1.810    0.447
        18  -8.9859    100.9661      6.5241   4.7218994997e+01   5.7767024185e+01    0.2226989    0.1712053 -41.87 0.0008107248    1.549    0.355
        19 -10.1674     46.6159      2.2646   6.1711931722e+01   6.8929412320e+01    0.4797286    0.2256702  54.99  0.002333084    2.737    0.635
        20 -10.9128    244.0255     28.4814   3.4408998618e+01   2.2326228158e+01    0.8814492    0.5637255 -12.78  0.004491095    2.910    0.656
        21 -10.2447    147.1089      2.0355   3.7791236019e+01   4.7310564746e+01    0.5212463    0.3461059  82.50  0.002955949    1.384    0.278
        22  -8.4635    152.4398      1.4860   3.6951099855e+01   4.6077181803e+01    0.2170388    0.1394367  66.24 0.0006611369    1.320    0.243
        23  -9.9251    124.0083    205.9962   9.5762577749e+01   1.3782454956e+01    0.1981063    0.1828627  46.36  0.001159068    1.004    0.004
        24 -10.5857    187.4937    232.4340   8.6378983722e+01  -1.5803120334e+00     1.100256    0.6992702 -69.07  0.004704868    3.863    0.741
        25 -10.8343    192.0939    244.4084   8.7373366588e+01  -4.1130880202e+00    0.6237674    0.4873015  75.15  0.003495289    2.535    0.605
        26 -10.8237    132.8774    247.5921   9.9703641552e+01   4.3171999784e+00    0.7010611    0.4555694  84.11  0.003440552    2.733    0.634
        27  -9.2428    181.4415    202.2566   8.2412254751e+01   4.6036247606e+00     0.450583    0.2713364   9.71  0.001914366    2.457    0.593
        28  -8.5332     77.2944    199.6490   1.0581825413e+02   2.2631953715e+01    0.1464349   0.09488402  70.38 0.0007031939    1.680    0.405
        29  -8.4544    176.4473    197.0697   8.2507295037e+01   6.4419135093e+00     0.210092    0.1352542 -41.63 0.0007298093    1.587    0.370
        30 -10.7306    185.9525    245.8741   8.8791673813e+01  -3.4373645101e+00    0.7068985    0.4754137 -39.80  0.004254765    1.677    0.404
        31  -9.7315    237.9497    192.4709   6.9704386296e+01  -2.8084752164e+00     0.179612    0.1514196  -3.29 0.0004548659    1.067    0.063
        32 -10.4511    231.6204    189.1818   7.0183409023e+01  -1.3234353195e+00    0.4480435    0.2664468 -52.45   0.00215993    2.307    0.567
        33  -9.7903    225.8775    178.6128   6.9131520826e+01   1.3598952889e+00    0.3327025    0.2437453  57.11  0.001776092    1.944    0.485
        34  -8.4959    145.6894    176.3046   8.5437379540e+01   1.6357887780e+01    0.1492899    0.1185664  77.17  0.000343317    1.612    0.380
        35  -9.7612    195.2461    163.0211   7.1742726890e+01   9.6281868581e+00     0.452463     0.283155  66.71  0.001797866    2.847    0.649
        36 -11.1417    211.5737    171.2701   7.0282521448e+01   5.0853528866e+00    0.7395583    0.4108662 -53.81  0.003178845    2.330    0.571
        37  -8.9860    205.5819    169.1458   7.0991220177e+01   6.5456204160e+00    0.2987985    0.2492962  56.16  0.001067783    1.468    0.319
        38 -10.3733    204.1032    164.2261   7.0244831000e+01   7.7423218169e+00    0.6552418    0.4308349   7.36  0.002900104    2.193    0.544
        39  -8.4231    177.1196    170.1591   7.7046499290e+01   1.1654729561e+01     0.198989    0.1819346  86.30  0.001072366    1.330    0.248
        40 -11.6730    238.1428    157.3747   6.2686350540e+01   2.9948750847e+00    0.9130814    0.3820004 -41.96  0.003920575    2.124    0.529
        41 -12.0210    231.5347    145.3508   6.1257164483e+01   6.2328237831e+00     1.431523    0.8667449 -64.86  0.005964591    2.903    0.656
        42  -9.0247    152.1469    158.0239   8.0124655846e+01   1.9160875369e+01    0.4164841     0.287114  81.55   0.00164873    2.445    0.591
        43  -8.2799     23.7403    157.5903   1.1421412495e+02   3.9406805569e+01    0.1789908    0.1107904  45.10 0.0007542747    1.673    0.402
        44  -8.0041     72.9678    156.2991   1.0055730635e+02   3.3850654073e+01    0.1985547    0.1840022  62.20  0.000414257    1.093    0.085
        45  -8.7357    128.7985    151.7661   8.4540917727e+01   2.5250718676e+01    0.2174198    0.1837392  84.35 0.0007284466    1.369    0.269
        46  -9.3044    141.8511    157.2023   8.2434400545e+01   2.1403239156e+01    0.2316164     0.212548  78.06 0.0004056719    1.182    0.154
        47  -9.3736    128.2108    145.6067   8.3334181816e+01   2.6824150598e+01    0.2670037    0.2025293  17.95  0.001199762    1.631    0.387
        48  -8.3667     58.3801    146.2468   1.0300279299e+02   3.8435247916e+01    0.2117717    0.1283273 -75.99 0.0007655674    1.695    0.410
        49  -9.6969    191.5903    139.3845   6.7229477152e+01   1.5041996791e+01    0.6113878    0.3679587  67.86  0.002357596    2.736    0.634
        50  -9.9637    217.6689    139.3946   6.2332449167e+01   9.8670986488e+00    0.3492141    0.2819789 -75.58  0.001842277    1.622    0.384
        51  -9.0427    215.8891    134.6785   6.1595399033e+01   1.1085989588e+01    0.3284729     0.184704 -39.79  0.001491351    1.600    0.375
        52  -9.5697    166.2431    137.3690   7.2148794933e+01   2.0778427078e+01    0.6331656    0.3023977 -55.37  0.002202249    2.603    0.616
        53 -11.1375    247.0858    129.7703   5.5516414275e+01   6.2028762180e+00    0.9564447    0.5964199 -50.13  0.004936147    1.558    0.358
        54 -10.6580    240.9822    122.3277   5.4828029748e+01   8.5633802469e+00    0.4164716    0.3696109  54.94  0.002583315    1.326    0.246
        55  -8.2782    113.4778    139.0297   8.5789942233e+01   3.1286517246e+01    0.2508874    0.2113162  40.25  0.001237068    1.217    0.178
        56  -8.5132     87.4854    137.4875   9.2834512524e+01   3.6341566119e+01    0.1520992    0.1434082 -75.82 0.0001252121    1.024    0.024
        57  -8.9578     24.9612    118.0150   1.0858305023e+02   4.9219010662e+01    0.3012314    0.1474843  50.76  0.001324241    2.579    0.612
        58  -8.4398    171.8515    116.8380   6.5885668874e+01   2.3878842284e+01    0.2177682    0.1810517 -67.24 0.0005422835    1.314    0.239
        59  -9.6375    228.5344    115.0094   5.5098185006e+01   1.2191797196e+01    0.2829489    0.2494569 -44.91 0.0009963816    1.014    0.014
        60 -10.2477    222.6543    113.4314   5.5660969549e+01   1.3636370850e+01    0.4615104    0.4204211 -56.82   0.00208257    1.079    0.073
        61 -10.2176    197.0352    107.8114   5.8673196880e+01   2.0058361873e+01    0.8320224    0.3491023 -53.20  0.002806299    2.989    0.665
        62  -9.8819    122.0176    109.5973   7.6122891905e+01   3.6485539183e+01    0.5615231    0.3698311 -52.84  0.001733498    1.552    0.356
        63  -9.3849    160.6157    108.6646   6.6244441328e+01   2.8101996072e+01     0.495023    0.3609662  87.85  0.002129337    1.916    0.478
        64  -7.7493    105.4971    108.5030   8.0540916166e+01   4.0112867525e+01    0.1545846    0.1493852 -69.28 -2.953741e-08    1.059    0.055
        65 -11.2331    239.1151     98.0621   4.9813512525e+01   1.3040738412e+01    0.8070081    0.5823538 -70.98  0.004401503    1.583    0.368
        66  -9.8746    235.5814     88.3509   4.8140985536e+01   1.5345151481e+01    0.6062176     0.273686 -40.94  0.002705901    1.885    0.470
        67  -8.0779     67.6565    102.3448   9.0965569037e+01   4.8134929283e+01    0.1499002      0.11405  77.93 0.0007046089    1.791    0.442
        68  -9.3371     57.4110    100.6554   9.4067201748e+01   4.9978735537e+01    0.3967648     0.258354 -72.16  0.001304782    1.816    0.449
        69 -10.7810    215.2602     96.2890   5.2851849506e+01   1.8206748962e+01    0.7545373    0.3345748 -44.68    0.0030364    2.027    0.507
        70  -8.7663    106.3021     98.7179   7.7602737121e+01   4.2165436131e+01    0.3071271    0.2597394 -38.72  0.001547731    1.163    0.140
        71  -8.8847    197.2872     95.1324   5.5506762894e+01   2.2348342376e+01    0.2914404    0.1933238 -85.89  0.001247422    2.181    0.541
        72  -7.8929     14.2463     91.9622   1.0775779113e+02   5.6373039151e+01    0.1700504   0.09303862 -65.43 0.0003267554    1.535    0.349
        73  -7.7515     27.7167     91.3267   1.0263628822e+02   5.5475690176e+01    0.1264037    0.0987818  79.93 0.0003847199    1.602    0.376
        74 -10.1980    122.8739     99.1503   7.3000921502e+01   3.8599155166e+01    0.7514721    0.4888727  46.95  0.003292585    1.562    0.360
        75  -9.9352    248.3089     85.0221   4.5831068817e+01   1.3388120951e+01    0.5547265    0.3644604 -29.88  0.003006353    1.603    0.376
        76  -8.6314    212.1423     83.4350   5.0273800171e+01   2.1090779759e+01    0.3138377    0.1603617 -52.24  0.001341654    1.961    0.490
        77  -8.9536     83.8799     83.0942   8.0063906210e+01   4.9835185521e+01    0.2187786    0.2041373 -70.44   0.00082076    1.217    0.178
        78  -9.4990    181.5665     80.2107   5.4452786665e+01   2.8635689257e+01    0.5452621     0.329616 -86.91  0.002083905    2.715    0.632
        79  -8.1182     64.3105     80.3097   8.6069237440e+01   5.3655215935e+01     0.146263    0.1035975 -18.33  0.000383805    1.623    0.384
        80  -9.5127    152.7816     77.5131   5.9387491379e+01   3.5991782553e+01    0.3387674    0.2063225 -40.45  0.001277529    1.636    0.389
        81 -10.0603    148.0802     70.7998   5.8447690450e+01   3.8304925881e+01    0.6864353    0.3918872 -65.09   0.00253241    2.769    0.639
        82 -10.1580    217.2595     74.9191   4.7524136581e+01   2.1373994780e+01    0.6734506    0.3783253 -60.50  0.003050339    1.971    0.493
        83  -7.3537    240.2570     76.0166   4.4846241657e+01   1.6382073171e+01     0.483637    0.3640853  58.71  0.002854989    1.527    0.345
        84 -10.4429    225.3535    240.6467   8.0534026932e+01  -8.2012666737e+00    0.8453826    0.4635272 -51.33  0.004138102    3.237    0.691
        85 -10.0462    232.9814     57.9303   4.1711284071e+01   2.0616433868e+01    0.6076213    0.4940355   0.03  0.003500008    1.894    0.472
        86  -9.5229    242.8420    247.7044   7.8596138227e+01  -1.1333170071e+01    0.1989931    0.1262638 -15.15  0.000756769    1.388    0.280
        87  -9.9673    248.6591     74.0157   4.3454762622e+01   1.5034662684e+01    0.5581917    0.3289185 -29.94  0.002682936    1.849    0.459
        88 -10.3936    248.5686     65.7672   4.1724589029e+01   1.6296418342e+01    0.6930771    0.3911771 -30.07  0.003512564    1.960    0.490
        89  -9.7691    106.4821     72.2820   6.9509109467e+01   4.7567113399e+01    0.5049639    0.3646123 -75.68  0.001984746    2.142    0.533
        90  -9.2625     30.0307     67.0051   9.5639709495e+01   6.0740074586e+01    0.2932088    0.1713473 -28.90   0.00150298    1.737    0.424
        91  -9.6024    200.4211     61.6430   4.6655106080e+01   2.7260009061e+01    0.7066082    0.2249094 -42.08  0.002563994    2.789    0.641
        92  -8.0880     81.5136     66.0197   7.5351219908e+01   5.3697943066e+01    0.1916053    0.1255897 -65.31 0.0008091396    2.439    0.590
        93  -9.1669    214.7001     63.7077   4.5219533522e+01   2.3702053168e+01    0.4428441    0.1590339 -31.90  0.001593582    3.148    0.682
        94  -8.0913     47.3190     64.6980   8.7757833566e+01   5.9289380329e+01    0.1226107    0.1074462  77.14 0.0005645595    1.624    0.384
        95  -8.5810    203.6835     65.3729   4.7116498438e+01   2.5930462102e+01    0.3248014    0.1429431 -46.66  0.001337998    2.120    0.528
        96  -8.4698      6.4905     63.5230   1.0484111056e+02   6.3288216926e+01      0.12466   0.09674419 -44.31 0.0001545706    1.021    0.020
        97  -8.4409    148.7967     57.7749   5.4402384293e+01   4.0276583282e+01    0.3809252     0.171198 -55.41  0.001274219    3.345    0.701
        98  -8.9326     17.3546     56.0948   9.8020279017e+01   6.4119382662e+01    0.2681774   0.07590219 -50.29  0.001106034    2.579    0.612
        99  -8.1063    108.6103     55.8039   6.3391831720e+01   5.0000223782e+01    0.3730282     0.211924 -70.51  0.001035439    5.897    0.830
       100  -9.3773    229.1559     50.9683   4.0585187351e+01   2.2429264684e+01    0.3181121    0.2369359  15.13  0.001651353    2.434    0.589
       101  -9.6821    221.7542     46.2488   4.0324069899e+01   2.4692162902e+01    0.6068118    0.1883058 -29.90  0.002029788    4.221    0.763
       102  -9.2630    225.6639     42.3668   3.9036807338e+01   2.4372549229e+01    0.3201345    0.2660622  74.99  0.001847727    1.257    0.204
       103  -8.6218    168.0027     51.5063   4.8992721079e+01   3.6531385174e+01    0.2230396    0.1328925  60.90  0.001032394    1.600    0.375
       104  -8.1677     97.4951     49.4452   6.4354061557e+01   5.3408129996e+01    0.1402303    0.1296029  22.71 0.0004657818    1.006    0.006
       105  -8.7110    208.0128     47.1174   4.2104264104e+01   2.7645484619e+01    0.2475115     0.229237 -23.95  0.001138222    1.328    0.247
       106  -9.4234    250.0976     45.2175   3.7311820419e+01   1.8921997732e+01    0.4181329    0.1547618 -38.65  0.001918182    2.278    0.561
       107  -8.7095    250.4039     39.7887   3.6180540814e+01   1.9590423668e+01    0.2555374    0.1079273 -36.10  0.001229683    2.185    0.542
       108  -9.7330    234.3902     44.5544   3.8640918954e+01   2.2214220355e+01    0.5042294    0.3193258  69.43  0.002867856    1.627    0.385
       109  -9.4980    201.0784     44.0122   4.2200621072e+01   2.9672345000e+01    0.4782644    0.2761209 -76.82   0.00220826    2.064    0.515
       110  -9.3618    157.7577     44.9567   4.8880774914e+01   3.9972243465e+01    0.3383127    0.1919827  84.24  0.001387903    2.364    0.577
       111  -8.8344     57.3104     45.4519   7.6835857554e+01   6.1472454953e+01    0.3111229    0.1222445  40.73  0.001292982    2.635    0.620
       112  -8.3658     85.6777     42.9851   6.5618085770e+01   5.6816244026e+01    0.1907974    0.1748325 -12.49  0.001151116    1.102    0.092
       113  -9.5867    129.0859     40.2030   5.3019231721e+01   4.7584724752e+01    0.5078667    0.3103367 -53.58  0.002339786    2.002    0.501
       114  -9.7553    234.1835    245.9282   7.9817915013e+01  -1.0041752996e+01    0.2878765    0.1270836 -17.59  0.001260368    3.281    0.695
       115  -9.7508    146.4119    245.1994   9.6617433325e+01   2.6496630166e+00    0.2066181    0.1446144  60.31  0.001146227    1.772    0.436
       116  -7.9510    163.6814    246.6979   9.3325491319e+01  -2.4045746338e-01    0.1259816   0.08929329   5.64 0.0005279912    1.624    0.384
       117  -8.6144     94.1379     33.9974   5.9587445831e+01   5.6333794877e+01    0.2169008    0.1516856 -58.14  0.000922482    2.045    0.511
       118  -8.2975     42.5273     32.5173   7.7836090681e+01   6.5731845618e+01    0.1262499    0.1043304  -5.65 0.0001862487    1.004    0.004
       119  -8.4337     64.4916     30.4751   6.7935671646e+01   6.2582553478e+01    0.1292949    0.1122291  10.40 6.600087e-05    1.029    0.028
       120  -9.9219    146.2531     24.7684   4.4794493741e+01   4.5315625835e+01    0.3289604    0.2291639 -68.26  0.001716494    1.650    0.394
       121  -7.6682     47.6677     27.6592   7.3469962663e+01   6.5720197215e+01    0.1337051    0.0852285   1.26 0.0007051409    1.749    0.428
       122  -8.5582    184.6480     25.7315   3.9613237757e+01   3.5882172306e+01    0.2358366    0.1539354 -47.80  0.001235755    1.490    0.329
       123  -8.2662     32.8449     25.8230   7.9414941256e+01   6.8029398521e+01    0.1523284    0.1426489   1.86 0.0009294988    1.371    0.271
       124  -7.8699     53.3189    244.9825   1.1555108933e+02   1.6156618591e+01    0.1931285   0.07796103  81.56  0.000704926    4.303    0.768
       125  -9.3263    155.2080    241.5103   9.4300982045e+01   1.9132696609e+00    0.2388832     0.183095  -1.83 0.0008692603    1.523    0.343
       126  -8.0104      8.9894    240.7705   1.2365089712e+02   2.2011836629e+01    0.1356909   0.07898352  40.75 0.0004444461    1.604    0.377
       127  -8.0006    126.3694     17.7133   4.6050631231e+01   5.0860655789e+01    0.1352004   0.09702214 -77.25 0.0007020561    1.706    0.414
       128 -10.3701    243.5861    237.6819   7.6819831554e+01  -1.0141727425e+01    0.2386875    0.1976808 -24.39  0.001718003    1.388    0.280
       129  -8.6406    112.8317     14.1863   4.7513083929e+01   5.4382974898e+01    0.1923662    0.1371396  38.72  0.001082495    1.349    0.259
       130 -10.4423    142.2573    235.2337   9.6094760518e+01   5.0412277165e+00    0.3511865    0.1905823  29.05  0.001693215    1.821    0.451
       131 -10.8220    127.5849    233.2381   9.8926217480e+01   7.7354759924e+00    0.6889677    0.3467521 -73.15  0.002653265    3.886    0.743
       132  -7.9626     52.2971    232.3375   1.1473827329e+02   1.8835762348e+01    0.1097889    0.0945188 -40.71 0.0003458528    1.655    0.396
       133 -11.4256    246.7885    181.6212   6.6113521561e+01  -2.3864237900e+00     1.340272    0.2232841 -39.98   0.00388897    5.257    0.810
       134 -11.6462    247.9461    219.3974   7.2929697912e+01  -8.2172693525e+00     1.038774    0.5281808 -31.84  0.005756002    1.750    0.429
       135 -11.7615    247.7046    207.1788   7.0777304025e+01  -6.4343648132e+00     1.306694    0.4974313 -33.33  0.005998202    2.376    0.579
       136 -10.4326    242.7825    202.1806   7.0696805541e+01  -5.0127020650e+00     0.986796    0.5212702  -9.28  0.004370701    2.803    0.643
       137  -9.2207    149.4935    234.8619   9.4523932716e+01   3.9590409625e+00    0.1746495    0.1310803 -48.99 0.0006776461    1.532    0.347
       138 -11.7761    226.6485    220.1020   7.6802723046e+01  -5.4432821091e+00    0.9485019    0.7421984 -56.87  0.005658688    2.049    0.512
       139  -7.8500     92.6492    227.6945   1.0575235226e+02   1.4228710649e+01    0.1238118    0.1030685  -6.79 0.0007041834    1.706    0.414
       140  -8.6005    156.6268    225.4362   9.1600418630e+01   4.4996799275e+00    0.2275505    0.1608991 -39.66 0.0005703347    1.560    0.359
       141  -7.7705     18.3016    215.6618   1.2043365590e+02   2.6282870709e+01    0.1303586   0.06869978  66.28 0.0005749305    1.666    0.400
