#   1 NUMBER                 Running object number                                     
#   2 MAG_AUTO               Kron-like elliptical aperture magnitude                    [mag]
#   3 X_IMAGE                Object position along x                                    [pixel]
#   4 Y_IMAGE                Object position along y                                    [pixel]
#   5 X_WORLD                Barycenter position along world x axis                     [deg]
#   6 Y_WORLD                Barycenter position along world y axis                     [deg]
#   7 A_WORLD                Profile RMS along major axis (world units)                 [deg]
#   8 B_WORLD                Profile RMS along minor axis (world units)                 [deg]
#   9 THETA_WORLD            Position angle (CCW/world-x)                               [deg]
#  10 FWHM_WORLD             FWHM assuming a gaussian core                              [deg]
#  11 ELONGATION             A_IMAGE/B_IMAGE                                           
#  12 ELLIPTICITY            1 - B_IMAGE/A_IMAGE                                       
         1  -8.3541    164.3371      8.9321   3.4993461290e+01   4.2591010175e+01    0.2149596    0.1555919  70.52 0.0003655011    1.200    0.167
         2  -8.3411    239.5011      6.5366   2.7997209034e+01   2.6549912174e+01    0.1135756   0.08562912 -71.04 0.0001029186    1.019    0.018
         3  -7.3606    116.6585      4.3366   4.0483980370e+01   5.4116659168e+01    0.1273349   0.08897816 -71.90  0.000705043    1.763    0.433
         4  -9.0541    189.0071    237.9752   8.3403892191e+01  -2.8965931901e+00    0.2785534    0.2448344  65.03  0.001741174    1.747    0.427
         5  -7.2684    229.1515    250.5761   7.7782095614e+01  -1.0006177079e+01    0.1584529   0.09147756  15.11 0.0005028425    1.584    0.369
         6 -12.0909     14.5559    248.6764   1.2096904735e+02   1.8900821713e+01     2.003103    0.7965959  30.56   0.01021403    2.609    0.617
         7 -10.5483      1.9001    239.0789   1.2286005668e+02   2.2084023418e+01    0.7348478    0.3115764 -74.65  0.003633161    2.139    0.533
         8 -10.4101    209.1655    232.2002   7.8480613680e+01  -4.7793352854e+00    0.2182817    0.1876719  -2.36            0    1.115    0.103
         9  -9.0079    177.0129    232.1213   8.4906008876e+01  -1.7095475322e-01    0.2973751    0.2012377  35.75 0.0006781234    1.408    0.290
        10  -9.0876    178.2096    227.4660   8.3892824175e+01   4.6085951326e-01    0.2395299    0.2121987   1.41 0.0002715952    1.046    0.044
        11  -8.4595    179.0329    222.9277   8.2959469859e+01   1.1399392580e+00    0.2203759    0.1770248 -31.04 0.0004065828    1.251    0.201
        12 -11.2150      4.8025    226.5726   1.2167513991e+02   2.4440705132e+01    0.8770494    0.4942654  46.20  0.005362689    1.547    0.353
        13  -7.6232     99.1080    224.3541   1.0096495485e+02   1.3343474709e+01    0.2166442    0.1782222 -52.07 0.0006118252    1.345    0.257
        14  -7.5325    247.2083    224.6162   7.0253376120e+01  -8.5050935207e+00    0.1617773   0.09672467  15.32 0.0007225895    1.668    0.400
        15  -7.8728    206.0959    220.1036   7.6989695726e+01  -2.3945322404e+00    0.1742442    0.1644571  89.66 0.0008102838    1.645    0.392
        16 -10.0417     18.3138    217.5748   1.1836662595e+02   2.5116022826e+01    0.3476477    0.2342879 -44.76  0.001448759    2.054    0.513
        17 -10.0514    145.8999    216.4005   8.9083452287e+01   7.6328714305e+00    0.2591172    0.2361663 -36.39 0.0002263584    1.160    0.138
        18  -7.5869     34.6402    216.3081   1.1474100942e+02   2.3677709980e+01    0.1404618    0.0766996  62.01 0.0001753164    1.735    0.424
        19  -8.6272     97.9298    211.2418   9.9490366364e+01   1.6403990262e+01    0.2220837    0.1972936 -60.18 0.0002321889    1.192    0.161
        20  -7.4129     57.0269    210.4598   1.0910140307e+02   2.2353391122e+01    0.2334465    0.1290812 -60.83 0.0007434186    1.807    0.447
        21  -8.8678      6.6461    208.2893   1.2024373858e+02   2.8321321404e+01    0.2690733    0.1639266  69.02  0.001041485    1.409    0.290
        22 -10.1742     11.1262    206.2297   1.1914534678e+02   2.8386149444e+01    0.4226384    0.3064333  56.21  0.001878921    1.243    0.195
        23  -8.7068    168.9189    202.2624   8.1490241891e+01   6.6614305009e+00    0.2262422    0.1912066 -27.73  0.000286869    1.162    0.139
        24  -8.7785     37.5688    199.8799   1.1261856102e+02   2.7189179895e+01    0.2594413    0.2497506 -40.80 0.0008414026    1.310    0.236
        25  -7.4977    154.1258    198.8307   8.4184593533e+01   9.8702708457e+00    0.2057319    0.1952448  87.21 0.0005291968    1.242    0.195
        26  -9.2014     29.9701    197.4479   1.1418837560e+02   2.8596817539e+01    0.2262469    0.1847419 -74.94 0.0003572766    1.175    0.149
        27  -6.8762     96.3149    195.6647   9.7625428576e+01   2.0264020099e+01    0.1527399    0.1065905  69.11 0.0007046951    1.691    0.409
        28  -7.8792    246.5105    193.0027   6.4665901303e+01  -3.5800371160e+00    0.1601342    0.1013652 -54.80 0.0008074226    2.354    0.575
        29  -8.8889     43.9182    193.1085   1.1040451872e+02   2.8104953759e+01    0.2167431    0.1617279  71.79 0.0006245482    1.258    0.205
        30  -8.9788     50.8470    188.7137   1.0818679554e+02   2.8361003707e+01    0.3446428    0.2428327 -84.81  0.001830094    1.358    0.264
        31  -7.1675     77.4340    187.8091   1.0126628803e+02   2.5027170007e+01    0.1916547    0.1269301 -51.37 0.0003978429    1.566    0.361
        32  -8.2423     96.0525    187.9299   9.6488446826e+01   2.2163526587e+01    0.2182171    0.2064707  69.78 0.0004206506    1.015    0.015
        33  -7.7748    101.4917    184.6593   9.4554287201e+01   2.2081076326e+01     0.234205    0.1814168   1.98 0.0009340224    1.686    0.407
        34  -8.9566     32.5635    181.9998   1.1206684716e+02   3.2107774752e+01    0.2171328    0.1872185  45.45  0.000281272    1.235    0.190
        35  -6.5323    190.3838    180.4942   7.2689254156e+01   7.3235191876e+00     0.143422    0.1271103 -20.75 0.0001147162    1.030    0.029
        36  -7.2784    137.3254    175.3297   8.3733910534e+01   1.8047159765e+01    0.1583151    0.1189642 -12.09 0.0005075308    1.703    0.413
        37  -7.0730     64.2599    174.3484   1.0280083934e+02   3.0258261357e+01     0.144796    0.1040874 -40.76 0.0003136373    1.603    0.376
        38  -7.3285    128.4043    170.7987   8.5076095295e+01   2.0744796800e+01    0.2046913    0.1419267 -41.44 0.0003408538    1.485    0.326
        39  -6.7943     69.2993    169.2867   1.0066435339e+02   3.0861851945e+01    0.1425729    0.1107361 -31.87 0.0003110908    1.554    0.357
        40  -7.3097     88.4906    164.5075   9.4541857391e+01   2.9210871181e+01    0.1507222    0.1437274 -84.89 8.394627e-06    1.011    0.011
        41  -7.8842     78.8368    160.0939   9.6466516767e+01   3.1841640806e+01    0.2313696    0.1951403  78.50 0.0005995769    1.250    0.200
        42  -8.8493     66.0594    155.8730   9.9405413024e+01   3.4782343340e+01     0.397211    0.2556407 -34.81 0.0009628614    1.919    0.479
        43  -6.9619     84.4871    154.5134   9.3830761805e+01   3.2406896335e+01    0.1516899    0.1443141 -58.92 3.021029e-05    1.038    0.037
        44  -9.7103    176.1808    149.5945   6.9125582997e+01   1.6327808238e+01    0.3285323    0.2328942 -43.34 0.0005333081    1.335    0.251
        45  -7.3639    249.0125    147.9765   5.5516969350e+01   3.5984596414e+00    0.1577427    0.1312653 -33.17 0.0005419059    1.027    0.026
        46  -8.0653    181.5196    146.6089   6.7310920466e+01   1.5903450390e+01    0.2676006    0.1857751  38.13 0.0006648306    1.544    0.352
        47  -8.7106    119.6833    146.0577   8.2159495213e+01   2.8359363175e+01    0.2546637    0.2215044  29.82 0.0002504666    1.201    0.167
        48  -8.3681     87.8204    139.0163   8.9731931468e+01   3.5844803023e+01    0.2854513    0.2345231 -55.94 0.0006959126    1.160    0.138
        49  -7.3825    180.2490    139.5796   6.5975102242e+01   1.7629080818e+01    0.2154391    0.1442011  31.48 0.0009579546    1.740    0.425
        50  -7.5632     82.7466    136.0322   9.0628035989e+01   3.7434381905e+01    0.2075871    0.1867011 -56.09            0    1.054    0.051
        51  -7.3329    232.2081    120.8568   5.2432284191e+01   1.1180705059e+01     0.315612   0.09198233  48.67  0.001112811    3.986    0.749
        52  -7.6776    125.7987    120.4958   7.4355702652e+01   3.3240533017e+01    0.2219994    0.1573503  42.47 0.0004098219    1.446    0.309
        53  -8.5804     68.7478    114.0178   9.0146153081e+01   4.5154488168e+01    0.2372652    0.2099292   7.03 0.0002064073    1.222    0.182
        54  -9.0192    182.8691    103.2183   5.6711080669e+01   2.4421737431e+01    0.4028192    0.2853701 -28.67  0.001244081    1.563    0.360
        55  -8.5127    103.2110    103.9044   7.6419016261e+01   4.1613079759e+01    0.3606344    0.2217101  31.25  0.001509843    1.808    0.447
        56 -10.3489     87.0795     96.0166   7.9301931637e+01   4.6424796398e+01    0.2485985    0.2352523 -20.38            0    1.011    0.011
        57  -7.1293    158.8797     90.8384   5.8345435984e+01   3.2202309838e+01    0.1947082    0.1677381 -83.44            0    1.260    0.207
        58  -7.4955    135.9754     75.6738   5.9229447619e+01   4.0309907067e+01    0.1970112    0.1884102  59.88  0.001085983    1.029    0.028
        59  -7.5340    198.2979     60.9615   4.3744875727e+01   2.8255307948e+01    0.1869861    0.1618578 -59.02 0.0003615144    1.064    0.060
        60  -7.5885    120.0163     52.3124   5.5836585101e+01   4.7854698719e+01     0.193234    0.1714716  55.12 0.0004335991    1.079    0.073
        61  -7.3047    158.9359     49.2952   4.6823486108e+01   3.9122556438e+01    0.1888582    0.1699788  73.64 0.0004437128    1.044    0.042
        62  -8.4115    151.1445     47.6963   4.7762099454e+01   4.1205431391e+01    0.2245982    0.2004719 -28.44  0.000331667    1.244    0.196
        63  -9.0669    120.0462     40.0134   5.1777515778e+01   4.9583441565e+01     0.290063    0.2025417 -23.67 -0.002661949    1.618    0.382
        64  -8.3722    224.9819     38.0536   3.5455519716e+01   2.5719692674e+01     0.181363    0.1523657 -71.14 0.0003260018    1.057    0.054
        65  -7.8995    237.1509     33.2828   3.3379450318e+01   2.3865677287e+01    0.1628958    0.1435832 -79.79   0.00116128    1.201    0.168
        66  -7.9798    213.7999     32.2524   3.5289564579e+01   2.8823228714e+01    0.1571315    0.1444998  54.94  0.001061083    1.405    0.288
        67  -7.3600    114.1695     25.0633   4.8044719900e+01   5.2736428338e+01    0.1713658    0.1484791 -87.31 0.0004228842    1.302    0.232
        68  -7.3153    187.1357     22.4651   3.5815942890e+01   3.5911933342e+01    0.1783718     0.110665  72.33 0.0007960494    1.456    0.313
        69  -6.6304    132.6665     21.6917   4.3269808876e+01   4.8789705409e+01    0.1369822   0.08964518  38.40 0.0004597767    1.671    0.402
        70  -7.1297    209.5497     18.7619   3.2733922545e+01   3.1352139120e+01    0.1181089   0.08084227  52.62 0.0002879427    1.787    0.440
        71  -7.2425    133.6682     10.6813   3.9674620526e+01   4.9627187747e+01    0.1336312   0.08400301  41.22 0.0006752908    1.692    0.409
        72  -7.6595     55.2294    248.8095   1.1303012598e+02   1.4261262890e+01    0.2181632   0.09303551  63.40 0.0009453662    2.772    0.639
        73  -9.2852     53.5999    241.6939   1.1278294810e+02   1.5911632650e+01    0.2709168    0.2038375 -86.40  0.001439099    1.306    0.234
