#   1 NUMBER                 Running object number                                     
#   2 MAG_AUTO               Kron-like elliptical aperture magnitude                    [mag]
#   3 X_IMAGE                Object position along x                                    [pixel]
#   4 Y_IMAGE                Object position along y                                    [pixel]
#   5 X_WORLD                Barycenter position along world x axis                     [deg]
#   6 Y_WORLD                Barycenter position along world y axis                     [deg]
#   7 A_WORLD                Profile RMS along major axis (world units)                 [deg]
#   8 B_WORLD                Profile RMS along minor axis (world units)                 [deg]
#   9 THETA_WORLD            Position angle (CCW/world-x)                               [deg]
#  10 FWHM_WORLD             FWHM assuming a gaussian core                              [deg]
#  11 ELONGATION             A_IMAGE/B_IMAGE                                           
#  12 ELLIPTICITY            1 - B_IMAGE/A_IMAGE                                       
         1 -15.6110      8.9034    208.3981   1.4567878075e+02   2.9793261952e+01     10.61978     1.438057 -73.25   0.02215819    5.540    0.819
         2 -14.0622    205.9591     18.8482   6.0946610903e+01   3.1900797584e+01     1.807612     1.357714  38.41  0.008154193    1.841    0.457
         3 -13.7590    211.3198     12.9076   5.9076225122e+01   3.1337985591e+01     3.169455     1.679055  31.15  0.001552887    5.737    0.826
         4 -11.7031      2.2128     14.1360   1.1323040134e+02   7.0765885794e+01    0.5804377    0.1574228 -48.45  0.002599357    3.906    0.744
         5 -11.1346      2.2129      5.0297   1.0942333101e+02   7.1984553877e+01    0.5892466    0.1191581 -40.35  0.002619466    3.891    0.743
         6 -11.0816    189.6782     15.4644   6.2012969115e+01   3.6086391605e+01    0.2559465    0.1859354 -83.91 0.0007445514    1.273    0.214
         7 -12.5151    139.7617    248.7397   1.2396992922e+02   2.8614536126e+00    0.6400468    0.3983223  46.58  0.003488548    1.370    0.270
         8 -12.0626     99.4136    236.6515   1.3053723755e+02   1.1860315043e+01    0.5349835     0.323428  48.39  0.001083471    1.428    0.300
         9 -12.8493    100.9316    247.6426   1.3151683925e+02   9.4597124103e+00    0.8004596    0.6022107  85.09  0.004914953    1.347    0.258
        10 -11.7932    107.9265    245.3391   1.2987303894e+02   8.7802431102e+00    0.4119782    0.2743844  60.21   0.00144928    1.371    0.271
        11 -11.9220     92.6598    249.4153   1.3331575318e+02   1.0414576025e+01    0.5271654    0.3142696  56.68 0.0004112567    1.447    0.309
        12 -10.1667     30.0201    241.6946   1.4421865054e+02   2.0550763970e+01    0.2089507    0.1236401  84.80 0.0006572462    1.415    0.293
        13 -12.7204     39.0838    246.0048   1.4293455991e+02   1.8593353281e+01    0.9388662    0.5026252  69.83  0.005475922    1.632    0.387
        14 -12.3425     30.9462    247.8438   1.4448794575e+02   1.9221316402e+01    0.6758153    0.4505905  51.47  0.004604086    1.357    0.263
        15 -12.3672     19.1550    242.2603   1.4613995232e+02   2.1683102002e+01    0.5495291    0.2716813  55.92 0.0007818838    1.640    0.390
        16 -11.8693     12.0109    239.9810   1.4721150782e+02   2.2912855036e+01    0.5692347    0.2246172  75.81  0.002623533    2.560    0.609
        17 -11.2970     14.7697    249.8822   1.4734189736e+02   2.0675291616e+01    0.9943365    0.3296984  44.69  0.005306074    2.432    0.589
        18 -11.3009      1.5401    240.2537   1.4897045468e+02   2.3937809748e+01    0.6213983    0.2946791 -85.25  0.003822657    1.692    0.409
        19 -10.3408      2.1662    249.7999   1.4937436910e+02   2.2025084394e+01    0.2617262    0.1727245  56.72  0.001241671    1.312    0.238
        20 -10.4428      3.7672    246.6005   1.4895003662e+02   2.2475666131e+01    0.2806313    0.1678319  69.04  0.001285714    1.233    0.189
        21 -10.4972     51.5166    233.9991   1.3967459752e+02   1.9439201337e+01     0.248415    0.1917045 -88.83 0.0009061796    1.152    0.132
        22 -10.9417    246.3348    249.1400   1.0354467440e+02  -1.4110519699e+01    0.2938862    0.1550431  39.55   0.00164223    1.948    0.487
        23 -14.0149     44.2471    216.4997   1.3948522018e+02   2.4108957231e+01     1.095574    0.7145845  66.24  0.004772507    1.339    0.253
        24 -10.9612    227.6430    203.8186   9.8791021535e+01  -4.4865401276e+00    0.3557076    0.2533065 -59.50 0.0009210503    2.031    0.508
        25 -12.7859     36.9595    225.6223   1.4171188427e+02   2.3037830317e+01    0.3469772    0.3067031 -89.74  0.000757758    1.282    0.220
        26  -9.8697    192.0067    193.0181   1.0374448346e+02   3.8927192885e+00    0.5429434    0.2700626 -64.88  0.001445291    6.191    0.838
        27 -11.6074     63.2893    193.0609   1.3286630551e+02   2.6928054387e+01    0.3719016    0.2536582 -45.04  0.001230981    1.853    0.460
        28  -8.5089    181.5200    192.4717   1.0584720751e+02   6.0215807513e+00     0.144561     0.138438  19.61 5.186902e-05    1.006    0.006
        29 -11.6839     21.0336    229.3095   1.4493846085e+02   2.4103047038e+01    0.3422744    0.1683207  63.65  0.001413742    1.763    0.433
        30 -11.8046     68.8558    185.7977   1.3062738711e+02   2.7861300420e+01    0.3169564    0.2524961 -49.36  0.000716814    1.440    0.306
        31 -11.0585     78.5283    174.0001   1.2656203047e+02   2.9272556587e+01    0.2679102    0.2313378 -62.46 0.0004358832    1.157    0.136
        32 -13.2618     65.6047    171.4539   1.2934432185e+02   3.1773438342e+01    0.5263679     0.281605 -45.38  0.001722923    2.216    0.549
        33 -10.5298    106.6350    173.5970   1.1956309062e+02   2.4717057124e+01    0.5114248    0.1125534  43.71  0.001402255    4.356    0.770
        34 -12.1079     86.0690    165.6912   1.2329869568e+02   3.0119913476e+01    0.8145097    0.5661352  56.38  0.003697438    1.498    0.332
        35 -13.1165     66.9557    143.7419   1.2439896233e+02   3.8363794869e+01     2.408637     1.186381 -86.53  0.003027568    5.027    0.801
        36  -9.1051    101.9213    145.5690   1.1529194839e+02   3.2350146057e+01    0.3834647     0.214142 -33.41  0.001429487    2.596    0.615
        37 -12.0688     87.2398    148.7860   1.1987195101e+02   3.4072088656e+01    0.3028517    0.2514437 -45.09 0.0004746267    1.248    0.199
        38  -9.9182     39.0334    147.0190   1.3243525832e+02   4.0984354212e+01    0.2058553    0.1760542 -72.87 0.0005536409    1.027    0.026
        39 -11.8083     25.5470    137.4100   1.3459693658e+02   4.4604095865e+01    0.3591066    0.1945183  50.38  0.001833865    2.177    0.541
        40  -9.4938    109.8629    135.7009   1.1099467540e+02   3.3261970346e+01     0.318706    0.2289708 -23.54  0.001283345    1.874    0.466
        41 -10.5628     97.3221    132.5879   1.1371595567e+02   3.6295115856e+01    0.2820763     0.236063 -26.59 0.0002870322    1.365    0.268
        42  -9.1581    106.9934    122.7622   1.0872761900e+02   3.6848489604e+01    0.1957876    0.1912733  59.78 0.0002353926    1.058    0.055
        43 -11.9279    151.7294    228.7947   1.1861812095e+02   4.4535036253e+00     0.621615    0.2758966  32.17  0.002443852    2.587    0.613
        44 -15.0082     52.5838    208.4427   1.3697787099e+02   2.4831995350e+01     8.952779    0.5471238  46.46   0.02110119    8.637    0.884
        45 -10.9055    168.0030    112.9866   9.0887198228e+01   2.5833780781e+01    0.3732708    0.3074284 -78.75 0.0006840318    1.372    0.271
        46  -9.4591    204.6313    110.8338   8.2979087673e+01   1.7778151167e+01    0.3687007    0.1955847  38.52  0.001416002    2.483    0.597
        47  -9.8461     98.8158    149.8252   1.1699826220e+02   3.1864993823e+01    0.2886738    0.2537874 -81.14 0.0008580866    1.123    0.109
        48 -11.4641    242.6671     93.4075   7.2921748590e+01   1.2637278366e+01     0.327278    0.2087215 -35.73  0.001640223    1.582    0.368
        49 -10.3156     67.3024    226.2707   1.3584386485e+02   1.8903729859e+01    0.2772641    0.1655148  70.86 0.0008675465    1.646    0.392
        50 -10.5397     83.1478    230.8639   1.3315133622e+02   1.5595078158e+01    0.2136488    0.1521669  70.62 0.0008154515    1.277    0.217
        51  -8.3889    184.6761     77.6705   7.8398748896e+01   2.8588024409e+01    0.1472736    0.1177411  21.31 0.0007049869    1.698    0.411
        52 -10.5800      2.9839     74.9700   1.3071529974e+02   6.0095641161e+01    0.1853887    0.1436281 -49.07  0.001319965    1.023    0.023
        53 -10.3648    198.4951    246.9511   1.1208502173e+02  -6.6674719485e+00    0.1793453    0.1239244 -38.48  0.001042015    1.618    0.382
        54 -11.5331     89.1320    244.8061   1.3350293669e+02   1.1853108505e+01    0.4009095    0.2263795  79.64  0.001714826    2.191    0.543
        55 -10.7583     53.0611    228.5186   1.3887854365e+02   2.0383801502e+01    0.3264116    0.1741896 -82.37  0.001724716    1.818    0.450
        56 -11.3859     53.4378    238.0188   1.3966842690e+02   1.8356262973e+01    0.5437802    0.1870165  51.16  0.001819147    2.492    0.599
