#   1 NUMBER                 Running object number                                     
#   2 MAG_AUTO               Kron-like elliptical aperture magnitude                    [mag]
#   3 X_IMAGE                Object position along x                                    [pixel]
#   4 Y_IMAGE                Object position along y                                    [pixel]
#   5 X_WORLD                Barycenter position along world x axis                     [deg]
#   6 Y_WORLD                Barycenter position along world y axis                     [deg]
#   7 A_WORLD                Profile RMS along major axis (world units)                 [deg]
#   8 B_WORLD                Profile RMS along minor axis (world units)                 [deg]
#   9 THETA_WORLD            Position angle (CCW/world-x)                               [deg]
#  10 FWHM_WORLD             FWHM assuming a gaussian core                              [deg]
#  11 ELONGATION             A_IMAGE/B_IMAGE                                           
#  12 ELLIPTICITY            1 - B_IMAGE/A_IMAGE                                       
         1 -14.2225     68.3326    144.5522   9.8316143501e+01   3.7453818667e+01     4.412414     2.319208  84.47   0.00596698    4.281    0.766
         2 -13.8050    232.5137     21.0773   3.2532309178e+01   2.6171671410e+01     1.284653      1.03148  31.34  0.002594171    2.043    0.510
         3 -13.8853    205.8800     43.0432   3.9953727511e+01   2.9114218683e+01     1.403067     1.254057 -16.11  0.005614223    1.455    0.313
         4 -13.3766    213.5706     38.3449   3.8006571788e+01   2.8039096468e+01     1.022401    0.6400906 -57.18  0.003743576    1.447    0.309
         5 -12.6815    221.4771     30.9727   3.5575274975e+01   2.7276454879e+01    0.5476941    0.4354061  48.67  0.001196806    1.650    0.394
         6 -11.0797    249.9085      2.9585   2.7831956707e+01   2.4763185192e+01    0.3054817    0.1659898 -47.00  0.001819216    1.511    0.338
         7 -10.0442      2.0000      3.5053   8.4550178501e+01   7.4428882768e+01    0.2238082   0.05229669 -44.34 0.0009330455    3.921    0.745
         8 -14.4508      6.3558    247.1098   1.2341924452e+02   2.0440073220e+01     1.699801     1.124082  33.41   0.01162176    1.675    0.403
         9 -13.3659     44.8528    217.2462   1.1378756407e+02   2.2579638364e+01     1.323903    0.7457818  17.72  0.006322111    2.642    0.622
        10 -14.6442      5.2393    178.0895   1.1960136223e+02   3.5718673081e+01     10.61057    0.9563127 -76.87   0.02027072   12.494    0.920
        11 -15.2807    100.1776    226.0271   1.0240043404e+02   1.3138688118e+01     6.449206     1.039053  37.66  0.008117451    4.626    0.784
        12 -10.2371    111.5505    204.7802   9.6842725941e+01   1.5956014861e+01    0.3350612    0.2181376  83.66  0.001469041    2.279    0.561
        13 -10.9353    192.2847    193.5730   7.6626986137e+01   4.5368462721e+00    0.5860725    0.3318486 -66.31  0.001925533    4.748    0.789
        14 -15.0056      9.4533    207.6715   1.2068699058e+02   2.8466465320e+01     2.126336     1.343061  78.48  0.007175955    1.323    0.244
        15 -10.0837     55.9433    192.7360   1.0873894556e+02   2.6928425706e+01    0.2505661    0.1817023 -89.53 0.0006186433    1.325    0.245
        16  -9.3689     99.3427    180.9916   9.6094889566e+01   2.3488369018e+01     0.203371    0.1837895 -69.41 0.0004793112    1.100    0.091
        17 -12.1212     57.1039    176.1909   1.0640005330e+02   3.0859240625e+01    0.4720757    0.3272545 -29.22  0.002229457    2.031    0.508
        18 -12.0316     62.6911    170.9893   1.0420268004e+02   3.1443568981e+01    0.3356222    0.2895458 -39.60 0.0008085441    1.327    0.247
        19  -9.6686     85.2184    174.4174   9.8708520452e+01   2.7346507850e+01    0.2170814    0.1446167  35.50 0.0006142976    1.529    0.346
        20 -11.7854     73.0035    161.8495   9.9974813221e+01   3.2342654765e+01    0.3472723    0.3219319 -73.82 0.0004286926    1.031    0.030
        21 -13.3601     79.5866    155.5950   9.7048206656e+01   3.2968170027e+01     1.932931     1.178339  71.32  0.001516115    2.352    0.575
        22  -9.2504    173.5424    244.4921   8.9219763675e+01  -1.4932172472e+00    0.1559085    0.1267987 -55.44 5.837423e-05    1.621    0.383
        23 -10.4553     47.5846    168.9929   1.0797821897e+02   3.3840531095e+01    0.3609227    0.2121931 -86.61   0.00131513    1.804    0.446
        24 -10.7999    229.6241    169.2612   6.4658094785e+01   2.8162170001e+00    0.3348651    0.1855347 -24.83  0.001542693    1.965    0.491
        25  -9.7931     40.8798    165.0869   1.0928111852e+02   3.5593736855e+01    0.2109086    0.1809244 -84.03 0.0003465517    1.019    0.019
        26 -12.2502     34.2688    158.2797   1.1023248273e+02   3.8025687968e+01    0.8429269    0.3948001  67.27  0.002762817    3.023    0.669
        27 -13.5070     59.8862    157.4702   1.0295304930e+02   3.5265322806e+01    0.6103455    0.3568174 -45.61  0.001491505    1.837    0.456
        28  -9.3440    174.7938    148.9964   7.1068871320e+01   1.6763939835e+01    0.2446703    0.1734051 -69.70 0.0006502727    1.952    0.488
        29 -11.3202     54.7951    147.8049   1.0288228032e+02   3.8405931910e+01    0.4176983    0.1901763 -45.70  0.001638398    2.374    0.579
        30  -8.5864    149.6683    148.3268   7.6726136847e+01   2.1984446359e+01     0.159435    0.1254883  86.70 0.0007051281    1.711    0.416
        31  -9.7721    134.1463    147.3947   8.0402970956e+01   2.5308863922e+01    0.4436437    0.1124648 -52.88  0.001098771    4.635    0.784
        32  -9.7486     47.5137    145.9872   1.0473749181e+02   3.9747698841e+01    0.2242105    0.1273805 -66.55 0.0009210649    1.578    0.366
        33 -11.1539     23.4763    147.7926   1.1196120238e+02   4.1719090620e+01    0.3034861    0.2169552 -79.06 0.0008160473    1.212    0.175
        34  -8.6081    200.2424    143.6031   6.4611524710e+01   1.2840308677e+01    0.1479653     0.108563 -63.21 0.0006929782    1.673    0.402
        35  -9.9990     28.3027    142.9565   1.0995450405e+02   4.2518374171e+01     0.202404    0.1562793 -72.32 0.0009798135    1.109    0.098
        36 -10.2719     95.9918    141.7066   8.9608286259e+01   3.3840551981e+01     0.305289    0.2801108   2.41 0.0007548151    1.214    0.176
        37  -9.6680     99.0626    138.4839   8.8021949525e+01   3.4112767705e+01    0.3541342    0.2588607  -8.76 0.0009674907    1.943    0.485
        38 -12.4273     83.7320    140.1048   9.2869755155e+01   3.6282660852e+01    0.3317277    0.2742281 -50.59 0.0005241045    1.164    0.141
        39 -12.2598     68.6258    129.9532   9.5396883249e+01   4.1160506263e+01    0.8635249    0.5545906  82.89  0.003349555    2.335    0.572
        40 -10.0798     94.5236    126.9569   8.6749262518e+01   3.7780800756e+01    0.2733426    0.2345581  31.37 0.0005613678    1.228    0.186
        41 -10.7479    239.9808    123.0183   5.3350325112e+01   9.2393259410e+00    0.2249682    0.1429666  22.03  0.001030786    2.637    0.621
        42 -10.8446    106.9004    130.8878   8.4026393776e+01   3.4566670690e+01    0.4348844    0.3616612  26.44   0.00130715    1.299    0.230
        43  -9.8006    105.4449    119.2001   8.1604709473e+01   3.7669133072e+01    0.2304611     0.207548  16.47 0.0003583375    1.194    0.162
        44  -8.9361    167.3565    112.6811   6.3988314384e+01   2.5997646447e+01    0.1607946    0.1214174 -82.31 0.0007045393    1.755    0.430
        45 -10.0120    205.1343    110.4453   5.6101131072e+01   1.8253760803e+01    0.3126821    0.2551442  49.50  0.001034695    1.350    0.259
        46  -9.1233     74.8275    110.6207   8.9041842502e+01   4.5067890475e+01    0.2044571    0.1355681  46.06 0.0004514148    1.676    0.403
        47 -10.8938    245.8641    107.6560   4.9281739150e+01   1.0814098146e+01    0.2385821    0.1161191  45.80   0.00110424    2.583    0.613
        48  -9.5157    134.4264    105.1325   6.9818289103e+01   3.4902068736e+01    0.3897977     0.140633 -51.68  0.001155289    3.336    0.700
        49 -10.3111    241.0137    102.0000   4.8733732301e+01   1.2651602100e+01    0.1945994   0.07699355  55.67 0.0008065467    2.971    0.663
        50 -10.1111    245.6603     98.3344   4.7349384698e+01   1.2402264691e+01     0.138261   0.08875865 -64.51 0.0007051406    1.752    0.429
        51  -8.7039    164.6956     97.6836   6.0670781312e+01   2.9607998672e+01    0.1509768    0.1223735   5.71 0.0004426203    1.624    0.384
        52 -10.7490     53.1368     90.9674   9.1639181029e+01   5.2821263415e+01    0.3455698    0.1911654 -53.46  0.001350669    1.644    0.392
        53 -10.3507     46.1933     91.5932   9.4386404933e+01   5.3521604662e+01    0.2452279    0.2103616  79.36  0.001384817    1.468    0.319
        54 -10.1726     41.6406     92.1048   9.6220397219e+01   5.3913160385e+01    0.2309883    0.1946435  -7.10 0.0005323043    1.257    0.204
        55 -13.2521     27.5196    202.6724   1.1639553136e+02   2.7842599384e+01    0.5024856    0.4591834 -41.04 0.0009786237    1.446    0.308
        56  -9.9417    161.9478     83.2947   5.7371249398e+01   3.2967155569e+01    0.2127205    0.1954254  64.00 0.0005149585    1.091    0.084
        57  -8.7618    184.5170     77.4552   5.1554035696e+01   2.8740264242e+01    0.1424513    0.1355544 -69.68 6.091937e-05    1.046    0.044
        58  -8.8285     43.9722     68.0402   8.8702430876e+01   5.9009655823e+01    0.1591953    0.1399734 -13.87 0.0003936204    1.063    0.060
        59 -11.0085     13.4257     60.1390   9.9673059883e+01   6.3547091583e+01    0.2338604    0.1893477 -45.19 0.0004089456    1.087    0.080
        60 -10.2194    171.3089    240.0152   8.8996865571e+01  -4.2806259111e-01    0.3028199    0.2011198 -59.84  0.001611448    2.183    0.542
        61 -16.0576     34.2083    187.0492   1.1343239790e+02   3.0850252329e+01     10.27121     3.870632  73.64   0.02912663    5.820    0.828
        62 -14.0899     11.1117    233.0728   1.2183408611e+02   2.2810246665e+01     1.081858     0.584963  77.16  0.006430919    1.591    0.371
        63 -13.1135     57.0238    239.4272   1.1311517380e+02   1.6327172859e+01    0.6215515    0.4696266  70.49  0.002002902    1.162    0.139
        64  -9.8245     31.0407     53.9636   8.9781770836e+01   6.3295157515e+01    0.1898458    0.1608188 -21.15 0.0004317835    1.037    0.035
        65 -11.1489     12.2364     52.9836   9.8214556081e+01   6.5107969821e+01    0.3109229    0.1684231  26.74  0.001473554    2.083    0.520
        66 -10.8351    129.8400     37.4420   5.0443192045e+01   4.7811082643e+01    0.3289972    0.2439668 -83.43 0.0006000687    1.679    0.404
        67  -9.1055    131.0193     30.6714   4.8010597336e+01   4.8368096950e+01    0.1837119     0.153831  62.84 0.0002783498    1.088    0.081
        68  -9.5625    189.2107     15.1800   3.5150144856e+01   3.6293896342e+01    0.1822578     0.159278  73.25 0.0007311712    1.183    0.155
        69 -14.6231     34.3252    249.3605   1.1835189440e+02   1.7046190514e+01     2.710447    0.8059304  27.74  0.009977249    4.792    0.791
