#   1 NUMBER                 Running object number                                     
#   2 MAG_AUTO               Kron-like elliptical aperture magnitude                    [mag]
#   3 X_IMAGE                Object position along x                                    [pixel]
#   4 Y_IMAGE                Object position along y                                    [pixel]
#   5 X_WORLD                Barycenter position along world x axis                     [deg]
#   6 Y_WORLD                Barycenter position along world y axis                     [deg]
#   7 A_WORLD                Profile RMS along major axis (world units)                 [deg]
#   8 B_WORLD                Profile RMS along minor axis (world units)                 [deg]
#   9 THETA_WORLD            Position angle (CCW/world-x)                               [deg]
#  10 FWHM_WORLD             FWHM assuming a gaussian core                              [deg]
#  11 ELONGATION             A_IMAGE/B_IMAGE                                           
#  12 ELLIPTICITY            1 - B_IMAGE/A_IMAGE                                       
         1 -12.4770    248.8599     30.5008   3.5101125446e+02   2.3487175354e+01    0.5723304    0.2083953 -38.10  0.003092471    1.906    0.475
         2 -12.2072    249.5716     21.3576   3.4913191332e+02   2.4369035002e+01    0.4548787    0.2851318 -36.72  0.002686699    1.306    0.235
         3 -13.7758    246.8153      6.5402   3.4629036851e+02   2.6366362968e+01    0.9401495    0.6123306 -53.56   0.00542293    1.100    0.091
         4 -10.9615     24.1021     20.5980   3.6305421829e+01   7.3552668683e+01    0.3745942    0.1595708 -32.26  0.001485794    2.933    0.659
         5 -11.6659     11.6335     14.7043   4.2604744351e+01   7.6239056733e+01    0.4187342    0.2113897 -32.41   0.00201709    2.077    0.519
         6 -12.3769      4.3252     12.9894   4.8307636077e+01   7.7313890277e+01     1.007439    0.3376817 -56.48  0.004163207    3.028    0.670
         7 -12.0158      9.2171      6.7229   3.9442087522e+01   7.7939666214e+01    0.6620709    0.3387098 -25.11  0.003151037    2.348    0.574
         8 -10.9577      2.0340      3.0004   4.4036216407e+01   7.9376591874e+01    0.3416069    0.1962464 -46.30  0.001934156    1.684    0.406
         9 -11.2298      6.7251      1.5937   3.7946233571e+01   7.9092070011e+01    0.6285652    0.1685724  30.81  0.002376043    3.690    0.729
        10 -11.4528     16.1114      8.0679   3.4248633640e+01   7.6814466213e+01    0.3121375    0.2123271  -2.63  0.001754089    1.616    0.381
        11 -10.4011     27.0415      4.2465   2.3084926389e+01   7.5615699465e+01    0.2595126    0.1484274  -3.20  0.001175955    2.645    0.622
        12 -12.0224      8.8832     25.3816   5.0734966106e+01   7.4405126781e+01     0.568139    0.2372231 -52.63  0.002283484    2.122    0.529
        13  -8.7331    122.3425      1.2635   3.5323365237e+02   5.3723423970e+01     0.132141   0.08756194  49.96 0.0002562365    1.597    0.374
        14 -11.1073    224.1907    241.2624   3.3461471634e+01  -1.9432472408e+00    0.2960263    0.1655272 -31.96  0.002038811    1.619    0.382
        15 -11.2438    249.2058    249.1963   3.0745515343e+01  -5.0139570881e+00    0.3338439    0.1729564 -18.30  0.001790914    1.486    0.327
        16 -11.2696    249.4210    239.8809   2.9400319464e+01  -4.0083510050e+00    0.4095287    0.1564353 -35.39  0.002491503    2.269    0.559
        17 -10.5676    248.8564    232.8765   2.8468345226e+01  -3.1663724272e+00    0.2121036    0.1265769 -22.76 0.0008506035    1.264    0.209
        18 -11.4670    247.2816    226.8899   2.7813214927e+01  -2.3308279899e+00    0.4334044     0.183307 -24.17   0.00257591    2.027    0.507
        19 -10.9728    243.0107    245.5480   3.1152715171e+01  -4.1022475103e+00    0.3371569    0.1158651 -29.18   0.00190607    2.472    0.595
        20  -9.8330    212.0153    250.5120   3.6739547613e+01  -1.9278939941e+00    0.1563599   0.08330442  20.51    0.0010361    1.600    0.375
        21  -9.8778    184.8032    250.3532   4.1440137920e+01   7.4133214891e-01    0.1591712   0.08211948  15.85 0.0007058962    1.696    0.410
        22 -10.8564    101.0973    248.1322   5.7926095557e+01   1.0230004406e+01     0.334243    0.2138095  83.71  0.001817365    2.717    0.632
        23 -10.3172     65.8884    249.2317   6.5690151913e+01   1.3865325170e+01    0.3424593    0.1151627  41.76  0.001583959    2.361    0.576
        24  -9.8709     26.5192    250.4646   7.4300376578e+01   1.7488284174e+01    0.2882162   0.08159357  27.93  0.001298257    2.616    0.618
        25 -10.2038     21.3610    249.0077   7.5341214449e+01   1.8218928986e+01    0.2490248    0.1099034  40.99  0.001398808    1.646    0.392
        26  -9.6789    148.3480    242.7061   4.7418175910e+01   5.7490159153e+00     0.111766   0.08212702  43.67 0.0007031127    1.672    0.402
        27 -10.7620    193.8272    244.1375   3.8988386468e+01   6.4274455469e-01    0.3225748    0.1329006  17.27  0.001639321    2.510    0.602
        28 -10.3843     72.8116    240.6401   6.3488375097e+01   1.4696756016e+01    0.3039745    0.1638948  67.73  0.001505874    2.612    0.617
        29 -10.1016     62.7418    241.7618   6.5840090038e+01   1.5566849023e+01    0.2434936    0.1578449  49.96  0.001255019    1.413    0.292
        30  -9.2804     30.9601    242.4645   7.2974454143e+01   1.8590913079e+01     0.182839   0.05229788  43.63 0.0008088539    2.482    0.597
        31 -10.7948     83.8835    239.5344   6.0902797987e+01   1.3676652939e+01    0.3504312    0.1880889  58.11  0.001759593    2.380    0.580
        32  -9.6199     38.0329    241.0249   7.1331179554e+01   1.8200566402e+01     0.204932    0.1037322  50.92  0.001003833    1.702    0.412
        33 -10.1672     19.6800    240.5160   7.5370635866e+01   1.9984845889e+01    0.2562861    0.1300001  57.63  0.001459853    1.717    0.417
        34  -9.4817    170.3184    240.3408   4.2797729385e+01   3.6501301207e+00    0.1216416   0.07345651  -7.27 0.0007049336    1.713    0.416
        35 -10.0700     54.1277    239.8594   6.7644810424e+01   1.6824013384e+01     0.202716    0.1332063  48.92  0.001241306    1.334    0.250
        36 -11.3723    242.3032    237.2167   3.0070517804e+01  -3.0959620666e+00    0.3621363    0.1653584 -15.57  0.001584428    2.154    0.536
        37  -9.8550     45.8069    237.6060   6.9381610926e+01   1.8101929951e+01    0.3403539    0.1699153  69.83  0.001715143    2.401    0.584
        38 -10.2557    230.6152    234.8060   3.1512295822e+01  -1.7587946187e+00    0.1382651   0.08471596 -36.23 0.0009581661    1.715    0.417
        39 -10.0712    131.2109    235.4026   5.0056004335e+01   8.8988364764e+00     0.179429   0.09367614  35.12 0.0008771857    1.704    0.413
        40 -10.0208     32.8858    232.2254   7.2018834805e+01   2.0424603536e+01    0.2756586    0.1467735  72.45  0.001478641    2.021    0.505
        41  -9.5057    203.3132    231.3671   3.5511920366e+01   1.3643433930e+00    0.1206952   0.06797515  -9.40 0.0007037934    1.768    0.434
        42  -9.4622     11.0126    231.5527   7.6956564624e+01   2.2504188787e+01    0.1793806   0.09909473  26.69  0.001031797    1.606    0.377
        43  -9.9251    103.9937    229.7988   5.5375041498e+01   1.3132163483e+01    0.2163216    0.1175317  47.90  0.001087255    2.019    0.505
        44  -9.8897     40.0374    229.3258   7.0197078525e+01   2.0322082170e+01    0.2362909    0.1392034  58.74  0.001331053    1.611    0.379
        45 -10.6101    236.9410    228.4628   2.9596818660e+01  -1.5770097692e+00    0.2167968    0.1292227 -26.69  0.001351426    1.356    0.263
        46  -9.8202     48.1274    229.6990   6.8331279903e+01   1.9435386189e+01     0.208805    0.1525345  67.90 0.0009726612    1.385    0.278
        47  -9.8344     21.4977    228.4984   7.4452278003e+01   2.2226584900e+01    0.1219158    0.0970581  48.94 0.0008106764    1.009    0.009
        48  -9.9680    229.6050    227.2192   3.0548544721e+01  -7.3125982874e-01    0.1553727   0.07672522 -25.72 0.0009573372    1.692    0.409
        49  -9.7919     11.8773    226.1329   7.6564484575e+01   2.3542578228e+01    0.2027122    0.1225091  51.96 0.0008949739    1.337    0.252
        50  -9.8266     44.4973    221.5141   6.8631584219e+01   2.1491382510e+01    0.3126855    0.1306367  54.88  0.001392859    2.435    0.589
        51 -10.1004      2.2169    220.6510   7.8600458969e+01   2.5466510528e+01      0.28964    0.1183939  71.69  0.001404771    2.335    0.572
        52 -10.5854    239.8701    219.6628   2.7820628460e+01  -7.7332327090e-01     0.194985    0.1116365 -21.63  0.001330032    1.358    0.264
        53 -10.4241     11.7106    216.3608   7.6225685148e+01   2.5625368846e+01    0.2964914    0.1430953  52.10  0.001562425    1.709    0.415
        54 -10.4387    248.1399    213.7626   2.5686057989e+01  -8.2849245017e-01    0.3645569    0.1418645 -27.45  0.002023429    2.176    0.540
        55  -9.2562     16.2177    212.4465   7.4972110016e+01   2.6100631399e+01    0.1765591   0.09111509  38.79 0.0006027006    1.568    0.362
        56 -10.1019      2.8308    211.7547   7.8177515493e+01   2.7334727585e+01    0.2652559    0.1666705  35.06  0.001588722    1.368    0.269
        57  -9.9807      2.0888    206.1556   7.8171453162e+01   2.8631570817e+01    0.2698106    0.1562999  80.40  0.001514773    1.604    0.377
        58  -9.6342    236.4894    205.9529   2.6178324274e+01   1.3076588446e+00    0.1702213   0.08574659 -32.71  0.001041163    1.616    0.381
        59 -10.7487     13.5001    204.2210   7.5266489089e+01   2.8167637296e+01    0.4788987    0.1787873  51.93  0.002139642    2.279    0.561
        60  -9.9428     30.1535    201.8024   7.0885505781e+01   2.7244701959e+01    0.3346312    0.1609432  84.22  0.001522087    2.337    0.572
        61  -9.6492     37.0129    200.7834   6.9034070964e+01   2.6814026091e+01    0.2430674    0.1059571  49.39  0.001077649    2.087    0.521
        62 -10.8795      6.0323    195.6803   7.6793314869e+01   3.0729163871e+01    0.4389676    0.1519066  50.48  0.001900559    2.381    0.580
        63 -10.6413     18.0416    193.3506   7.3543719877e+01   3.0308710410e+01    0.3994374    0.1957285  62.74  0.001895268    1.957    0.489
        64  -9.4106     33.0000    194.0033   6.9599791439e+01   2.8791702322e+01    0.2109353   0.07263063 -75.98 0.0001682409    2.983    0.665
        65  -9.2820     40.0215    193.5039   6.7676228305e+01   2.8210768627e+01    0.2028888   0.07572911  46.11  0.000808254    2.397    0.583
        66 -10.5743     10.9942    188.7209   7.5176565691e+01   3.1991959796e+01    0.3998714     0.172611  66.03  0.001764471    2.276    0.561
        67 -10.8169      4.2209    188.5117   7.6971113896e+01   3.2558380279e+01    0.3035984    0.1555438  87.68  0.001512298    1.849    0.459
        68  -9.3298     74.9846    187.7404   5.7606274111e+01   2.5536959155e+01    0.1933011    0.1667733  37.27 0.0004772886    1.072    0.067
        69 -10.1027     16.4054    182.3504   7.3355395942e+01   3.3102461783e+01    0.4419972    0.1869238  66.48   0.00183851    2.475    0.596
        70 -10.2453     23.3024    180.3273   7.1293550697e+01   3.3011253599e+01    0.2908867    0.1281844  72.08  0.001173597    2.567    0.610
        71 -12.1375      7.6539    176.2770   7.5470486670e+01   3.5292546586e+01    0.7705965    0.2248399 -81.52  0.002815282    3.253    0.693
        72 -10.3886     19.8331    174.7771   7.1902804202e+01   3.4701194376e+01     0.332958    0.1426705 -71.02   0.00143957    2.205    0.547
        73 -10.2840     31.1967    172.8162   6.8438736754e+01   3.4170516504e+01    0.3027409    0.1059854 -85.21  0.001022285    3.463    0.711
        74 -10.0950      1.4905    164.9791   7.6692109387e+01   3.8574810015e+01    0.2056423   0.07994021  66.95 0.0008103381    2.553    0.608
        75 -10.2428     16.6352    163.8348   7.2089668459e+01   3.7766405422e+01    0.2025581    0.1146396  83.30  0.000948223    1.733    0.423
        76 -11.5118      7.0268    146.8407   7.3946164326e+01   4.2956436979e+01    0.3756955    0.2200811  71.75  0.001815422    1.636    0.389
        77 -10.5403     21.0096    142.2784   6.8897347321e+01   4.3144428058e+01    0.4314778    0.1806984 -89.15  0.001599321    2.630    0.620
        78  -9.4633    238.2972    140.9638   1.4427253277e+01   1.0236181493e+01    0.2041531    0.1151011   1.95 0.0009093997    3.503    0.714
        79 -10.8266     10.2331    136.8776   7.2130858327e+01   4.5428494579e+01    0.5331505    0.2646608 -82.48  0.002341956    1.860    0.462
        80 -11.0419      6.6124    126.7950   7.2600089216e+01   4.8416769757e+01    0.3505228    0.2519044  88.89  0.001850167    1.269    0.212
        81  -9.1917    239.2984    117.3135   9.6610734585e+00   1.3566515565e+01    0.1162853   0.08189949 -12.85 0.0004332934    1.605    0.377
        82 -10.5943     10.4197    112.8411   6.9813801669e+01   5.2024095001e+01    0.5748744     0.249313  79.95  0.002115143    2.766    0.638
        83  -9.6744     21.6811    106.3301   6.4336078910e+01   5.3002801955e+01    0.1548091    0.1010215  61.55  0.000481582    1.688    0.408
        84  -9.3367    233.9791    102.7678   7.3306190179e+00   1.6500957215e+01    0.1304982    0.1041694  54.47 0.0004748554    1.603    0.376
        85 -10.1119     13.8563    100.7715   6.6900347557e+01   5.5128926901e+01    0.4588363    0.1473595 -57.31   0.00166182    2.557    0.609
        86 -10.3410      2.7589     95.4637   7.1164329831e+01   5.7232515073e+01    0.4970788    0.2120103  80.59  0.001864743    2.764    0.638
        87 -10.0956     14.7466     86.5084   6.4309128785e+01   5.8961658699e+01    0.3625457    0.1694169  64.43  0.001308318    3.114    0.679
        88 -10.4903    247.4873     85.1478   2.2643403811e+00   1.6880895254e+01    0.1936595      0.12223 -74.78 0.0008657958    2.280    0.561
        89 -10.9692      4.4871     76.0509   6.7752549537e+01   6.2385424657e+01    0.6100556    0.2494719 -84.49  0.002325875    2.661    0.624
        90 -10.2959     13.0095     67.9901   6.1623463079e+01   6.3989030344e+01    0.5113258   0.01505388 -56.64  0.001375906    4.748    0.789
        91  -9.9106    235.4446     66.5389   3.5951949692e+02   2.1348983180e+01    0.1218735   0.09159065 -46.33 0.0001455373    1.035    0.034
        92 -11.1407      3.1966     62.6064   6.6138740217e+01   6.5962799642e+01    0.5401277    0.2150195 -84.96  0.001994205    3.051    0.672
        93 -10.5891     16.5876     51.3834   5.5113286552e+01   6.7859603975e+01     0.346142    0.1406363 -73.44  0.001219475    3.355    0.702
        94 -11.0156      3.3761     50.4508   6.3411253518e+01   6.9015603204e+01    0.4981933    0.1715577 -55.39  0.002049941    2.255    0.556
        95 -10.9645     12.7913     40.8264   5.4096072052e+01   7.0668765434e+01    0.4564616    0.1845517 -51.05  0.001968379    2.103    0.524
        96 -11.3943      1.4597     38.7915   6.1647359595e+01   7.1926454394e+01    0.5673395   0.08519093 -65.84    0.0016995    4.678    0.786
        97  -9.0136    152.5920     39.4583   2.0792049666e+00   4.2154357130e+01    0.1377592    0.1215022 -65.14 0.0001480714    1.023    0.022
        98 -10.0960    201.3316    249.0867   3.8353500134e+01  -7.3717655994e-01    0.2525804     0.123246  10.09  0.001462773    2.024    0.506
        99  -9.8545    151.7144    249.8198   4.7627740305e+01   4.3107686224e+00    0.2631212   0.07699174  22.91  0.001011479    3.648    0.726
       100 -10.5530     90.3656    247.9865   6.0237330151e+01   1.1448421056e+01    0.2404663    0.1730228  64.76  0.001513781    1.726    0.420
       101 -10.6780    231.5963     27.2169   3.5134092041e+02   2.6881817013e+01    0.1524872   0.09689576 -27.43 0.0005252446    1.599    0.375
       102 -10.8404     83.8168    247.5921   6.1632095699e+01   1.2237376909e+01    0.2444557    0.1871215  67.77  0.001610778    1.561    0.359
       103 -10.5306     76.7985    248.1821   6.3218987974e+01   1.2894921598e+01    0.3849293    0.1239086  43.93  0.001663033    2.794    0.642
       104  -9.7743     35.0325    248.2155   7.2365630510e+01   1.7122675965e+01    0.2066462    0.1260736  64.71  0.001277756    1.609    0.379
       105  -9.9403    145.3261    248.6673   4.8757174135e+01   5.1839780866e+00    0.1098257    0.0818719  45.80 0.0006105222    1.712    0.416
       106 -10.5092    127.7770    248.5372   5.2320390461e+01   7.1635817420e+00    0.2996841   0.08884044  30.56  0.001299621    2.638    0.621
       107 -11.2639    233.9853    244.1951   3.2335306944e+01  -3.1720178362e+00    0.2850918    0.1454772 -15.09  0.001582749    1.713    0.416
       108 -10.6226    218.9619    245.5074   3.4905214447e+01  -1.9702726970e+00    0.2130995    0.1097926 -20.56  0.001369033    1.707    0.414
       109 -11.3070     15.9317     19.1210   4.1652903506e+01   7.4909737079e+01    0.3282477    0.2219036 -57.35  0.001800749    1.757    0.431
       110 -11.4646    113.5208    239.3752   5.4325263936e+01   1.0304840814e+01    0.3116407    0.1879628  40.71  0.001571107    1.581    0.367
       111 -10.4757      4.2524    242.7520   7.8779320102e+01   2.0846267098e+01    0.3683805    0.1496531  64.19  0.001947967    2.205    0.546
