#   1 NUMBER                 Running object number                                     
#   2 MAG_AUTO               Kron-like elliptical aperture magnitude                    [mag]
#   3 X_IMAGE                Object position along x                                    [pixel]
#   4 Y_IMAGE                Object position along y                                    [pixel]
#   5 X_WORLD                Barycenter position along world x axis                     [deg]
#   6 Y_WORLD                Barycenter position along world y axis                     [deg]
#   7 A_WORLD                Profile RMS along major axis (world units)                 [deg]
#   8 B_WORLD                Profile RMS along minor axis (world units)                 [deg]
#   9 THETA_WORLD            Position angle (CCW/world-x)                               [deg]
#  10 FWHM_WORLD             FWHM assuming a gaussian core                              [deg]
#  11 ELONGATION             A_IMAGE/B_IMAGE                                           
#  12 ELLIPTICITY            1 - B_IMAGE/A_IMAGE                                       
         1 -16.2203     72.6973    193.3807   1.3467305323e+02   2.5716878755e+01     2.807804     1.959184  69.15   0.01525224    1.350    0.259
         2 -15.6100    136.7253     75.1005   9.2903865380e+01   4.0396954945e+01      2.61938     1.884187  22.24    0.0121103    1.727    0.421
         3 -13.8387     83.2629     49.8391   9.9619332918e+01   5.5383795543e+01     1.413423    0.7910898 -36.42  0.007081759    1.721    0.419
         4 -14.5884     69.2868     44.0893   1.0215051813e+02   5.8538000896e+01      1.65631     1.222302   2.18  0.009874818    1.355    0.262
         5 -13.8246     52.9928     46.4291   1.0866982645e+02   6.0435434598e+01     1.272386    0.6787971 -25.43  0.006478281    1.964    0.491
         6 -16.4737    137.3617    105.1662   1.0130141265e+02   3.4350924930e+01     3.995991      3.02024 -82.06   0.01794355    1.784    0.439
         7 -13.5207    193.3086      8.2324   6.3651615454e+01   3.5882752701e+01     1.221897    0.7881875  69.57  0.006810247    1.336    0.252
         8 -13.6496    164.8032      8.4937   6.7406140267e+01   4.2744563934e+01     1.337966    0.8734682  79.13  0.007233995    1.476    0.323
         9 -13.9499     13.1224      7.9104   1.0999476461e+02   7.0335007920e+01     1.022757    0.5374935 -11.41  0.006140582    1.903    0.474
        10 -12.8144     55.7836      5.4854   9.1510248681e+01   6.5522659903e+01    0.6531438    0.3765411  19.29  0.003902976    1.657    0.396
        11 -10.6561     73.7911    244.1378   1.3994791181e+02   1.5121314567e+01    0.2451046    0.1432778 -89.57  0.001422607    1.744    0.427
        12 -10.2473    140.0090    200.7221   1.2132125489e+02   1.2788373322e+01    0.2038003    0.1772739  57.45 0.0006701894    1.053    0.051
        13 -12.0345    189.4902    198.4834   1.1056597592e+02   3.7118257777e+00    0.3623084    0.3370447  77.30  0.002127643    1.244    0.196
        14 -10.5168    153.1436    199.2985   1.1828153041e+02   1.0585931972e+01     0.262682    0.1668686  39.35  0.001255209    1.517    0.341
        15 -14.7595     96.2175    192.7310   1.2953063822e+02   2.2246440122e+01     1.652816    0.8955323 -71.60   0.00756107    2.013    0.503
        16 -10.6442     38.6426    198.4684   1.4218677313e+02   2.9020199599e+01     0.206137   0.09572557 -72.35 0.0007950574    1.845    0.458
        17 -10.4894    108.9994    198.3180   1.2759196244e+02   1.8882340626e+01    0.2014363    0.1673351  56.94  0.001083077    1.116    0.104
        18 -11.9462    121.8682    209.6970   1.2656149945e+02   1.4247774962e+01    0.5293994    0.3009427 -51.65  0.002567147    1.926    0.481
        19 -10.6753    204.1924    195.7370   1.0709285620e+02   1.3932595778e+00    0.2848286    0.1946351 -26.30  0.001426072    1.618    0.382
        20 -11.7887    192.4131    191.9669   1.0872072270e+02   4.3444006535e+00    0.4228003    0.3373756 -34.30  0.002283683    1.310    0.237
        21 -10.5989    248.0148    192.0218   9.8145060639e+01  -5.8777180751e+00    0.1902514    0.1685659 -74.84  0.001139243    1.692    0.409
        22 -12.1348    145.7556    189.7517   1.1817875566e+02   1.3968096833e+01    0.5313263    0.2865448 -73.13  0.001843966    3.507    0.715
        23 -12.5441    140.1719    189.2480   1.1931137507e+02   1.5150645882e+01     0.476308    0.3554254 -53.31  0.001893374    1.402    0.287
        24 -10.9328    109.6622    209.0743   1.2901015202e+02   1.6487309281e+01    0.2389386    0.1683079  58.92  0.001044132    1.302    0.232
        25 -10.2061    122.6622    188.3005   1.2301470705e+02   1.8639429343e+01    0.1498236    0.1046134  74.15 0.0007035756    1.663    0.399
        26 -11.8317     41.8268    187.4120   1.4043546274e+02   3.1073788720e+01    0.2749284    0.1615318 -75.67  0.001335582    1.443    0.307
        27 -10.6901     38.4766    186.4899   1.4102725310e+02   3.1664676037e+01    0.2156883    0.1962798  52.19  0.001170666    1.368    0.269
        28 -11.8117    129.6732    184.3889   1.2077804805e+02   1.8193942223e+01    0.4618889     0.246094  51.09   0.00198072    1.861    0.463
        29 -12.4768    204.5692    185.8333   1.0505691469e+02   3.0983706804e+00    0.6168408    0.4654924 -31.45  0.003242229    1.359    0.264
        30 -11.2663     30.1807    213.9942   1.4513516010e+02   2.6709086023e+01    0.1996591    0.1454803  61.79  0.001387097    1.232    0.188
        31 -11.5711     10.1794    186.9800   1.4668490355e+02   3.4450088873e+01    0.4074444    0.2603841  78.24  0.002696822    1.297    0.229
        32 -10.9101    218.3952    205.4197   1.0619730916e+02  -2.8665310707e+00     0.295226    0.2464719  11.51  0.001754849    1.134    0.118
        33 -11.7614    131.3853    178.5407   1.1933971049e+02   1.9155438152e+01    0.4279155       0.3327 -12.19  0.001722733    1.944    0.486
        34 -11.5291    147.7626    178.6354   1.1566815352e+02   1.5934641140e+01    0.3143478    0.2064239 -61.35  0.001434276    1.696    0.410
        35 -11.2815    102.7050    177.5767   1.2572792586e+02   2.4578130936e+01    0.3043643    0.2357643 -13.79  0.001484241    2.109    0.526
        36 -10.7550    165.2102    176.9633   1.1148432435e+02   1.2761142321e+01    0.2748824    0.2129503 -25.77  0.001342983    1.543    0.352
        37 -12.3083     96.7783    173.7874   1.2646906432e+02   2.6446500044e+01    0.4549697    0.2522499 -54.39  0.002091651    1.768    0.434
        38 -10.5665    181.9521    173.5329   1.0717984062e+02   1.0012921631e+01    0.3700413    0.1943118 -56.16  0.001428847    2.409    0.585
        39 -10.8557    130.6660    203.5077   1.2376288539e+02   1.3942621661e+01    0.2374303    0.1292251 -55.61  0.001082613    1.957    0.489
        40 -11.3494    109.4432    173.5157   1.2348138358e+02   2.4337009809e+01     0.301621     0.208244  60.21 0.0009141765    1.493    0.330
        41 -11.4943    106.2448    170.4525   1.2369148101e+02   2.5604126050e+01    0.3219146    0.2493102  31.70  0.001665639    1.505    0.336
        42 -12.4442    145.4414    170.5743   1.1461590684e+02   1.8150433771e+01    0.4333417    0.4062074   4.40  0.002366767    1.227    0.185
        43 -12.5979    151.6187    167.5998   1.1261110299e+02   1.7544433279e+01    0.6603856    0.3780098  50.40   0.00279413    1.757    0.431
        44 -10.8190    170.9400    171.5099   1.0912359130e+02   1.2711318661e+01    0.2846164    0.2107471 -27.52 0.0009772449    1.591    0.371
        45 -12.1662    116.6020    171.1569   1.2139256814e+02   2.3587937199e+01    0.4297667     0.256174 -37.50  0.001815524    2.231    0.552
        46 -10.8965    215.7624    168.6568   9.9285266188e+01   4.0423745461e+00    0.3543662    0.2821846  70.18  0.001804771    1.644    0.392
        47 -11.3985    124.4496    169.1439   1.1918491557e+02   2.2583967460e+01    0.2956954    0.1863102  74.83  0.001201129    2.289    0.563
        48 -11.3963     50.1425    169.0533   1.3649305093e+02   3.4250463144e+01    0.1972151    0.1574185 -58.27 0.0009296567    1.310    0.237
        49 -11.4079    163.3209    164.5891   1.0935145462e+02   1.5761752097e+01    0.4235874    0.2576576  67.17  0.001636384    2.399    0.583
        50 -12.8434    150.1352    210.0464   1.2073182750e+02   9.0358391181e+00    0.6189664    0.4612299  55.58  0.003351473    1.279    0.218
        51 -11.6358     91.1233    163.8727   1.2613494939e+02   2.9682659073e+01    0.2302205    0.1790929  80.15 0.0007513121    1.324    0.245
        52 -10.7457    204.3843    160.8020   9.9820705692e+01   7.8509157054e+00    0.2165865    0.1371237 -30.11 0.0008627708    1.718    0.418
        53 -11.5441    180.8079    159.8752   1.0450572201e+02   1.3035906678e+01    0.3830593    0.3114489  23.89  0.001895779    1.372    0.271
        54 -11.2135     59.6377    159.5405   1.3297662277e+02   3.5280741990e+01    0.3521765    0.2240392 -81.69  0.001785012    1.549    0.355
        55 -10.5314    221.1175    159.5513   9.6292570696e+01   4.6491782739e+00    0.3023414    0.1901169 -21.82   0.00133087    1.915    0.478
        56 -10.5963    157.5076    159.0075   1.0946789041e+02   1.8190672217e+01      0.23709      0.15088 -48.46  0.001032296    1.590    0.371
        57 -12.0296     91.2094    158.2690   1.2513488032e+02   3.0987754969e+01    0.3788893    0.2164336  44.97  0.001748113    1.792    0.442
        58 -10.2747     51.2624    156.7926   1.3457060242e+02   3.6967224058e+01    0.2170867    0.1467649  88.71  0.001185116    1.482    0.325
        59 -12.9421    126.5920    152.0029   1.1524997431e+02   2.6098655903e+01    0.8158439    0.4556591 -27.22  0.002709487    3.544    0.718
        60 -12.5502    118.4141    153.6073   1.1757600485e+02   2.7301929002e+01    0.4789982     0.270475 -56.83  0.001799626    1.763    0.433
        61 -11.1070     18.4671    154.1342   1.4185242670e+02   4.0970922054e+01     0.452123    0.1778925 -78.30  0.002065466    2.345    0.573
        62 -10.6165    157.4185    153.7521   1.0834231609e+02   1.9356814010e+01    0.2164987    0.1464525 -36.21 0.0009443043    1.631    0.387
        63 -12.9941    104.8547    153.8662   1.2096112709e+02   2.9717997829e+01    0.7268013    0.2826889  42.58  0.002680947    2.604    0.616
        64 -13.5215    106.0601    148.2812   1.1955487772e+02   3.0817770896e+01    0.9231244    0.5203301  28.26  0.003743467    2.404    0.584
        65 -13.8138    105.1600    142.1709   1.1852614018e+02   3.2415430816e+01    0.9081938    0.6251744  38.34  0.004361584    1.561    0.359
        66 -11.1083     81.5157    146.0128   1.2532726413e+02   3.5414193136e+01    0.2627479    0.1889301  62.09 0.0008248782    1.527    0.345
        67 -11.7261     82.8261    141.6217   1.2416332598e+02   3.6255990382e+01    0.4206208    0.2763469 -25.02  0.001844124    2.433    0.589
        68 -11.2965     89.7816    144.6279   1.2295513380e+02   3.4447879446e+01    0.3300613    0.1780192  48.84  0.001440922    1.993    0.498
        69 -11.2512    118.8069    142.8741   1.1522135173e+02   2.9723184090e+01     0.225803    0.2117734 -34.56 0.0007308323    1.162    0.139
        70 -11.5200    175.3363    202.8021   1.1426106992e+02   5.6363643743e+00    0.3018282    0.1877282  33.47  0.001428158    1.637    0.389
        71 -11.0589    177.3818    139.0762   1.0050578743e+02   1.8129177440e+01    0.3358399    0.2761056 -42.78   0.00117529    1.209    0.173
        72 -12.5665    122.6793    238.1092   1.3027645632e+02   8.6132174700e+00    0.5244007    0.4423035 -42.15  0.003344787    1.562    0.360
        73 -12.1509    131.3766    137.9872   1.1099432923e+02   2.8359590888e+01    0.4490154    0.2839456 -74.76  0.001744341    2.330    0.571
        74  -9.4942    100.2979    133.3225   1.1789665953e+02   3.5350992753e+01     0.146476    0.1145068 -23.78 0.0005469917    1.623    0.384
        75 -11.2690    116.3462    138.0849   1.1479202457e+02   3.1306798874e+01    0.3242868    0.2370619 -25.92  0.001210183    1.795    0.443
        76 -11.6683    125.7955    129.3554   1.1038004368e+02   3.1462168457e+01    0.3258928    0.2790948  26.83  0.001602651    1.314    0.239
        77 -11.0090    232.6131    127.6136   8.7031589265e+01   8.1750548785e+00    0.4165919    0.3064897  86.62   0.00197166    1.922    0.480
        78  -9.9985    103.4816    128.4530   1.1597330336e+02   3.5925301780e+01    0.1477746    0.1392613 -63.82 8.765041e-05    1.007    0.007
        79  -9.6181     68.3851    122.7994   1.2429205784e+02   4.2783850354e+01    0.2020579    0.1110403 -49.17 0.0007788083    1.655    0.396
        80 -10.2969     97.4971    121.4973   1.1598310386e+02   3.8587453111e+01    0.2457459     0.146167  26.12  0.001028606    2.225    0.550
        81 -14.2682    185.9156    112.6176   9.2186902740e+01   2.1597804677e+01     1.561695     1.171189  34.41  0.007234647    1.518    0.341
        82 -11.9124    104.2898    116.3258   1.1289677060e+02   3.8565283204e+01    0.4522254    0.3276154 -65.06  0.002169364    1.495    0.331
        83 -10.6228    218.1898    117.4500   8.7179858603e+01   1.3199201210e+01    0.3041741    0.2454337  -1.24  0.001493754    1.582    0.368
        84 -10.4623    230.4120    116.2069   8.4767624595e+01   1.0731246004e+01    0.2187947    0.1261615 -48.31 0.0009516545    1.690    0.408
        85 -13.3325     44.6911    107.0206   1.2782468998e+02   4.9263636937e+01      2.15732     1.175479 -30.12   0.01001451    2.484    0.597
        86 -13.0580     49.6256     84.7003   1.2123307976e+02   5.3594630451e+01    0.7321876    0.3797134 -53.87  0.002694362    1.678    0.404
        87 -13.0177     17.6979     71.3941   1.2861942336e+02   5.9237157288e+01      1.51279    0.9815605 -26.91   0.00960872    1.548    0.354
        88 -10.8897    167.7351    118.3560   9.7554758172e+01   2.4686362419e+01    0.3373584    0.2146847 -34.77  0.001412536    1.680    0.405
        89 -11.7849    242.4964    108.4441   8.1028466394e+01   9.5274839003e+00    0.4245263    0.2721317 -51.76  0.002046198    1.524    0.344
        90 -11.0892    103.3339    107.6679   1.1098701288e+02   4.0678102115e+01    0.2385693    0.2129464  79.74  0.001283843    1.271    0.213
        91 -11.3807    100.8623    105.7094   1.1117146282e+02   4.1557376222e+01    0.3484431    0.1957135 -40.44  0.001495685    1.782    0.439
        92 -12.1090    210.8738     93.9590   8.2744466939e+01   1.9225127889e+01    0.5419076    0.4372535  77.99  0.002756717    1.333    0.250
        93 -11.6121    197.3494     94.2465   8.5245148842e+01   2.2397128675e+01    0.6274334    0.3765755 -50.33  0.002682773    1.702    0.413
        94 -12.0798    151.8097     91.8208   9.4125294846e+01   3.3786397932e+01    0.4607393    0.3603357 -67.46  0.002081201    1.499    0.333
        95 -13.9359    104.2605     86.0670   1.0481269016e+02   4.5076309354e+01     1.185586    0.9465562 -86.93  0.005918007    1.761    0.432
        96 -13.0391    104.3603     75.5120   1.0163829208e+02   4.7111190420e+01    0.8260502    0.4901406  37.08  0.003801609    1.760    0.432
        97 -13.5641    101.7172     68.7822   1.0030926603e+02   4.8853606802e+01     1.381726    0.8232885  28.48  0.006251582    1.963    0.491
        98 -12.1728     20.0296     93.0040   1.3244537523e+02   5.4562514388e+01      1.72523     0.794026 -66.61  0.008739997    1.932    0.482
        99 -10.3325    233.3098     79.0009   7.5579432641e+01   1.6604363087e+01    0.2122374    0.1793626 -50.58  0.001182572    1.092    0.084
       100 -10.5829    246.8200     77.9936   7.3489216638e+01   1.3764137931e+01    0.2400782    0.2002487  74.43  0.001375652    1.251    0.201
       101  -9.9835    210.6493     78.2988   7.8873353827e+01   2.2022789561e+01    0.1558547    0.1090612 -74.45 0.0003683146    1.690    0.408
       102 -12.5071    176.6849     64.7674   8.1253285992e+01   3.2597558444e+01     0.706372    0.5239934  81.60  0.003329204    1.515    0.340
       103 -10.0576    216.3908     72.7867   7.6596389895e+01   2.1571744578e+01    0.2029691    0.1388291 -27.10 0.0009540386    1.685    0.407
       104 -11.0659    165.7013     72.0359   8.5464446168e+01   3.4087692623e+01    0.3452162    0.2198603  74.49  0.001446233    1.987    0.497
       105 -11.0012    116.9098     69.3943   9.6254707851e+01   4.5723983776e+01    0.3358264    0.2137453  49.23  0.001455884    1.604    0.376
       106 -14.8803    149.9644    131.3906   1.0491377106e+02   2.5899602604e+01     1.733551     1.188269  36.10  0.007649798    1.600    0.375
       107 -12.4913    249.7836     56.9588   6.8453403212e+01   1.6400026753e+01     1.076094    0.1883248 -37.15  0.003161653    4.764    0.790
       108 -12.3487    249.5570     47.6903   6.6465282876e+01   1.7806686848e+01    0.7470456    0.2931719 -32.57  0.003035636    2.789    0.641
       109 -11.3818     84.8758    236.9432   1.3724758328e+02   1.4861208185e+01    0.2382841    0.1517565 -66.55  0.001421056    1.641    0.391
       110 -13.0307     13.3573    228.4374   1.4905199883e+02   2.5634966710e+01     0.653743    0.3916716  60.72  0.004566149    1.358    0.264
       111 -11.4752    205.8406    229.5488   1.1293134133e+02  -4.4716011979e+00    0.4267387    0.2343676  30.40  0.002123412    1.779    0.438
       112 -12.3431    176.6438     71.6444   8.3164628051e+01   3.1470515865e+01     0.523272    0.3233896 -61.20  0.002146238    2.032    0.508
       113 -11.4240    165.8492     59.9040   8.1969060491e+01   3.6042106869e+01    0.2843113    0.2526662 -81.17  0.001432564    1.183    0.155
       114 -13.6666     73.0481     58.1811   1.0573786170e+02   5.5641809068e+01    0.8432493     0.754877 -55.52  0.005285514    1.387    0.279
       115 -11.3785    127.6321     54.6157   8.8801641334e+01   4.5867667255e+01    0.3543622    0.2340555 -52.12  0.001669196    1.837    0.456
       116 -10.1467    213.9918     57.2006   7.3112533286e+01   2.4614943808e+01    0.1977107    0.1649148  -2.52  0.001047565    1.628    0.386
       117 -10.6867    226.1794     52.2621   7.0264101471e+01   2.2455516424e+01    0.2193573     0.170358  51.26  0.001200327    1.455    0.313
       118 -11.6846    123.2022    228.3011   1.2890432645e+02   1.0346646808e+01    0.2997233    0.2396203 -74.18   0.00182588    1.341    0.254
       119 -11.6718      4.5958     49.4379   1.2790812397e+02   6.4293139967e+01    0.4586408    0.2033531 -27.78  0.002507065    2.321    0.569
       120 -10.0917    205.4284     50.7622   7.2746027381e+01   2.7651507852e+01    0.1897669    0.1402288 -21.65 0.0009179551    1.664    0.399
       121 -11.5614    167.3312     45.0924   7.7429107403e+01   3.7868930834e+01    0.3636896    0.2793633  66.37  0.001916001    1.238    0.192
       122 -12.3645    127.0008     42.6606   8.5082056289e+01   4.7752434363e+01    0.4609525    0.3209735 -43.60  0.002374524    1.599    0.375
       123 -11.9882    122.8157     41.5019   8.5704560670e+01   4.8837209296e+01    0.3914093    0.3034193 -12.74  0.002146766    1.393    0.282
       124 -11.6395    114.2327     42.3328   8.8133409785e+01   5.0570335967e+01    0.4922136    0.2872112  49.73  0.002391935    1.633    0.387
       125 -10.4083    160.8060     35.0396   7.5691297683e+01   4.0799571971e+01    0.2647011    0.1906591  61.07  0.001156562    1.269    0.212
       126 -11.3467    153.6230     34.3148   7.6798324863e+01   4.2632289091e+01    0.3738625     0.236257  62.31  0.001845426    1.476    0.323
       127 -10.8676    126.8968     32.9690   8.1912806540e+01   4.9037854850e+01    0.2391489    0.1939801 -33.30  0.001371597    1.334    0.251
       128 -10.5184     99.2895     32.9895   8.8865696128e+01   5.4857867036e+01    0.2508569    0.1653865  24.75   0.00132481    1.570    0.363
       129  -9.7679     35.3121    231.3279   1.4557341848e+02   2.2630037697e+01   0.09890077   0.08256048 -61.02 0.0007042201    1.667    0.400
       130 -11.8145     55.4448    226.5688   1.4163006586e+02   2.1056597847e+01    0.3925304    0.2425549  58.34  0.002423352    1.364    0.267
       131 -11.4504    109.3025    215.6664   1.2999032369e+02   1.5190668579e+01    0.4376181    0.2959961  67.66  0.002360729    1.476    0.323
