#   1 NUMBER                 Running object number                                     
#   2 MAG_AUTO               Kron-like elliptical aperture magnitude                    [mag]
#   3 X_IMAGE                Object position along x                                    [pixel]
#   4 Y_IMAGE                Object position along y                                    [pixel]
#   5 X_WORLD                Barycenter position along world x axis                     [deg]
#   6 Y_WORLD                Barycenter position along world y axis                     [deg]
#   7 A_WORLD                Profile RMS along major axis (world units)                 [deg]
#   8 B_WORLD                Profile RMS along minor axis (world units)                 [deg]
#   9 THETA_WORLD            Position angle (CCW/world-x)                               [deg]
#  10 FWHM_WORLD             FWHM assuming a gaussian core                              [deg]
#  11 ELONGATION             A_IMAGE/B_IMAGE                                           
#  12 ELLIPTICITY            1 - B_IMAGE/A_IMAGE                                       
         1 -14.4756    176.1746     76.5341   6.6008459145e+01   3.0372176290e+01     6.473006     3.778426 -74.46   0.00797265    3.544    0.718
         2 -13.4882    119.2708      9.9043   5.5435571812e+01   5.3948140670e+01     4.547707     2.967532 -58.27   0.02197019    2.149    0.535
         3  -9.3071    214.0048     18.9350   4.3934566554e+01   2.9122563497e+01    0.8565935    0.6244221   7.38  0.002298613    1.965    0.491
         4 -13.2286    248.0172     59.4758   5.0256855978e+01   1.5782495303e+01     2.965283    0.8102167 -32.59   0.01003232    3.282    0.695
         5 -14.4577    215.4161     73.1108   5.8106706103e+01   2.1244375215e+01     10.72989     3.890674 -51.64   0.03154317    4.021    0.751
         6 -12.8496    248.9532      4.9604   3.7514162098e+01   2.2483153312e+01     1.075133    0.5070278 -10.18  0.003846427    4.813    0.792
         7 -10.2376    111.9599     29.8882   6.5043772489e+01   5.3352346900e+01    0.3955448    0.1446314  43.17  0.001436169    2.717    0.632
         8  -9.5744    231.8979     17.1889   4.1731777831e+01   2.5012838615e+01    0.5760393    0.2493764 -22.88  0.002390845    2.781    0.640
         9 -10.4786    207.8219     13.0762   4.3049500307e+01   3.1308742891e+01    0.3314838    0.2185659 -49.99  0.001394273    1.456    0.313
        10 -15.3129    238.7975     38.4497   4.6209903093e+01   2.0769939567e+01     3.988207     2.210134  56.94   0.01935242    1.928    0.481
        11  -7.8825    234.5233      9.8307   3.9742550582e+01   2.5227665235e+01    0.1602521    0.1183039 -38.95 0.0003028427    1.311    0.237
        12  -4.8984    233.1637      5.6030   3.8856647441e+01   2.6000656133e+01    0.1735662    0.1456515 -59.35 8.068065e-05    1.074    0.069
        13  -8.3836    236.5099      2.9676   3.7980568287e+01   2.5504496696e+01    0.2564164    0.1585751  71.85 0.0009684362    1.556    0.357
        14  -8.6813    179.6784      5.7139   4.4159381193e+01   3.9184556157e+01    0.2551617    0.1734296   6.16  0.001270453    1.980    0.495
        15  -9.1968    138.0918      2.4286   4.9030077162e+01   5.0047873017e+01    0.2701802    0.2259933  11.33  0.001204765    1.292    0.226
        16 -11.6683     39.6728    160.9370   1.1925036352e+02   3.6856896390e+01    0.4305999    0.3928661 -83.47  0.001318228    1.212    0.175
        17 -10.1397    187.8286    181.4962   8.9160418042e+01   7.9382568957e+00    0.2423039    0.2242075  -4.23 0.0003559801    1.087    0.080
        18  -8.1708    140.1602    182.1804   9.9347121211e+01   1.6885698507e+01    0.1909637     0.176645  30.61  0.000291272    1.132    0.116
        19  -9.5756    245.2228    179.9012   7.8100380071e+01  -2.2376415856e+00    0.3476015    0.2412346  54.61  0.001411185    2.006    0.502
        20  -8.8401     73.0866    179.1054   1.1381012199e+02   2.8615713321e+01    0.1851383    0.1602598  76.17 0.0003786539    1.045    0.043
        21  -9.4702    221.3094    177.0740   8.1793935544e+01   2.3802496212e+00    0.3806497    0.2891654 -89.06  0.001796895    2.720    0.632
        22  -9.5147    219.9933    185.0861   8.3632663166e+01   1.3769173110e+00    0.2035799    0.1712787   9.38 0.0003165092    1.057    0.054
        23  -9.0721    235.4384    174.2479   7.8661665735e+01   2.7400705619e-01    0.2099233    0.1681002  61.89 0.0008116061    1.799    0.444
        24 -11.4335     20.7144    161.9172   1.2361582437e+02   3.8524306197e+01    0.3901894    0.2950302  72.76  0.002539126    1.155    0.134
        25 -11.4880     22.8780    168.1564   1.2368306650e+02   3.6939680923e+01      0.34399    0.2984843 -74.72  0.002431311    1.280    0.219
        26  -8.1669    220.4766    171.0454   8.0715365355e+01   3.4897079378e+00    0.2045049    0.1294966 -32.81  0.001021964    1.561    0.359
        27 -10.3088    230.3876    166.2375   7.7902239068e+01   2.4151501680e+00    0.3861488    0.2378584 -22.78  0.001908999    1.653    0.395
        28  -8.5134    236.7172    249.6563   9.1867532159e+01  -9.6096673747e+00    0.1151825   0.06917007  10.13 0.0007014448    1.638    0.389
        29 -11.4944    195.0129     77.3399   6.2662246944e+01   2.5533976646e+01     1.142005    0.4104832  45.08  0.003624796    3.234    0.691
        30  -7.9150     42.2236    246.9817   1.2563539273e+02   1.9250948684e+01    0.1256923   0.07326341 -84.08 0.0004388352    1.615    0.381
        31  -7.6785    193.6929    163.3023   8.4289388937e+01   1.0013961014e+01    0.1370593    0.1170492  89.26 0.0001881246    1.600    0.375
        32  -8.1363    203.5043    160.5515   8.1745116817e+01   8.5344458090e+00    0.1428273     0.132963   9.82 8.749947e-05    1.022    0.022
        33  -9.5039    249.5042    158.5368   7.2967594807e+01   1.4886436568e-01    0.2525052    0.2304075 -17.36 0.0008493878    1.168    0.144
        34  -9.7269    246.3209    157.6626   7.3313337763e+01   8.4542888735e-01    0.2576496    0.1919435 -47.07   0.00135708    1.611    0.379
        35  -8.0672    198.5140    152.5422   8.0986083614e+01   1.0978822479e+01    0.1462518    0.1369337   7.22 -7.509357e-08    1.004    0.004
        36  -9.1816    134.1095    147.9135   9.4221693906e+01   2.5270262532e+01    0.3675368    0.2069124 -60.57  0.001357999    2.075    0.518
        37  -7.9706    141.2819    147.6647   9.2457294768e+01   2.3889239050e+01    0.1512953    0.1180687  88.81 0.0004733064    1.618    0.382
        38  -8.5175    184.5035    246.4848   1.0047867855e+02  -1.4088133653e+00    0.1203491   0.09323367  30.79 0.0001299855    1.040    0.038
        39  -7.8749    192.2750    143.9687   8.0314160100e+01   1.3874070434e+01    0.2022119    0.1879293 -21.07 0.0003645427    1.057    0.054
        40  -8.3349    149.5753    146.7372   9.0308508430e+01   2.2390744397e+01    0.2105004    0.1444995 -59.13 0.0009437622    1.635    0.388
        41  -9.4706    130.8349    133.5824   9.1895153349e+01   2.9108981296e+01    0.5103108    0.3044546 -81.27  0.001664885    3.611    0.723
        42  -8.8682    165.0172    138.2054   8.4836837719e+01   2.0900132313e+01    0.3014081    0.2165354  27.77   0.00136529    1.590    0.371
        43  -9.6891    211.6619    136.3461   7.4723630929e+01   1.1141597829e+01    0.3093857    0.2090907   7.15   0.00134208    2.051    0.513
        44  -9.2296    194.4323    134.2007   7.7588826832e+01   1.5247465404e+01    0.2095758    0.1399017 -49.35 0.0008410619    1.622    0.383
        45 -10.5197    203.5737    128.3836   7.4378192530e+01   1.4324084916e+01    0.4096928    0.2771599 -19.30  0.001834015    1.705    0.413
        46  -9.9638    161.0138    128.8620   8.3520936484e+01   2.3712991112e+01    0.3775473    0.3066991  79.16  0.001793116    1.517    0.341
        47  -9.7460    135.9036    126.4593   8.8963234964e+01   2.9654178360e+01    0.5401651    0.1887633 -54.73  0.001550204    3.770    0.735
        48 -11.8666    185.4190    122.4237   7.6566123610e+01   1.9514911385e+01    0.9382397     0.536728 -31.94  0.003823368    1.855    0.461
        49  -9.1252    219.1594    123.7131   7.0338445788e+01   1.1769309767e+01    0.2246031    0.1912812  81.79  0.001113342    1.499    0.333
        50  -9.2477    205.4381    122.3515   7.2548154778e+01   1.5015611732e+01    0.2806629    0.1904688 -35.36 0.0008890246    1.420    0.296
        51  -9.8700    162.6080    120.3489   8.1037397352e+01   2.5124868955e+01    0.4762991     0.298965 -62.57  0.001452393    2.157    0.536
        52  -8.9639    130.2268    117.5763   8.8222902119e+01   3.2813546040e+01    0.2855537    0.1857881 -58.57 0.0006807183    1.684    0.406
        53 -10.0862    120.7391    242.7820   1.1161446052e+02   9.2077308752e+00    0.2014202    0.1793393  57.72 0.0005404659    1.148    0.129
        54  -8.4016    153.6187    114.8135   8.1713421662e+01   2.8313649120e+01    0.2135462    0.1902853 -47.84 0.0005106911    1.118    0.106
        55  -9.4724    168.0602    113.7005   7.8088737974e+01   2.5236585014e+01    0.3675387     0.258594 -83.32  0.001340689    2.266    0.559
        56  -9.8156    134.8312    109.2289   8.4885021859e+01   3.3673317429e+01    0.8988557    0.1521414 -44.26  0.001996491    5.830    0.828
        57  -7.8476     97.3819    112.1876   9.5796199889e+01   4.0381526086e+01    0.2110282     0.134795 -63.88 0.0004651125    1.678    0.404
        58 -10.9907    124.4767    108.9677   8.7519165884e+01   3.5923715095e+01    0.5700477    0.5519296  50.84  0.002076552    1.060    0.057
        59  -8.9880    116.1447    110.7983   9.0233441375e+01   3.7199708624e+01    0.2044841    0.1796054  -1.12  0.000226833    1.338    0.252
        60  -8.3434    141.3153    106.8203   8.2597800364e+01   3.2769584704e+01    0.4092375    0.1367624 -35.64  0.001095267    4.092    0.756
        61  -7.8336    123.4484    228.4946   1.0948085164e+02   1.1147724931e+01     0.124037    0.1016086  53.40 0.0002248151    1.005    0.005
        62  -9.1144    148.5966    101.7605   7.9416928300e+01   3.2187112588e+01    0.3091401    0.2824059   9.08 0.0007361282    1.188    0.158
        63 -12.0734     46.7084    156.9587   1.1715650160e+02   3.6986164299e+01     0.795352    0.6144727  86.63  0.002917591    1.114    0.103
        64 -10.2590    165.3750     96.1935   7.3948132212e+01   2.9361765287e+01    0.7712985    0.5446988  71.84  0.002064156    1.796    0.443
        65 -10.2380    158.8951     96.5240   7.5511979860e+01   3.0843436717e+01    0.5694271    0.3291578  34.34  0.002186505    2.118    0.528
        66  -9.6650    120.5086     97.9518   8.5608102982e+01   3.9169777958e+01     0.365703    0.1450925 -50.95  0.001211165    2.703    0.630
        67  -8.3109    232.1759    217.8416   8.7471088082e+01  -5.2435129700e+00    0.1662093      0.14371  17.17 0.0003283014    1.179    0.152
        68  -9.1815    134.8426     98.1110   8.1842332520e+01   3.6057760920e+01    0.3259065     0.246376  68.19  0.001162148    1.602    0.376
        69  -9.6155    142.0685     92.0817   7.8280899660e+01   3.5678470082e+01    0.3162941    0.3058487 -49.98 0.0009840243    1.036    0.035
        70 -10.4526    174.6958     88.1487   6.9658371441e+01   2.8634494103e+01    0.6153532    0.4540043  26.82  0.002038595    1.638    0.389
        71  -7.9671     98.2617     91.3446   9.0117627849e+01   4.4972237440e+01    0.1883296    0.1389045  49.29 0.0003897738    1.485    0.326
        72 -10.9431    156.8891     87.3052   7.3327055583e+01   3.3132496901e+01    0.3673003    0.2931683 -31.64 0.0005815037    1.269    0.212
        73  -9.4541    209.2800     86.5234   6.2660076821e+01   2.0496758040e+01    0.4191218    0.2466056 -54.73 0.0007020799    1.980    0.495
        74 -10.0127      7.2040     82.6574   1.1782218439e+02   5.7677990506e+01    0.2821608    0.1719888  37.60  0.001447545    2.038    0.509
        75  -9.8870    108.3832     76.0161   8.2524165418e+01   4.6280981979e+01    0.4876443    0.2128947  31.70  0.001571421    3.444    0.710
        76 -10.6864    131.2792     74.6287   7.5739858283e+01   4.1612310027e+01    0.4612866    0.3559607  -9.58  0.002152172    1.554    0.356
        77  -9.8105    122.0094     73.9478   7.7999573604e+01   4.3819091650e+01    0.2968399    0.2201202 -31.22 0.0004154594    1.358    0.264
        78 -10.2272    113.7275     70.4261   7.9177102074e+01   4.6285185339e+01    0.2664547      0.25134 -24.94 0.0002417553    1.022    0.021
        79 -12.8342    237.4185     69.7599   5.4086425725e+01   1.6628450918e+01     1.644543    0.5783588 -44.71  0.001270063    2.685    0.628
        80  -8.6456    195.6410     63.0891   5.8551580879e+01   2.7716402512e+01    0.2712963    0.1945922 -58.51 0.0004515792    1.509    0.337
        81 -13.2457    209.7273    107.1232   6.7935498254e+01   1.6794878442e+01     3.777657     1.851381  65.47  0.006221212    3.090    0.676
        82  -8.9066    208.3331    165.0992   8.1773073780e+01   6.7932982707e+00    0.2359906    0.1950472  45.41 0.0003347287    1.270    0.213
        83  -8.1427     73.4285    163.7405   1.1170759320e+02   3.2015647866e+01    0.1668434    0.1160118 -58.29 0.0002833402    1.436    0.303
        84 -12.7821    225.6227     61.5044   5.3588060667e+01   2.0607342059e+01     1.068645    0.6190846  50.60  0.002001245    1.876    0.467
        85  -9.2034    198.3112     34.2220   4.9972356058e+01   3.1194793460e+01     0.249287      0.20103 -41.69 0.0005732164    1.224    0.183
        86 -10.7444    144.5588     28.5072   5.7044853151e+01   4.5719528578e+01    0.4607077    0.2415695 -29.56  0.001436193    1.965    0.491
        87  -8.7711    230.4399    200.0555   8.4587718788e+01  -2.6038220162e+00    0.2271104    0.2077743 -75.11  0.001441075    1.760    0.432
        88 -11.6368     53.1263    153.3624   1.1516893378e+02   3.7067093165e+01    0.6896872    0.4144551 -83.02  0.001662527    1.602    0.376
        89  -8.0578    177.8651     25.6795   5.0383863527e+01   3.7513701621e+01    0.1950456    0.1633955  67.80 0.0004051368    1.125    0.111
        90  -9.1466     57.0652     24.6444   8.0862140095e+01   6.4496975132e+01     0.338794    0.1569799 -37.45  0.001482254    1.996    0.499
        91  -9.3318    192.4119    193.5373   9.0515878366e+01   5.0470663989e+00    0.6725169    0.3544064 -63.65  0.001981169    6.537    0.847
        92  -8.5585    171.3456     19.3918   4.9420691755e+01   3.9922345734e+01    0.2202177    0.1717007  -6.95 0.0006315335    1.510    0.338
        93  -8.5130    202.5547     18.3419   4.5039803266e+01   3.2043338474e+01    0.3366744    0.2035144 -71.25  0.001575743    1.845    0.458
        94  -7.3550    206.4955     18.4991   4.4636256369e+01   3.1036638665e+01    0.1372693      0.12438 -81.93 0.0008106477    1.013    0.012
        95 -10.4123    249.7410    192.6636   7.9829244159e+01  -4.7325818513e+00    0.2777574    0.1902089 -16.29 0.0004808859    1.343    0.255
        96  -8.8883    218.6434    194.8840   8.5763737866e+01   1.3992924226e-01    0.2617466    0.1653455  41.72  0.001078103    1.525    0.344
        97  -8.1906    227.2424    193.3439   8.3900559484e+01  -1.1170430739e+00    0.1788252    0.1129175  45.97 0.0009404751    1.702    0.412
        98 -11.7326     67.5234    144.5707   1.1031817510e+02   3.7297146339e+01     1.236911     1.093952  29.07  0.006059555    1.366    0.268
        99  -9.3493    219.5979    189.9888   8.4656859829e+01   7.0319867099e-01    0.2789014    0.1743301  31.88  0.001101527    1.487    0.328
       100  -8.7446    249.0480    185.5023   7.8557671072e+01  -3.6524076626e+00    0.1959833    0.1567138 -13.01  0.001231836    1.117    0.104
       101 -11.8586      6.4526    181.1696   1.2800210985e+02   3.5618832883e+01    0.6748612    0.3281961  42.49   0.00321994    1.981    0.495
       102 -12.3962      7.0110    174.9863   1.2749516720e+02   3.6877124790e+01    0.7399549     0.467533  46.19  0.004416554    1.591    0.372
