#   1 NUMBER                 Running object number                                     
#   2 MAG_AUTO               Kron-like elliptical aperture magnitude                    [mag]
#   3 X_IMAGE                Object position along x                                    [pixel]
#   4 Y_IMAGE                Object position along y                                    [pixel]
#   5 X_WORLD                Barycenter position along world x axis                     [deg]
#   6 Y_WORLD                Barycenter position along world y axis                     [deg]
#   7 A_WORLD                Profile RMS along major axis (world units)                 [deg]
#   8 B_WORLD                Profile RMS along minor axis (world units)                 [deg]
#   9 THETA_WORLD            Position angle (CCW/world-x)                               [deg]
#  10 FWHM_WORLD             FWHM assuming a gaussian core                              [deg]
#  11 ELONGATION             A_IMAGE/B_IMAGE                                           
#  12 ELLIPTICITY            1 - B_IMAGE/A_IMAGE                                       
         1 -16.5556    127.4645    100.6544   9.6032593318e+01   3.7412875664e+01     5.558681     2.739929 -37.49   0.02137775    2.152    0.535
         2 -15.8263    198.7562     73.0277   7.1969134895e+01   2.5747483965e+01     2.625266     2.074532  12.77  0.007385797    1.386    0.278
         3 -18.8002    199.7195    116.8143   8.3425209629e+01   1.8628203082e+01     8.530689     6.534682  16.04   0.04340011    1.338    0.253
         4 -12.1215    189.7563     26.9781   5.9799638813e+01   3.4086593595e+01    0.6652128    0.2681361  44.20  0.002406024    2.773    0.639
         5 -11.4838    226.1395     23.3952   5.4516373440e+01   2.5436489819e+01    0.4233239    0.3168462 -61.88  0.002363649    1.361    0.265
         6  -9.9528    219.0403     11.6830   5.2101481242e+01   2.8317414091e+01    0.1809253    0.1614558  79.27 0.0003993877    1.109    0.098
         7 -10.0069    215.0817     12.0773   5.2579620494e+01   2.9241124397e+01     0.194485    0.1830357 -65.47 0.0003964057    1.008    0.008
         8 -10.4262    227.6371      1.8642   4.8827021192e+01   2.7182441434e+01    0.2162935    0.1719526 -86.09 0.0004308137    1.215    0.177
         9  -9.5051    141.8968      3.0000   5.8901958636e+01   4.9073600331e+01    0.2374699   0.07557373  67.16 0.0007944149    2.887    0.654
        10  -9.2404    131.3570      2.2530   6.0460773494e+01   5.1890494017e+01    0.1543164   0.08997199  40.85 0.0006957797    1.608    0.378
        11  -9.2020    217.5165      1.5311   4.9541490321e+01   2.9621715808e+01    0.1286842    0.1196474 -75.04 0.0001242839    1.017    0.017
        12  -9.4379    167.1832      1.5538   5.4700053723e+01   4.2492591469e+01    0.2105815    0.1112138  56.31 0.0009391494    1.687    0.407
        13  -9.2121      7.3314    231.6344   1.4102639880e+02   2.6751899944e+01    0.1096527   0.04442276  59.73 0.0007035502    1.817    0.449
        14 -12.4879    212.8383    249.2586   1.0584701660e+02  -1.7314773964e+00    0.8815438    0.1382614  39.81  0.002990465    5.139    0.805
        15 -13.3554    239.3009    246.4096   1.0102615392e+02  -4.9953473802e+00    0.8885735    0.4056754  22.56   0.00522624    1.826    0.452
        16 -13.4102    232.6432    244.7204   1.0187781234e+02  -3.9618543660e+00    0.9771972    0.4155726  19.45   0.00497831    2.547    0.607
        17 -10.6724    149.4381    227.2426   1.1443855012e+02   1.0147569687e+01    0.2330133    0.1563087  21.14 0.0008827771    1.523    0.343
        18  -9.4919     29.8530    228.1699   1.3704840955e+02   2.5264462898e+01    0.1200498    0.1061663  63.49 0.0003370844    1.285    0.222
        19 -10.1541    199.2919    227.3172   1.0511707925e+02   2.6037548572e+00    0.1887471    0.1288815  21.50 0.0003893337    1.166    0.143
        20 -11.0926    202.9458    225.5305   1.0419080646e+02   2.2689797176e+00    0.2849917    0.1873324  25.94  0.001162801    1.161    0.138
        21  -9.8231    159.6321    227.1858   1.1248308921e+02   8.6182846427e+00     0.141074    0.1077265 -20.93  0.000368389    1.625    0.385
        22 -10.2085    220.4947    225.9637   1.0114002940e+02  -3.6301593673e-01    0.2377014    0.1227428  24.36 0.0008071962    1.626    0.385
        23 -13.8170    177.0126    221.7764   1.0843989183e+02   6.6876615179e+00     0.609391    0.3768048  40.29  0.001694815    1.366    0.268
        24 -10.8338    169.5471    224.8161   1.1028102257e+02   7.4302772289e+00     0.318596    0.1350407  42.54  0.001288182    1.973    0.493
        25 -10.7667    233.5827    221.0544   9.8105577701e+01  -1.7144598791e+00    0.2984861     0.153108  30.17  0.000750122    1.526    0.345
        26 -11.4994    143.2315    215.8145   1.1418920929e+02   1.2772026881e+01    0.2360934    0.2037019  31.50 0.0005209582    1.086    0.079
        27 -11.5117    124.2575    215.4843   1.1794340279e+02   1.5695390461e+01     0.253611    0.2015588  61.38 0.0009756116    1.326    0.246
        28 -10.4035     59.4131    216.0163   1.3087462924e+02   2.4216617297e+01    0.2033039    0.1724157  59.31  0.001574134    1.113    0.101
        29 -11.3242    235.6539    214.7806   9.6727377488e+01  -1.3399766215e+00    0.3046854    0.1835149  23.95  0.001099667    1.294    0.227
        30 -10.5836     91.3389    214.6184   1.2446496271e+02   2.0493089528e+01    0.2053408    0.1701812  38.81  0.000270851    1.165    0.142
        31  -9.4374      1.4765    214.5396   1.4147735145e+02   3.0111589958e+01   0.09863235   0.07139236  65.93 4.781619e-05    1.022    0.021
        32  -9.6112    132.2348    246.4085   1.1983539100e+02   9.9761416673e+00    0.1622318   0.07787728  44.38 0.0004254377    1.619    0.382
        33 -14.4913    220.1795    175.2184   9.2369023953e+01   5.8936517978e+00    0.7723039    0.5321792 -39.61  0.002956044    1.795    0.443
        34  -9.1129     51.5327    245.4921   1.3416511840e+02   2.0241768800e+01    0.1021995   0.07403691  55.09 9.554757e-06    1.012    0.012
        35 -15.6839    199.0550    161.4196   9.3645639574e+01   1.1650167834e+01     3.223138     1.764758 -12.69   0.01343405    2.620    0.618
        36 -14.8243    181.8226     92.6861   8.0711410449e+01   2.6662366409e+01     1.119722    0.8276588  39.73   0.00378061    1.330    0.248
        37 -15.3172    205.1611     93.6543   7.6463264585e+01   2.1108604611e+01     1.423082      1.01338 -29.99  0.005480628    1.350    0.259
        38 -15.2735    181.1279    138.5598   9.2418968791e+01   1.8877611167e+01     1.557505    0.8297655  49.93  0.006583145    2.010    0.503
        39 -15.7905    222.5080    138.2851   8.4209573996e+01   1.0679115163e+01     1.324486    0.8316532  45.04  0.006679659    1.646    0.392
        40 -12.0183    214.4226    243.4914   1.0477791669e+02  -1.3628104973e+00    0.2919376    0.1714324  36.10  0.001469037    1.400    0.286
        41 -10.9683    184.4892    211.0788   1.0542203604e+02   6.9470712197e+00    0.2312235    0.1510388  44.96  0.001346118    1.532    0.347
        42 -10.9080     80.3598    148.5520   1.1901643332e+02   3.5001544289e+01    0.2865986    0.2089757 -73.37 0.0007955692    1.408    0.290
        43 -10.2780    220.7700    206.7254   9.7979945601e+01   1.7934342758e+00     0.236297    0.1742013 -18.71  0.001546299    1.410    0.291
        44 -11.4506    176.0543    195.4778   1.0458103876e+02   1.0548739634e+01    0.2503901    0.2219774  43.11 0.0008149849    1.278    0.218
        45 -11.3092    227.4629    191.2298   9.4064407692e+01   2.6268081155e+00    0.3805475    0.2365618  10.55  0.000987209    1.553    0.356
        46 -11.7134    247.2885    138.0419   7.9941226604e+01   6.1423733266e+00    0.3406605    0.2307391  30.53 0.0004143051    1.426    0.299
        47 -10.3283    250.3577    134.7351   7.8729947965e+01   6.0344652830e+00    0.2131087    0.1388671 -24.92 0.0005324862    1.372    0.271
        48 -12.6066    110.9061    132.7209   1.0813619498e+02   3.3706752690e+01    0.5513183    0.3762473  28.09  0.002671744    1.572    0.364
        49  -9.4887     57.4861    133.4697   1.2294724412e+02   4.1306202979e+01    0.1278872    0.1165521 -88.94 0.0003715906    1.006    0.006
        50  -9.1890    233.5295    192.4881   9.3224294385e+01   1.5186857806e+00    0.1270154   0.09628756  11.69 0.0001137184    1.010    0.010
        51 -12.5904    128.6511    189.0583   1.1353507723e+02   1.9493097403e+01    0.3713371    0.3147941  87.86  0.001950289    1.445    0.308
        52 -12.1929     99.4013    128.7361   1.1046077259e+02   3.6526616822e+01    0.4526078     0.225212 -52.84  0.001452203    2.008    0.502
        53 -12.2050    103.0433    127.0195   1.0910750989e+02   3.6302281907e+01    0.4117873    0.3034109  83.93   0.00125861    1.836    0.455
        54 -11.3474     87.2076    128.6485   1.1384162573e+02   3.8463107765e+01    0.3058167     0.241514  -4.38  0.001610068    1.655    0.396
        55 -11.4313    247.3229    187.2807   8.9908236500e+01   7.3893628524e-03    0.2154456    0.1573559  17.43 0.0002740677    1.105    0.095
        56 -12.0683    248.6726    184.1213   8.9092040275e+01   1.6736624205e-01    0.3378413     0.196172  32.48 0.0007228515    1.527    0.345
        57  -9.4715     31.3068    119.6611   1.2854821828e+02   4.7114231090e+01    0.1299298   0.08241031  69.12 0.0007042064    1.680    0.405
        58 -11.3272     69.2771    116.3843   1.1677579297e+02   4.3812334349e+01     0.373063     0.181501  49.63  0.001585179    2.378    0.579
        59 -11.5955     90.4332    110.3080   1.0916309535e+02   4.2136086688e+01    0.4169114    0.2841579  78.88  0.001183785    2.238    0.553
        60 -12.6099     84.7827    104.1894   1.0950683029e+02   4.4424250950e+01    0.5388734    0.3363281  61.51  0.001626659    2.225    0.550
        61 -10.0718     89.7847    206.2173   1.2394538839e+02   2.2169601644e+01    0.1456633    0.1320648  20.73 0.0003802175    1.323    0.244
        62 -11.5582    118.1052    190.7680   1.1607810776e+02   2.0853275091e+01     0.339477    0.2494398 -58.18 0.0009792541    1.577    0.366
        63 -11.1941     93.8035    101.0907   1.0597857680e+02   4.3671343707e+01    0.2818792    0.1956443   0.66  0.001243766    2.106    0.525
        64  -9.7477     17.0006     96.9923   1.3013121488e+02   5.3454917710e+01     0.147253    0.1213459 -73.85 0.0003654519    1.004    0.004
        65 -11.6657     98.5142     91.9858   1.0216686684e+02   4.4881311016e+01    0.3241243    0.2344398  -0.21  0.001343915    1.868    0.465
        66 -12.7105    103.0469     92.5224   1.0091014818e+02   4.3940499647e+01    0.5241753    0.3487517 -29.97  0.002210733    1.696    0.410
        67 -10.0669    168.8312    210.1301   1.0831938566e+02   9.5844529928e+00    0.2276566     0.149477  29.88  0.000732367    1.265    0.209
        68 -12.0913     87.7361     88.5155   1.0467394654e+02   4.7505949897e+01    0.4101056    0.3038476 -41.50  0.001141002    1.301    0.232
        69 -10.9141    154.2422    203.7819   1.1029950466e+02   1.2887613579e+01     0.201063    0.1767885 -33.23 0.0003855377    1.353    0.261
        70 -12.3923    129.1460    179.6997   1.1201639572e+02   2.1107942715e+01    0.2982287    0.2645211  56.53  0.001747271    1.149    0.130
        71  -9.8584    242.7412    189.4836   9.1088212680e+01   4.5052482297e-01    0.2020727    0.1068237  40.94 0.0005694478    1.893    0.472
        72 -12.1663     74.0613     85.2516   1.0839424321e+02   5.0371828927e+01    0.4623094    0.2593999  19.97  0.001702414    2.323    0.570
        73  -9.9542     47.9698     84.5003   1.1740079644e+02   5.3821800518e+01    0.1888385    0.1321656  27.09  0.001033447    1.596    0.373
        74 -15.2705    203.4982    178.6805   9.6173002185e+01   8.2932332437e+00     4.168957     1.318408  37.19   0.01415566    2.884    0.653
        75 -11.7639    101.1101     82.8718   9.8778931628e+01   4.6381110555e+01    0.2703017    0.2193302 -37.07  0.000778063    1.197    0.165
        76 -12.0113    102.9402     79.5145   9.7198464903e+01   4.6744617624e+01    0.2670832    0.2450051  80.77  0.001429136    1.313    0.238
        77 -10.0635     52.5742     81.2316   1.1500457912e+02   5.4081601864e+01    0.1890211    0.1103084 -49.23 0.0003144358    1.520    0.342
        78 -11.5617     95.1433     77.9721   9.9239127307e+01   4.8525790669e+01    0.2625289    0.2222564  34.66  0.001000159    1.212    0.175
        79 -11.1524     85.8357     76.9110   1.0203431933e+02   5.0381681838e+01    0.2635097    0.1935114 -50.98 0.0007037747    1.347    0.257
        80  -9.8930     67.2960     77.3248   1.0867337518e+02   5.3130552106e+01    0.1448563    0.1005147 -26.19 0.0002706714    1.624    0.384
        81 -12.9951    101.1877     70.6322   9.4971952863e+01   4.8917750144e+01    0.5873857    0.4121162 -24.72  0.002299763    1.545    0.353
        82 -11.9483    108.9477     70.2963   9.2408857233e+01   4.7433844189e+01    0.3051166    0.2613727  -7.85 0.0002561806    1.195    0.163
        83 -12.3309    119.5239     70.0999   8.9167107527e+01   4.5232693124e+01    0.4779728    0.3485645 -60.52  0.002056583    1.793    0.442
        84 -10.2162     32.2600    179.0159   1.3376421032e+02   3.4076658638e+01    0.2505449    0.1421222 -57.38  0.001253715    1.989    0.497
        85 -11.8140    126.3828     65.9388   8.5830539608e+01   4.4480666322e+01    0.4221971     0.343303 -73.15  0.001275687    1.677    0.404
        86 -10.6605     83.2870     68.2803   1.0026599304e+02   5.2661781876e+01    0.2199094    0.1932789 -18.23 0.0001663417    1.098    0.089
        87 -10.9136     81.0151     65.7133   1.0025029434e+02   5.3583745144e+01    0.2337363    0.1930994 -54.73 0.0004206595    1.297    0.229
        88 -12.1552     32.0358     67.1937   1.1959907158e+02   5.9337262900e+01    0.2461995    0.2132117 -50.78 0.0003222373    1.029    0.029
        89  -9.7144     10.8574     66.1309   1.2783576106e+02   6.0975901658e+01    0.1719801    0.1131471 -49.41 0.0002860053    1.300    0.231
        90 -10.5205    238.0845    173.3318   8.8813869783e+01   3.1445841993e+00    0.2123379    0.1604557 -10.88 0.0004497827    1.188    0.158
        91 -10.6277     62.9423     64.0932   1.0649293887e+02   5.6670166654e+01    0.2079459    0.1851051 -34.32 0.0003332068    1.006    0.006
        92 -11.6055    110.9351     60.8078   8.8581740938e+01   4.8841636685e+01    0.3523627    0.2880846 -46.68  0.001006756    1.324    0.245
        93 -11.1446     88.5207     61.0228   9.6016450233e+01   5.3242843755e+01    0.2658375    0.2151582  31.00 0.0003259645    1.259    0.206
        94 -11.0623    120.7752     59.5381   8.5220067611e+01   4.6907966463e+01    0.3033575    0.2329529  10.35  0.001086711    1.468    0.319
        95 -11.7084    233.4493    171.5996   8.9279035720e+01   4.1304758438e+00     0.268868     0.193181  31.42  0.001603011    1.288    0.224
        96 -11.1855    162.7356     50.1611   7.1775878497e+01   3.8146549156e+01    0.5257284    0.2688461 -49.70  0.001537929    2.510    0.602
        97 -11.0677    149.6078     52.2900   7.5306958045e+01   4.1170990990e+01    0.4759938    0.2456987  69.77   0.00164362    2.866    0.651
        98 -11.6057    159.0132     55.0374   7.4155802824e+01   3.8373788390e+01    0.3451939    0.2860408  40.19 0.0003590538    1.170    0.145
        99 -11.9564    154.5091     57.0029   7.5787088025e+01   3.9208749600e+01     0.331392    0.3082198  55.25  0.001462624    1.113    0.101
       100 -10.1579    154.1193     52.8894   7.4502373580e+01   3.9940183251e+01    0.2263457    0.2101573 -56.55 0.0004253309    1.200    0.166
       101 -11.2306    128.0623     56.0746   8.1972662400e+01   4.5828779634e+01    0.3122831    0.2156924  39.46 0.0008998989    1.420    0.296
       102 -10.6415    115.9797     55.8535   8.5306936775e+01   4.8638766011e+01    0.2528983    0.2145244 -22.65 0.0003329806    1.157    0.136
       103 -11.8449    135.5001     52.8253   7.8877953755e+01   4.4584845215e+01    0.3182141     0.271345 -14.00 0.0004020438    1.181    0.153
       104 -11.8244    249.1384     52.5552   5.9496371566e+01   1.6948249896e+01    0.3023537    0.2215002 -50.90 0.0003874892    1.383    0.277
       105 -11.5876    244.9381     46.9623   5.8575068052e+01   1.8515259840e+01    0.4444674    0.3424126  78.00  0.001774114    1.472    0.321
       106 -11.5609    122.3206     53.5138   8.2640017888e+01   4.7602980367e+01    0.3940906    0.2732204  68.93  0.000864685    1.961    0.490
       107 -12.4117    140.9311     49.3896   7.6326781052e+01   4.3788646756e+01    0.4367144    0.3634134 -40.32 0.0009118367    1.279    0.218
       108 -10.4144     93.9630     51.9478   9.0872469817e+01   5.3972206489e+01    0.2249122    0.2041363  -8.12 0.0003261676    1.012    0.012
       109 -10.5811     97.9142     50.2766   8.8911689725e+01   5.3490517941e+01    0.2110469    0.1864356  23.92 0.0006016642    1.102    0.093
       110 -11.4149    105.6646     49.8900   8.6255148950e+01   5.1942909854e+01    0.4469638    0.2568175 -37.52  0.001162172    1.727    0.421
       111 -11.7086    124.9229     46.9737   7.9530395177e+01   4.8067026482e+01    0.4213043    0.2653057 -55.70 0.0008755969    2.246    0.555
       112 -11.8656    156.3465     44.5202   7.1195672714e+01   4.0593086097e+01    0.5018343    0.3386034  13.06  0.002169262    1.864    0.463
       113 -10.4279    151.8920     44.1753   7.2015429572e+01   4.1786529181e+01    0.2573463    0.2055311 -38.65  0.000529005    1.316    0.240
       114 -10.0265     91.0280    177.2751   1.2037182072e+02   2.7467062175e+01    0.1767661     0.147738  51.12 0.0003759029    1.060    0.057
       115 -11.0254    118.0568     43.2561   8.0024992373e+01   5.0271350074e+01    0.2674184     0.214773 -34.13 0.0002937235    1.283    0.221
       116 -11.7536    188.0148     41.4928   6.4487946260e+01   3.2805449256e+01    0.5513568    0.2458282  62.23  0.002132803    2.215    0.549
       117 -11.1477    191.3349     38.7774   6.3153385482e+01   3.2294409741e+01     0.382522    0.2846549 -57.20  0.001438268    1.496    0.332
       118 -10.7444     93.9813     39.9878   8.6199735819e+01   5.6085429118e+01    0.2255353    0.2053687   0.12 0.0004368178    1.026    0.025
       119  -9.9880    241.8611     39.2457   5.6978455973e+01   2.0087098169e+01    0.1966155    0.1663617 -54.23 0.0007478175    1.157    0.136
       120 -11.5770    209.5018     35.0084   5.9549857011e+01   2.8172260996e+01    0.4742257    0.2796465 -11.89  0.002121048    1.988    0.497
       121 -12.1590    204.9843     35.4998   6.0271230092e+01   2.9236308408e+01    0.3608328    0.3322241   3.37  0.002081807    1.141    0.123
       122 -11.3902    213.8718     34.3772   5.8832353542e+01   2.7172529977e+01    0.3921946    0.2432339 -33.04 0.0008061441    1.527    0.345
       123 -10.7470    217.3777     38.1923   5.9455218546e+01   2.5877204008e+01    0.2769196    0.2134624 -44.53 0.0006147986    1.266    0.210
       124 -12.2220    219.1501     33.8177   5.8052112466e+01   2.5957860914e+01    0.7343844    0.4032281  28.53  0.003026126    2.666    0.625
       125  -9.5352    153.3251     38.2970   6.9671701918e+01   4.2225475432e+01     0.160856    0.1092293  28.66 0.0003149617    1.627    0.385
       126 -10.1965    146.9554     35.8118   7.0121075377e+01   4.4201951165e+01    0.2919971    0.1645762  49.05  0.001234847    1.655    0.396
       127 -11.6898    164.8947    209.0193   1.0893197690e+02   1.0377403044e+01     0.254203    0.2175462 -35.16  0.001709739    1.420    0.296
       128 -13.1829    185.9219     31.1683   6.1632728265e+01   3.4601925691e+01    0.8567899    0.5380828 -84.69  0.003221862    2.117    0.528
       129 -10.5148     31.3054    243.4503   1.3748449203e+02   2.2651302091e+01    0.1796873    0.1528502   2.12  0.001488559    1.994    0.498
       130 -11.4346    162.1898     27.0285   6.4090836810e+01   4.1306732628e+01    0.3980615     0.250126  84.12  0.001687789    2.006    0.501
       131 -10.3684      7.0039    201.2904   1.4001647625e+02   3.2019944653e+01    0.1640967    0.1146712  81.59 0.0003775748    1.180    0.153
       132 -10.4547    128.4911     31.4639   7.2708304226e+01   4.9464692773e+01    0.2782307     0.246208 -88.54 0.0009867187    1.379    0.275
       133 -10.1160    128.6723     28.3315   7.1441574481e+01   4.9827959410e+01     0.162345    0.1403079  27.16 0.0008510263    1.090    0.083
       134 -10.3446     87.9198    172.9047   1.2053351074e+02   2.8786113850e+01    0.2216426    0.1738969 -71.92 0.0007024981    1.341    0.254
       135  -9.9606     73.9592    201.1061   1.2672739154e+02   2.5156863264e+01      0.16901    0.1396775  56.75 0.0002900478    1.011    0.011
       136 -11.5940    118.7762    169.5904   1.1280125820e+02   2.4738227303e+01    0.2603456    0.1649335  52.29 0.0008797738    1.599    0.375
       137  -9.5897      2.3969    242.7711   1.4214662644e+02   2.5396917841e+01    0.1127218   0.07304288 -81.94 0.0009417831    1.618    0.382
       138 -11.5925    178.3115     26.4553   6.1285136010e+01   3.7126375934e+01    0.2943153    0.2548421  30.39 0.0005477614    1.192    0.161
       139 -11.8449    123.0992    176.2950   1.1285569358e+02   2.2739440703e+01    0.2361335    0.2010666 -70.19 0.0007489548    1.359    0.264
       140 -10.5388    125.5986     23.6272   7.0310554127e+01   5.1182354762e+01    0.3608378    0.1493288 -18.87  0.001275518    2.842    0.648
       141 -10.3602    241.2849     24.6343   5.3395770407e+01   2.1823425000e+01    0.3992347    0.1619846 -48.93  0.001667884    2.518    0.603
       142 -10.0455    250.6857    158.6919   8.3761061899e+01   2.9125567665e+00    0.1617246    0.1023054 -27.29  0.000764253    1.498    0.332
       143  -8.9614     61.6872    159.2607   1.2515483065e+02   3.5068841904e+01    0.1270245   0.08264722  62.13 0.0001785636    1.534    0.348
       144 -11.5010    157.3343     31.2059   6.6412605432e+01   4.2086681760e+01    0.3660336     0.300721  26.34  0.001221467    1.247    0.198
       145  -9.1024    123.4404     13.4789   6.6670768766e+01   5.2868374205e+01    0.1473808    0.1299212  32.56 0.0001003634    1.027    0.027
       146 -11.6341    224.7724    241.3812   1.0271285732e+02  -2.5752682464e+00    0.2825655    0.1338765  38.48  0.001658123    1.780    0.438
       147  -9.3207     56.7774    241.9583   1.3305736965e+02   2.0215506222e+01    0.1146186   0.07748732 -82.57 0.0008296348    1.619    0.382
       148  -9.7535     42.2139    158.2080   1.2978781926e+02   3.7438792499e+01    0.1755407    0.1204569  67.96   0.00107207    1.361    0.265
       149  -9.6993     67.9863    201.2980   1.2798347386e+02   2.5858739609e+01    0.1615919    0.1270181  53.03 0.0003931677    1.056    0.053
       150 -11.2112     90.5011    150.3781   1.1668122270e+02   3.3149429161e+01    0.4056664    0.1916917 -49.01  0.001731819    2.276    0.561
       151 -10.6292    190.7894    241.5542   1.0864567365e+02   2.1949021381e+00    0.2306853   0.08446991  34.64  0.001142819    2.085    0.520
       152  -9.3409     69.2583    230.3782   1.3005257409e+02   2.0633602978e+01    0.1508045   0.07539971  45.29 0.0003199441    1.514    0.339
       153  -9.7008    101.7932    234.7796   1.2433794194e+02   1.5821847063e+01     0.155904    0.1058274  56.09 0.0009218035    1.318    0.241
       154 -11.1468    192.4310    232.5195   1.0710982708e+02   3.0068987875e+00    0.2230579    0.1758177  22.42 0.0001373684    1.085    0.079
