#   1 NUMBER                 Running object number                                     
#   2 MAG_AUTO               Kron-like elliptical aperture magnitude                    [mag]
#   3 X_IMAGE                Object position along x                                    [pixel]
#   4 Y_IMAGE                Object position along y                                    [pixel]
#   5 X_WORLD                Barycenter position along world x axis                     [deg]
#   6 Y_WORLD                Barycenter position along world y axis                     [deg]
#   7 A_WORLD                Profile RMS along major axis (world units)                 [deg]
#   8 B_WORLD                Profile RMS along minor axis (world units)                 [deg]
#   9 THETA_WORLD            Position angle (CCW/world-x)                               [deg]
#  10 FWHM_WORLD             FWHM assuming a gaussian core                              [deg]
#  11 ELONGATION             A_IMAGE/B_IMAGE                                           
#  12 ELLIPTICITY            1 - B_IMAGE/A_IMAGE                                       
         1 -12.9993    198.1672     30.6139   6.4611010364e+01   3.2421264641e+01    0.7898992    0.5936484  86.48  0.004599438    1.192    0.161
         2 -13.8314    210.9326     14.7419   5.9523719957e+01   3.1327884994e+01     1.141206    0.8877385  39.34  0.006964081    1.790    0.441
         3 -11.6721      1.9942      5.8428   1.0942850284e+02   7.2071331069e+01    0.6707591    0.1447348 -44.02  0.002829238    4.522    0.779
         4 -11.3528    199.2514    246.4196   1.1216568661e+02  -6.7393305873e+00     0.380998    0.2140507  46.97  0.001966458    1.853    0.460
         5 -10.2689    184.2521    250.4225   1.1568903864e+02  -4.9278481586e+00    0.2252043     0.142591  34.59  0.001255229    1.370    0.270
         6 -10.6723    169.7297    248.5391   1.1823521323e+02  -2.2202651475e+00    0.3337828    0.2339732   8.31   0.00103183    1.908    0.476
         7 -11.3230    149.8455    248.3352   1.2212661009e+02   1.1659675534e+00    0.4004234    0.2764877 -69.49  0.002212389    1.904    0.475
         8 -12.3084    133.8897    248.7467   1.2533549540e+02   3.7806472108e+00     1.222679    0.3072599  42.30  0.004323647    3.298    0.697
         9 -11.5310    100.2186    247.5143   1.3177795395e+02   9.5144073366e+00    0.7308407    0.3085041  47.79  0.003419117    1.994    0.498
        10 -11.0323    121.9596    246.4774   1.2739792179e+02   6.1855484200e+00    0.5775629    0.3481874 -75.99  0.002933402    2.175    0.540
        11 -12.3498    125.0127    240.3886   1.2599939768e+02   6.8223426633e+00    0.7466935    0.4239106  37.15  0.003749117    1.693    0.409
        12 -11.8193     98.8733    232.5272   1.3028474398e+02   1.2701565706e+01     1.022069    0.4053833 -72.80  0.003666876    3.953    0.747
        13 -10.6117     85.1096    234.7247   1.3330477331e+02   1.4411117853e+01    0.4341554    0.2081846  57.52  0.001915978    2.028    0.507
        14 -10.8213     97.0252    239.6773   1.3150665309e+02   1.1551854203e+01    0.3056933    0.2777169 -12.99  0.001534784    1.642    0.391
        15 -11.2145     99.1439    223.3849   1.2907936074e+02   1.4564669373e+01    0.4506534    0.2839064  53.71  0.001364246    1.433    0.302
        16 -10.9835    113.4148    230.6017   1.2706230445e+02   1.0701968706e+01    0.3807344    0.2994618 -48.54  0.001869106    1.523    0.344
        17 -11.9354    105.4387    228.2941   1.2840641571e+02   1.2503192169e+01    0.7162197    0.4066697  59.05  0.003487509    1.762    0.433
        18 -11.0066    115.4836    250.3995   1.2915121723e+02   6.5208475712e+00    0.5122286    0.3151645  38.20 0.0009051652    1.543    0.352
        19 -11.3833    109.5218    246.5650   1.2985608205e+02   8.2076901381e+00    0.4902608    0.3395092 -74.86  0.002347398    1.597    0.374
        20 -10.7813     91.6833    242.2154   1.3284419710e+02   1.1885091359e+01     0.419727    0.2408839  62.83  0.001350844    1.691    0.408
        21 -10.7535     89.9443    238.0870   1.3272448812e+02   1.2980957495e+01    0.2514548    0.2301786  88.00 0.0008082127    1.208    0.173
        22 -11.2153     87.6689    248.4039   1.3428309157e+02   1.1289365294e+01    0.4516774     0.298344  51.80 0.0008802856    1.266    0.210
        23 -10.3590     81.5869    246.7156   1.3526434987e+02   1.2535221670e+01    0.3861346    0.2189871 -83.13  0.002054244    1.951    0.487
        24 -10.2637     74.6011    242.1159   1.3612972757e+02   1.4480423420e+01     0.323496     0.229389 -61.46  0.001212162    1.596    0.374
        25 -10.3140     71.8152    247.1985   1.3714973824e+02   1.3873648333e+01    0.4475839    0.1114086  42.80  0.001753829    3.201    0.688
        26  -9.1116     62.7844    250.3764   1.3910167107e+02   1.4526852743e+01    0.2127214    0.1621341  34.73 0.0007182544    1.663    0.399
        27 -11.5660     60.3228    245.8158   1.3915032564e+02   1.5765092482e+01    0.4465723    0.3892004  73.20  0.001851336    1.224    0.183
        28 -12.7100      2.8962    191.3780   1.4559239552e+02   3.4048021711e+01     1.842222    0.2765948 -70.36  0.006523773    4.186    0.761
        29 -14.0486     11.5835    210.2730   1.4533093856e+02   2.9076249511e+01     2.413465      1.15993 -72.81   0.01371564    1.709    0.415
        30 -13.0173     14.0933    238.8085   1.4680962170e+02   2.2852664986e+01    0.8291167    0.4597341  50.50  0.002672449    1.579    0.367
        31 -11.7125     39.6295    230.2370   1.4164386960e+02   2.1662417553e+01    0.3222478    0.2210125 -74.25 0.0002710056    1.375    0.273
        32 -13.6008     40.3029    242.7315   1.4251975212e+02   1.9011567960e+01     1.481887    0.8292497  51.67  0.008728672    1.510    0.338
        33 -13.2908     28.0484    246.6729   1.4494390977e+02   1.9713625241e+01     1.269105    0.5603452  35.99   0.00679641    2.564    0.610
        34 -12.8699     33.9583    227.6140   1.4248461761e+02   2.2903225912e+01     0.478021    0.3200496 -60.67 0.0008345526    1.714    0.416
        35 -14.2022     40.6507    218.6143   1.4044412273e+02   2.4022320044e+01     1.639772     1.344497   7.60   0.01025814    2.102    0.524
        36 -11.2262    176.3233    242.5927   1.1602607803e+02  -2.3449314800e+00    0.3386999    0.2719446  52.41  0.001341106    1.297    0.229
        37 -10.1136    157.9252    242.7199   1.1970821360e+02   7.7011507592e-01    0.2046525    0.1916895 -57.48 0.0006914038    1.229    0.187
        38 -11.5772    122.3869    233.2715   1.2557525292e+02   8.6488932085e+00    0.5292965    0.3450249  47.90  0.002835451    1.346    0.257
        39 -11.6902    135.6634    241.0969   1.2394929624e+02   4.8804533317e+00    0.4209787    0.3380829  10.56  0.001606603    1.667    0.400
        40 -10.9317    142.1788    221.6242   1.1972918023e+02   7.4961176186e+00    0.4416962    0.2584755  32.94  0.001009987    1.808    0.447
        41 -12.7745    135.2166    234.2364   1.2307481392e+02   6.2540230438e+00    0.9212996    0.6672449 -76.89  0.004396938    1.673    0.402
        42 -11.0515    166.3521    241.8868   1.1789858870e+02  -5.2883220788e-01    0.3201771    0.2001562  38.58  0.001706441    1.403    0.287
        43 -10.7401     84.2726    240.6349   1.3411489322e+02   1.3337845490e+01    0.4254096    0.2697538  81.15  0.002349524    1.644    0.392
        44 -11.1827    244.6498    241.0836   1.0284946632e+02  -1.2816389437e+01    0.1996164    0.1553465  31.24   0.00111954    1.334    0.250
        45 -11.0157    116.7841    238.2931   1.2738405375e+02   8.6076505626e+00    0.4256075    0.2886325 -32.38  0.001738465    2.368    0.578
        46 -10.2141     67.4769    244.0178   1.3765984852e+02   1.5124761238e+01    0.3544093     0.203704  35.80  0.001930642    1.952    0.488
        47 -10.4400    105.0613    237.8811   1.2969148207e+02   1.0620239743e+01    0.2975995    0.1656796  35.50  0.001463025    1.889    0.471
        48  -9.7169    173.0103    235.9741   1.1564014451e+02  -6.5265209609e-01     0.193699    0.1751779  34.58 0.0003031032    1.029    0.028
        49  -8.3792     51.2603    234.3068   1.3981584798e+02   1.9326964798e+01     0.104793   0.08983975 -61.44 0.0003119313    1.523    0.343
        50 -10.7999    156.7233    231.7962   1.1828913663e+02   2.9449714393e+00    0.2519181    0.2353168 -28.89 0.0004265348    1.210    0.174
        51  -9.5001     62.8441    232.9534   1.3748205196e+02   1.8038180763e+01     0.167576    0.1484943  84.20 0.0002798198    1.216    0.177
        52 -10.5516    142.1149    229.6467   1.2097623680e+02   5.9314881907e+00    0.4102534    0.2382396 -37.93  0.001910697    2.280    0.561
        53  -8.4620     57.4634    231.4127   1.3837100259e+02   1.9101527995e+01    0.1255608   0.09827574  73.68 0.0007576316    1.013    0.013
        54  -9.9073    223.4584    244.5035   1.0728203842e+02  -1.0220188671e+01    0.1239519    0.1020513  10.23 3.961728e-05    1.018    0.018
        55 -10.4800     84.8506    229.3034   1.3274246124e+02   1.5577227542e+01     0.249051     0.225828 -61.14 0.0002494934    1.365    0.268
        56 -11.4924    136.1097    225.2385   1.2156667544e+02   7.8582256682e+00    0.4510694    0.3473187 -64.32  0.001330628    1.428    0.300
        57 -10.5908     79.3486    225.7016   1.3344514967e+02   1.7177076192e+01    0.4635808    0.2571589 -74.54  0.001626181    1.847    0.459
        58  -9.3945     77.1719    220.8145   1.3332971357e+02   1.8556739492e+01    0.2021042    0.1497942  73.62 0.0004243171    1.201    0.167
        59 -10.1686     91.5498    225.4039   1.3091110951e+02   1.5355706317e+01     0.513335    0.1852054  53.38   0.00194558    2.924    0.658
        60 -10.3472    117.0325    224.3862   1.2545907245e+02   1.1360946173e+01    0.2912778    0.2349845  34.38 0.0003993725    1.339    0.253
        61  -9.5928     64.9541    224.3508   1.3619980732e+02   1.9566668786e+01    0.2313865    0.1692612 -67.04 0.0008628148    1.404    0.288
        62  -9.7010    160.7339    223.3497   1.1610515691e+02   3.8122949365e+00    0.2328047    0.1657856  31.47 0.0006016034    1.395    0.283
        63  -8.7574    155.6922    223.3124   1.1715233509e+02   4.7289177183e+00    0.1377213    0.1040739  71.81  0.000611614    1.623    0.384
        64 -10.9885    245.6308    220.3039   9.8964175399e+01  -9.9800282231e+00    0.3861378    0.1352863 -31.68  0.001543021    3.084    0.676
        65  -9.1038    111.0000    221.0206   1.2626380169e+02   1.3093307951e+01    0.2116379   0.07661489 -58.38 0.0003854948    2.924    0.658
        66 -10.5685     69.7712    217.5709   1.3448573819e+02   2.0355165206e+01    0.7195238     0.325316 -80.81  0.003000329    2.732    0.634
        67  -8.8322    118.7621    217.9434   1.2416739509e+02   1.2409644117e+01    0.1734943    0.1148277 -58.66  0.000874454    1.598    0.374
        68  -8.7382    104.5574    218.5596   1.2729428834e+02   1.4702371923e+01    0.1370148    0.1193268  69.16 3.770904e-05    1.004    0.004
        69 -10.0060     88.5163    214.6132   1.3019171198e+02   1.8171811704e+01    0.6308896    0.2422653 -70.81  0.002022475    3.326    0.699
        70  -9.2445     62.5710    217.9380   1.3600298116e+02   2.1296189369e+01    0.1894986     0.165858  49.69 0.0005286427    1.310    0.237
        71 -10.4712    138.1265    214.1478   1.1940668105e+02   9.7515799114e+00    0.4512253    0.2745868  35.11  0.001194981    1.680    0.405
        72  -9.5317    160.0481    213.6850   1.1462289388e+02   5.8114319808e+00    0.2065022    0.1892205 -76.28 0.0004084472    1.205    0.170
        73 -10.1341    101.7210    211.7485   1.2696013864e+02   1.6659446752e+01    0.3965434    0.1357674  50.08   0.00141149    2.973    0.664
        74 -10.2064     96.8602    206.9559   1.2734851032e+02   1.8533706207e+01    0.3580545    0.2161632  85.48  0.001270452    2.146    0.534
        75 -10.2542     91.3691    204.8475   1.2826461230e+02   1.9905527285e+01    0.4560232    0.3381497  34.14   0.00147006    1.534    0.348
        76  -9.9399    106.8278    210.0229   1.2559819683e+02   1.6179516023e+01     0.241042    0.1854573 -46.08 0.0008842469    1.541    0.351
        77  -9.6163     74.1877    209.0636   1.3255741917e+02   2.1606782341e+01    0.3559578    0.2516367   5.24  0.001662767    2.870    0.652
        78  -9.9676    112.6211    208.4027   1.2408415421e+02   1.5539935089e+01    0.2569386    0.2302148  77.74 0.0007238164    1.031    0.030
        79  -8.7723    134.3396    208.3355   1.1928638240e+02   1.1666194129e+01    0.1418011    0.1146718  -5.16 0.0007051257    1.754    0.430
        80 -11.1211    246.7205    206.3733   9.6161189041e+01  -7.9972941117e+00    0.3208672    0.2022449 -10.31  0.001661094    1.841    0.457
        81  -9.1504     32.8282    206.9456   1.4093195993e+02   2.7530813673e+01     0.172889    0.1359822 -69.45 0.0003407472    1.322    0.244
        82  -8.7016    125.6787    205.6906   1.2076884519e+02   1.3816102828e+01    0.1370941    0.1154339  -6.55 0.0003510801    1.646    0.392
        83  -9.4376     74.7585    203.7395   1.3176919412e+02   2.2734261971e+01     0.280468    0.2161687   9.98 0.0008323189    2.106    0.525
        84  -9.8476    103.2491    202.7321   1.2531484042e+02   1.8419700686e+01    0.3620614    0.2056627  53.67   0.00134125    1.730    0.422
        85  -9.0297     29.1186    208.6669   1.4182393570e+02   2.7569428144e+01    0.1975175    0.1195318  60.98  0.001158524    1.478    0.323
        86 -10.7544     84.2819    201.4574   1.2936847728e+02   2.1806773187e+01    0.3586879    0.2460181 -43.82  0.001161699    1.869    0.465
        87  -9.2352     86.1457    195.6267   1.2813299826e+02   2.2866505800e+01    0.2149153    0.1761915  82.81  0.000397597    1.117    0.105
        88  -8.6943    182.9930    200.0947   1.0729401758e+02   4.1834560257e+00    0.1644533    0.1586401   8.04 0.0003871725    1.023    0.022
        89  -9.2988    127.9453    199.6828   1.1927021388e+02   1.4724299665e+01    0.1974573     0.174333  54.62 0.0003698661    1.069    0.064
        90  -8.6599    115.2422    200.6205   1.2229058908e+02   1.6813785174e+01    0.1465206    0.1045282  84.80 0.0006933601    1.636    0.389
        91  -9.5599     44.1457    199.0293   1.3781821550e+02   2.7981040009e+01    0.2726342    0.2200607 -29.32  0.001620485    1.955    0.488
        92  -9.0463    119.9413    199.4524   1.2103967781e+02   1.6235360085e+01    0.2115547    0.1347609  44.05 0.0003258583    1.498    0.333
        93 -10.2474     55.5774    198.2129   1.3527513962e+02   2.6710075022e+01    0.5116524     0.194949  42.68  0.002221637    2.482    0.597
        94 -11.5735     60.8142    194.3779   1.3366556478e+02   2.6899510712e+01    0.4447211    0.3589141  43.20  0.001558253    1.368    0.269
        95  -9.7541    102.3462    196.2944   1.2453866546e+02   2.0046715439e+01    0.3884324    0.2783083 -21.49  0.001472275    2.423    0.587
        96  -9.4411     97.0464    196.1343   1.2572447138e+02   2.0976956637e+01    0.3544449     0.209178  48.22 0.0009427373    1.621    0.383
        97  -8.5337    153.5985    196.4852   1.1296009879e+02   1.0567259467e+01    0.1425268    0.1395296  50.01 6.687907e-05    1.035    0.034
        98  -9.1005     38.8400    196.0433   1.3863044828e+02   2.9307312984e+01    0.2709926    0.1264436  86.68  0.001167038    2.543    0.607
        99  -9.5530     38.5149    192.0215   1.3827786044e+02   3.0276448960e+01    0.2121368    0.1669989 -78.16 0.0005416209    1.126    0.112
       100  -9.8151     40.8802    188.8391   1.3741811466e+02   3.0741294426e+01    0.2696974    0.1938686  76.15 0.0008130969    1.252    0.201
       101 -10.7844    249.6889    194.0970   9.3268304395e+01  -6.4826959141e+00    0.3113479    0.2441579 -10.17  0.001875214    1.205    0.170
       102  -8.9594     31.8772    195.3786   1.4003173789e+02   3.0259625780e+01     0.240236   0.08586894  44.65  0.001080405    2.621    0.618
       103  -9.2366    119.9569    194.3864   1.2019382404e+02   1.7378117524e+01    0.4112756   0.09024382  49.08 0.0009423227    6.298    0.841
       104  -9.5109     25.7756    192.4184   1.4102332448e+02   3.1602998741e+01    0.2246454    0.1542608  76.42 0.0007867572    1.264    0.209
       105  -9.7587    191.4666    191.4915   1.0385234219e+02   4.2546528746e+00    0.2471149     0.235354  12.01 0.0007037214    1.011    0.011
       106  -9.0829     72.5140    192.9964   1.3086151571e+02   2.5565212742e+01    0.1940222    0.1234553 -67.82 -6.499547e-05    1.457    0.314
       107  -9.0893     19.8394    191.1627   1.4214257682e+02   3.2503691009e+01    0.1724099    0.1174775 -64.25  0.001063087    1.419    0.295
       108  -9.5793     31.6682    189.9225   1.3953044048e+02   3.1541210554e+01    0.3413215    0.1677754  38.11  0.001760226    2.159    0.537
       109 -11.4274     41.5080    205.8983   1.3907145018e+02   2.6738418534e+01    0.6634647     0.255727  43.97  0.002196459    2.400    0.583
       110 -11.1620    249.8365    187.6754   9.1977329220e+01  -5.4445472046e+00    0.3861011    0.2124037 -29.59  0.001894224    1.742    0.426
       111 -11.5754     67.0311    187.1357   1.3132164307e+02   2.7746542743e+01    0.3137875    0.2352812 -56.44 0.0004659992    1.392    0.282
       112  -8.6740     45.2837    186.6696   1.3619719554e+02   3.0723300506e+01    0.1367576   0.08511449  76.17 0.0007007707    1.611    0.379
       113 -10.3458     28.4445    184.5729   1.3967832938e+02   3.3134214528e+01    0.3215396    0.2345067  23.02  0.001584532    1.905    0.475
       114  -9.2742     24.0066    184.2296   1.4060424142e+02   3.3676566193e+01    0.1798549    0.1496073 -74.66 0.0004432476    1.194    0.163
       115 -10.0018     83.7495    186.9447   1.2741290767e+02   2.5294237275e+01    0.2302968    0.1861188  63.26 0.0001867244    1.176    0.150
       116  -9.3742    140.1302    183.1739   1.1351486013e+02   1.6115714710e+01    0.2086901    0.2023785   9.33 0.0002824869    1.145    0.126
       117  -9.3167    127.4071    182.3277   1.1632766877e+02   1.8764335972e+01    0.2397445    0.1803784 -69.66  0.000521063    1.404    0.288
       118  -9.6960    107.8806    182.3120   1.2095551529e+02   2.2360835494e+01    0.2297668     0.198156 -68.81 0.0004012386    1.125    0.111
       119  -9.1283     36.9738    183.2939   1.3766416794e+02   3.2497423231e+01    0.2537001     0.156383  63.04  0.001383679    1.606    0.378
       120  -9.8117     77.0651    188.6615   1.2921851117e+02   2.5914055368e+01    0.2348898    0.1821941 -64.30 0.0003063949    1.248    0.198
       121  -8.9918     65.8582    181.8890   1.3087301634e+02   2.9168824764e+01    0.1946294    0.1691792 -65.09 0.0002771974    1.195    0.163
       122  -9.1759    115.4177    178.5144   1.1847830501e+02   2.1900707279e+01     0.365003    0.1298922 -49.82  0.001237469    2.835    0.647
       123  -9.6107    242.5402    179.4999   9.1606052350e+01  -2.8432875754e+00    0.1358632    0.1189126 -21.02 4.524674e-05    1.006    0.006
       124  -8.9953     47.5147    179.7001   1.3485110562e+02   3.2107198201e+01    0.1963044    0.1179924  36.71  0.000562669    1.847    0.459
       125 -13.2990      3.7686    244.8070   1.4886787359e+02   2.2752739718e+01     1.086698    0.5342463  81.69  0.006758388    1.624    0.384
       126  -8.7015     92.5420    178.3967   1.2397435265e+02   2.5929706348e+01    0.1435783    0.1307312  85.63 -2.007272e-05    1.024    0.024
       127  -8.9618     12.2651    178.5672   1.4258537634e+02   3.6117954432e+01    0.1780782    0.1261238 -77.60 0.0009408261    1.126    0.112
       128 -10.9210     11.5908    173.5644   1.4226180384e+02   3.7333574480e+01    0.3793385    0.1338592 -58.33  0.001739119    2.476    0.596
       129  -8.6436    125.7163    177.3107   1.1578899065e+02   2.0255434998e+01    0.1526656    0.1148704  81.75 0.0002208227    1.571    0.363
       130 -10.8363     77.1062    174.9918   1.2716682016e+02   2.9200014624e+01     0.293921    0.2343322 -56.84  0.000354552    1.265    0.210
       131 -11.7153     63.9562    173.2992   1.3009916457e+02   3.1513011347e+01    0.3385825    0.2334026 -58.84  0.000383436    1.372    0.271
       132 -10.7784     12.8063    161.5787   1.4078426352e+02   4.0021020903e+01    0.2428429    0.1752961  77.46  0.001412305    1.294    0.227
       133 -10.5747     19.4354    172.8793   1.4045855069e+02   3.6775099283e+01    0.3733481    0.2267379  65.96  0.001450135    1.650    0.394
       134 -11.3034     13.9174    167.0819   1.4110330949e+02   3.8636679331e+01    0.3544033    0.2982969  50.13  0.001812405    1.376    0.273
       135 -13.2105    247.9138    100.5739   7.3968674166e+01   1.0354193014e+01     2.736575    0.9274541 -31.96  0.008156014    4.610    0.783
       136 -12.2340    246.6751    157.8802   8.6433342467e+01   2.7134103810e-01     1.390913    0.8981308 -76.57   0.00560288    3.369    0.703
       137 -10.9484    249.5733    150.9081   8.4493779449e+01   1.0057182023e+00    0.5100653    0.3239003 -41.19  0.002619996    1.376    0.273
       138 -10.5056    249.7003    117.9198   7.7449056821e+01   6.9284731815e+00    0.4355132     0.282595 -30.63  0.001480483    1.620    0.383
       139 -11.9790    248.3024    112.9268   7.6578488921e+01   8.0945688212e+00    0.7853069    0.5965387  -8.70    0.0040513    1.902    0.474
       140 -12.1065    247.7844    142.4338   8.2990194858e+01   2.8613445496e+00    0.9752423    0.7006568  59.77  0.005202426    1.700    0.412
       141 -12.8062    248.4435    134.0751   8.1103191890e+01   4.2548463592e+00      1.45057    0.6070238 -39.67  0.005972165    2.100    0.524
       142 -11.8619    107.8368    172.9254   1.1929647569e+02   2.4612836189e+01    0.2851329    0.2617586  81.59 0.0002860968    1.027    0.026
       143 -10.5442     44.8835    165.0860   1.3357141082e+02   3.5946355293e+01    0.3545632    0.2490201 -77.00  0.001242921    1.225    0.184
       144 -10.8268     45.9833    172.3074   1.3426775412e+02   3.4068844088e+01     0.378517    0.2071416 -51.31 0.0002957025    1.913    0.477
       145 -10.5324     43.6206    169.2013   1.3442511468e+02   3.5097977751e+01    0.2775318    0.2528356 -54.15 0.0005183444    1.291    0.225
       146 -13.4268      3.3324    127.7128   1.3919959706e+02   4.8626077391e+01     1.022256    0.6540126 -73.11  0.006338946    1.222    0.182
       147 -13.0795      4.6096    142.7354   1.4067924196e+02   4.5064115054e+01    0.9154934    0.5675896 -77.64  0.005547397    1.276    0.216
       148  -9.9290     28.3822    170.8508   1.3820613765e+02   3.6371539447e+01    0.3678377    0.1623827 -60.11   0.00134741    1.937    0.484
       149 -10.6765      7.1209    166.9905   1.4261916595e+02   3.9236408683e+01     0.289482     0.186545  82.01  0.001037966    1.383    0.277
       150  -8.5028    150.7682    170.3156   1.0848049640e+02   1.6904408466e+01    0.1484936    0.1180967 -83.67 -0.000275831    1.498    0.333
       151 -11.8686     84.8807    166.5646   1.2386079757e+02   3.0055580094e+01    0.6074169    0.5167556  36.86  0.003343896    1.319    0.242
       152  -9.8405     68.3597    166.5922   1.2799945760e+02   3.2536302362e+01    0.2571761    0.2332251 -39.84  0.001509039    1.322    0.244
       153  -9.2257     58.3679    162.4760   1.2985867418e+02   3.4910275976e+01    0.2454076     0.147758 -69.49 0.0002383244    1.487    0.328
       154  -9.5401     22.1461    163.1877   1.3878308674e+02   3.8803679461e+01    0.2112404    0.1430026 -17.29  0.001128915    2.525    0.604
       155 -10.0393     89.8314    160.0873   1.2144968032e+02   3.0846542545e+01    0.2313357    0.2079488  55.46 0.0003048449    1.152    0.132
       156  -8.9233     73.2994    159.4246   1.2557478610e+02   3.3586305659e+01    0.1894779    0.1284434  52.03 0.0007193182    1.548    0.354
       157  -8.8732     46.9933    158.5131   1.3212495610e+02   3.7297049804e+01    0.1737709    0.1169968 -14.07 0.0008105108    2.631    0.620
       158 -11.1620     31.8150    155.9289   1.3555725312e+02   3.9591665023e+01    0.3857113    0.2462923 -54.29 0.0009846293    1.489    0.328
       159  -9.2090     16.4767    158.4724   1.3958611405e+02   4.0434466298e+01    0.1264435   0.09874876 -80.53 0.0001798065    1.004    0.004
       160 -11.9899     12.8902    153.6030   1.3989254737e+02   4.1886455210e+01      0.41342     0.350612 -62.33 0.0007244449    1.224    0.183
       161 -10.4996     11.0135    150.0253   1.3993963307e+02   4.2878994319e+01    0.1871143    0.1728826 -72.00            0    1.233    0.189
       162 -10.3529     84.1278    155.5323   1.2208212482e+02   3.2891051241e+01    0.3871247    0.2139543  24.79 0.0009166846    2.557    0.609
       163 -11.3428     23.8081    154.7635   1.3738152355e+02   4.0651726920e+01    0.3962471    0.2769826  64.22  0.002361011    1.502    0.334
       164  -9.0276    228.2008    155.2526   8.9072192649e+01   4.1835415543e+00    0.1946822    0.1584963 -58.46 0.0005729113    1.334    0.250
       165  -9.8561    104.9031    153.5672   1.1629836315e+02   2.9844234528e+01    0.2599905     0.204365 -69.89 0.0003044055    1.263    0.208
       166  -9.6389    113.9972    150.7479   1.1336370281e+02   2.8845740018e+01    0.3033245    0.2082566 -56.37 0.0004966992    1.408    0.290
       167 -10.4415     97.5748    151.0447   1.1769645440e+02   3.1759650892e+01    0.3576265    0.2780884 -60.05  0.001116645    1.210    0.174
       168  -9.2746    101.0024    146.4451   1.1584718863e+02   3.2282590885e+01    0.3244052    0.1853739 -39.35  0.001310518    2.061    0.515
       169  -9.3371     70.0020    152.0192   1.2514701610e+02   3.5891386500e+01    0.2173399    0.1924015 -74.43 0.0003991749    1.005    0.005
       170  -9.5677     59.7440    150.4622   1.2758052942e+02   3.7681713862e+01    0.5182591    0.2498488  70.85  0.001597015    4.773    0.790
       171 -10.2491     85.4941    148.6712   1.2041898296e+02   3.4363841375e+01    0.4753253    0.2608187 -80.77   0.00172794    2.861    0.650
       172  -9.2287     55.4826    150.5047   1.2870786654e+02   3.8219982766e+01    0.1395783    0.1197102 -76.06 0.0001248106    1.014    0.013
       173 -10.2361     23.9620    149.4926   1.3667559804e+02   4.1895400066e+01    0.2040759    0.1405682 -71.00 0.0004907087    1.166    0.143
       174 -12.2479     68.3708    144.2494   1.2417871345e+02   3.8036946184e+01    0.6949419    0.4877042  84.47  0.002184859    1.694    0.410
       175 -10.9514     17.4266    148.3713   1.3816718654e+02   4.2740670590e+01    0.2861679    0.1698964  13.58  0.001244827    2.486    0.598
       176 -10.6355     72.5150    139.8294   1.2220731431e+02   3.8528111941e+01    0.3101822    0.2527641  25.88 0.0008886685    1.448    0.309
       177 -10.0820    236.1203    146.0242   8.5688034480e+01   4.3979755271e+00     0.232212    0.2087062  38.88  0.000738319    1.237    0.192
       178  -8.8577     53.1624    146.3943   1.2864330389e+02   3.9517063836e+01    0.1784147    0.1204076  50.95 0.0004240283    1.625    0.385
       179 -10.1730     32.1137    145.7977   1.3409130877e+02   4.2001695500e+01    0.2622961    0.1295878 -47.89    0.0012411    2.062    0.515
       180 -10.0998    133.3248    141.1731   1.0629982466e+02   2.7283720051e+01    0.5643536    0.2681408 -54.40    0.0020474    2.190    0.543
       181  -8.7723    105.0079    142.9652   1.1404237501e+02   3.2407426306e+01     0.180755     0.164169 -64.51 0.0003240389    1.039    0.038
       182 -12.1027     17.5834    139.7297   1.3702426075e+02   4.4772106860e+01    0.4803006    0.2723743  61.73  0.002514255    2.131    0.531
       183 -10.5336     32.8449    140.7569   1.3316133727e+02   4.3142232584e+01    0.2700333    0.1848488  85.11 0.0009906318    1.554    0.356
       184  -9.5792     37.1448    140.1483   1.3192013042e+02   4.2852958087e+01    0.1831051    0.1408581  87.00 0.0006783386    1.308    0.235
       185 -11.0518     60.3973    136.7817   1.2497748112e+02   4.0949479047e+01    0.3077605    0.2509987 -78.74 0.0006931217    1.181    0.153
       186  -9.5896     50.5691    138.2998   1.2796831120e+02   4.1807102847e+01    0.2132466    0.1263523  31.18 0.0006319928    1.963    0.491
       187  -9.7826    109.4538    136.2083   1.1135223418e+02   3.3212282690e+01    0.3276857    0.2512631 -14.80  0.001489669    1.806    0.446
       188 -11.1205     44.7807    131.0485   1.2830571164e+02   4.4227735656e+01    0.3786565    0.3004183 -78.37  0.001934516    1.196    0.164
       189 -10.2848     33.1508    131.7944   1.3168307026e+02   4.5260810859e+01     0.215788    0.1322688 -59.44 0.0002764927    1.340    0.254
       190  -9.1072    115.3179    129.3362   1.0817345530e+02   3.3716713564e+01    0.1578007    0.1232319 -14.79 0.0003672279    1.700    0.412
       191 -11.2468     67.5913    128.3067   1.2127586443e+02   4.2033540986e+01    0.4769149    0.2571351  56.20  0.001974667    2.535    0.605
       192 -10.6889     59.6079    127.7173   1.2345075559e+02   4.3249027664e+01    0.3659763    0.2280433 -43.88  0.001183366    1.591    0.372
       193 -10.9356     23.2882    126.8693   1.3364332510e+02   4.7329383407e+01    0.3060441    0.1754598 -87.51  0.001527608    1.996    0.499
       194 -10.2545    209.9378    125.7376   8.5761597261e+01   1.3700190277e+01      0.30124    0.2212101 -43.35 0.0004790189    1.273    0.214
       195  -9.9128     29.6127    126.7958   1.3185792897e+02   4.6785134596e+01    0.1803555    0.1072167 -74.50 0.0002836669    1.561    0.359
       196  -9.0625     49.9773    122.4859   1.2521343340e+02   4.5685611335e+01    0.1852256     0.103275  56.68 0.0008096898    2.482    0.597
       197  -9.6623     54.9771    120.7548   1.2339414476e+02   4.5497613026e+01    0.2651341    0.1959162 -14.45  0.001391511    1.774    0.436
       198 -11.5663     29.7879    118.9433   1.3047533470e+02   4.8616980471e+01    0.3401556    0.2267284  11.09  0.001903698    1.984    0.496
       199  -9.6221    231.7872    116.6206   7.9911025180e+01   1.0775252676e+01    0.1861423    0.1370207  70.81 0.0005008279    1.584    0.369
       200  -9.9838     67.0697    115.6985   1.1869939387e+02   4.5105302976e+01    0.2891464    0.2107199  41.41  0.001522079    1.525    0.344
       201 -11.7382      9.9843    112.4857   1.3519422935e+02   5.1673029074e+01    0.2359523    0.2037054 -28.93  0.001660098    1.327    0.246
       202 -12.4206      2.3674    163.8573   1.4338025545e+02   4.0338067745e+01     1.723129    0.2800502 -74.74  0.005024699    5.654    0.823
       203 -10.1487    168.0148    113.1999   9.1125899179e+01   2.5812902653e+01    0.3690037    0.2818939 -87.60 0.0009461037    1.641    0.391
       204  -9.2492    203.4980    111.5081   8.3568896734e+01   1.7933202320e+01    0.1511149    0.1420455 -58.44 6.217437e-05    1.027    0.026
       205  -8.7487     29.2897    109.3277   1.2886743944e+02   5.0888655335e+01    0.1336817   0.08021741 -40.70  0.000319816    1.617    0.382
       206 -11.7583     14.5872    104.8278   1.3254915893e+02   5.3086077851e+01    0.3414949    0.2167507 -61.05  0.002045994    1.235    0.190
       207  -8.2480     71.7229    100.2848   1.1354740242e+02   4.7957193845e+01    0.1303998    0.1092001  89.00 0.0002295164    1.511    0.338
       208  -9.8734     17.1545     99.1647   1.3071840245e+02   5.4165759366e+01    0.1555182    0.1331493  89.03 0.0003409948    1.336    0.251
       209  -9.1482     28.1375     94.0640   1.2613823255e+02   5.4414788001e+01    0.1854113    0.1454422  73.85  0.001117987    1.702    0.412
       210 -12.1371    249.0489    171.4418   8.8841283958e+01  -2.5424863301e+00     0.578636    0.4830674 -17.32  0.003472739    1.130    0.115
       211 -11.8524    245.3340    163.0975   8.7748392707e+01  -4.2633000865e-01    0.6048131    0.3000369 -48.50  0.002647384    2.069    0.517
       212  -8.4282    184.6976     77.3226   7.8436740058e+01   2.8711595161e+01    0.1548082    0.1099113 -73.18 0.0003637984    1.633    0.388
       213 -10.2944    192.4928    248.9047   1.1386139776e+02  -6.0320326383e+00      0.25003    0.1974349   8.88 0.0009089056    1.288    0.224
       214  -9.3726    193.8322    245.1492   1.1300481767e+02  -5.6673124203e+00    0.1695696    0.1543534   6.33  0.000277558    1.101    0.092
