#   1 NUMBER                 Running object number                                     
#   2 MAG_AUTO               Kron-like elliptical aperture magnitude                    [mag]
#   3 X_IMAGE                Object position along x                                    [pixel]
#   4 Y_IMAGE                Object position along y                                    [pixel]
#   5 X_WORLD                Barycenter position along world x axis                     [deg]
#   6 Y_WORLD                Barycenter position along world y axis                     [deg]
#   7 A_WORLD                Profile RMS along major axis (world units)                 [deg]
#   8 B_WORLD                Profile RMS along minor axis (world units)                 [deg]
#   9 THETA_WORLD            Position angle (CCW/world-x)                               [deg]
#  10 FWHM_WORLD             FWHM assuming a gaussian core                              [deg]
#  11 ELONGATION             A_IMAGE/B_IMAGE                                           
#  12 ELLIPTICITY            1 - B_IMAGE/A_IMAGE                                       
         1 -14.5556     68.3679    144.5623   1.0418441860e+02   3.7342751654e+01     5.152969     2.809293  71.40  0.005021906    3.639    0.725
         2 -13.8397    201.2116     41.4118   4.5188491292e+01   2.9856023208e+01     1.283236     1.080689 -28.31  0.003813716    1.303    0.233
         3 -13.6366    209.6384     35.3898   4.2887472128e+01   2.8769271564e+01     1.194176    0.7481648 -37.55  0.005059822    1.490    0.329
         4 -12.6153    217.6872     28.1074   4.0504570348e+01   2.7924635892e+01    0.5213192    0.4140276  44.19  0.001171161    1.640    0.390
         5 -13.9190    227.2997     18.5765   3.7703928343e+01   2.7018701275e+01     1.165408    0.9569043  11.82  0.007869041    1.864    0.464
         6 -10.4773    126.0127      5.8534   4.4903587512e+01   5.1491435921e+01    0.4002039    0.2277505 -76.52  0.001629702    2.280    0.561
         7 -10.0631      2.1801      3.3673   9.3091838131e+01   7.6137885206e+01     0.217962   0.07228819 -44.10  0.001010749    2.672    0.626
         8 -11.3684    248.3395      2.0401   3.3186224284e+01   2.4688302875e+01    0.3755445    0.1775921  84.34  0.002278384    2.072    0.517
         9 -10.0488    110.0204    201.5158   1.0173515994e+02   1.7654301959e+01    0.1992571    0.1855077 -42.44  0.001177813    1.177    0.150
        10 -13.5836      3.5650    183.6890   1.2735859604e+02   3.4085799212e+01     1.339405    0.6314211  89.67  0.006618045    2.004    0.501
        11 -15.6521     58.6149    247.0421   1.1891884842e+02   1.5190634472e+01     10.02909     2.765751  21.28   0.01451459    9.877    0.899
        12  -9.1640     59.5785    197.5125   1.1417734249e+02   2.5441542082e+01      0.13382    0.1206582  57.02 3.483889e-05    1.031    0.030
        13  -9.1551    108.5840    191.8611   1.0061361240e+02   1.9959965575e+01    0.1912236    0.1415034 -76.45 0.0009361237    1.764    0.433
        14  -8.5751     65.2589    192.3427   1.1210122152e+02   2.5942751178e+01    0.1344634    0.1013736 -33.52  0.000325036    1.589    0.371
        15  -9.2554     99.3570    180.9796   1.0130780469e+02   2.3833112872e+01     0.197467    0.1851665 -46.21  0.000482332    1.124    0.110
        16 -12.1019     60.3050    178.5672   1.1175250997e+02   2.9844253692e+01    0.4781748    0.3397389 -20.28  0.001366014    1.843    0.458
        17 -12.0491     65.6402    173.0575   1.0951340479e+02   3.0522623192e+01    0.3587234     0.293819 -29.76 0.0008468867    1.384    0.278
        18  -9.8182    144.4704    179.6498   8.9372989685e+01   1.6739569155e+01    0.2713697    0.2150176 -35.75 0.0008203796    1.279    0.218
        19 -13.3214     32.4383    205.7591   1.2174068795e+02   2.6536458188e+01    0.7087457    0.4637993 -33.02  0.003783915    2.149    0.535
        20  -9.3511    150.1200    178.6101   8.7802825589e+01   1.5991925686e+01    0.2324799    0.1980042 -53.07 0.0006702346    1.380    0.275
        21 -13.5662     62.8362    159.3925   1.0835241388e+02   3.4296164687e+01    0.5836284    0.4082723 -34.64  0.001661539    1.636    0.389
        22 -11.0549     75.7205    136.7279   1.0032770309e+02   3.8289063035e+01    0.4444497    0.2516767  47.78  0.000414272    1.993    0.498
        23 -11.9722     75.6454    163.4695   1.0516683542e+02   3.1550688103e+01    0.4851043    0.3641405  42.96 0.0003309524    1.320    0.242
        24 -12.8991     82.4455    157.2602   1.0209393840e+02   3.2110930761e+01     1.082287    0.9155493 -60.09 0.0008319136    1.206    0.171
        25 -10.2155    209.8867    199.7019   7.8967931076e+01   2.8041037917e+00    0.2361934    0.1687401 -35.94 0.0007292418    1.448    0.310
        26 -15.3039      8.5991    239.8750   1.2894826007e+02   2.1621929171e+01     2.034375     1.810417 -67.02   0.01580283    1.401    0.286
        27 -13.4421     17.9132    218.5161   1.2594891313e+02   2.5128083310e+01    0.7115409    0.4363976  49.41  0.002487739    1.375    0.273
        28 -10.3933    124.9963    154.1083   8.9246804305e+01   2.5743332185e+01    0.2351976    0.2180152 -44.77 0.0003077469    1.136    0.120
        29 -10.4845    133.0878    141.3547   8.4243682662e+01   2.7106039828e+01    0.7141452    0.2263447 -54.58  0.001810693    4.989    0.800
        30 -14.6502      9.2942    207.3896   1.2728986294e+02   2.8270557544e+01     1.246065     1.010954  -7.45  0.005867363    1.652    0.395
        31  -9.4369    174.9847    149.4687   7.5964191960e+01   1.7380270451e+01    0.2175374    0.1421725  37.79 0.0005468738    1.561    0.359
        32 -11.5270     32.3180    144.0294   1.1569336807e+02   4.1623679025e+01    0.6189616    0.2880546   9.45  0.002445936    2.865    0.651
        33 -10.6473     97.4036    142.7864   9.4761673211e+01   3.3306657008e+01     0.348124    0.3079104  17.67 0.0008713055    1.129    0.114
        34  -9.8408    100.6171    139.6713   9.3118404817e+01   3.3513333901e+01    0.3520374    0.2351827 -18.06 0.0007555701    2.022    0.505
        35 -12.3907     85.5187    141.2951   9.8119770480e+01   3.5628985312e+01    0.3313962    0.2837993 -33.33 0.0005722325    1.190    0.160
        36 -10.9185    107.4779    131.3377   8.9155640719e+01   3.4284967708e+01    0.5427526     0.342993  34.54  0.002000571    1.570    0.363
        37  -9.9825     22.9102    133.1441   1.1738645045e+02   4.5250866856e+01    0.2008034    0.1733149  71.01 0.0003370902    1.196    0.164
        38  -9.6711    137.7127    170.2097   8.9217813186e+01   1.9899172760e+01    0.3869739     0.182149 -48.74   0.00151311    2.219    0.549
        39 -10.3799    135.6546    128.7136   8.0548029515e+01   2.9394193323e+01    0.3976072    0.1457745 -49.83  0.001247657    3.028    0.670
        40 -11.1561     96.2390    127.4816   9.1709676182e+01   3.7246848120e+01    0.3555632    0.2796297  -8.11 0.0004774855    1.473    0.321
        41  -9.8481    115.9389    125.0559   8.5126881887e+01   3.4147229621e+01    0.2614124    0.1920333  -7.91  0.001127866    1.727    0.421
        42  -9.7188    106.1465    119.9645   8.6784808196e+01   3.7221478216e+01    0.2279618    0.2126886  -9.33 0.0003331327    1.051    0.048
        43  -9.4660    168.0464    113.0415   6.8825080124e+01   2.5840849932e+01    0.2440587    0.1890922 -76.58  0.001137486    1.814    0.449
        44 -10.2553    135.0000    111.9926   7.6436094973e+01   3.3131536974e+01    0.4199893   0.08844037 -43.43  0.001029658    4.740    0.789
        45 -12.9122     84.8273    231.0865   1.1161021349e+02   1.5084115617e+01    0.8267116    0.4899739  81.49  0.001705401    2.650    0.623
        46 -10.1217    205.3406    110.5376   6.1145994463e+01   1.8676039794e+01     0.300155    0.2371574  23.62  0.001012027    1.472    0.321
        47  -9.1365     67.3018    105.6587   9.6304036991e+01   4.7370180109e+01    0.1515666    0.1203826  73.31 0.0004343808    1.674    0.403
        48  -9.0515     63.3308    101.3187   9.6699530033e+01   4.9021941354e+01    0.1608893    0.1102518 -21.67 0.0007047899    1.689    0.408
        49  -8.6936    130.3074     96.3026   7.3346692160e+01   3.7395945663e+01    0.1579534    0.1216936   5.63 0.0004105666    1.601    0.375
        50 -10.8688     52.9740     91.1382   9.8136381591e+01   5.2934559213e+01    0.3702866    0.1982824 -51.11  0.001203299    1.729    0.422
        51  -9.9529     41.8548     92.0699   1.0295437277e+02   5.4054664496e+01    0.2166837    0.1945785 -31.71 0.0005111391    1.014    0.014
        52 -10.0564    244.6394     89.3016   5.0962573650e+01   1.4750619146e+01    0.1260133   0.08341134 -61.84  0.000703687    1.721    0.419
        53 -10.3734    249.8385     87.8539   5.0077096080e+01   1.4068969910e+01    0.1733023    0.1218178 -53.26 0.0007164518    1.341    0.254
        54  -9.3477    234.3359     86.6851   5.1629171190e+01   1.6956877543e+01    0.1301934   0.08646815 -61.51 0.0007047102    1.692    0.409
        55  -9.0250    160.6658     81.7055   6.2058392932e+01   3.3194538575e+01    0.1498308    0.1145649  18.57 0.0003090097    1.642    0.391
        56  -9.6552      9.6709     75.6455   1.1351507912e+02   6.0743435082e+01    0.1516109   0.07578269 -38.95 0.0007045893    1.778    0.438
        57  -8.6784     26.3534     68.6865   1.0390738311e+02   6.1208181304e+01      0.13256    0.1045906  58.68 0.0007045463    1.733    0.423
        58  -8.8538    130.4096     65.4823   6.3974406088e+01   4.3063908753e+01    0.1456861    0.1427616  42.20 -7.035293e-06    1.026    0.025
        59  -9.9205     43.6397     60.3986   9.2979670332e+01   6.1155309055e+01    0.2861035    0.2007438  50.80   0.00140385    1.981    0.495
        60 -10.9662     13.5288     60.2563   1.0807490150e+02   6.4141657028e+01    0.2416637    0.2180594 -37.62 0.0004451208    1.117    0.105
        61 -16.0791     33.9115    184.7784   1.1962590560e+02   3.1254940341e+01     9.566288     3.809225  76.16   0.03116229    4.447    0.775
        62 -10.0081    170.9485    233.4837   9.2579310672e+01   2.8317683989e+00    0.1889151    0.1532102 -16.03 0.0005488506    1.217    0.178
        63 -13.1127     87.2621    224.9304   1.1036887335e+02   1.5992414891e+01     0.698972    0.4960634  55.66 0.0008653874    1.468    0.319
        64  -9.3118     23.8010     57.6282   1.0197674681e+02   6.3938296279e+01    0.1837659    0.1152093  29.49 0.0007902118    1.737    0.424
        65  -9.6345     18.3171     55.3148   1.0416294380e+02   6.4908757386e+01    0.1445484   0.08166741 -29.90 0.0004866373    1.648    0.393
        66 -10.3889     72.5174    227.1383   1.1406992835e+02   1.7429880068e+01    0.2855254    0.1622321  28.37  0.001481064    1.591    0.371
        67 -10.5439    135.5534     42.2090   5.5316864854e+01   4.5277054523e+01     0.298669    0.2404612 -79.94  0.001039003    1.421    0.296
        68  -8.8161    135.4371     34.3741   5.2789822203e+01   4.6293038167e+01    0.1384684    0.1239721  65.62 7.326404e-05    1.028    0.027
        69 -10.2856    189.5195     15.2380   4.0008815396e+01   3.5405311073e+01     0.223234    0.1565138  79.55 0.0007037277    1.304    0.233
        70 -11.7050    183.9637    216.2857   8.7076948462e+01   3.7900607795e+00    0.3096892    0.2093387  31.94  0.001331886    1.435    0.303
        71 -10.9025    193.2911    195.2729   8.1417952712e+01   5.9245798959e+00    0.7979357     0.437812 -60.69  0.002545841    5.942    0.832
