#   1 NUMBER                 Running object number                                     
#   2 MAG_AUTO               Kron-like elliptical aperture magnitude                    [mag]
#   3 X_IMAGE                Object position along x                                    [pixel]
#   4 Y_IMAGE                Object position along y                                    [pixel]
#   5 X_WORLD                Barycenter position along world x axis                     [deg]
#   6 Y_WORLD                Barycenter position along world y axis                     [deg]
#   7 A_WORLD                Profile RMS along major axis (world units)                 [deg]
#   8 B_WORLD                Profile RMS along minor axis (world units)                 [deg]
#   9 THETA_WORLD            Position angle (CCW/world-x)                               [deg]
#  10 FWHM_WORLD             FWHM assuming a gaussian core                              [deg]
#  11 ELONGATION             A_IMAGE/B_IMAGE                                           
#  12 ELLIPTICITY            1 - B_IMAGE/A_IMAGE                                       
         1 -11.0541      5.0528     34.3485   6.8940963923e+01   7.2568637002e+01    0.1747617    0.1523135 -19.15 0.0004003495    1.108    0.097
         2 -12.6197     45.9330     25.6807   3.5787110310e+01   6.9659504590e+01    0.5064276    0.3422465 -40.46  0.002597093    1.542    0.352
         3 -11.2480     92.2661      8.9203   8.1411252377e+00   6.1150284007e+01    0.2417447     0.184748  62.76 0.0004785424    1.148    0.129
         4 -11.7900     49.4961      8.4762   2.3216987132e+01   7.1584375009e+01     0.237827    0.1981356  28.55 0.0005412701    1.082    0.076
         5 -10.2509    123.2630      7.3280   1.5365583788e+00   5.2932210423e+01    0.1402278    0.1002276  40.36 0.0002770107    1.567    0.362
         6 -11.6758     67.9989      5.7601   1.3522746125e+01   6.7652273970e+01     0.224313    0.1933673  14.97 0.0002941384    1.216    0.178
         7 -10.3756    106.4930      4.9887   3.3254734453e+00   5.7701620085e+01    0.1912212    0.1092534  25.46 0.0008077635    2.377    0.579
         8 -10.4394    163.2191    246.3989   5.1557837022e+01   3.5620022651e+00    0.1669151   0.08398516  35.07 0.0009466322    1.666    0.400
         9 -12.2049    178.5713    247.1899   4.8702480777e+01   1.5996490576e+00    0.3004288    0.2494746 -13.67  0.002180858    1.352    0.260
        10 -12.0234    181.6866    244.6808   4.7787900422e+01   1.5432351548e+00    0.2041377    0.1575534   5.22 0.0004341869    1.114    0.102
        11 -11.4258    142.9287    243.3395   5.5272103393e+01   6.5375073886e+00    0.2099893    0.1686831 -20.46  0.001470394    1.422    0.297
        12 -11.7461    121.1278    248.5350   6.0404949283e+01   8.5426023027e+00    0.2069103    0.1571782  29.72 0.0005137949    1.051    0.049
        13 -10.9081    103.0428    249.9729   6.4393286582e+01   1.0585454489e+01    0.1496121    0.1053378  31.43 0.0004243704    1.050    0.048
        14 -12.0485     65.4221    249.6135   7.2493628102e+01   1.5150999322e+01    0.3255989    0.1684218  34.56 0.0009491875    1.390    0.281
        15 -12.5604     69.0579    247.6310   7.1570297544e+01   1.5069598439e+01    0.4454853    0.1734229  52.81  0.002106909    2.589    0.614
        16 -12.2460     64.1778    245.4789   7.2492948542e+01   1.6003512009e+01    0.2172285    0.1533475  48.80 0.0002472056    1.187    0.158
        17 -13.0867     50.7688    245.3845   7.5423712264e+01   1.7523114234e+01    0.5626769     0.374136 -38.59  0.003246544    2.336    0.572
        18 -11.6568     53.9225    248.3386   7.4905472032e+01   1.6660508501e+01    0.2363175    0.1848833   7.25  0.001610267    1.579    0.367
        19 -14.8678     22.5286    192.0767   7.9279746308e+01   3.1191165383e+01     1.541493    0.5741827  68.67  0.006303247    2.908    0.656
        20 -15.5721      7.9343    184.7612   8.2799350810e+01   3.4119000430e+01     2.755994    0.9772962  34.25   0.00894162    2.154    0.536
        21 -13.4789     35.7663    247.3282   7.8763406474e+01   1.8765126989e+01    0.5255952    0.2872718  46.08  0.001590506    1.327    0.247
        22 -15.2077     18.7945    210.4828   8.1057894529e+01   2.7544747758e+01     1.684675    0.7283733  65.33  0.008354248    2.152    0.535
        23 -13.9708      9.9797    208.5261   8.3103800728e+01   2.8740395794e+01    0.4901281    0.3395782 -68.93   0.00202068    1.698    0.411
        24 -14.1490     20.3540    247.7779   8.2042702372e+01   2.0200074946e+01    0.5933734    0.3308859  20.05  0.001414932    1.856    0.461
        25 -14.9936      3.6835    223.3167   8.4964401575e+01   2.6270039725e+01     1.121245    0.4557205 -80.27  0.005905438    2.618    0.618
        26 -14.5735      3.8075    201.3231   8.4377623135e+01   3.0780553685e+01    0.8328255    0.6770325 -52.75  0.005606643    1.620    0.383
        27 -16.0838     15.3384    227.3980   8.2474041937e+01   2.4452406054e+01     1.799769    0.6410264  59.16  0.008826383    2.356    0.576
        28 -16.1735      8.4930    237.4298   8.4255169685e+01   2.3160586178e+01      1.59127    0.5497913  43.90  0.008568784    1.855    0.461
        29 -13.9787      1.7585    249.7717   8.5910579357e+01   2.1516979483e+01    0.2735792    0.1384219  80.67  0.001698934    1.969    0.492
        30 -14.7578      6.2605    247.8002   8.4959115876e+01   2.1476452700e+01    0.5774987     0.208008  47.20  0.002569048    1.789    0.441
        31 -11.2491    205.0070    243.9834   4.3454104250e+01  -1.0695979658e+00    0.1531988    0.1245553  34.04  0.001141156    1.746    0.427
        32 -11.4953    130.7043    243.9293   5.7889647660e+01   8.0173249980e+00    0.2330564    0.1127096  17.92  0.001027015    2.210    0.548
        33 -10.6960     82.1360    242.3458   6.8294058031e+01   1.4416579218e+01    0.1578832    0.1343836  75.26 0.0001397416    1.400    0.286
        34 -11.5791    126.1117    241.3835   5.8580448284e+01   8.9970037193e+00    0.1895753    0.1736283  46.06 0.0006677379    1.335    0.251
        35 -10.5529     76.4504    242.4758   6.9566659126e+01   1.5082353546e+01    0.1239361   0.09180776  38.77 6.653383e-05    1.028    0.027
        36 -10.4308    158.9980    241.0576   5.1722750947e+01   4.8143218233e+00    0.1385698      0.11229   9.12 0.0009780554    1.123    0.110
        37 -11.6780    248.4929    248.0441   3.6909528493e+01  -5.9601267146e+00     0.179884     0.110477  15.19  0.000411616    1.265    0.209
        38 -12.1087    139.5123    248.4350   5.6565201074e+01   6.2381079075e+00    0.3391443    0.2027144 -39.85  0.002093966    2.074    0.518
        39 -12.4102     71.5361    237.4367   7.0282221835e+01   1.6558225845e+01    0.3240854     0.199671 -41.29  0.001331963    2.352    0.575
        40 -13.2427     72.7298    231.1275   6.9516665775e+01   1.7558942479e+01    0.4993462     0.295246 -50.09  0.002021692    2.217    0.549
        41 -11.3253    124.8407    249.6918   5.9744934374e+01   7.9016898029e+00    0.2070356     0.156111   0.71 0.0007570297    1.431    0.301
        42 -11.7784    102.6831    237.9193   6.3326733234e+01   1.2588274852e+01    0.2717804    0.1982079 -35.26  0.001357798    1.782    0.439
        43 -11.5352     79.8689    237.4820   6.8403327499e+01   1.5539385310e+01    0.2747488    0.1943191  22.78  0.001715281    1.303    0.233
        44 -12.6184     47.3433    235.0313   7.5598315706e+01   1.9774465724e+01    0.4246583    0.2213353  71.80  0.002307506    2.170    0.539
        45 -11.1002    210.6761    236.1501   4.1364059326e+01  -7.9578974974e-01    0.1875045   0.09423234 -41.51  0.001089948    2.580    0.612
        46 -10.8227    138.0267    236.0636   5.5426960130e+01   8.2554880782e+00    0.1802518    0.1234212  45.85 0.0003972252    1.591    0.372
        47 -12.0490    120.9937    234.8669   5.8960001900e+01   1.0697091165e+01    0.2111007    0.1711447  47.64  0.001050237    1.336    0.252
        48 -12.2666    222.6313    232.8025   3.8844215064e+01  -1.7403326018e+00    0.2354789    0.1516129 -11.55 0.0008647286    1.304    0.233
        49 -11.5640    112.5340    234.4890   6.0784482088e+01   1.1876950497e+01    0.2241142    0.1028272  21.88  0.001027471    2.188    0.543
        50 -12.2685     58.9179    234.2046   7.2917058301e+01   1.8629123161e+01    0.3530934    0.1142738  43.42   0.00129986    2.250    0.555
        51 -11.1088     56.3696    229.9971   7.3219546479e+01   1.9708652499e+01    0.3012464     0.186655   2.33  0.001327049    2.446    0.591
        52 -12.2935    194.8529    229.3894   4.3217245735e+01   1.8922387322e+00    0.2360952    0.1934401 -29.32 6.662928e-05    1.522    0.343
        53 -12.1146    143.0024    231.6244   5.3822789243e+01   8.2735903280e+00    0.1879606    0.1697299  -1.95 0.0003154434    1.237    0.191
        54 -11.3948    122.8845    231.2023   5.8125477996e+01   1.1041547160e+01    0.1907039    0.1378624  38.60  0.000471475    1.223    0.183
        55 -12.1914    182.1582    231.7823   4.5940532092e+01   3.1515099714e+00    0.4248873    0.2366069  44.42  0.002311097    2.384    0.581
        56 -10.8874    150.3108    229.6677   5.2031060439e+01   7.5930293450e+00    0.1166218    0.0865698  48.68 0.0007043186    1.674    0.403
        57 -11.3393     84.8867    228.9196   6.6511778114e+01   1.6446574832e+01    0.3610388    0.2342046 -14.77  0.001848289    2.503    0.601
        58 -12.1454     80.7353    226.2791   6.7240542862e+01   1.7460426190e+01    0.3313603     0.197835  25.27  0.001050792    1.485    0.327
        59 -11.1883    165.1508    234.4088   4.9625633571e+01   4.9547732363e+00    0.2882642   0.08000001  37.98  0.001154476    3.200    0.687
        60 -10.9220    138.0338    227.0300   5.4303085838e+01   9.6628005175e+00    0.1798104    0.1333697  49.16 0.0004313034    1.571    0.364
        61 -11.2080     48.7316    226.6295   7.4777588787e+01   2.1216126364e+01    0.2836632    0.1170495  58.12  0.001312156    2.454    0.592
        62 -10.6199    217.4713    237.5505   4.0399262097e+01  -1.7137087436e+00    0.1102161   0.07834244   6.00 0.0001663606    1.015    0.015
        63 -10.2775    216.7774    226.0277   3.8828781513e+01  -2.9423967726e-01    0.1267691   0.07898345 -26.60 0.0008391002    1.544    0.352
        64 -12.0173    116.8436    225.4292   5.8803176340e+01   1.2827668233e+01    0.2221216    0.1854082  48.02 0.0005281144    1.276    0.217
        65 -11.1851    114.5094    221.5443   5.8879247900e+01   1.3822968229e+01    0.1841232    0.1311286 -55.72 0.0008353685    1.759    0.432
        66 -12.3445    106.3985    226.0446   6.1253979516e+01   1.4138051495e+01    0.2749617    0.1612309  29.29  0.001502104    1.372    0.271
        67 -10.5269    182.4903    225.4842   4.4976694757e+01   3.9575833649e+00    0.1210387   0.09210294  11.72 0.0001433446    1.001    0.001
        68 -12.8057    159.6881    222.5151   4.9105880048e+01   7.4051148581e+00     0.393979    0.2987024  32.77  0.002543334    1.254    0.202
        69 -12.3197     93.1686    223.5922   6.4065988552e+01   1.6346274989e+01    0.3619462    0.2609705  -0.74  0.002058714    1.766    0.434
        70 -10.4801     60.6529    223.3334   7.1743130636e+01   2.0487315275e+01    0.1843701   0.08879596  67.59 0.0008031203    2.636    0.621
        71 -12.3596     57.6017    220.6946   7.2276708998e+01   2.1363429273e+01    0.3337536    0.1883838 -48.73  0.001124723    2.393    0.582
        72 -12.0170     50.3576    222.3891   7.4123566224e+01   2.1862141212e+01      0.26762    0.1198279  53.27 0.0007687748    2.000    0.500
        73 -12.6132    188.7774    220.8904   4.3098708348e+01   3.7748304348e+00    0.3357286    0.1854945  13.58  0.001302031    1.783    0.439
        74 -11.8564    124.7585    221.7750   5.6574060175e+01   1.2360560356e+01    0.2506411    0.1333344  28.50  0.001283571    1.546    0.353
        75 -12.8432     45.3680    220.0050   7.5160053481e+01   2.2891652994e+01    0.2996555     0.238722  19.33  0.001932144    1.356    0.262
        76 -13.3821     47.4573    215.7866   7.4385183836e+01   2.3510697465e+01     0.585542    0.2975123  25.28  0.002969439    1.804    0.446
        77 -12.9756     40.0523    213.9366   7.6072228418e+01   2.4701502937e+01    0.3532893    0.2787734  72.47  0.001243137    1.248    0.198
        78 -11.2446     45.5095    211.4970   7.4577863059e+01   2.4609986241e+01    0.3398369    0.1487403  28.37  0.001607358    1.939    0.484
        79 -11.1423    213.1483    221.1319   3.8712698300e+01   7.2443465896e-01    0.1828388     0.121474   3.40 0.0009686013    1.238    0.192
        80 -12.6810    173.7285    219.9105   4.5877979888e+01   5.8908281716e+00    0.2837686    0.2170755 -36.00 0.0009970437    1.533    0.348
        81 -11.8129     77.9849    219.8146   6.7306629150e+01   1.9034721230e+01     0.281814    0.1857626  15.91  0.001456249    1.638    0.389
        82 -10.2604     67.3245    220.3192   6.9912600533e+01   2.0271502626e+01    0.1196912   0.09474143  -8.28 0.0007045496    1.675    0.403
        83 -10.2598    223.2960    219.6768   3.6761489541e+01  -2.8527935402e-01   0.09239893   0.08449005   7.79 0.0007020989    1.621    0.383
        84 -10.9550    237.4650    220.4484   3.4578348409e+01  -1.9562348933e+00    0.1075565   0.07908667  -0.23 2.303377e-05    1.073    0.068
        85 -12.8169    145.6125    216.6600   5.1273193147e+01   1.0279082908e+01    0.3520459    0.3089676  71.43  0.001184468    1.661    0.398
        86 -12.1316    121.4971    216.8244   5.6695776205e+01   1.3675941620e+01    0.2596681    0.2205366  61.35 0.0004290483    1.436    0.304
        87 -11.8529     64.0529    217.2136   7.0450225061e+01   2.1283514907e+01    0.2074248    0.1811309  75.83  0.000804515    1.248    0.199
        88 -12.0210    129.6904    216.9019   5.4838150068e+01   1.2500145565e+01    0.2359678    0.1597346  10.29  0.001076637    1.562    0.360
        89 -12.5531    107.5569    214.7316   5.9694230986e+01   1.6020251484e+01    0.3447689    0.2775897 -79.72  0.001991078    1.635    0.388
        90 -11.3452    225.0490    215.6037   3.5836983597e+01   1.0601794048e-03    0.1732104    0.1354316 -15.91  0.001082109    1.277    0.217
        91 -12.1010     85.5623    214.6011   6.4969962020e+01   1.9057190380e+01    0.4580631    0.2564797  41.06   0.00239354    1.451    0.311
        92 -10.6818     77.3024    213.9703   6.6926476684e+01   2.0265140255e+01    0.1688497    0.1497475  47.90 0.0002047563    1.111    0.100
        93 -11.2806    155.8898    213.1354   4.8557070201e+01   9.3870129494e+00    0.2437324    0.1655325  20.12  0.001420204    1.261    0.207
        94 -11.7338    127.3310    213.0442   5.4865739829e+01   1.3507952997e+01    0.2880272    0.1385834  32.63  0.001300733    1.692    0.409
        95 -10.2716     72.5179    212.4888   6.7966017482e+01   2.1175583540e+01    0.1327195    0.1076083  39.93 1.153135e-05    1.011    0.011
        96 -12.5719    228.9717    208.1605   3.4010035040e+01   4.4564665257e-01    0.3405281    0.2002456 -17.68  0.001362063    1.495    0.331
        97 -12.6067    225.2190    204.3600   3.4010865083e+01   1.3644490939e+00    0.2845805    0.2018297 -29.34  0.001262966    1.444    0.307
        98 -11.4146     59.6868    210.9449   7.1017282662e+01   2.3081489749e+01     0.203417    0.1676626   5.78 0.0004258499    1.454    0.312
        99 -10.7042    187.3926    210.2013   4.1722489588e+01   5.4459665255e+00    0.1509528    0.1131577 -43.43 0.0009454496    1.726    0.421
       100 -11.3213    181.0944    208.6287   4.2700809968e+01   6.5343306603e+00    0.4479463    0.2132226   9.31  0.001688568    3.875    0.742
       101 -11.1534     96.6314    208.7558   6.1628723420e+01   1.8687903632e+01    0.2780769    0.1348888 -65.88  0.001188603    2.670    0.625
       102 -12.3942     52.9051    209.7356   7.2614920586e+01   2.4135036658e+01     0.289165    0.1997489  35.27 0.0008933343    1.197    0.164
       103 -11.4360     52.8452    203.8826   7.2181493259e+01   2.5376720615e+01    0.2185778    0.1442855  49.86  0.001225132    1.277    0.217
       104 -11.5654    169.5016    208.4976   4.5011707135e+01   8.1783427523e+00    0.2513227    0.1866041  61.72 0.0008650313    2.391    0.582
       105 -12.0982    160.9401    207.2344   4.6601033274e+01   9.6044567191e+00    0.2081166    0.1882866  19.71 0.0002397593    1.206    0.171
       106 -10.8131     94.8521    217.4735   6.3029407689e+01   1.7259774495e+01    0.1913897    0.1067149  31.68 0.0003037641    1.445    0.308
       107 -13.4076     36.8259    204.3181   7.6289415340e+01   2.7068710296e+01    0.5006219     0.366723  10.57  0.002934906    1.625    0.385
       108 -11.4339     92.9912    194.2694   6.0804946748e+01   2.2138726326e+01    0.5166321    0.3639099  82.89  0.002663275    1.871    0.466
       109 -12.1454     89.4156    201.4634   6.2586507129e+01   2.1157328928e+01    0.2837494    0.2452683 -61.88  0.001061075    1.367    0.268
       110 -11.7860    212.5060    200.3228   3.5508094163e+01   3.4827902700e+00     0.284182    0.2021469 -47.34  0.001745638    2.078    0.519
       111 -12.6581    144.7308    200.0494   4.9039486778e+01   1.3214802039e+01    0.4405627    0.3553885  64.83  0.001810698    1.753    0.430
       112 -12.4934    137.3126    197.4120   5.0332210815e+01   1.4819064576e+01    0.4408411    0.2806577  13.58 0.0005898266    1.733    0.423
       113 -12.3138    122.0811    196.2315   5.3768744761e+01   1.7381981785e+01    0.3641213    0.2423627  60.99  0.001694533    2.038    0.509
       114 -13.5354    174.1886    196.0748   4.2058798280e+01   9.4425582033e+00    0.5078995    0.3287919  50.93  0.002090833    2.166    0.538
       115 -11.9200    150.5179    198.3155   4.7475172794e+01   1.2636314532e+01    0.3154927    0.1790346  37.50  0.001146012    1.576    0.366
       116 -10.9476     84.3296    198.0552   6.3497283520e+01   2.2573719856e+01    0.3210705    0.1675833 -88.40  0.001283074    3.287    0.696
       117 -10.9259     49.0126    200.0000   7.2867575219e+01   2.6659275123e+01    0.2157183   0.06485613  27.35 0.0006191303    2.881    0.653
       118 -11.8687     91.6591    198.6900   6.1688900060e+01   2.1410899074e+01    0.2787655    0.2345637 -16.27 0.0009156913    1.447    0.309
       119 -10.8015    209.4140    211.1958   3.7818636768e+01   2.4406752774e+00      0.14231     0.103237 -35.47 0.0007860676    1.616    0.381
       120 -11.7358    116.3145    196.2218   5.5174948558e+01   1.8265076032e+01    0.3182021    0.1916129  52.60  0.001100736    1.894    0.472
       121 -12.6937    190.8516    194.7600   3.8536905690e+01   7.2188483583e+00    0.4425725    0.2974538  40.40  0.002581101    1.648    0.393
       122 -11.1480    101.2971    195.8377   5.8876509055e+01   2.0597929795e+01    0.2577163    0.1858365  32.86  0.001402643    1.177    0.150
       123 -11.6331    202.2513    195.0468   3.6453343006e+01   5.5797356056e+00    0.2029549    0.1509971  19.38 0.0004790848    1.182    0.154
       124 -11.8525    211.9984    193.8061   3.4500052094e+01   4.4325477758e+00    0.2627185    0.1414216  36.46  0.001466974    1.880    0.468
       125 -11.5885    160.7316    193.3206   4.4431845941e+01   1.1926498885e+01    0.2367705    0.2004849 -12.46 0.0008716978    1.172    0.146
       126 -11.4203    133.7911    191.0536   5.0175934478e+01   1.6544675838e+01    0.2883778    0.1833458  25.21   0.00125467    1.452    0.311
       127 -12.2636     51.1313    189.9343   7.1487832336e+01   2.8647585761e+01    0.2810178    0.2116247  43.21 0.0007013589    1.112    0.101
       128 -11.2110    174.6949    188.6230   4.0694208643e+01   1.0563360072e+01    0.2033222    0.1351935   2.71  0.001058983    1.660    0.398
       129 -11.4109    168.4685    188.9862   4.2052364115e+01   1.1460916533e+01     0.210426    0.1538743  27.01 0.0005969381    1.207    0.172
       130 -11.7859    110.7229    187.7731   5.5362198726e+01   2.0819684237e+01    0.3143602    0.1859642  26.89  0.001485127    1.581    0.368
       131 -11.6116     76.5751    185.3482   6.4082969268e+01   2.6409600081e+01    0.3358638    0.2018593 -62.40  0.001153112    1.856    0.461
       132 -11.7160    248.6526    185.8599   2.7248870009e+01   8.4563556541e-01     0.189952    0.1265205  10.00 0.0008385295    1.368    0.269
       133 -11.2857    208.8169    186.3644   3.3772249150e+01   5.9056084850e+00    0.1658528   0.09868157  21.68 0.0001935699    1.617    0.382
       134 -11.4989    156.9742    185.7106   4.3973556568e+01   1.3829187411e+01    0.2394077    0.1748018  -6.97  0.001077057    1.505    0.336
       135 -12.2394    126.5243    185.9403   5.1125894611e+01   1.8686991718e+01    0.4366014    0.1793824  35.91  0.001768899    2.096    0.523
       136 -10.2835     70.4933    186.5587   6.5881794071e+01   2.6968094720e+01    0.1435314    0.1167106  47.94 0.0001483719    1.072    0.068
       137 -14.9387     34.5888    231.7345   7.8310631069e+01   2.1748058848e+01     1.592337    0.6894442  88.49  0.007990819    2.772    0.639
       138 -11.0288    162.9434    184.5173   4.2461716365e+01   1.3085743619e+01    0.1957842    0.1730144   0.85  0.000994605    1.071    0.066
       139 -10.8193     65.6797    184.4622   6.6976424814e+01   2.8081194205e+01    0.1814456    0.1269194  20.66  0.000811361    1.479    0.324
       140 -11.4876     94.4145    181.9588   5.8807328590e+01   2.4565466345e+01     0.276237    0.2427518  87.54   0.00126033    1.289    0.224
       141 -10.4566    201.5870    182.4944   3.4387961466e+01   7.4961720883e+00    0.1254099    0.1029397  -2.01 0.0001089026    1.016    0.016
       142 -11.6001    134.0602    181.9895   4.8648861741e+01   1.8237480640e+01    0.2068466    0.1808581  23.31  0.001200692    1.005    0.005
       143 -10.9982    222.5892    180.7819   3.0424972439e+01   4.7938551737e+00    0.1594937    0.1015392 -37.88 0.0009500622    1.642    0.391
       144 -10.9413    141.8328    181.3454   4.6685178153e+01   1.7084359736e+01    0.1780558    0.1736296  18.51 0.0005263115    1.170    0.145
       145 -11.9546     40.5936    180.2613   7.3593681763e+01   3.2083696186e+01    0.2578548    0.1925615 -43.52  0.001418247    1.689    0.408
       146 -12.0162    117.7298    179.0143   5.2230593075e+01   2.1511574069e+01    0.5073535    0.3040211  63.92  0.001638835    2.660    0.624
       147 -10.3251     58.9731    180.2747   6.8409253008e+01   2.9910896434e+01    0.1633972     0.108934  34.25 0.0002127049    1.317    0.241
       148 -11.6943    191.1400    177.8502   3.5506772153e+01   9.7645080429e+00    0.1815398    0.1694882   1.63 0.0005545303    1.235    0.190
       149 -10.6914    166.6292    178.1829   4.0545748214e+01   1.3590138272e+01    0.1817262    0.1178666 -27.47 0.0002952048    1.644    0.392
       150 -11.3083    154.6893    177.1747   4.2990611197e+01   1.5733622414e+01     0.280256    0.1765528 -57.57  0.001223415    2.172    0.540
       151 -12.1761    137.3554    176.8036   4.6972987166e+01   1.8702314900e+01    0.3306036    0.2633322 -65.31 0.0005241194    1.619    0.382
       152 -12.2906    127.2917    176.1728   4.9339672458e+01   2.0514400578e+01    0.3828791    0.2710864 -43.44  0.001600997    1.557    0.358
       153 -11.5660     76.5145    176.0506   6.2961397202e+01   2.8536002658e+01    0.2021308     0.142563 -69.42  0.001026712    1.573    0.364
       154 -12.0440     31.8120    176.1932   7.5772761631e+01   3.3973474737e+01    0.2728853     0.176714  30.59 0.0006614242    1.420    0.296
       155 -11.2231    106.8672    175.1726   5.4464199726e+01   2.4093445902e+01    0.2245055    0.1817162  50.32 0.0005472011    1.217    0.179
       156 -10.9878     79.3232    173.2945   6.1805600819e+01   2.8771326811e+01    0.2303647    0.1382765  58.39  0.001029565    1.832    0.454
       157 -12.2848    198.0483    170.7918   3.2895457948e+01   9.8029299817e+00    0.2764149    0.2206186   5.12  0.001097537    1.122    0.108
       158 -11.0255    144.3350    172.6548   4.4570859051e+01   1.8326766241e+01    0.1407252    0.1105145  67.17 0.0007049444    1.768    0.434
       159 -11.4221     91.2473    170.8204   5.8081551757e+01   2.7546501165e+01    0.3381082    0.2631848 -23.70  0.001718025    1.620    0.383
       160 -14.4516     14.2588    165.5475   8.0183037176e+01   3.8152387674e+01     1.066267    0.5082424  41.00  0.005170932    1.753    0.430
       161 -13.3151     13.2332    161.4781   8.0268735962e+01   3.9233499340e+01    0.5984048    0.3270107  56.39  0.002121968    1.611    0.379
       162 -13.7082      4.3236    166.5201   8.3104181100e+01   3.8675148234e+01    0.7944128    0.2923377  55.78  0.003452817    2.317    0.568
       163 -13.3557      3.3546    160.5372   8.3152294479e+01   4.0194128498e+01    0.5672585    0.4158489  46.43  0.003407603    1.197    0.164
       164 -10.4767    164.4412    171.5275   3.9797450174e+01   1.5123753915e+01    0.1380536    0.1211692   8.96 0.0001046226    1.012    0.012
       165 -12.5097    153.0428    170.3490   4.2121888784e+01   1.7275356983e+01    0.2626542    0.2387864 -30.34  0.000316146    1.181    0.154
       166 -11.5097    153.3112    165.0032   4.1054049000e+01   1.8237864128e+01    0.2327293    0.1859875   2.26  0.001250757    1.311    0.237
       167 -11.2029     36.1925    170.7995   7.4094750106e+01   3.4821679418e+01    0.1744148    0.1615826 -23.69 0.0006719859    1.330    0.248
       168 -10.1386    221.7350    170.3458   2.8673938538e+01   6.3597608873e+00     0.108252   0.09209847 -46.30 0.0002615395    1.607    0.378
       169 -11.8853    120.0957    168.6146   4.9884683598e+01   2.3301937786e+01    0.6169863    0.3099685  18.06  0.002139213    3.145    0.682
       170 -10.3085    105.3136    170.3295   5.4113417118e+01   2.5407719035e+01    0.1467904    0.1120824 -10.08 0.0007044129    1.674    0.403
       171 -11.3610    102.0026    170.0109   5.4967329633e+01   2.6018946153e+01     0.218598    0.1962889  33.03 0.0003452349    1.028    0.027
       172 -10.4517     62.2087    170.6171   6.6422583513e+01   3.1781178842e+01    0.1957076    0.1307303  19.03  0.000549938    1.617    0.382
       173 -11.3089     85.1940    168.0763   5.9399088074e+01   2.9113719408e+01    0.3166646    0.1576172  53.43  0.001242105    2.273    0.560
       174 -11.4334     52.5936    167.8124   6.8956111663e+01   3.3683256259e+01     0.238879    0.1467992  36.19 0.0007550347    1.433    0.302
       175 -11.8826    203.3213    167.0777   3.1230420659e+01   9.5618931184e+00    0.1791658    0.1476894 -17.38 0.0004304957    1.095    0.087
       176 -11.3345    127.8195    165.8197   4.7394458116e+01   2.2556067804e+01    0.2230795    0.1899445   0.35 0.0007002525    1.256    0.204
       177 -11.8200    198.7318    164.7349   3.1618134838e+01   1.0642007545e+01    0.1870302    0.1585541 -83.88  0.001064566    2.066    0.516
       178 -10.6216    110.9761    165.2135   5.1723657730e+01   2.5593895276e+01    0.2066056    0.1099885  35.24 0.0008673464    1.694    0.410
       179 -10.4955    102.2931    165.2871   5.4122487789e+01   2.7033886910e+01    0.1423133    0.1134706  -7.36 0.0001877253    1.543    0.352
       180 -10.2625     64.3291    164.7211   6.5082815199e+01   3.2926594730e+01    0.1538474    0.0957522  55.62 0.0003585624    1.599    0.375
       181 -11.6363    141.8066    162.9434   4.3376980702e+01   2.0673914946e+01    0.2286319    0.1908289  28.32 0.0003333068    1.099    0.090
       182 -12.3656     25.0986    160.8719   7.6648942109e+01   3.8366370852e+01    0.3439624    0.1960563 -50.68  0.001369282    2.066    0.516
       183 -10.9422     40.5101    161.5398   7.1983497900e+01   3.6640811748e+01    0.1407975    0.1237629  57.18 7.117695e-05    1.005    0.005
       184 -12.0728    169.7335    159.2767   3.6296526480e+01   1.6410578288e+01    0.3203789    0.2453079 -76.17  0.001571531    2.215    0.549
       185 -11.4414    105.4443    158.9867   5.2168815989e+01   2.7935487552e+01    0.3251969    0.2313542  65.22  0.001161782    1.724    0.420
       186 -11.0494     69.6781    158.1157   6.2584811470e+01   3.3805950636e+01    0.1984009    0.1908149 -71.47  0.001133433    1.135    0.119
       187 -10.7441    160.1085    157.1135   3.7966257417e+01   1.8520356022e+01    0.1761567    0.1684868  64.03  0.001028195    1.264    0.209
       188 -11.0560     30.6820    163.6971   7.5167402267e+01   3.7129373108e+01    0.1311341      0.10204 -35.78 0.0002554763    1.624    0.384
       189 -11.7354     28.7753    156.2333   7.5156175022e+01   3.9185561156e+01    0.1827738    0.1586813 -45.28  0.001062191    1.356    0.263
       190 -10.5705    190.5379    155.4660   3.1332339745e+01   1.3477778986e+01    0.1336203    0.1182037  -3.99 0.0001639303    1.014    0.014
       191 -10.4426    141.4670    155.5324   4.2017522862e+01   2.2228511652e+01    0.1463416     0.135491  24.07 4.442363e-05    1.022    0.022
       192 -12.5042     14.3909    153.1461   7.9440288803e+01   4.1220984161e+01    0.6854998    0.2415135  68.01  0.002488662    3.169    0.684
       193 -14.3406     16.7314    132.3866   7.7216466606e+01   4.6399077908e+01     0.978245    0.6687199 -34.54  0.005006138    1.781    0.439
       194 -12.6475      9.9599    145.5101   8.0396828001e+01   4.3490489358e+01    0.3533447    0.2133024  38.31  0.000807309    1.516    0.340
       195 -13.3244     10.8716    142.1074   7.9897469113e+01   4.4297890562e+01    0.4489346    0.2579573  39.89  0.000334125    1.586    0.369
       196 -10.6523     20.7633    154.5886   7.7541264311e+01   4.0331881557e+01    0.1827946    0.1101531  38.92 0.0005281871    1.483    0.325
       197 -11.7926     90.9726    149.9573   5.4796136909e+01   3.2507282758e+01    0.2212923    0.2045927  -9.75            0    1.212    0.175
       198 -10.2493     67.6309    153.6985   6.2595862015e+01   3.5195410810e+01    0.1496468    0.1137255 -18.89 0.0007032715    1.742    0.426
       199 -12.4645     51.9137    152.6223   6.7438807251e+01   3.7560617046e+01    0.3640715    0.2740641  23.96  0.001307469    1.361    0.265
       200 -12.2256     84.2214    149.8158   5.6829503288e+01   3.3646554674e+01    0.3319757    0.2695539  -3.44  0.001140024    1.519    0.342
       201 -11.9005    108.8531    149.0848   4.9385600032e+01   2.9609036825e+01    0.3115404    0.2651885 -44.73 0.0006003534    1.265    0.209
       202 -12.4116     96.5469    149.1410   5.2979850308e+01   3.1760626394e+01    0.3384396    0.2519772  52.73 0.0004020778    1.349    0.259
       203 -12.5151     27.6334    149.6435   7.4970215838e+01   4.0974221519e+01    0.4447402    0.2386648  18.12  0.002020589    2.017    0.504
       204 -12.2872     18.9603    149.0351   7.7722517901e+01   4.1896753080e+01    0.3695726    0.2540475  32.78  0.001246951    1.388    0.279
       205 -11.2249    146.9697    148.7339   3.9297988294e+01   2.2577415791e+01     0.233167    0.2066649 -34.77 0.0003724249    1.167    0.143
       206 -11.1483     37.4423    149.4777   7.1766230957e+01   4.0035505748e+01    0.1408126    0.1278892  65.16 0.0001046948    1.020    0.020
       207 -12.2321    171.1916    145.5151   3.3158223650e+01   1.8642767486e+01    0.2569004    0.2354307 -17.50 0.0003494972    1.062    0.058
       208 -10.9861    104.6833    145.3315   4.9863251516e+01   3.1232470934e+01    0.2331499    0.1869982  36.21 0.0005767397    1.167    0.143
       209 -12.5507    101.0960    141.7562   5.0223565137e+01   3.2723951916e+01    0.4754002     0.322425  54.53  0.001238626    1.576    0.366
       210 -12.6618     24.6038    144.3835   7.5516763558e+01   4.2609636420e+01    0.4013215    0.2178507  11.79  0.001793595    2.181    0.542
       211 -10.6871    143.8075    143.2105   3.8896988207e+01   2.4304587418e+01    0.2049313    0.1698996   2.19 0.0004368218    1.329    0.248
       212 -10.5701     85.5721    143.5637   5.5322894620e+01   3.4967219126e+01    0.1518209    0.1416666  48.21 9.984787e-05    1.003    0.003
       213 -12.8640     50.3653    142.3351   6.6643517699e+01   4.0404336181e+01    0.5278747    0.2228917  34.06  0.002076765    2.106    0.525
       214 -11.7676    208.8315    141.7411   2.5239317627e+01   1.2604330124e+01    0.2612139    0.2055223 -85.69  0.001160724    2.292    0.564
       215 -10.6185    178.8460    142.6161   3.0961856300e+01   1.7747878989e+01    0.1956942    0.1298361  52.13 0.0009484914    1.763    0.433
       216 -12.2275     93.7831    140.2907   5.2158796718e+01   3.4374770365e+01    0.3898201    0.3383306  -1.11  0.001214159    1.333    0.250
       217 -11.6197     60.0667    139.3835   6.2949115042e+01   3.9907175465e+01    0.2316765    0.1980227 -57.69  0.000340454    1.235    0.191
       218 -13.4143     40.3298    137.5191   6.9465628224e+01   4.2842585024e+01    0.5436152    0.3393587  84.64  0.001117449    1.720    0.419
       219 -12.8956     37.2856    134.3576   7.0151290880e+01   4.4007773591e+01    0.4274572    0.2670302 -14.43  0.001844033    2.334    0.572
       220 -10.8559    187.0299    143.7396   2.9589310176e+01   1.6063226866e+01    0.1860348    0.1680504   5.95 0.0003310192    1.046    0.044
       221 -12.5021    129.5156    137.3759   4.1272014296e+01   2.8335824467e+01    0.4130547    0.3198382  31.18 0.0005873988    1.271    0.213
       222 -10.8366     87.7721    138.1803   5.3634043355e+01   3.5931787876e+01    0.2091167    0.1826393 -12.01 0.0007116006    1.343    0.255
       223 -12.8531    123.1165    134.6992   4.2409640144e+01   3.0189359959e+01    0.4617145    0.3522516  16.83 0.0004075044    1.514    0.340
       224 -12.5199     68.1241    136.8938   5.9832687457e+01   3.9400646990e+01    0.3700396    0.2228818  51.50 0.0007968354    1.690    0.408
       225 -10.5130      1.6415    137.2919   8.2689397776e+01   4.6129736271e+01    0.1463559   0.07812748  53.11  0.000702894    1.692    0.409
       226 -11.7156     53.5766    136.0397   6.4670294127e+01   4.1645892963e+01    0.3560768    0.1377557  44.61  0.001274341    2.478    0.596
       227 -11.9770    174.6743    133.9390   2.9914034752e+01   2.0092899669e+01    0.2607888     0.218196  -5.36 0.0005229028    1.240    0.194
       228 -12.4516     59.3934    134.0790   6.2354672393e+01   4.1383622427e+01    0.4706539    0.1925093  40.30  0.001748134    2.227    0.551
       229 -12.4492    200.5241    132.9269   2.4804108341e+01   1.5447779359e+01    0.2305513    0.2132302 -14.40 0.0003047423    1.062    0.058
       230 -11.7725    103.1420    133.7196   4.7965977941e+01   3.4268236607e+01    0.2954358    0.1825444  41.86   0.00126148    1.526    0.344
       231 -13.6800      3.5093    151.6569   8.2739398641e+01   4.2377859283e+01    0.7383316    0.5436923 -46.99  0.004257015    1.614    0.380
       232 -12.5767     50.2355    130.4677   6.5022286267e+01   4.3542519379e+01    0.2930325    0.2308164 -16.97  0.001452287    1.584    0.369
       233 -11.7295    130.1785    128.4525   3.9082149363e+01   3.0149843064e+01    0.2609185    0.2429322 -47.16 0.0004263571    1.120    0.107
       234 -11.8186    122.2990    128.1957   4.1167365413e+01   3.1810664341e+01    0.3158714     0.272009 -52.81   0.00152893    1.223    0.182
       235 -13.3559     56.5979    128.2332   6.2394642316e+01   4.3304185283e+01    0.5495531    0.2210526  36.30  0.002037037    2.245    0.555
       236 -11.4511     31.2813    131.0876   7.1911991079e+01   4.5485969823e+01    0.2235906    0.1937308  43.86 0.0004331399    1.121    0.108
       237 -11.9454     83.3138    127.4784   5.2974263409e+01   3.9376670281e+01    0.3247602     0.176485 -45.39  0.001276001    2.044    0.511
       238 -10.6664    109.4657    127.5012   4.4704324911e+01   3.4530751229e+01    0.1563438    0.1498666  30.73 7.695626e-05    1.037    0.035
       239 -11.3586     64.7352    127.0186   5.9286456608e+01   4.2471386953e+01    0.2112307    0.1973463 -82.80 0.0004391033    1.075    0.070
       240 -12.0013     26.5071    125.2728   7.3012762664e+01   4.7482555945e+01    0.2433075    0.2325249  29.18 0.0009589872    1.130    0.115
       241 -12.5430      9.5739    125.7871   7.9269971944e+01   4.8640067615e+01    0.2627184    0.1167454 -75.59  0.001131422    2.034    0.508
       242 -11.5631     42.0280    124.6325   6.7161765705e+01   4.6080845841e+01    0.2570309    0.1991251  82.25  0.001308123    1.305    0.234
       243 -11.4145    169.8843    122.8453   2.8361887190e+01   2.3080865681e+01    0.2907588    0.1831769 -35.73 0.0005798566    1.572    0.364
       244 -11.0261    125.6993    124.0130   3.9247981596e+01   3.2048506403e+01    0.2123813    0.1997605 -39.17 0.0002226693    1.102    0.093
       245 -12.7188     11.3982    105.0479   7.6839902722e+01   5.4048668112e+01    0.3554181    0.2609839 -48.22  0.000852613    1.397    0.284
       246 -12.5398     11.3215    112.5308   7.7562578974e+01   5.2050407605e+01    0.3857013    0.1970364 -73.19  0.001098935    1.765    0.433
       247 -13.5831      5.3632    111.7181   7.9840474342e+01   5.2610912602e+01     1.350543      0.28994  53.28  0.003582099    5.929    0.831
       248 -12.6596      3.8232    107.4964   8.0142351015e+01   5.3809992024e+01    0.5447501    0.2192709  25.11  0.002323453    2.449    0.592
       249 -13.9950     13.7235    119.4186   7.7234360475e+01   5.0054421568e+01    0.5588659    0.4126216  73.03    0.0023187    1.280    0.219
       250 -13.1457      7.7248    118.2533   7.9410698949e+01   5.0745307469e+01    0.6077358    0.3026899  -0.91  0.001550511    2.582    0.613
       251 -14.2053     78.0587    119.6472   5.3136647256e+01   4.2268195502e+01    0.6651264    0.5799891  32.54 0.0005955463    1.139    0.122
       252 -12.0653     63.7741    121.5182   5.8618328631e+01   4.4057575450e+01    0.3552399    0.1715244 -60.33  0.001008764    2.051    0.513
       253 -11.8113     21.1388    121.7580   7.4650415708e+01   4.8878447658e+01    0.2806063     0.140341 -51.94  0.001209597    2.066    0.516
       254 -11.0647    212.0700    121.5385   2.0421570909e+01   1.5196038253e+01     0.178705    0.1288696  43.72   0.00037433    1.530    0.346
       255 -11.8801    193.1146    121.2439   2.3522584659e+01   1.8754706096e+01    0.2069059    0.1773753   3.54 0.0003638492    1.218    0.179
       256 -11.8950    105.0744    121.2244   4.4587864870e+01   3.6880169178e+01    0.3685759    0.1979711  45.93  0.001057251    1.825    0.452
       257 -11.5839    200.9430    120.4697   2.1994126126e+01   1.7398604596e+01    0.1949401    0.1341079  48.22 0.0005397644    1.595    0.373
       258 -11.3613     29.7935    116.7726   7.0756571603e+01   4.9466493510e+01    0.1978518    0.1819225 -65.62 0.0003735897    1.099    0.090
       259 -11.6613    120.9603    113.8608   3.8074808224e+01   3.5309370498e+01    0.3835598    0.2567375 -51.52  0.001453524    1.568    0.362
       260 -11.9568    115.4068    113.6004   3.9612476565e+01   3.6547071028e+01    0.3721968    0.2539783  -4.66  0.001401563    2.531    0.605
       261 -13.2687     63.3003    111.9240   5.6894600959e+01   4.6653202072e+01    0.5044251    0.3705294 -64.85 0.0006765444    1.376    0.273
       262 -10.9684    198.7006    111.4304   2.0312183527e+01   1.9299336639e+01     0.171054     0.129143  35.98 0.0005504011    1.452    0.311
       263 -11.8333     77.0173    107.7397   5.0828593422e+01   4.5492726586e+01    0.2223941    0.2025646  40.12 0.0004353838    1.073    0.068
       264 -10.5048    121.9688    107.0172   3.6012875122e+01   3.6613031184e+01    0.1828146    0.1815108  78.42            0    1.026    0.026
       265 -10.8926    105.4913    102.5001   3.9724848623e+01   4.1207316532e+01    0.2719311    0.2097234  37.79  0.001028231    1.285    0.222
       266 -10.3248    108.6949    107.6830   4.0107616598e+01   3.9326166198e+01    0.1648555    0.1567165  64.12 0.0003403935    1.050    0.048
       267 -11.8940    109.6436    103.9114   3.8813026729e+01   3.9993851391e+01     0.317344    0.2818433 -54.78 0.0003897038    1.165    0.141
       268 -11.5644     58.9374    113.9998   5.8975672210e+01   4.6749793193e+01    0.2706044    0.1987014  41.36 0.0006103083    1.321    0.243
       269 -11.6162    185.3624    101.3260   2.0184120352e+01   2.3688004674e+01    0.2305252    0.2128592  33.99 0.0002782534    1.150    0.130
       270 -11.3066    154.2396    101.1659   2.6317152585e+01   3.0558283868e+01     0.286857    0.2350807 -66.42  0.001217723    1.384    0.277
       271 -12.1073     78.6980    101.9781   4.8793591127e+01   4.6652024426e+01    0.3325591    0.2232622  44.26   0.00145703    1.458    0.314
       272 -12.1780     55.9263    101.4016   5.7556798547e+01   5.0516188264e+01    0.3331714    0.2276186 -47.56 0.0003937076    1.508    0.337
       273 -11.7583     57.8072     97.5051   5.5901666276e+01   5.1265112663e+01    0.3170377    0.2329021  43.66 0.0009497298    1.356    0.263
       274 -12.7577      5.5003     99.5047   7.8810995134e+01   5.5853339501e+01    0.5067899    0.2446322  51.98  0.002240816    2.147    0.534
       275 -12.2398      8.5490     97.4724   7.7308565103e+01   5.6239217443e+01    0.2609559    0.2319342  58.31 0.0008051031    1.135    0.119
       276 -11.1776     85.7346    100.2457   4.5778459334e+01   4.5766387065e+01     0.218786     0.189876 -12.75  0.001056598    1.349    0.259
       277 -10.9329    208.5341     99.5139   1.6007581404e+01   1.9276889750e+01    0.1341228     0.118742 -37.83 3.220611e-05    1.029    0.028
       278 -12.0161    162.0901     99.0691   2.4073075351e+01   2.9178609845e+01    0.2408684    0.1827291 -75.79   0.00112288    1.710    0.415
       279 -12.8776     93.5145     98.5834   4.2599728802e+01   4.4627298080e+01    0.5542435    0.3005876  42.39  0.001488523    1.781    0.438
       280 -11.9157    178.4199     96.5247   2.0227358989e+01   2.6001223690e+01    0.3091489    0.2309592 -60.18  0.001132967    1.504    0.335
       281 -13.9757     78.3052     92.6473   4.6465765271e+01   4.9049611841e+01    0.7835582    0.3830523  53.27  0.002715458    2.557    0.609
       282 -13.1942     74.9873     89.8295   4.6962295447e+01   5.0360310420e+01    0.4210089    0.2914224  28.56  0.001659907    1.527    0.345
       283 -11.4645     41.0807     91.6507   6.1829175926e+01   5.5045733882e+01     0.224621    0.1959028  85.74 0.0003777685    1.186    0.157
       284 -11.8819     88.6650     89.6238   4.1757761862e+01   4.7749339522e+01    0.2403901    0.1923751  -5.88 0.0006846548    1.621    0.383
       285 -10.9865     28.1259     90.3000   6.7492871416e+01   5.6760398697e+01    0.2213234     0.174854 -14.31 0.0008862003    1.427    0.299
       286 -12.2661      3.5712     88.7150   7.8689634625e+01   5.8808699618e+01    0.3315386     0.214479 -69.79  0.001737069    1.372    0.271
       287 -11.2018      2.2242     84.9851   7.8964603592e+01   5.9849345003e+01    0.2360196    0.1769239 -79.40 0.0002890852    1.199    0.166
       288 -12.0031     63.9584     88.7017   5.1125790765e+01   5.2569056392e+01    0.2228128    0.2008353  30.83 0.0005863576    1.112    0.100
       289 -12.5293     54.9804     85.7622   5.4212489185e+01   5.4730578887e+01    0.5534491    0.4589123 -22.61  0.002298055    1.352    0.260
       290 -11.0613     52.6231     80.0289   5.3737042266e+01   5.6542675826e+01    0.2383904    0.2132216  34.34 0.0004703073    1.122    0.109
       291 -11.2140     56.3023     77.9931   5.1474335205e+01   5.6495416008e+01    0.2471439    0.2134942  25.44 0.0004486321    1.172    0.147
       292 -10.6974     11.9274     86.6966   7.4557603683e+01   5.8928961569e+01    0.1828201    0.1749543  36.01 0.0004539259    1.123    0.110
       293 -10.7099    125.5197     86.4553   2.9211233012e+01   4.0188233150e+01    0.1579012    0.1519336  32.13 0.0004442248    1.079    0.074
       294 -10.5224     36.5257     86.4558   6.2825339543e+01   5.6941975924e+01    0.1442286    0.1387787 -57.34 6.914152e-05    1.016    0.016
       295 -12.2677    134.5813     83.9852   2.6116339525e+01   3.8510470620e+01    0.2868793    0.2711592  18.87 0.0006470377    1.150    0.130
       296 -10.2757    236.9921     83.9617   8.8517927629e+00   1.6222160340e+01    0.1461799    0.1216069 -38.31            0    1.007    0.007
       297 -10.8684    208.2943     83.7132   1.2318571525e+01   2.1729320547e+01    0.1331464   0.09483254 -61.21            0    1.545    0.353
       298 -12.2837    164.6540     83.0837   1.9246467529e+01   3.1463221710e+01     0.255007    0.2085987  79.83 0.0008653735    1.346    0.257
       299 -12.5264     88.7595     79.4030   3.8581100277e+01   5.0099405848e+01    0.4794023    0.2649042 -43.10  0.001384918    1.904    0.475
       300 -12.6098     65.3346     80.3480   4.8172941399e+01   5.4421489973e+01    0.4103967     0.254015 -25.99  0.001592356    2.333    0.571
       301 -11.1341      4.7697     79.9414   7.7210686147e+01   6.1076969155e+01    0.2128164    0.1638706 -53.78 0.0006237394    1.212    0.175
       302 -10.8082     10.4844     82.0189   7.4646628679e+01   6.0252884970e+01     0.211744     0.175647  64.46  0.001209587    1.251    0.201
       303 -11.5449      8.9769     77.8340   7.4841692625e+01   6.1437797926e+01    0.2774936    0.2038904 -71.66  0.001086959    1.232    0.188
       304 -11.6318    151.8510     81.1975   2.1309068647e+01   3.4854401900e+01    0.2055626    0.1796036  23.90 0.0003450774    1.316    0.240
       305 -11.7073    112.5404     78.5744   3.0453676118e+01   4.4897259761e+01     0.434301     0.291825 -84.10  0.001637519    2.449    0.592
       306 -10.3878    156.2478     77.6624   1.9375378054e+01   3.4419832051e+01    0.1529577    0.1116851 -64.73 0.0002790069    1.561    0.359
       307 -11.9890     75.0021     76.4985   4.2936817404e+01   5.3570740585e+01    0.2973566    0.2340799 -53.11 0.0005273083    1.305    0.234
       308 -11.5781     70.6870     76.9584   4.4862341970e+01   5.4281005904e+01    0.2194495    0.2019053 -54.69 0.0005610236    1.109    0.098
       309 -11.6196    184.0127     75.2519   1.3747047613e+01   2.8269251719e+01    0.2285202    0.1893421 -40.24 0.0003150089    1.136    0.120
       310 -10.9741    115.9537     75.0048   2.8300778286e+01   4.4806032831e+01    0.2990312    0.2026536  50.97  0.001306288    1.426    0.299
       311 -10.4865    129.8774     73.9628   2.4213939934e+01   4.1591333574e+01    0.1816074    0.1699762  61.18 0.0003836852    1.039    0.037
       312 -12.3938     70.2574     70.5383   4.2942344720e+01   5.5869632320e+01     0.520046    0.3412237  -0.52  0.001079535    2.641    0.621
       313 -11.5907      2.8039     71.2648   7.7202279007e+01   6.3426428411e+01      0.37772    0.1867119  88.75  0.001680457    2.086    0.521
       314 -11.4094    105.1002     73.1367   3.0953833768e+01   4.7782219521e+01     0.281715    0.2312221  66.53  0.000557142    1.284    0.221
       315 -11.5288    162.9216     68.8890   1.5556004802e+01   3.4281526394e+01    0.2211661     0.197566  26.50            0    1.303    0.233
       316 -11.6035    154.3194     68.4734   1.7060037053e+01   3.6472658197e+01    0.2488479    0.2341975 -64.13 0.0001676426    1.032    0.031
       317 -12.4164     54.6951     68.9877   4.9471174185e+01   5.8961544199e+01    0.2758724    0.2106025  -4.80 0.0007819383    1.593    0.372
       318 -12.1294     50.3220     68.7060   5.1504165745e+01   5.9705596155e+01    0.2479329    0.2068782  60.19 0.0005586815    1.351    0.260
       319 -11.4516      8.6696     67.1218   7.3435000810e+01   6.4253510957e+01    0.2190637    0.1814755  32.44 0.0005645734    1.312    0.238
       320 -11.9048     12.1132     60.5940   7.0297803898e+01   6.5749204602e+01    0.4423392    0.1976481 -48.77  0.001794803    1.988    0.497
       321 -10.8093    172.9509     62.3143   1.1964647881e+01   3.2882296013e+01    0.1963845    0.1780805  80.43  0.000393334    1.099    0.090
       322 -10.8315    123.5269     61.5448   2.1737610927e+01   4.5472599798e+01    0.1561424    0.1478689  74.69 0.0001051806    1.008    0.008
       323 -11.2503    109.9238     60.3339   2.5029403121e+01   4.9123935508e+01    0.2271585    0.1991847  53.72 0.0005507093    1.089    0.082
       324 -11.9918     41.9801     57.7165   5.2236135087e+01   6.3552930586e+01     0.364358    0.2935334 -25.82  0.001198716    1.286    0.223
       325 -12.5163     35.8715     55.6106   5.4952827462e+01   6.4851637602e+01    0.5904614     0.402404   1.22  0.002834918    1.717    0.418
       326 -12.4105    110.4732     56.1441   2.3348968600e+01   4.9749560365e+01    0.4153087    0.2462115  64.98  0.001675718    1.853    0.460
       327 -13.1499    115.5633     53.7850   2.1078211675e+01   4.8868349715e+01     0.431184    0.3162084 -76.81  0.000381865    1.712    0.416
       328 -11.2701    179.5503     56.0199   9.2030441485e+00   3.2230857802e+01    0.2024463    0.1820639  88.69 0.0001491789    1.094    0.086
       329 -12.3760    109.1839     51.9722   2.2165412109e+01   5.0810056950e+01    0.3389904    0.2829282  79.55 0.0003359876    1.270    0.213
       330 -10.7801    197.1640     54.1889   6.3984574483e+00   2.8385566825e+01    0.1924794    0.1402918 -64.73 0.0004403718    1.357    0.263
       331 -12.3564     23.1484     55.5449   6.2469721126e+01   6.6215841579e+01    0.3499916    0.2729502 -21.02  0.001491539    1.305    0.234
       332 -12.6432    100.6495     50.2573   2.4042286113e+01   5.3256662802e+01    0.5089306    0.3177536 -73.82  0.001866194    2.763    0.638
       333 -11.3766    174.5175     51.4848   8.6480797538e+00   3.4103014054e+01    0.1436679    0.1300673 -68.34 5.582851e-05    1.009    0.009
       334 -12.7082     30.4412     50.0188   5.6293915232e+01   6.6823476774e+01     0.392602    0.2645901  43.54  0.001813448    1.658    0.397
       335 -10.8739    173.2502     48.5562   7.9890458216e+00   3.4828831279e+01     0.203706    0.1249538  54.25 0.0009505108    1.707    0.414
       336 -11.4480     19.2943     47.9629   6.2723114125e+01   6.8400176715e+01    0.2033767     0.161011 -53.61  0.001146878    1.170    0.145
       337 -11.2565    153.8538     57.1152   1.3694662407e+01   3.8435333777e+01    0.2360683    0.1923678 -68.88 0.0005623726    1.251    0.201
       338 -10.9714    211.0043     48.0285   3.3158930902e+00   2.6152237481e+01    0.1939716    0.1643792 -52.95 0.0003183309    1.010    0.010
       339 -10.1632    155.2815     41.3029   8.4991361492e+00   4.0394018531e+01    0.1402545    0.1120672  32.22 0.0002274711    1.552    0.355
       340 -13.1206     34.4476     39.6380   4.9798287991e+01   6.8698851057e+01    0.4275487    0.3464263 -75.51  0.002319488    1.562    0.360
       341 -10.7102    113.8565     38.8636   1.5879615189e+01   5.1706521512e+01    0.2039798    0.1713655 -76.81 0.0002853096    1.273    0.215
       342 -10.6903    118.6550     38.2839   1.4501940349e+01   5.0521134426e+01    0.1571294    0.1130669 -77.19 0.0003873348    1.643    0.391
       343 -11.1040    102.9564     38.4835   1.8615756699e+01   5.4610999735e+01    0.2245214     0.132421  84.81 0.0008097378    2.670    0.625
       344 -11.0843      9.9490     36.7186   6.5892489714e+01   7.1750475851e+01    0.1801307    0.1594354 -13.58  0.000376041    1.103    0.094
       345 -10.2689    145.9784     36.0076   8.2911506169e+00   4.3551177417e+01     0.178813     0.157251  82.50 0.0003921521    1.052    0.049
       346 -11.8004    114.5966    247.9946   6.1734992884e+01   9.4489137730e+00    0.2812322    0.1099036 -52.44   0.00139616    3.240    0.691
       347 -11.4018     14.9160     33.0676   6.0893788524e+01   7.2252435319e+01    0.1968664    0.1751458 -25.78 0.0003668191    1.016    0.016
       348 -10.5321    106.6565     32.2832   1.5048015315e+01   5.4554245038e+01    0.1541955    0.1129707 -78.29 0.0003324743    1.638    0.390
       349 -11.6495    214.8629    247.2367   4.2199635411e+01  -2.5126895528e+00    0.1688013    0.1305535   4.06 0.0005444103    1.221    0.181
       350 -13.0351     76.0799     26.5155   2.1930611999e+01   6.3110516845e+01    0.3285486    0.2983236 -81.65  0.000564707    1.271    0.213
       351 -10.7992     19.4636     27.9188   5.5255949684e+01   7.2990540752e+01    0.1932749    0.1263509 -58.53  0.001013738    1.575    0.365
       352 -11.8623     85.6703     24.5527   1.7621506671e+01   6.1035518695e+01    0.2778595    0.2121547 -81.49 0.0008229728    1.651    0.394
       353 -12.1382     31.4124     32.2696   4.8500693816e+01   7.0676683575e+01    0.4106017    0.2126126  44.32  0.001793816    2.296    0.564
       354 -10.1104     66.3016     23.2741   2.4171214633e+01   6.5861827998e+01    0.1443147     0.103688  24.57 0.0001720124    1.536    0.349
       355 -11.8042     89.7890     21.7520   1.5008821427e+01   6.0355511390e+01    0.2312424    0.2291608 -66.30  0.000301202    1.104    0.094
       356 -11.6466    116.5610     18.5934   7.1798776184e+00   5.3615358974e+01    0.2393031    0.2208852  81.99 0.0002105077    1.036    0.035
       357 -10.7429     92.4470     18.2188   1.2573259012e+01   6.0099582305e+01    0.1968552    0.1323115 -43.32 0.0006079106    1.640    0.390
       358 -10.8987     63.6076     17.7727   2.2281312779e+01   6.7255321581e+01    0.2024164     0.167094   8.38 0.0005065461    1.298    0.230
       359 -10.8962     75.6163     14.7888   1.5986939764e+01   6.4784048857e+01    0.1961978    0.1274209 -41.05 0.0007880254    1.730    0.422
       360 -10.1570    140.2953     11.7420   8.0642522205e-01   4.7893920883e+01    0.1431528   0.09549499 -68.81 0.0001645457    1.498    0.333
       361 -10.4784    237.7216    247.3369   3.8474836676e+01  -4.8615034742e+00   0.08479283   0.07141781   4.35 0.0002517458    1.614    0.381
       362 -11.3063    106.1814    246.8578   6.3427817514e+01   1.0686042434e+01    0.1608371    0.1203437  13.38 0.0004122037    1.326    0.246
       363 -11.9940     99.2356    246.9609   6.4939189795e+01   1.1538312029e+01    0.2910846    0.1452743  20.78  0.001192708    1.958    0.489
       364 -10.0737    226.2843    246.3091   4.0167454192e+01  -3.6088859457e+00    0.1071893   0.05971496   0.10 0.0001774461    1.569    0.363
