#   1 NUMBER                 Running object number                                     
#   2 MAG_AUTO               Kron-like elliptical aperture magnitude                    [mag]
#   3 X_IMAGE                Object position along x                                    [pixel]
#   4 Y_IMAGE                Object position along y                                    [pixel]
#   5 X_WORLD                Barycenter position along world x axis                     [deg]
#   6 Y_WORLD                Barycenter position along world y axis                     [deg]
#   7 A_WORLD                Profile RMS along major axis (world units)                 [deg]
#   8 B_WORLD                Profile RMS along minor axis (world units)                 [deg]
#   9 THETA_WORLD            Position angle (CCW/world-x)                               [deg]
#  10 FWHM_WORLD             FWHM assuming a gaussian core                              [deg]
#  11 ELONGATION             A_IMAGE/B_IMAGE                                           
#  12 ELLIPTICITY            1 - B_IMAGE/A_IMAGE                                       
         1 -14.5887    147.4489     60.7353   9.0657035844e+01   4.0016333665e+01     1.374903     1.121271  -7.62  0.001127815    1.306    0.234
         2 -14.7744    158.1551     45.6000   8.3439700784e+01   3.9715267780e+01     1.383304     1.083482 -31.09  0.004776713    1.292    0.226
         3 -14.7789    169.7623     14.3266   7.1271279437e+01   4.0559696536e+01     1.415764     1.032185  38.09   0.00474668    1.399    0.285
         4 -13.2544    189.2051     14.0948   6.8503752512e+01   3.5632992444e+01    0.6197619    0.3989402 -65.94  0.002160014    1.829    0.453
         5 -11.4969    218.3770    220.4758   1.1330938086e+02  -1.4689106929e+00    0.3585566    0.1636613 -42.86   0.00175751    2.927    0.658
         6 -19.9852     92.1772    226.5611   1.3703572753e+02   1.7709432930e+01     7.827459     6.006167  61.05   0.05538242    1.052    0.049
         7  -9.8523     24.1468    216.3710   1.4803312887e+02   2.7693550902e+01   0.09045022   0.05745432 -71.58 0.0003152588    1.580    0.367
         8 -12.3338    165.2926    171.6723   1.1478481208e+02   1.5329518906e+01    0.2824464    0.2246077  74.96  0.001498958    1.641    0.391
         9 -12.9586    230.2627    168.0023   1.0147687835e+02   3.5274857770e+00    0.4786495    0.2555878 -32.84  0.002316235    1.864    0.464
        10 -13.0267    153.9032    152.7180   1.1346715795e+02   2.1078348660e+01    0.4524604    0.3373874  82.90  0.002148631    1.950    0.487
        11 -13.9576    163.7046    156.7972   1.1218219130e+02   1.8362562428e+01    0.5724873    0.4752624 -31.64  0.002112287    1.274    0.215
        12 -13.9404    159.9671    151.1707   1.1181868109e+02   2.0170828415e+01    0.5422125      0.42122 -29.30  0.002684339    1.401    0.286
        13 -10.8206      5.7023    162.1858   1.4786260506e+02   3.9786597369e+01    0.1711335    0.1208453  64.42 0.0007270629    1.286    0.222
        14 -11.5248    192.2504    157.9241   1.0651907383e+02   1.2446120793e+01    0.3516304    0.2478025  10.48  0.001672398    1.727    0.421
        15 -11.3066    192.2116    153.1848   1.0551236901e+02   1.3264922147e+01    0.2787472    0.2120509 -47.88  0.001144674    1.495    0.331
        16 -13.0915     11.4211    205.9883   1.4957029203e+02   3.0789346337e+01    0.3568785    0.2354243  32.02  0.002132922    1.934    0.483
        17 -11.5729     13.2047    240.0664   1.5098203803e+02   2.4725377367e+01    0.1282694    0.1040404  86.82  0.001019196    1.347    0.257
        18 -11.4027    151.6092    238.2520   1.2773820367e+02   6.9599793044e+00    0.2963949    0.1710552  28.42 0.0009811247    1.924    0.480
        19 -11.1236     18.0652    151.5213   1.4441886996e+02   4.1009080675e+01    0.5016981     0.133976 -67.18  0.002249885    2.797    0.642
        20 -13.2545    173.6492    148.7331   1.0836162902e+02   1.7852929906e+01    0.4210532     0.408205 -68.21  0.001558684    1.162    0.140
        21 -12.4623     27.8363    144.7927   1.4157529245e+02   4.1596765875e+01    0.4015814     0.322055  86.68  0.002215459    1.070    0.066
        22 -10.5699     27.5618    138.2880   1.4091936781e+02   4.3038544975e+01    0.1877048    0.1508044  22.93  0.001004682    1.628    0.386
        23 -10.5614     29.2669    201.1276   1.4616923301e+02   2.9973000893e+01    0.1420907    0.1140469 -84.50 0.0005594914    1.226    0.184
        24 -12.3633    173.9729    140.6234   1.0649321556e+02   1.9288055594e+01    0.2797771    0.2204141 -48.18 0.0007503481    1.370    0.270
        25 -11.5069     28.2773    236.4546   1.4850562916e+02   2.3811165202e+01    0.1661607   0.09741724 -86.45   0.00121784    1.508    0.337
        26 -11.5503     21.6634    234.5007   1.4943032602e+02   2.4811967469e+01    0.1487429   0.09464864 -89.61 0.0006201522    1.335    0.251
        27 -13.6416    160.8049    128.1786   1.0647693301e+02   2.4448786632e+01     0.483426    0.4800052 -37.81  0.001788065    1.059    0.056
        28 -12.8304    142.0086    121.6810   1.0926274454e+02   2.9694875241e+01    0.5377495    0.3361713  75.31  0.001949001    3.104    0.678
        29 -13.0490     35.1681    124.8348   1.3735962964e+02   4.5317692558e+01    0.4016735    0.3302258  13.38   0.00268758    1.613    0.380
        30 -11.1469    167.6889    112.7071   1.0110649968e+02   2.5926239617e+01    0.3044001    0.2264349 -81.32  0.001320121    2.058    0.514
        31 -11.4619     20.0395    196.3446   1.4749465945e+02   3.1786180303e+01    0.1644395      0.11752 -71.03 0.0004900899    1.424    0.298
        32 -10.8926    205.3549    110.2449   9.2805499766e+01   1.7841482483e+01    0.3071293    0.2035554  43.25 0.0008582518    1.523    0.343
        33 -12.1886     30.1407    104.8769   1.3573216567e+02   5.0237963410e+01     0.380947    0.2346056  -5.16    0.0011508    2.625    0.619
        34 -10.0818      4.7906    233.2016   1.5194047074e+02   2.6644515816e+01    0.1056357   0.08090502  68.86 0.0003635458    1.196    0.164
        35 -11.5526    125.0463     95.3509   1.0669062668e+02   3.8579761387e+01     0.300545     0.136503  37.87  0.001103387    2.459    0.593
        36 -11.6601     42.0252     92.7702   1.3006682210e+02   5.1845915148e+01    0.3470289    0.1733799 -67.15  0.001684477    1.901    0.474
        37 -19.1483     76.9075    100.5804   1.2139894547e+02   4.5872533733e+01     17.51227    0.7632981 -53.96   0.02399652   19.703    0.949
        38 -12.4720     51.4217     91.8152   1.2700315586e+02   5.1070023334e+01     0.311536    0.2626985  -2.74 0.0007726494    1.423    0.297
        39 -11.4141      3.3372     89.9346   1.4118366592e+02   5.5423088558e+01    0.1955741    0.1639709 -29.07  0.001131058    1.429    0.300
        40 -10.5398    105.2018     82.1587   1.0834050121e+02   4.5139915548e+01    0.2097903     0.186973 -14.68 0.0003783232    1.126    0.112
        41 -11.0326    142.5190     81.0028   9.8130638425e+01   3.7618811796e+01    0.2337894    0.2099548  38.45 0.0005440178    1.118    0.105
        42 -10.1362    242.2791    184.6320   1.0271266883e+02  -8.7549748054e-01    0.1130751    0.1017561 -53.64 0.0007011418    1.685    0.407
        43 -11.0978    163.0243    246.0009   1.2670333107e+02   4.1192368907e+00    0.2397333    0.1276766  42.75 0.0007522998    1.460    0.315
        44 -13.2417    161.9245     36.8383   7.9853314821e+01   3.9960485184e+01    0.4741813    0.4029948  46.72 0.0008621028    1.126    0.112
        45 -10.0314     21.7024     60.0359   1.2957039234e+02   6.0677758966e+01    0.1674838    0.1233041 -50.79 0.0003060729    1.057    0.054
        46 -11.1258     13.3922     59.8849   1.3254342498e+02   6.1279555158e+01    0.1628221    0.1545737 -66.19 0.0004252343    1.250    0.200
        47 -10.1370     28.1503    222.9300   1.4776048238e+02   2.6128450290e+01    0.1498676   0.09234504  69.77 0.0005007525    1.254    0.202
