#   1 NUMBER                 Running object number                                     
#   2 MAG_AUTO               Kron-like elliptical aperture magnitude                    [mag]
#   3 X_IMAGE                Object position along x                                    [pixel]
#   4 Y_IMAGE                Object position along y                                    [pixel]
#   5 X_WORLD                Barycenter position along world x axis                     [deg]
#   6 Y_WORLD                Barycenter position along world y axis                     [deg]
#   7 A_WORLD                Profile RMS along major axis (world units)                 [deg]
#   8 B_WORLD                Profile RMS along minor axis (world units)                 [deg]
#   9 THETA_WORLD            Position angle (CCW/world-x)                               [deg]
#  10 FWHM_WORLD             FWHM assuming a gaussian core                              [deg]
#  11 ELONGATION             A_IMAGE/B_IMAGE                                           
#  12 ELLIPTICITY            1 - B_IMAGE/A_IMAGE                                       
         1 -13.6559     68.2251    145.5025   1.2938348470e+02   3.7832124976e+01      3.25056     1.446697 -88.72  0.003492301    6.328    0.842
         2 -13.1288      2.2574     24.4068   1.2591542329e+02   7.0791318980e+01     1.187325    0.3834707 -60.51  0.005497743    2.892    0.654
         3 -13.8657      2.2125      8.9475   1.1997073367e+02   7.3505751934e+01     2.602218     1.013741 -48.54   0.01460465    1.977    0.494
         4 -14.0770    190.1933     24.7349   6.7572208698e+01   3.4626140770e+01     1.997839     1.330828 -17.47  0.006747907    1.799    0.444
         5 -13.6792    197.5894     19.1063   6.5073901428e+01   3.3362613535e+01     1.310368     0.795924 -43.26  0.004156193    1.614    0.380
         6 -13.9719    203.4827     11.2552   6.2295473977e+01   3.2712317332e+01     1.440581    0.9326208  50.35  0.001411871    1.680    0.405
         7 -11.4778     13.1203     24.0499   1.2018342763e+02   7.0172124113e+01      0.20925    0.2040453  21.37 0.0009279498    1.441    0.306
         8 -11.1947    245.1647    249.6855   1.0920572010e+02  -1.0218881041e+01    0.2925268    0.1282526  45.81  0.001508969    2.694    0.629
         9 -11.1061    162.4901    249.7244   1.2361835406e+02   2.3061919553e+00    0.3480276    0.1504183  49.27  0.001720454    2.107    0.525
        10 -12.0670    139.5267    248.0874   1.2760257205e+02   6.1974684990e+00    0.4626011    0.2690552 -50.72  0.002763715    2.207    0.547
        11 -11.2192    103.8919    237.0979   1.3300771024e+02   1.3513218122e+01    0.3552361     0.235285 -43.62   0.00106459    2.273    0.560
        12 -12.6226    101.4833    249.3703   1.3463731169e+02   1.1835930740e+01    0.6795424    0.4294085  75.33  0.004255494    1.720    0.419
        13 -11.7787     96.4443    248.4965   1.3545993122e+02   1.2715136797e+01    0.4770726    0.2508043 -81.51  0.002517099    2.541    0.606
        14 -12.3393    106.4603    246.5405   1.3347144754e+02   1.1554860533e+01    0.5033028    0.2092002  51.11  0.002576367    1.960    0.490
        15 -11.4256    103.6422    243.3007   1.3367020004e+02   1.2508330490e+01    0.3167263    0.1839578  60.03 0.0009815167    1.545    0.353
        16 -15.0809     35.1580    246.4453   1.4590598771e+02   2.1070816136e+01     6.978679     1.840207  34.35   0.02852432    4.793    0.791
        17 -14.8349     10.9227    152.2241   1.4438306600e+02   4.2447998767e+01     2.369835     1.044312 -89.55 0.0008536974    2.069    0.517
        18 -13.6887     47.4775    228.0579   1.4264831946e+02   2.2907835135e+01    0.7074608     0.380904 -89.51  0.001967635    1.770    0.435
        19 -15.8444     55.3625    213.0654   1.4003546352e+02   2.4791662497e+01     9.035401     4.162718  70.44   0.04478182    2.351    0.575
        20 -13.8256     81.7293    235.8329   1.3700388520e+02   1.6981484052e+01      1.31914    0.5482165  71.56  0.003858194    4.393    0.772
        21 -14.2988     11.3348    206.7310   1.4789976144e+02   3.0934861054e+01     1.255838    0.7994773  64.79  0.002901445    1.197    0.165
        22 -12.5022     68.3261    222.5716   1.3835371579e+02   2.1259705457e+01    0.3220616    0.2065623  65.53  0.000657669    1.303    0.233
        23 -10.5855    173.1876    220.6025   1.1758794333e+02   4.7890727541e+00    0.1913952    0.1037302  33.62 0.0006300261    1.705    0.413
        24 -10.0665    228.6377    205.5325   1.0472068117e+02  -2.5221751273e+00    0.2143246    0.2004136 -46.21 0.0006609532    1.499    0.333
        25 -10.4720    192.7481    194.6170   1.0944364251e+02   5.3937809253e+00    0.7761156    0.3870726 -61.84  0.002222307    6.942    0.856
        26 -11.8969     70.6192    193.1185   1.3502782544e+02   2.6824757475e+01    0.3697682    0.2493373 -46.21  0.002055049    2.045    0.511
        27 -11.8173     75.3197    186.1919   1.3322025450e+02   2.7633082068e+01    0.2854522    0.2341384 -56.23 0.0005821104    1.442    0.307
        28  -8.7861    181.4991    192.4487   1.1128390679e+02   7.8497434328e+00    0.1377187    0.1209374  31.32 0.0001108444    1.013    0.012
        29  -9.5405     65.5669    186.6158   1.3540674330e+02   2.8898950087e+01    0.2687643    0.1889093 -27.68  0.001366143    2.731    0.634
        30 -11.3299     83.8098    174.5087   1.2980533196e+02   2.8927749746e+01    0.2336169     0.213392 -88.40 0.0003170662    1.124    0.111
        31 -13.4244     71.5502    171.7333   1.3228474034e+02   3.1338661875e+01    0.4695559    0.2810557 -45.35  0.001649024    2.199    0.545
        32 -12.7545     89.9886    166.1120   1.2713251482e+02   2.9841934617e+01     1.800727    0.5786422  51.01  0.001845888    3.570    0.720
        33  -9.5835    230.4948    167.4898   9.7047753559e+01   2.6612856845e+00    0.2883588    0.1017279 -48.82 0.0008105905    5.747    0.826
        34 -10.8185     37.7143    161.9243   1.3904890237e+02   3.7755680665e+01     0.239402    0.1622084  52.96  0.001291885    1.412    0.292
        35 -10.0517    102.0193    149.7141   1.2141687977e+02   3.1574242064e+01    0.2587495    0.2545294 -89.71 0.0006441958    1.133    0.117
        36  -9.7484    104.4923    145.9981   1.2009298308e+02   3.1993121476e+01     0.409866    0.2042946 -41.73  0.001599022    2.525    0.604
        37 -12.2683     90.9685    149.0756   1.2411078405e+02   3.3578919465e+01     0.274309    0.2542096 -43.04 0.0004585405    1.257    0.204
        38 -12.0918     44.9958    145.5388   1.3537543622e+02   4.0722298548e+01    0.4255697    0.2712631  84.64   0.00231641    1.565    0.361
        39 -10.6237    200.6610    249.3339   1.1673772524e+02  -3.6597931608e+00    0.1926092    0.1274748  47.56  0.001212205    1.532    0.347
        40  -9.8446    112.2561    135.4636   1.1596601836e+02   3.2993473002e+01    0.3041621    0.2369511 -16.89   0.00119749    1.810    0.448
        41 -12.4694     44.2091    128.7536   1.3326312537e+02   4.4754019367e+01    0.6500115    0.2584843 -79.12  0.002418033    3.225    0.690
        42  -9.4312    108.5122    122.9932   1.1421059024e+02   3.6560903531e+01    0.2017044     0.193883  65.97  0.000207569    1.050    0.047
        43 -11.2953    168.1992    113.2139   9.6864752909e+01   2.5766803114e+01    0.4083035    0.3318398 -81.16 0.0009558036    1.509    0.337
        44  -9.5875    204.8391    110.8446   8.8795616342e+01   1.7597935341e+01    0.3827968    0.1743005  37.67  0.001320183    2.870    0.652
        45 -10.7525     99.6992    132.7040   1.1870761440e+02   3.5915331461e+01    0.2682992    0.2357749 -21.50 0.0009237655    1.399    0.285
        46  -9.4568    155.4819     76.5068   8.9420487273e+01   3.5913407867e+01    0.1542187    0.1519943  45.68 0.0001260371    1.020    0.019
        47 -11.2893    124.9999     52.5464   8.8997898598e+01   4.7455856411e+01     0.503047    0.3293239  79.08  0.001460911    2.352    0.575
        48 -11.0317    198.4904    246.4958   1.1671886670e+02  -2.9758414022e+00    0.4425858     0.218025 -21.49  0.002094583    3.435    0.709
        49 -10.9045    143.0491    241.5138   1.2617720001e+02   6.6274136468e+00    0.1804619    0.1298767  44.53 0.0007518322    1.092    0.085
        50 -12.1843    126.4699    245.5094   1.2970721605e+02   8.6492634338e+00    0.3636867    0.2448076  70.41  0.002240427    1.676    0.403
        51 -10.3623    249.0111    243.5222   1.0761999394e+02  -1.0115139144e+01     0.173857   0.08799144  34.63 0.0007921687    1.617    0.382
        52 -15.5518      5.0960    237.2020   1.5036433245e+02   2.5863348552e+01     8.263799          nan -70.86   0.02690999    8.647    0.884
