#   1 NUMBER                 Running object number                                     
#   2 MAG_AUTO               Kron-like elliptical aperture magnitude                    [mag]
#   3 X_IMAGE                Object position along x                                    [pixel]
#   4 Y_IMAGE                Object position along y                                    [pixel]
#   5 X_WORLD                Barycenter position along world x axis                     [deg]
#   6 Y_WORLD                Barycenter position along world y axis                     [deg]
#   7 A_WORLD                Profile RMS along major axis (world units)                 [deg]
#   8 B_WORLD                Profile RMS along minor axis (world units)                 [deg]
#   9 THETA_WORLD            Position angle (CCW/world-x)                               [deg]
#  10 FWHM_WORLD             FWHM assuming a gaussian core                              [deg]
#  11 ELONGATION             A_IMAGE/B_IMAGE                                           
#  12 ELLIPTICITY            1 - B_IMAGE/A_IMAGE                                       
         1 -13.5064    154.8280     51.1694   8.7498403099e+01   4.0155038866e+01     1.515703     1.174456  23.32  0.005092072    1.395    0.283
         2 -13.7477    166.3665     35.6517   8.0083270424e+01   3.9379501116e+01     1.208498    0.9235755 -11.43  0.004238116    1.333    0.250
         3 -13.0285    180.7603      4.3796   6.7654598803e+01   3.8939168062e+01    0.9507062    0.6050387  70.79  0.004104952    1.567    0.362
         4 -10.0756    176.9706    245.0000   1.2416414199e+02   6.3957086885e+00    0.1814784   0.04514349  36.47 0.0005314171    2.998    0.666
         5 -19.8254     65.4054    166.8693   1.3737451191e+02   3.3244553018e+01     16.95554      4.18722 -68.22   0.06031451    4.532    0.779
         6 -12.2205    204.2653    198.1796   1.1293403989e+02   8.0567478809e+00    0.4948012     0.258236  22.84  0.002719154    1.824    0.452
         7 -10.2190    170.0136    204.9635   1.2016565507e+02   1.2178320023e+01    0.1752416    0.1649374  23.27 0.0004877415    1.284    0.221
         8 -10.1060    130.0329    206.1122   1.2800508136e+02   1.7720733447e+01    0.2187669    0.1468955  20.18 0.0009143604    1.561    0.360
         9 -10.9962    142.9088    200.3559   1.2471754033e+02   1.6767903157e+01    0.4104416    0.1605016  44.95  0.001893439    2.450    0.592
        10 -10.7969    177.8565    197.0176   1.1751256970e+02   1.2092749456e+01    0.2509788    0.2286815  87.00  0.001486709    1.759    0.432
        11 -11.8470    180.2567    193.5726   1.1652451831e+02   1.2197446521e+01    0.4250985    0.3388701 -65.81  0.002631866    2.188    0.543
        12 -11.6809    135.4200    196.0724   1.2562987668e+02   1.8509643723e+01    0.3330607    0.2498244  75.38  0.001570555    1.972    0.493
        13 -11.3697    158.6967    194.5754   1.2079404926e+02   1.5300658363e+01    0.3386863    0.2294616 -65.05  0.001878731    2.528    0.604
        14 -10.4405    169.9717    195.4855   1.1876053219e+02   1.3480741858e+01    0.1738676    0.1522941  -9.81 0.0007043901    1.212    0.175
        15  -9.4203      1.2271    196.3702   1.5312452072e+02   3.3585752293e+01   0.08860977   0.06688437 -66.93 0.0006883655    1.593    0.372
        16  -8.9353    228.6663    236.3450   1.1463450388e+02   7.9176298292e-01   0.08934491   0.07578421  34.62 0.0007049823    1.764    0.433
        17  -9.8720    182.3974    189.2493   1.1542765532e+02   1.2458861742e+01    0.1449925    0.1148815 -41.28 0.0003716311    1.585    0.369
        18  -9.5228     25.8000    232.1215   1.4986947028e+02   2.5551300785e+01    0.1053099   0.09384666  64.60 0.0004432368    1.280    0.219
        19  -9.6672    165.4585    188.5124   1.1854403653e+02   1.5160845324e+01    0.1228658    0.1028172  23.44  0.000179835    1.023    0.023
        20 -11.9106    207.5886    183.7612   1.0992714439e+02   9.3292383023e+00    0.3486796    0.2878996  11.83  0.001156884    1.093    0.085
        21 -11.9275    210.4993    181.5323   1.0902606859e+02   9.1644807074e+00    0.3873707    0.2469886 -10.60  0.001817186    1.579    0.367
        22 -10.2715    157.4934    184.5131   1.1948423810e+02   1.6987740954e+01    0.1889051    0.1216942 -56.47 0.0007215503    2.191    0.544
        23 -10.9307    123.9102    185.1258   1.2650734023e+02   2.1973965510e+01    0.2618536    0.1486976  51.49  0.001173563    1.881    0.468
        24 -10.8156    197.8017    176.3488   1.1036388798e+02   1.1803957866e+01    0.3490106    0.2733463 -47.68  0.001625271    1.815    0.449
        25 -10.0027    145.7641    178.5416   1.2093051739e+02   1.9758204237e+01     0.177651    0.1064532  44.97 0.0005218727    1.600    0.375
        26 -11.2047    179.0060    174.3018   1.1352845501e+02   1.5100365611e+01    0.2656103    0.1962715 -36.18  0.001389476    1.503    0.334
        27 -12.1128    137.1461    171.1129   1.2156570671e+02   2.2358631077e+01    0.5654089    0.2409963  32.98  0.002466461    2.297    0.565
        28 -11.2581    145.0584    169.0583   1.1952663669e+02   2.1444306180e+01    0.3866214     0.294089  47.94  0.002286192    1.349    0.259
        29 -10.1728    205.3212    170.7018   1.0797339975e+02   1.1358506286e+01    0.2217494    0.1469775  17.29 0.0008993577    1.400    0.285
        30 -10.7663    226.9807    168.9397   1.0391383180e+02   8.1812979814e+00    0.3251132     0.128922 -40.76  0.001403641    3.355    0.702
        31 -10.9036    140.4870    174.5149   1.2139808360e+02   2.1252652156e+01    0.2097391    0.1838782  72.13 0.0006711393    1.426    0.299
        32  -9.3491     21.9463    166.8510   1.4748675558e+02   3.7606302981e+01    0.1458501    0.1405518  30.29  0.001107022    1.318    0.241
        33  -9.8750    123.2239    166.3856   1.2387546031e+02   2.5379868601e+01    0.2583278    0.1345141  47.90 0.0009591347    1.945    0.486
        34 -10.0869    200.3885    164.0795   1.0761351214e+02   1.3050479849e+01      0.24433    0.2274865 -50.50  0.001531707    1.561    0.359
        35 -10.1318    123.6347    158.6783   1.2252279591e+02   2.6739639534e+01    0.3058975    0.2140118  89.81  0.001377292    2.328    0.570
        36 -11.8297    133.9749    145.6022   1.1777213018e+02   2.7482993311e+01     1.002006     0.280234 -53.96  0.002793888    5.815    0.828
        37 -10.4570     22.2671    241.3855   1.5080857549e+02   2.4442252130e+01    0.1217574   0.09426342 -80.09 0.0007160346    1.532    0.347
        38 -10.0822    174.6497    148.6721   1.0951933780e+02   1.9765857279e+01    0.2529586    0.2088519 -39.40 0.0009562115    1.356    0.262
        39 -11.3613    143.7898    145.4004   1.1548119875e+02   2.5814746509e+01    0.3720875     0.268516 -77.99  0.001780732    2.332    0.571
        40 -12.9126      4.5998    111.7990   1.4828031443e+02   5.0868952008e+01    0.8146362    0.5406046  13.27  0.005109037    1.896    0.473
        41 -12.7460      5.2520    139.6530   1.4989834728e+02   4.4577913998e+01    0.4913029    0.4594312  78.11  0.003855455    1.201    0.167
        42 -12.1959      2.9524    127.0834   1.4977126807e+02   4.7491244942e+01     1.237165    0.2487583 -84.28  0.004062952    5.021    0.801
        43 -12.0687    106.5054    139.1092   1.2323320862e+02   3.3323481526e+01    0.3713345     0.273864  52.71 0.0005678239    1.404    0.288
        44 -11.0090     20.8616    236.6115   1.5088305744e+02   2.5289135477e+01    0.1239331    0.1003204  68.22 0.0004300766    1.191    0.161
        45 -11.7329    106.2041    130.8113   1.2174759840e+02   3.5099629288e+01    0.4176094    0.3754751  85.83   0.00155729    1.219    0.180
        46 -10.9725    109.3987    125.7782   1.1990181820e+02   3.5628734969e+01     0.278653    0.2497149 -37.13 0.0004883672    1.147    0.128
        47 -11.4523    120.0449    129.5734   1.1794439478e+02   3.3025650555e+01    0.3836627    0.3314692  76.88  0.001417945    1.373    0.272
        48 -10.4764    160.6022    128.3417   1.0810517914e+02   2.5780800711e+01      0.26305    0.2291316  40.14  0.001493824    1.175    0.149
        49 -10.9130    135.7592    123.7412   1.1278532236e+02   3.1348321159e+01    0.2886008    0.1803724 -48.24  0.001357696    1.683    0.406
        50 -10.8861    125.2342    126.9054   1.1607674327e+02   3.2648711045e+01    0.5017942    0.3392632 -87.04  0.002087886    2.808    0.644
        51 -10.4575    126.1118    121.6699   1.1470495932e+02   3.3540108389e+01    0.3613864    0.1798811  49.85  0.001100082    2.246    0.555
        52 -11.7577    116.2539    138.9677   1.2076088154e+02   3.1770572503e+01    0.4310641    0.2891318 -39.95  0.002209596    1.611    0.379
        53 -10.5127    114.0361    118.9189   1.1721119026e+02   3.6269410348e+01    0.2087047     0.204751  34.95 0.0003945904    1.025    0.025
        54  -8.5060    173.3216    118.6901   1.0313477988e+02   2.4949510040e+01    0.1347831    0.1165192 -79.16 0.0007036285    1.647    0.393
        55 -11.3514     98.7325    111.0788   1.1966014327e+02   4.0568297256e+01    0.3097864    0.2184214 -51.54 0.0007807791    1.394    0.283
        56 -10.7571     10.7882    214.7758   1.5191978778e+02   2.9644625080e+01    0.2579859    0.1225835 -49.58  0.001465989    3.698    0.730
        57 -10.2657    189.6650    213.3024   1.1781762899e+02   8.3225064664e+00    0.1033607   0.08306205  48.60 0.0006325518    1.661    0.398
        58 -10.5049    134.6465    103.8429   1.0823511514e+02   3.5447701107e+01    0.4587168    0.1322506 -46.46  0.001375338    3.731    0.732
        59 -10.3128    165.6988    207.3377   1.2130994304e+02   1.2481789842e+01    0.2429108    0.1852726  37.55 0.0008495044    1.215    0.177
        60 -10.0519    205.6279    110.2100   9.4907058404e+01   1.9820010152e+01    0.2561189    0.2134418  20.35 0.0006708135    1.149    0.129
        61  -9.5324    124.3232     94.9589   1.0853422826e+02   3.9274947744e+01    0.2062939     0.185417 -28.58 0.0004507262    1.087    0.080
        62 -10.6800    164.6968    204.3527   1.2107361601e+02   1.3032132034e+01     0.265188    0.2110431 -86.84  0.001259362    2.338    0.572
        63 -13.6672    193.5917    193.5137   1.1406841573e+02   1.0204467277e+01    0.9390415    0.6921581 -58.02  0.004017898    2.478    0.596
        64  -9.4935     13.6296     59.9112   1.3876765242e+02   6.2713661610e+01    0.1807079    0.1329034 -70.20 0.0004493372    1.140    0.123
        65  99.0000     13.8006    246.9865   1.5237771842e+02   2.4333387062e+01    0.1423951   0.08411188  88.56 0.0004026989    1.697    0.411
        66 -10.5401     13.8027    243.6088   1.5228210423e+02   2.4832173138e+01     0.102343   0.09010306  68.04 0.0009860022    1.327    0.246
        67 -12.2507    170.0506     27.9421   7.6878563427e+01   3.9358714987e+01    0.5012475    0.3736069  -4.06  0.001167217    1.426    0.299
        68  -9.6236    141.8195     32.8416   8.3573222926e+01   4.5938094391e+01     0.201446    0.1761121 -74.33 0.0004389693    1.336    0.252
