#   1 NUMBER                 Running object number                                     
#   2 MAG_AUTO               Kron-like elliptical aperture magnitude                    [mag]
#   3 X_IMAGE                Object position along x                                    [pixel]
#   4 Y_IMAGE                Object position along y                                    [pixel]
#   5 X_WORLD                Barycenter position along world x axis                     [deg]
#   6 Y_WORLD                Barycenter position along world y axis                     [deg]
#   7 A_WORLD                Profile RMS along major axis (world units)                 [deg]
#   8 B_WORLD                Profile RMS along minor axis (world units)                 [deg]
#   9 THETA_WORLD            Position angle (CCW/world-x)                               [deg]
#  10 FWHM_WORLD             FWHM assuming a gaussian core                              [deg]
#  11 ELONGATION             A_IMAGE/B_IMAGE                                           
#  12 ELLIPTICITY            1 - B_IMAGE/A_IMAGE                                       
         1 -12.7879    248.1294    125.2735   5.3263012562e+01   7.4849404592e+00     4.686268    0.5687897 -42.01   0.01177187    6.393    0.844
         2 -12.8652    228.0652     83.8236   4.7275340938e+01   1.8151516489e+01     3.190278     1.588683 -21.89   0.01120555    4.110    0.757
         3 -14.4686    228.9587     50.5924   3.9946776196e+01   2.3005519902e+01     3.601776     1.531934 -40.40   0.01691888    2.076    0.518
         4 -13.9495    239.6487     89.8079   4.7047158023e+01   1.4901235223e+01      2.40123     1.413804 -30.60   0.01208033    1.840    0.456
         5 -14.4314    245.4917     31.4956   3.4456185961e+01   2.2194381048e+01     4.101925    0.1737658 -44.12   0.01262696    5.519    0.819
         6 -14.4573    248.1371     13.1975   3.0732461189e+01   2.3874151430e+01     3.800485      2.17557 -39.83   0.02366322    1.650    0.394
         7  -9.5233    155.6338     16.0569   4.0576145185e+01   4.4040308064e+01    0.2605936    0.1245769 -28.32  0.001223112    2.377    0.579
         8 -11.2845    213.3380     12.4595   3.3242535631e+01   3.1133741608e+01    0.3544029    0.2229542  -3.24  0.001444763    3.378    0.704
         9  -9.9952    126.0000     11.9786   4.4152883925e+01   5.1460017394e+01     0.192734   0.07498387 -25.02 0.0008084335    2.984    0.665
        10 -11.1578    140.3870      9.6375   4.0988564278e+01   4.8293763295e+01    0.4786282    0.2410057 -81.32  0.001921956    3.198    0.687
        11  -9.2129    167.2761      8.5414   3.6997256894e+01   4.2031811944e+01    0.2010907    0.1120286 -28.68  0.001051151    2.057    0.514
        12  -9.2395    155.4228      9.0730   3.8648825562e+01   4.4782196329e+01    0.1720103    0.1253502 -30.54 0.0006644942    1.577    0.366
        13  -8.6562     18.6832      9.2713   7.9272478012e+01   7.1697396179e+01   0.09482541   0.08573411  23.33 0.0002402909    1.560    0.359
        14 -10.2411    189.8185      7.1931   3.4213007320e+01   3.6932729257e+01    0.2583452    0.1762886 -65.27 0.0006380773    1.361    0.265
        15  -9.2443    148.3155      7.5024   3.9183095575e+01   4.6613329152e+01    0.1986001    0.1182295 -27.09  0.001064324    1.950    0.487
        16  -9.8818    128.3128      7.6674   4.2352237350e+01   5.1314694325e+01    0.1286375    0.0910486 -71.61 0.0003032614    1.679    0.405
        17  -9.7055    110.8457      5.1517   4.4755908014e+01   5.5558329346e+01    0.1725583    0.1270448  38.82 0.0002514206    1.304    0.233
        18  -9.2009    185.7811      3.7815   3.3796417374e+01   3.8191329967e+01     0.186047    0.1437268 -31.87 0.0008051575    1.519    0.342
        19  -9.4444    153.3386      3.7785   3.7445815516e+01   4.5761269802e+01       0.2334    0.1324701 -48.45  0.001238503    1.902    0.474
        20  -9.3776    143.5052      3.5151   3.8703772580e+01   4.8105278211e+01    0.2296159    0.1271577 -24.47  0.001204137    2.141    0.533
        21 -10.7406    217.1606      9.3539   3.2260086841e+01   3.0646277584e+01    0.3185692    0.0843694 -41.61  0.001188951    2.995    0.666
        22  -8.8886    182.3936      3.1952   3.3989161248e+01   3.9024579284e+01    0.1652595   0.09942124 -48.07 0.0007532276    1.641    0.391
        23  -9.3185    158.6449      2.1523   3.6332676147e+01   4.4654496547e+01    0.1516272    0.1211507  -4.30 0.0009414683    1.671    0.402
        24  -9.6020    160.5697      8.7359   3.7881011612e+01   4.3595586572e+01    0.2069247    0.1297489 -20.94  0.001121803    2.001    0.500
        25 -10.2722    193.1564    237.9642   8.4423707398e+01  -2.8974062004e+00    0.2833835    0.2330077  48.67    0.0011971    1.562    0.360
        26 -10.5244    242.6913    248.4277   7.6935918118e+01  -1.0845781810e+01    0.3162616    0.1782049  27.25   0.00197804    1.613    0.380
        27  -9.9514    238.6475    245.3512   7.7148396722e+01  -9.9697855728e+00      0.23536    0.1958319 -64.30  0.001466671    2.552    0.608
        28  -9.8280    225.3188    249.6676   8.0201110408e+01  -8.9110924917e+00    0.2157277    0.1918724  51.51  0.001511194    1.878    0.468
        29 -10.7280    193.7529    248.6937   8.5963208420e+01  -4.6083236353e+00    0.3425685    0.2987463 -50.57  0.002333075    1.593    0.372
        30  -9.9964    189.5928    234.8084   8.4628496424e+01  -1.8827762062e+00    0.2433554    0.2210978 -39.04  0.001193421    1.356    0.262
        31 -10.3463    199.0280    227.0501   8.1502966889e+01  -2.0266337033e+00    0.3041981    0.2514333 -76.35  0.001507633    2.104    0.525
        32 -10.5470    206.9919    237.3814   8.1651648851e+01  -4.7621684785e+00    0.3359336     0.222547  45.58   0.00138856    1.895    0.472
        33 -10.5306    203.5452    232.7046   8.1554851665e+01  -3.5683626626e+00    0.2726443    0.2380592  37.22 0.0003964696    1.385    0.278
        34 -10.7814    231.1997    237.7747   7.7240314604e+01  -8.0307723191e+00    0.4171342    0.3405459 -89.39  0.002109228    3.331    0.700
        35 -10.3815    176.6023    240.5271   8.8121219071e+01  -8.8650228357e-01     0.350627    0.2093472 -67.08  0.001519631    3.706    0.730
        36  -9.8472    225.8647    231.8248   7.7221911601e+01  -6.4986976259e+00    0.1925676    0.1682022 -29.51 0.0006744852    1.389    0.280
        37 -10.2041    225.7772    243.4373   7.9132467485e+01  -8.1245517554e+00    0.2562587    0.2152374  35.11  0.001108188    1.539    0.350
        38 -10.1862    229.7668    228.5572   7.5968464383e+01  -6.5394811759e+00    0.2519931    0.2074567 -48.74 0.0009365625    1.744    0.427
        39 -10.3317    184.7429    227.9329   8.4497428153e+01  -3.7733411049e-02    0.2459291      0.22595 -62.85 0.0008814521    1.473    0.321
        40  -9.2643    174.1767    229.1958   8.6862580599e+01   1.3650421598e+00    0.1660365    0.1536794  53.66 0.0006933799    1.331    0.249
        41  -9.7838    211.8967    227.6545   7.9120981964e+01  -3.9723538351e+00    0.2265898    0.1724805 -34.28  0.001052072    1.376    0.273
        42  -9.6571    223.4835    226.7093   7.6799304880e+01  -5.4300367480e+00    0.2174948     0.197538 -23.72   0.00151214    1.348    0.258
        43 -10.4020    205.7608    225.2562   7.9892447329e+01  -2.7225923429e+00    0.3562667    0.2765308 -64.04  0.002033109    2.134    0.531
        44  -9.9436    190.6153    226.0642   8.3008001578e+01  -6.1515603881e-01    0.2811993    0.1504293 -41.49 0.0009977574    1.969    0.492
        45  -9.1421    162.5464    227.5144   8.9030113707e+01   3.4710777439e+00     0.131724    0.1167836  27.51 0.0008079795    1.059    0.055
        46 -10.3943    217.2105    223.4378   7.7406764121e+01  -4.0707118146e+00    0.3281573    0.2462658 -61.67  0.001359936    2.302    0.566
        47  -9.9114    180.5488    223.3273   8.4600914086e+01   1.3867912249e+00    0.2223857    0.1290963 -48.95  0.000824048    1.995    0.499
        48  -9.5715    186.3595    221.5087   8.3110477014e+01   7.9833365492e-01     0.355928    0.1517404 -49.40  0.001503739    2.826    0.646
        49  -9.6804    185.6640    215.1366   8.2173204826e+01   2.0083969437e+00    0.2356747    0.1290237 -48.40 0.0008330456    2.070    0.517
        50 -10.8357    240.8466    208.7475   7.0573614865e+01  -5.0777984961e+00    0.4609938    0.2969531 -56.64  0.002185975    2.753    0.637
        51 -11.0299    240.9439    179.8359   6.5220991766e+01  -5.2994619042e-01     0.981198    0.3925637 -51.69  0.003424896    4.321    0.769
        52 -11.3062    248.0494    217.1983   7.0825495280e+01  -7.2583827779e+00     0.517186     0.314092 -44.07  0.002445863    1.916    0.478
        53 -10.0047    223.7260    173.0239   6.6893752781e+01   3.3056936337e+00    0.3099293    0.1977256 -50.39  0.001322501    1.754    0.430
        54  -9.9747    249.7808    185.6725   6.4855988164e+01  -2.7394189651e+00    0.2587807    0.1933298 -39.76  0.001093808    1.332    0.249
        55 -10.8827    246.5545    177.1705   6.3781577730e+01  -9.2152522706e-01    0.7100835    0.4982524 -77.79  0.003159784    3.770    0.735
        56 -10.7158    236.9378    187.0294   6.7268917596e+01  -1.1141853338e+00    0.5117463    0.2586667 -45.49  0.002482554    2.055    0.513
        57 -10.4056    234.6711    180.5695   6.6432228090e+01   2.9076184916e-01    0.6165788    0.3598112  45.41  0.003193841    2.060    0.515
        58 -10.5210    237.4489    198.1865   6.9255189678e+01  -2.9790539561e+00    0.5171438    0.2352438 -41.63  0.002489859    2.101    0.524
        59  -9.8680    230.1335    187.4449   6.8539332644e+01  -1.6734726128e-01    0.5503644    0.2232356 -45.94  0.002313409    2.625    0.619
        60 -10.6779    233.0741    213.1617   7.2721251669e+01  -4.6946150952e+00    0.4965865    0.2876573 -50.43  0.002537524    2.408    0.585
        61 -10.2250    223.9318    183.8970   6.8975908451e+01   1.3870808856e+00    0.4374219    0.2103633 -49.22  0.001359118    2.444    0.591
        62 -10.0843    227.2045    176.9892   6.7050012048e+01   2.0572578896e+00    0.4963836    0.2654628 -21.68  0.002182098    2.357    0.576
        63 -10.0655    228.0099    171.5379   6.5838001581e+01   2.8708001204e+00    0.2520787    0.1719838 -50.94  0.001026928    1.653    0.395
        64 -10.7669    231.0271    194.4112   6.9688314353e+01  -1.4479685213e+00     0.566551    0.2169541 -36.60  0.002440013    2.411    0.585
        65 -10.7512    246.4432    193.1431   6.6792650710e+01  -3.4451047691e+00    0.4432456     0.303723 -54.51  0.002463802    2.103    0.524
        66  -9.8531    241.7119    191.7603   6.7335332599e+01  -2.5652786922e+00    0.2545784    0.2126684   4.98  0.001322027    1.142    0.124
        67 -11.1393    227.8885    199.6501   7.1219463727e+01  -1.8387119589e+00     1.023831    0.3023582 -47.92  0.003221736    5.137    0.805
        68 -10.2605    224.4818    192.5065   7.0511214809e+01  -1.5526651326e-01     0.425597    0.1842095 -42.24   0.00190331    2.217    0.549
        69 -10.6749    247.2371    206.6986   6.9116096568e+01  -5.6188958826e+00    0.4015832    0.2105921 -47.69  0.001435899    2.413    0.586
        70 -10.5168    243.4316    201.4420   6.8817432792e+01  -4.3152575461e+00    0.3288836    0.2918423 -37.41   0.00159519    1.391    0.281
        71 -10.5577    193.4391    218.7663   8.1217264212e+01   1.7413725993e-01    0.3700977     0.294519 -61.25  0.001707861    1.794    0.443
        72  -9.9201    211.0275    218.6080   7.7746443217e+01  -2.4302648724e+00    0.2452513    0.1811462 -34.07  0.001477244    1.356    0.262
        73 -10.0082    220.0305    217.0639   7.5781292725e+01  -3.4802140118e+00    0.2262149    0.2131574  -5.14   0.00104664    1.298    0.230
        74 -10.8129    217.7084    212.1884   7.5358124835e+01  -2.3750590431e+00    0.4139892    0.3784474  84.36  0.002630915    1.766    0.434
        75  -9.2478    158.8750    217.8822   8.8288554412e+01   5.8199934980e+00    0.2083513    0.1754004   0.32 0.0009568008    1.231    0.188
        76 -11.0907    226.3065    212.3147   7.3791099153e+01  -3.6255811733e+00    0.7302907     0.295912 -50.91  0.002685657    4.348    0.770
        77  -8.9083    205.4576    217.4976   7.8627041628e+01  -1.4310826846e+00    0.1913954    0.1130934 -27.86 0.0006983154    1.731    0.422
        78  -9.1820    205.0162    212.9324   7.7916248013e+01  -6.1238512085e-01    0.2207554    0.1825727 -56.44   0.00112002    1.645    0.392
        79 -10.4395    228.7176    221.9146   7.5027981875e+01  -5.4230000902e+00    0.3704854    0.2090574  37.88  0.002045429    1.882    0.469
        80  -9.6777    170.4686    217.0223   8.5663016416e+01   4.0996691869e+00    0.1924946    0.1318807 -43.84 0.0005965934    1.568    0.362
        81  -9.2802    151.4117    216.5093   8.9696148360e+01   7.3000188305e+00    0.1349016    0.1234408  23.10 0.0001255033    1.016    0.016
        82  -9.0988    138.4288    215.0026   9.2344722639e+01   9.7280453269e+00    0.1929282     0.136913 -53.79 0.0005187019    1.561    0.359
        83  -8.6314    165.6927    214.3431   8.6236396181e+01   5.3689900006e+00      0.13172      0.10738  70.49 0.0007043135    1.691    0.409
        84 -10.1946    193.4961    210.1272   7.9706974557e+01   1.6466508840e+00    0.3242039    0.1269484 -43.62   0.00133488    2.620    0.618
        85  -8.7614    174.3010    222.6438   8.5783125434e+01   2.4829650886e+00    0.1256106    0.1049526  70.26 0.0007037698    1.708    0.415
        86  -9.8634    206.4675    207.8678   7.6734286713e+01   1.4938139315e-02    0.2633446    0.2170776 -47.36  0.001317926    1.453    0.312
        87 -10.4977    171.9483    208.3811   8.3881076076e+01   5.4530507246e+00    0.2751271    0.2118339  82.62  0.001308788    2.163    0.538
        88  -9.0601    183.1369    207.1701   8.1307997144e+01   3.8362796620e+00    0.1710731     0.163645 -69.80 0.0007713297    1.328    0.247
        89  -9.1174    156.0000    206.0003   8.6949429731e+01   8.5838433813e+00    0.2143904   0.07987708 -49.14 0.0005707525    2.869    0.651
        90  -9.9036    217.1775    204.7740   7.4128863683e+01  -1.0915671339e+00    0.2430382    0.1695142 -29.61 0.0009177517    1.331    0.249
        91  -9.4065    202.4878    204.5162   7.6909386387e+01   1.2045297954e+00     0.247308    0.1248826 -42.38  0.001037412    1.991    0.498
        92 -10.5343    197.3271    204.2853   7.7892866017e+01   2.0612732901e+00     0.334755    0.1990451 -38.86  0.001483656    1.668    0.400
        93  -8.7894    124.2928    205.7404   9.4146204422e+01   1.3976299242e+01    0.1373208    0.1027986  62.33 0.0006892761    1.496    0.332
        94  -9.4920    212.6080    203.8051   7.4817761332e+01  -2.4060032610e-01     0.205766    0.1728833  80.98 0.0006494112    2.061    0.515
        95  -9.3856    210.1983    200.0845   7.4598250479e+01   7.6078113448e-01     0.267511    0.1569569 -43.20  0.001301661    1.736    0.424
        96  -9.8827    187.2083    203.2348   7.9761069327e+01   3.8859911288e+00    0.3286818    0.2148234 -63.45  0.001518999    2.431    0.589
        97  -9.6924    172.9227    203.6086   8.2835976086e+01   6.1899040075e+00    0.2471265    0.2013766 -50.45 0.0006493925    1.378    0.274
        98  -9.5182    235.1850    202.3990   7.0420370274e+01  -3.3230527580e+00    0.1925499    0.1384629 -36.32  0.000747483    1.349    0.259
        99 -10.1163    164.7396    202.4950   8.4413819518e+01   7.7882311727e+00    0.2803784    0.1769634 -61.66  0.001285317    2.149    0.535
       100 -10.3477    250.1922    201.0080   6.7600821516e+01  -5.1560274707e+00    0.3297944    0.1505719 -37.95  0.001396749    1.940    0.485
       101  -9.3791    222.6268    200.4538   7.2326722465e+01  -1.1936796684e+00    0.3410138    0.2236405  43.86  0.001803446    1.801    0.445
       102  -9.6707    215.5265    198.1114   7.3218507942e+01   2.7160785389e-01     0.275277     0.120484 -46.06  0.001182584    2.462    0.594
       103 -10.1432    202.0534    196.9348   7.5603562847e+01   2.6005657824e+00    0.3171074    0.1938049 -43.73  0.001126629    1.671    0.402
       104  -9.5380    176.3247    197.5786   8.1021906658e+01   6.7635904716e+00    0.2381123    0.1666064 -55.20 0.0007914876    1.698    0.411
       105  -9.7252    161.8349    198.1640   8.4286904414e+01   9.1405159519e+00    0.1938047    0.1602525 -13.12 0.0007444887    1.301    0.231
       106  -9.8642    184.3240    195.8663   7.9013792408e+01   5.7292342860e+00    0.3812486    0.1816288 -38.93  0.001632033    2.145    0.534
       107  -9.6374    219.2001    194.3142   7.1822821405e+01   3.4852282608e-01    0.2189531    0.1684849 -62.40 0.0009572527    1.950    0.487
       108  -9.7567    209.2769    194.1867   7.3679043530e+01   1.9253980792e+00    0.3231634    0.1704683 -38.19  0.001261168    1.810    0.448
       109  -9.3519    161.7011    192.5267   8.3296942614e+01   1.0297349457e+01    0.2496124    0.1289679 -47.78  0.001065484    2.015    0.504
       110  -8.9000    157.4329    193.4751   8.4429044451e+01   1.0855565024e+01    0.1415454    0.1336769  14.31 0.0001483859    1.008    0.008
       111  -9.2505    146.0000    193.0434   8.6968255417e+01   1.2958425632e+01    0.2273598   0.08259911 -50.50  0.000706004    2.892    0.654
       112  -9.3906    215.0893    191.8559   7.2130985094e+01   1.4088624626e+00     0.190018    0.1791928 -42.48 0.0008286607    1.296    0.228
       113  -9.6852    198.6991    190.8500   7.5127420065e+01   4.2441522018e+00    0.2999795    0.2271411 -52.79  0.001069318    1.559    0.359
       114  -9.0129    167.6294    192.2553   8.1930884663e+01   9.3095202573e+00    0.1952396    0.1295999 -36.05 0.0005661846    1.573    0.364
       115  -9.4593    172.5725    190.6999   8.0559078130e+01   8.7509432753e+00      0.26824    0.1336613 -41.91  0.001135999    2.045    0.511
       116  -9.4078    185.4791    190.0540   7.7682416029e+01   6.6315340829e+00    0.2085893      0.13367 -41.58 0.0007781902    1.557    0.358
       117  -9.8035    210.4807    188.0595   7.2286117812e+01   2.8090676833e+00    0.3066461    0.1524168 -43.40  0.001395913    1.976    0.494
       118 -10.2938    210.4189    183.2733   7.1375449316e+01   3.6711954604e+00    0.4475939    0.1599635 -35.89  0.001647964    2.912    0.657
       119  -9.4320    220.4749    187.4094   7.0281431928e+01   1.3272130642e+00    0.2692765     0.119487 -40.32   0.00101947    2.101    0.524
       120  -9.7110    215.1857    186.8412   7.1158694649e+01   2.2647417310e+00    0.2490221    0.1690806 -48.24 0.0006396847    1.626    0.385
       121  -9.5740    166.0391    186.3173   8.1171052888e+01   1.0788652042e+01    0.2045818    0.1856016  29.98 0.0007700407    1.074    0.069
       122  -9.5181     77.8017    185.8062   1.0253336601e+02   2.5863360324e+01     0.196924    0.1914365 -24.20 0.0008119028    1.205    0.170
       123 -10.1069    203.5094    183.4326   7.2746979523e+01   4.7939308464e+00    0.3973292    0.2042394 -47.92  0.001643853    2.081    0.519
       124 -10.2387    197.6170    178.2434   7.2898733383e+01   6.7673962978e+00    0.7416406    0.1870628 -41.66  0.002300166    3.859    0.741
       125  -9.2444    156.6811    185.3316   8.3096727396e+01   1.2676038060e+01    0.1454759    0.1162109  76.94 0.0007048224    1.691    0.409
       126  -9.1480    218.1529    183.1503   6.9893122775e+01   2.4337981805e+00    0.2562431    0.1638964 -35.86  0.001344209    1.440    0.305
       127 -10.2886    219.1923    177.8956   6.8677786928e+01   3.1879629156e+00    0.6216713    0.2768854 -50.89  0.002464564    2.864    0.651
       128  -9.8241    183.2440    182.5000   7.6699648110e+01   8.4790242396e+00    0.2689485    0.1916907 -40.89 0.0008177714    1.389    0.280
       129  -9.3036    176.8921    181.5563   7.7873121962e+01   9.7996817960e+00    0.2781077    0.1910689 -61.95  0.001296322    1.910    0.476
       130 -10.0783    190.9827    179.5594   7.4507793193e+01   7.6798246055e+00    0.2763434    0.1967024 -58.50  0.001360097    1.760    0.432
       131  -9.3564    165.5136    179.9989   8.0074408952e+01   1.2180977059e+01    0.2185509    0.1423513 -45.69 0.0008644934    1.557    0.358
       132 -10.4662    205.3345    177.0241   7.1130896257e+01   5.6617504481e+00    0.3182393    0.2434428 -42.20 0.0008316207    1.295    0.228
       133  -9.9957    169.2991    177.9777   7.8833866739e+01   1.1904176161e+01    0.2091931    0.1841753 -36.09 0.0006767388    1.133    0.118
       134  -9.9285    210.5047    175.5085   6.9834207985e+01   5.0592460946e+00    0.3478186    0.1259004 -45.12   0.00103782    2.744    0.636
       135  -9.5180    182.5445    175.9810   7.5560826150e+01   9.8881067736e+00    0.2175923    0.1373757 -43.41  0.000782667    1.566    0.361
       136  -9.1521    161.6552    176.3173   8.0224704413e+01   1.3660514443e+01    0.1484226    0.1179955  77.27 0.0007048693    1.720    0.419
       137 -10.3413    101.0150    176.0012   9.5056522985e+01   2.4613749021e+01    0.2042641    0.1952431  70.55            0    1.002    0.002
       138  -9.4208    232.4925    174.4700   6.5629885183e+01   1.6548394436e+00    0.2590348    0.1154364 -39.01  0.001162367    2.001    0.500
       139  -9.5141    192.5789    172.8091   7.2832198814e+01   8.6971882297e+00    0.2713057    0.1306245 -39.04  0.001123806    2.035    0.509
       140 -10.6119    188.0341    172.5326   7.3713485126e+01   9.5721180907e+00    0.2752875    0.1988434 -58.10  0.001350667    1.666    0.400
       141 -10.7894    245.8257    168.6301   6.2259832429e+01   5.8288058899e-01    0.4092197    0.3021322 -49.02  0.001418027    1.481    0.325
       142 -11.0067    240.6140    164.1648   6.2237713424e+01   2.1293726220e+00    0.6245733    0.3007556 -53.72  0.002552627    3.021    0.669
       143 -10.4484    237.4928    158.7049   6.1668974158e+01   3.5557612993e+00    0.2962344    0.2244221 -49.14 0.0008709122    1.379    0.275
       144  -9.7099    237.4925    169.1954   6.3744735516e+01   1.7676334355e+00    0.3476543     0.113451 -41.13  0.001350497    2.711    0.631
       145  -9.7997    211.8164    168.7161   6.8224576155e+01   6.0767902343e+00    0.3919688    0.2154228 -54.12  0.001692121    2.316    0.568
       146 -10.5579    213.0008    162.7016   6.6778135040e+01   6.9771989633e+00    0.4139967    0.2203035 -39.49  0.001525401    1.732    0.423
       147  -9.8627    205.3654    168.9341   6.9501092248e+01   7.1602530724e+00    0.3466157     0.226498 -62.55  0.001563085    2.271    0.560
       148  -9.5179    198.0088    170.1966   7.1205148337e+01   8.2263913264e+00    0.2459133    0.1990774  63.71  0.001020284    1.621    0.383
       149  -9.9896    233.5980    153.9761   6.1362794488e+01   5.0142813714e+00    0.3523175    0.2033157 -49.22  0.001722634    1.786    0.440
       150 -10.2588    218.6741    168.1990   6.6847811712e+01   5.0004133185e+00    0.3223696    0.2280976 -44.78  0.001248402    1.393    0.282
       151  -8.9974    179.0000    168.9558   7.4896532652e+01   1.1950896040e+01     0.238548   0.08100727 -44.97 0.0007125832    2.899    0.655
       152  -9.4763    150.3258    168.6569   8.1331229886e+01   1.7437783188e+01    0.1538817    0.1202557  81.09 0.0007050912    1.738    0.425
       153 -10.2189    191.2500    165.6178   7.1634054600e+01   1.0341926358e+01    0.4078426    0.1931536 -41.18   0.00135271    2.035    0.509
       154  -9.5124    229.1758    165.7073   6.4476783487e+01   3.6964049829e+00     0.247049    0.1603974 -44.56   0.00130001    1.483    0.326
       155  -9.6184    233.6390    163.7852   6.3327265771e+01   3.3043714488e+00    0.3279456    0.1703335 -50.46  0.001446599    2.195    0.544
       156  -9.6070    231.4539    159.9405   6.2928940130e+01   4.3289037712e+00    0.2281389    0.2072325 -47.55 0.0007019198    1.218    0.179
       157  -9.9979    199.2814    164.0429   6.9689788477e+01   9.1762390442e+00    0.3442351    0.1724868 -50.01 0.0009804572    2.168    0.539
       158  -9.1828    172.3168    163.8399   7.5294915425e+01   1.4267142927e+01    0.2949338    0.1321853 -52.37 0.0008061931    2.542    0.607
       159 -11.9416    245.3560    153.9460   5.9454362843e+01   3.1050502723e+00     2.060668    0.8678804 -51.96  0.007956184    3.242    0.692
       160 -11.2899    235.1457    146.8849   5.9663548143e+01   5.9916955143e+00     1.379874     0.885108 -50.22  0.007204722    1.589    0.370
       161  -9.9793    218.7504    248.3471   8.1190801448e+01  -7.9012550728e+00    0.2342932    0.2144619  70.01   0.00129249    1.975    0.494
       162 -10.4592    209.9367    247.8952   8.2756013314e+01  -6.6887986758e+00    0.4119849    0.2039065  36.08  0.002219511    1.884    0.469
       163  -9.7367    158.6705    159.5749   7.7491346924e+01   1.7817075871e+01    0.2722094    0.1389343 -47.76  0.001078755    1.963    0.491
       164 -10.2814    197.0731    157.4029   6.8739333205e+01   1.0867830654e+01    0.4119771    0.2035021 -42.19  0.001733733    1.916    0.478
       165  -9.7955    165.0966    167.5123   7.7670792860e+01   1.4874350774e+01    0.2187387    0.1446087  40.20 0.0004713783    1.511    0.338
       166  -9.3946    176.5601    158.3172   7.3199856349e+01   1.4596443646e+01     0.282333    0.1414924 -48.50 0.0008541517    2.030    0.507
       167  -9.8558      2.5340    159.5184   1.1891171625e+02   4.0514244924e+01    0.1252969    0.1009546 -87.70  1.88042e-05    1.006    0.006
       168  -9.6880    216.5366    156.4700   6.4843081219e+01   7.5013427518e+00    0.3060921    0.2378558 -53.46  0.001199196    1.406    0.289
       169  -9.4508    212.1584    155.8570   6.5518457461e+01   8.3949773027e+00     0.250031    0.2022584 -59.37 0.0007225172    1.441    0.306
       170  -9.5709    211.6173    151.2290   6.4646975833e+01   9.3566469124e+00    0.2487106    0.1751902 -46.18 0.0008827327    1.370    0.270
       171  -9.8159    187.5773    155.1910   7.0194680689e+01   1.3105693128e+01    0.3362335    0.1365333 -41.41  0.001220062    2.383    0.580
       172  -9.5486    205.5238    153.4807   6.6264811671e+01   1.0051787141e+01    0.2546018    0.2239157 -34.04  0.000812665    1.054    0.051
       173  -9.3255    202.5037    151.5073   6.6423620874e+01   1.0991750225e+01    0.2706141    0.1972377 -41.34 0.0008195938    1.285    0.222
       174  -9.5450    192.7135    153.4773   6.8776989109e+01   1.2462473205e+01    0.2639207    0.1237702 -42.05  0.001054933    2.028    0.507
       175  -9.1042    179.5076    153.9159   7.1619133718e+01   1.4930348231e+01    0.2227002    0.1420226 -43.24 0.0006475578    1.520    0.342
       176  -9.6650    158.0387    153.7589   7.6393216137e+01   1.9208630155e+01    0.3114059    0.1970582 -72.69  0.001173872    2.640    0.621
       177  -9.8643    221.2073    151.7537   6.3028662812e+01   7.5376122104e+00    0.2544931    0.2019478 -33.98 0.0006926105    1.129    0.114
       178  -9.8450    215.5336    148.7427   6.3408502905e+01   9.1056219634e+00    0.3302654     0.194414 -52.08  0.001520442    1.851    0.460
       179  -8.9472    196.4069    150.2407   6.7342043527e+01   1.2393164813e+01    0.2002356     0.131294 -50.64 0.0009339501    1.575    0.365
       180  -9.4249    191.3806    148.6470   6.8002025378e+01   1.3678001167e+01    0.2939225    0.1318589 -47.65   0.00112487    2.239    0.553
       181 -10.2433    223.7206    146.5392   6.1503811218e+01   8.0371746182e+00    0.3347442     0.258251 -45.45  0.001872332    1.228    0.185
       182  -9.4812    219.1702    144.4700   6.1859236671e+01   9.2314603705e+00    0.2273081    0.1980907 -84.21 0.0009465418    1.458    0.314
       183 -10.2253    207.8702    145.7667   6.4177384871e+01   1.1079715687e+01    0.4902507    0.2362778 -38.21  0.002060198    1.957    0.489
       184  -9.5497    149.6202    147.8095   7.7090733964e+01   2.2207574155e+01    0.2212507    0.1447371 -57.42 0.0009477813    1.679    0.404
       185  -9.1407    175.7649    145.6896   7.0620101032e+01   1.7376525414e+01    0.2850279    0.1719996 -35.26  0.001223386    1.726    0.421
       186  -9.2753    166.9764    145.5588   7.2533042100e+01   1.9182755408e+01    0.2472615    0.1932524 -42.04 0.0009683414    1.252    0.201
       187  -9.2285    201.6024    130.2208   6.1929577343e+01   1.5264537530e+01    0.2266812    0.1353093 -41.37 0.0008943957    1.555    0.357
       188  -9.8987    198.1702    131.6303   6.2892926604e+01   1.5681255216e+01    0.3963486    0.2434436 -46.61  0.001335773    1.554    0.356
       189  -9.3995    200.5081    144.5573   6.5309065439e+01   1.2712927813e+01    0.3560125     0.132692 -44.62  0.001284661    2.545    0.607
       190  -9.2467    197.9744    139.8367   6.4762108778e+01   1.4123851310e+01    0.3235925    0.2783276 -77.35  0.001738435    1.397    0.284
       191  -9.5389    199.2765    136.6503   6.3805205957e+01   1.4486872734e+01    0.2699108    0.1920442 -50.13  0.001332796    1.394    0.282
       192  -8.7665    171.4846    144.4695   7.1283595495e+01   1.8497966735e+01    0.1492363    0.1455292 -40.63 0.0007920245    1.029    0.028
       193 -10.1817    155.7470    143.5287   7.4667567914e+01   2.1912234864e+01    0.3343729    0.1826127 -57.71  0.001275241    2.205    0.546
       194 -10.1284    181.9373    142.0377   6.8487033956e+01   1.6884447142e+01    0.3694459    0.2008834 -54.03  0.001483421    2.090    0.521
       195  -9.6671    147.5654    142.7122   7.6448650707e+01   2.3763970349e+01    0.2976506    0.1473865 -43.26  0.001128383    2.033    0.508
       196  -9.0884    194.4358    142.4946   6.6041548784e+01   1.4298864868e+01    0.1468209    0.1344958 -22.38 0.0001153297    1.069    0.064
       197  -9.6344    224.1400    139.9564   6.0048526762e+01   9.1512535317e+00    0.3116178    0.1772153 -39.32  0.001186138    1.568    0.362
       198  -8.9224    203.5047    141.0072   6.3963212518e+01   1.2819520855e+01    0.2014497    0.1187923 -61.40 0.0008089819    2.420    0.587
       199  -8.9333    187.0000    139.9901   6.6979047784e+01   1.6278704773e+01    0.2286276    0.1542062 -27.72  0.001037435    1.647    0.393
       200  -9.5732    187.6792    135.5393   6.5837073977e+01   1.7035042223e+01    0.3424529    0.1635765 -45.48 0.0009833967    2.013    0.503
       201  -9.4559    166.1420    139.9108   7.1443962138e+01   2.0558373670e+01    0.2338995    0.2081019 -72.43 0.0005692398    1.245    0.197
       202  -9.7733    218.8880    137.9224   6.0514528537e+01   1.0483716272e+01    0.3146945    0.2128163 -39.32  0.001117826    1.331    0.248
       203  -9.6653    208.9805    138.1362   6.2320830087e+01   1.2312591057e+01    0.3563736    0.1833363 -50.05  0.001504992    2.013    0.503
       204  -9.8111    172.2892    137.6380   6.9557560367e+01   1.9768086397e+01     0.454828     0.326014 -85.95  0.001928969    2.198    0.545
       205  -9.4816    192.5578    136.4476   6.5066104644e+01   1.5866854611e+01    0.2944464    0.1374184 -41.14 0.0009249476    2.032    0.508
       206  -9.6111    143.1035    136.6286   7.6155047674e+01   2.6045072288e+01      0.28159    0.2089779 -57.35   0.00106509    1.420    0.296
       207  -9.7209    163.0093    135.9938   7.1253019347e+01   2.2046295331e+01    0.2382067    0.1884351 -80.06 0.0006815672    1.621    0.383
       208  -9.7137    214.3589    142.5043   6.2293172456e+01   1.0478882160e+01    0.2786569    0.1542494 -44.46 0.0007911666    1.674    0.403
       209  -9.9462    224.4604    133.4189   5.8606770487e+01   1.0272189177e+01    0.3461576    0.2888988  66.78  0.001989403    1.453    0.312
       210  -9.3583    220.9790    128.7192   5.8177059517e+01   1.1771246148e+01    0.3485563    0.1862513 -43.48  0.001285925    1.680    0.405
       211  -9.9321    179.5258    132.3575   6.6789247491e+01   1.9358253823e+01    0.2988377    0.2412329 -59.57  0.001036161    1.323    0.244
       212  -9.1542    137.2096    131.9389   7.6544013077e+01   2.8320285724e+01    0.2084097    0.1243061 -48.85 0.0004095213    1.668    0.400
       213  -9.6295    205.7964    130.3615   6.1188152081e+01   1.4403582862e+01    0.2681743     0.211251 -46.13 0.0009211501    1.189    0.159
       214  -9.2369    205.3357    126.1771   6.0336055859e+01   1.5287251171e+01    0.3070574     0.124101 -45.16 0.0007327246    2.321    0.569
       215  -9.8961    142.6280    130.7690   7.4895943194e+01   2.7459788552e+01    0.3061864    0.1455292 -43.55  0.001129016    2.109    0.526
       216  -9.3799    212.1743    128.9875   5.9743212487e+01   1.3410575790e+01    0.2986687    0.1641432 -44.38  0.001348451    1.669    0.401
       217  -9.7463    192.1669    129.1408   6.3485968816e+01   1.7387490442e+01    0.3188688    0.1902896 -46.04 0.0007814779    1.600    0.375
       218  -9.5227    171.9709    128.8032   6.7572555846e+01   2.1677241034e+01     0.289044     0.188603 -54.44  0.001271865    1.633    0.387
       219  -9.9655    165.0301    125.7120   6.8368705815e+01   2.3802308783e+01    0.5663909    0.1982503 -50.92  0.001724031    3.326    0.699
       220  -9.1415    199.6247    125.7997   6.1299456317e+01   1.6511746101e+01    0.2099055    0.1266337 -49.79 0.0009390336    1.640    0.390
       221  -8.4588    216.6649    125.3005   5.8157795239e+01   1.3219230708e+01     0.140022      0.10676 -73.29 0.0003356566    1.657    0.396
       222  -9.9373    179.3499    124.1799   6.4913628222e+01   2.1057261569e+01    0.3821737    0.2229162 -47.63  0.001174551    1.679    0.404
       223  -9.3862    169.8778    124.0911   6.6907963369e+01   2.3100324692e+01    0.2340136     0.203095 -70.24 0.0006464546    1.255    0.203
       224  -9.0741    146.3046    124.6662   7.2512736102e+01   2.8037425644e+01    0.1585807    0.1242089 -86.64 0.0004750778    1.663    0.399
       225  -9.5529    212.6423    122.6158   5.8251221718e+01   1.4499039791e+01    0.3093908     0.156582 -45.92  0.001168295    1.835    0.455
       226  -9.5147    188.1852    122.7238   6.2783767655e+01   1.9478170856e+01    0.2664745    0.1909266 -52.62 0.0009141352    1.404    0.288
       227  -9.5643    203.2381    121.5144   5.9661553228e+01   1.6591673079e+01    0.2781862    0.1826232 -43.19 0.0007265239    1.407    0.290
       228 -10.1245    152.2133    121.2338   7.0241140593e+01   2.7515179041e+01    0.3125776    0.2080229 -55.00 0.0007541479    1.598    0.374
       229  -9.5271    173.8211    119.5533   6.4967914694e+01   2.3180639758e+01    0.3111868    0.1889481 -56.09  0.001304012    1.848    0.459
       230 -10.5675     18.4868    118.9822   1.0988606962e+02   4.9295450353e+01    0.2431697    0.2105459 -85.53 0.0004956116    1.128    0.114
       231  -9.7428    222.3921    105.0942   5.2775364684e+01   1.5709610064e+01     0.382267    0.1904763 -46.78   0.00167716    1.826    0.452
       232 -10.1610    218.4559    119.0040   5.6473425282e+01   1.4015870724e+01    0.3734689    0.2847574  73.04  0.001940457    1.625    0.385
       233 -10.8448    218.7461    110.8628   5.4624111560e+01   1.5419007342e+01    0.7339889    0.2071229 -44.90  0.002434353    3.247    0.692
       234  -9.5534    209.1019    118.0569   5.7840730592e+01   1.6048119657e+01    0.2454272    0.1819913 -43.84 0.0005628825    1.233    0.189
       235 -11.4227    243.5999    138.4137   5.6604538640e+01   6.0271030771e+00     1.204085    0.4530711 -49.84  0.004562334    3.048    0.672
       236  -9.8869    140.5101    118.5371   7.2438014124e+01   3.0619907452e+01    0.2920651    0.1453531 -56.23  0.001034179    2.423    0.587
       237  -9.4744    199.9169    114.9564   5.8757012972e+01   1.8513243474e+01    0.4612818    0.1985518 -29.48  0.001511657    3.425    0.708
       238  -9.6644    218.4001    104.2146   5.3196094288e+01   1.6663864371e+01    0.3197357    0.1621705 -52.69 0.0008006049    2.048    0.512
       239  -9.7683    194.3179    121.0489   6.1207156898e+01   1.8519937361e+01    0.3504408    0.1556663 -46.30  0.001324184    2.166    0.538
       240  -9.7466    185.9670    114.4786   6.1270959792e+01   2.1565443670e+01    0.3015634    0.1942157 -54.35  0.001137757    1.631    0.387
       241 -10.2472    173.4663    113.4213   6.3550306743e+01   2.4494469968e+01    0.4753409    0.1364359 -45.60  0.001411727    3.449    0.710
       242  -9.0801    181.4569    114.5147   6.2174575299e+01   2.2533279300e+01    0.1487046    0.1418205 -50.77 0.0001609891    1.006    0.006
       243  -9.5889    207.9970    112.4223   5.6752685259e+01   1.7310895322e+01    0.4053002    0.1525253 -53.43  0.001272275    3.716    0.731
       244  -9.3559    168.4875    111.9778   6.4252523499e+01   2.5881123423e+01    0.2358279    0.1459935 -44.65  0.001022755    1.572    0.364
       245  -8.8601    223.2798    111.6577   5.4084269411e+01   1.4383934450e+01    0.1409605   0.09885203 -64.32 0.0004598945    1.628    0.386
       246  -9.6494    177.0076    110.3782   6.2069991896e+01   2.4320047043e+01    0.3064232    0.2197085 -51.76  0.001456819    1.391    0.281
       247  -9.4997    155.3450    111.1032   6.6968383169e+01   2.8970180667e+01    0.2270233    0.1370595 -53.55 0.0007379169    1.777    0.437
       248 -10.0140    189.7378    107.0902   5.8777004329e+01   2.2167910932e+01    0.5609127    0.1851549 -40.73  0.001877936    2.876    0.652
       249  -9.6732    183.3008    108.8134   6.0428247241e+01   2.3243022739e+01    0.3198807    0.1194765 -47.23  0.001088616    2.697    0.629
       250  -9.8735    160.7919    108.3711   6.5034532616e+01   2.8320287173e+01     0.380585    0.1913203 -45.69  0.001487401    1.961    0.490
       251  -9.1044    133.5118    109.0168   7.1790829075e+01   3.4196332448e+01      0.22759    0.1351625 -67.30 0.0008105559    2.627    0.619
       252  -9.6099    194.9514    113.4440   5.9313524255e+01   1.9843861543e+01    0.2906084    0.1818957 -52.03  0.001323439    1.612    0.380
       253 -11.3351      7.8908    105.8035   1.1147443424e+02   5.3210275807e+01    0.3102931    0.2146153  70.05  0.001600273    1.708    0.414
       254  -9.7881    205.6551    105.3448   5.5525731100e+01   1.9088422891e+01    0.2706712    0.2223956 -66.45 0.0009085758    1.260    0.206
       255  -8.7511     42.7265    106.6942   9.9591908547e+01   5.0096692111e+01    0.1407114   0.09371136 -36.23  0.000209942    1.543    0.352
       256  -9.2821    213.5251    104.9087   5.4125466462e+01   1.7533748748e+01    0.2143533    0.1274131 -41.11 0.0004894648    1.532    0.347
       257 -10.4149      2.4861    105.0114   1.1318749221e+02   5.3703398617e+01    0.1995316    0.1028529 -70.18  0.001032009    1.588    0.370
       258  -9.6818    200.8160    103.0566   5.5820658741e+01   2.0529030879e+01    0.2230296    0.1773928 -59.91 0.0005473795    1.256    0.204
       259  -9.2376    195.1207    102.9056   5.6787780476e+01   2.1781865432e+01    0.2233794    0.1786328 -58.59 0.0005368865    1.242    0.195
       260 -10.0957    183.4750    102.9933   5.8972567184e+01   2.4317998300e+01     0.341216    0.1842621  35.44  0.001312255    2.560    0.609
       261  -9.9800    175.5860    101.7029   6.0205964293e+01   2.6323139093e+01    0.3903528    0.2689638 -77.38  0.001517205    2.037    0.509
       262  -9.8125    141.4523    103.0096   6.8190615258e+01   3.3733086555e+01    0.2438198    0.1501728 -44.75  0.001035953    1.617    0.382
       263  -8.7306    136.3319    103.7003   6.9660760278e+01   3.4717316954e+01    0.1568416    0.1231712  89.41 0.0007032126    1.648    0.393
       264 -10.9689    159.2508    100.1411   6.3259700229e+01   3.0316299674e+01    0.4605258    0.2910146  46.44  0.001923591    1.613    0.380
       265  -9.0869    225.4617     99.0780   5.0989396325e+01   1.6135921093e+01    0.2369903    0.1813244 -41.59 0.0007965592    1.182    0.154
       266 -10.3405    221.3091     97.7038   5.1298284586e+01   1.7204980447e+01    0.2868363    0.2213102 -37.63 0.0007132417    1.235    0.190
       267  -9.4537    209.5008     99.4009   5.3516813129e+01   1.9345877541e+01    0.2956188    0.1290706 -40.07  0.001194777    2.108    0.526
       268  -9.9179      9.4411     99.7499   1.1002427740e+02   5.4560048609e+01    0.1848209   0.09331413 -57.45 0.0007541353    1.566    0.361
       269 -12.8801    239.0293    124.1894   5.4364046437e+01   9.2561969405e+00     2.239058     1.300063 -55.03   0.01091338    1.878    0.468
       270  -9.7050    202.7593     97.7719   5.4247493240e+01   2.1066413459e+01    0.2951731    0.1756812 -49.03  0.001056606    1.598    0.374
       271  -9.9738    194.8746     97.1496   5.5452803867e+01   2.2888222509e+01    0.3086407    0.2210594 -48.66 0.0009267764    1.319    0.242
       272  -9.2934    183.5756     96.2642   5.7292117901e+01   2.5555575523e+01    0.2923479    0.1312564 -45.42  0.001125548    2.150    0.535
       273  -9.6998    176.1328     97.0511   5.8926053073e+01   2.7084698856e+01    0.2633963    0.2072058 -44.60 0.0005632116    1.233    0.189
       274  -9.5410    177.0000     92.9698   5.7722670442e+01   2.7649812844e+01    0.3284317    0.1708886 -46.71  0.001141215    1.889    0.471
       275  -9.5890    170.9608     95.5125   5.9572459225e+01   2.8548854032e+01    0.2786957    0.1935285 -54.98 0.0005758427    1.498    0.332
       276  -8.7383     30.6827     96.7115   1.0183747858e+02   5.3684006239e+01     0.138095    0.0881052 -34.28 0.0002266523    1.593    0.372
       277  -9.5997    206.8123     94.3027   5.2769551197e+01   2.0812075763e+01    0.2695703    0.1633123 -57.90  0.000885939    1.783    0.439
       278  -9.7842    164.3666     93.4629   6.0408040363e+01   3.0444413750e+01    0.3047218    0.1800137 -43.29  0.001113656    1.664    0.399
       279  -9.2725    188.6738     92.5590   5.5438539301e+01   2.5090826402e+01    0.2577493    0.1280113 -41.26  0.001049207    1.916    0.478
       280  -9.2186    196.6118     91.7994   5.3865297897e+01   2.3465100390e+01    0.2095813    0.1225955 -49.73 0.0008775544    1.657    0.397
       281 -10.0244    134.8369     92.1213   6.6885461510e+01   3.7426310135e+01    0.2352965     0.208494 -86.18 0.0007580025    1.259    0.206
       282  -9.2921    210.0673     91.0559   5.1500705075e+01   2.0681801298e+01    0.2239856    0.1564112 -68.88  0.001113459    1.625    0.384
       283  -9.5702    183.4147     90.4975   5.5884890395e+01   2.6646113304e+01    0.3228694    0.1374959 -39.68  0.001224342    2.277    0.561
       284  -9.5869    171.4228     90.5047   5.8189440221e+01   2.9379922452e+01     0.333832    0.1876675 -32.14  0.001378938    2.006    0.501
       285  -9.8431    141.0000     90.9634   6.5033992942e+01   3.6270201786e+01    0.2489557   0.08638298 -41.59  0.000452632    2.901    0.655
       286 -10.6930     24.4189     90.1025   1.0280514647e+02   5.5772517075e+01    0.2575548     0.231076 -33.36 0.0004933631    1.096    0.087
       287  -9.8579    233.2893    247.5507   7.8441700475e+01  -9.6120092956e+00     0.197907    0.1850877  43.13   0.00115222    1.775    0.437
       288  -9.4570    203.4205     89.7747   5.2254093189e+01   2.2331176615e+01    0.2611237    0.1250997 -43.01 0.0009615747    1.920    0.479
       289  -9.6321    158.0527     89.6714   6.0756585148e+01   3.2614766162e+01    0.2695841    0.2011484 -52.81  0.001129122    1.370    0.270
       290  -9.7315    168.2147     88.6052   5.8340738342e+01   3.0468692195e+01    0.3500408    0.2309955  -0.62  0.001304684    3.060    0.673
       291  -9.8375    170.4879     83.4990   5.6550352110e+01   3.0870189124e+01    0.3752421    0.2229573 -37.28  0.001171466    1.715    0.417
       292  -9.4941    197.7089     86.7243   5.2459472371e+01   2.4111598168e+01    0.3338063    0.1401203 -46.98  0.001221824    2.300    0.565
       293  -9.7328    163.8461     86.9913   5.8811265089e+01   3.1775808333e+01    0.3097956    0.1863167 -45.53 0.0008926717    1.649    0.393
       294  -9.9339    150.5858     87.6888   6.1878470532e+01   3.4711552334e+01    0.2866727    0.1476021 -36.87  0.001130591    2.044    0.511
       295  -9.4114    187.9419     86.9843   5.4192041204e+01   2.6249915851e+01    0.2367241    0.1667372 -70.38 0.0009534562    1.670    0.401
       296  -9.3922     30.3881     86.8298   9.9828371686e+01   5.6014625426e+01    0.1940699   0.09989768 -49.74 0.0004927359    1.636    0.389
       297  -9.3932    205.9617     84.7089   5.0658501696e+01   2.2646968376e+01    0.2675154    0.1772869 -42.81  0.001340292    1.401    0.286
       298  -9.4328    178.7631     84.4738   5.5223228738e+01   2.8785401878e+01    0.3179065    0.1546778 -50.03   0.00113127    2.148    0.535
       299  -9.5066    200.2598     82.8921   5.1124569445e+01   2.4204093922e+01    0.2204302    0.1718214 -61.27 0.0008157316    1.249    0.200
       300  -9.5010    193.1045     82.7328   5.2255894778e+01   2.5826377891e+01     0.255148    0.1793096 -50.71 0.0008899364    1.358    0.264
       301  -9.3525    185.4692     83.0022   5.3635472753e+01   2.7508606846e+01    0.2208574    0.1375289 -40.13 0.0007263841    1.565    0.361
       302  -9.9744    159.0630     81.5586   5.8352206986e+01   3.3879008072e+01    0.3843598    0.2039371 -46.44  0.001591308    1.910    0.477
       303  -9.9865    157.7758     76.0596   5.7118615789e+01   3.5157958302e+01    0.3875524    0.2049698 -52.18  0.001565213    2.125    0.529
       304 -10.1218    143.0499     81.1442   6.1794794878e+01   3.7675734209e+01    0.3398212    0.2105432 -45.44  0.001506856    1.644    0.392
       305  -9.7686    215.0163     79.8312   4.8181844239e+01   2.1510577059e+01    0.2865705    0.1812489 -36.50 0.0009580423    1.553    0.356
       306  -9.9009    150.2674     79.5152   5.9690237634e+01   3.6300218631e+01    0.2884226    0.2067496 -41.82  0.001385815    1.410    0.291
       307  -9.9491    166.8091     77.7659   5.5755148471e+01   3.2740547713e+01    0.3243426    0.2365048 -41.14  0.001245446    1.373    0.272
       308  -9.7736    201.0567     77.5921   4.9730105215e+01   2.4915123575e+01    0.2871704    0.1689625 -53.43   0.00134066    1.689    0.408
       309  -9.4974    194.3296     77.2270   5.0705632984e+01   2.6481722589e+01    0.3678725    0.1275394 -39.18 0.0009822233    2.723    0.633
       310 -10.5354    195.5829     72.2199   4.9281852802e+01   2.7022297094e+01     0.337488    0.2432856 -44.78 0.0009209838    1.319    0.242
       311  -9.2486    193.5623     67.4908   4.8435876454e+01   2.8240077157e+01    0.2351182    0.1612962 -47.72 0.0009021381    1.382    0.277
       312  -9.9562    174.4104     77.3001   5.4179459431e+01   3.1045417696e+01    0.3571875     0.204212 -42.12  0.001405053    1.713    0.416
       313  -9.9376    211.4105     75.7904   4.7767029598e+01   2.2940182081e+01     0.385391    0.1768489 -38.12  0.001460941    2.064    0.516
       314  -9.0677    210.4935     71.5091   4.6904945886e+01   2.3824117267e+01      0.19723    0.1138935 -49.97 0.0006154741    1.610    0.379
       315  -9.1578    183.5940     76.8302   5.2407203913e+01   2.8997263969e+01    0.2067649    0.1248739 -50.06  0.000674077    1.641    0.391
       316  -9.2382    223.3736     75.9831   4.6168946073e+01   2.0371733188e+01    0.1933575    0.1519076 -48.07 0.0006309093    1.142    0.125
       317 -10.1430    214.4874     70.0007   4.6007258147e+01   2.3196641193e+01    0.4488071    0.1910265 -57.25   0.00168855    2.974    0.664
       318  -9.2428    212.4660     66.0190   4.5365674455e+01   2.4252585783e+01    0.2467851    0.1442113 -45.58 0.0005949803    1.554    0.356
       319 -10.4859    221.8221     70.8806   4.5235752984e+01   2.1498045184e+01    0.4800719    0.3311464  42.08  0.002310161    1.908    0.476
       320  -9.5136    206.1887     73.7121   4.8036573394e+01   2.4414200818e+01    0.2484761    0.1649071 -50.00  0.001017908    1.395    0.283
       321  -9.5613    185.1080     72.6738   5.1094817271e+01   2.9342436096e+01    0.2580855    0.1985671 -36.11 0.0006167549    1.348    0.258
       322 -10.1550    163.3041     71.2369   5.4682014839e+01   3.4683845191e+01     0.385047    0.1921027 -39.50  0.001560241    2.009    0.502
       323  -9.9389    175.7515     71.4694   5.2411406077e+01   3.1716921916e+01    0.3019443    0.2256077 -29.10  0.001203408    1.501    0.334
       324  -9.5794    135.4874     71.4781   6.0793112406e+01   4.1165680563e+01    0.2601493    0.1322474 -49.62 0.0009594631    2.220    0.549
       325  -9.5446    170.6254     70.8182   5.3173993296e+01   3.3028053115e+01    0.3266625    0.1679314 -44.00  0.001386156    1.920    0.479
       326  -9.0978    168.2806     67.6615   5.2764995433e+01   3.4101431945e+01    0.2223902    0.1719929  85.66 0.0004286522    1.404    0.288
       327  -9.9019    203.5757     67.0880   4.6848106034e+01   2.6044775657e+01     0.529557    0.1700637 -38.93   0.00194589    2.861    0.650
       328  -9.3101    156.9938     69.4468   5.5449086733e+01   3.6475999044e+01    0.2387392    0.1901946 -41.70  0.001238239    1.280    0.219
       329  -8.7454    182.0000     67.9741   5.0421194072e+01   3.0829353773e+01    0.2247471    0.0786998 -36.93  0.000788965    2.850    0.649
       330  -9.8751    218.6391     68.3418   4.5079602475e+01   2.2565302548e+01    0.3068114    0.1403909 -48.30  0.001363577    1.999    0.500
       331 -10.6568    176.4754    247.3712   8.9165960313e+01  -1.9561358708e+00    0.2921298    0.2235692  49.47  0.001795134    1.567    0.362
       332  -9.3941    138.6280     66.7879   5.8666753218e+01   4.1245720480e+01    0.2115898    0.1322278 -48.37 0.0009500477    1.711    0.415
       333  -9.2200    152.5732     66.0208   5.5393751423e+01   3.8092078854e+01    0.2182348    0.1422763 -37.42 0.0006701813    1.590    0.371
       334  -9.2526    146.3898     66.1623   5.6745962336e+01   3.9530089693e+01    0.2155835    0.1302332 -49.15 0.0009537902    1.771    0.435
       335  -9.3997    208.4520     63.5000   4.5322883575e+01   2.5518100680e+01    0.2425446    0.1163192 -42.49 0.0007507706    1.906    0.475
       336  -9.9143    206.4873     58.7537   4.4476695554e+01   2.6669287283e+01    0.3498339     0.189146 -31.98  0.001273014    2.030    0.507
       337  -9.4842    197.4348     63.8310   4.6957427413e+01   2.7932283515e+01    0.2520028    0.1191164 -43.16  0.001018782    1.976    0.494
       338  -9.5352    171.0827     63.7219   5.1199398491e+01   3.4073396424e+01    0.2596393     0.184322 -51.97  0.001306879    1.418    0.295
       339  -9.2526    146.8162    246.8098   9.5129886596e+01   2.5220588031e+00    0.1793037    0.1340327  49.37  0.001068388    1.373    0.272
       340  -9.4433    193.1458     60.7681   4.6842293771e+01   2.9381148119e+01     0.403442    0.2093365 -20.74  0.001522153    3.312    0.698
       341  -9.0701    187.3705     62.1873   4.8077956502e+01   3.0494997886e+01    0.2026891    0.1178972 -47.94 0.0006548319    1.668    0.401
       342  -9.3072    182.5040     62.0241   4.8812151688e+01   3.1652914094e+01       0.2086    0.1330186 -40.96 0.0009701643    1.547    0.354
       343  -9.7582    158.0387     61.6660   5.3067725269e+01   3.7497704677e+01     0.259172    0.1890938 -50.77  0.001237753    1.410    0.291
       344  -9.4882    224.8540    237.7480   7.8381396091e+01  -7.2131754948e+00    0.2208655      0.15254 -47.99  0.001088956    2.005    0.501
       345  -8.9816    201.2665     61.6218   4.5872895355e+01   2.7405488641e+01    0.2235482    0.1436162 -56.14 0.0008183633    1.515    0.340
       346  -9.0550    202.2184     57.9731   4.4869109991e+01   2.7740520888e+01    0.1790724    0.1036335 -39.54  0.000867609    1.667    0.400
       347  -9.1518     21.7919     61.0276   9.6935758494e+01   6.2397066826e+01    0.1682879   0.08836097 -55.48 0.0006948219    1.701    0.412
       348  -9.3493    222.3750    157.1891   6.3945092808e+01   6.3506138057e+00    0.2548463    0.1194059 -38.35 0.0006943419    1.938    0.484
       349 -10.0870    164.5995     59.0269   5.1099143862e+01   3.6347928540e+01    0.3009544    0.1368084 -35.92 0.0009104448    2.277    0.561
       350  -8.9657    140.9938     59.9911   5.6116028005e+01   4.1807470718e+01     0.175258    0.1615596 -42.20 0.0005308861    1.136    0.120
       351  -8.7388    197.4965     59.0673   4.5792179444e+01   2.8644943347e+01    0.1995917    0.1282174 -39.89 0.0009303666    1.523    0.343
       352  -9.8155    153.0969     59.0944   5.3314877016e+01   3.9079390794e+01    0.2146654    0.1978581  22.81 0.0007707727    1.234    0.190
       353  -9.8866    226.5653    157.3552   6.3245234564e+01   5.6032896199e+00    0.3892733    0.1915603 -42.61   0.00177193    1.845    0.458
       354  -9.8017    146.6288     57.8050   5.4262426379e+01   4.0819058811e+01    0.2046946    0.1286727 -46.83 0.0007616561    1.674    0.403
       355  -8.6890    188.2990     56.6861   4.6552011392e+01   3.1115450818e+01    0.1436723   0.09754021 -70.06 0.0003362998    1.607    0.378
       356 -10.2758    157.9426     54.8884   5.1182698450e+01   3.8567683069e+01    0.2813635    0.1947453 -37.07 0.0008509379    1.513    0.339
       357 -10.1063    139.3920     55.1735   5.5025467349e+01   4.2939094789e+01    0.2824349      0.20994 -70.39  0.001182572    1.645    0.392
       358 -10.3444     10.3520     56.0349   1.0072482088e+02   6.4262026456e+01    0.2098452    0.1116354 -41.81  0.001160681    1.524    0.344
       359  -9.2900    192.1888     55.1562   4.5596998174e+01   3.0442657901e+01    0.2009978    0.1455879 -64.72  0.001069603    1.373    0.272
       360  -9.1971    175.4657     55.0950   4.8159581376e+01   3.4362284953e+01    0.2053869    0.1357907 -37.06 0.0008134597    1.563    0.360
       361  -9.5101    169.4789     55.0468   4.9152409167e+01   3.5790502627e+01    0.2126365    0.1365607 -37.95  0.001035399    1.600    0.375
       362 -10.0283    131.3832     54.1981   5.6528113871e+01   4.4966703898e+01    0.2013658    0.1299223 -46.66 0.0007900404    1.680    0.405
       363  -9.2137    184.4812    159.9588   7.1855690895e+01   1.2738516912e+01    0.2265309    0.1395898 -45.05  0.001025453    1.586    0.370
       364  -9.0710    201.2630     53.0273   4.3818947224e+01   2.8681743498e+01    0.1928206      0.15534 -49.73  0.000770792    1.185    0.156
       365  -8.7446    185.5131     53.4932   4.6165784041e+01   3.2235692107e+01    0.1393856    0.1230086 -79.64 0.0008102344    1.037    0.035
       366 -10.4792    153.0204     52.1914   5.1351859483e+01   4.0146607466e+01    0.2432593     0.205772 -41.44 0.0008528441    1.240    0.194
       367  -9.7841    126.3903     51.7629   5.6938776902e+01   4.6495237670e+01    0.1851883    0.1381152 -19.69 0.0005087838    1.566    0.361
       368 -10.3931    205.3900    161.2100   6.7910491117e+01   8.6095198825e+00    0.4367479    0.2322848 -44.90  0.001948815    1.811    0.448
       369  -9.3587    178.4318     49.7892   4.6295945631e+01   3.4434758722e+01    0.2522855     0.123412 -40.73 0.0008558793    2.006    0.501
       370  -8.7615    172.4827     50.4925   4.7427944644e+01   3.5743905427e+01    0.1404441    0.1253614 -85.13 7.277849e-05    1.044    0.042
       371  -9.3823    203.5770     48.6362   4.2475863461e+01   2.8785902729e+01    0.3102228    0.1335898 -29.56  0.001256831    2.833    0.647
       372  -9.1548    167.4253     49.1773   4.7912381654e+01   3.7137702965e+01    0.1972701    0.1194601 -50.04 0.0009338942    1.708    0.414
       373  -9.7393    158.2173     48.2722   4.9266809558e+01   3.9470450746e+01     0.218779   0.09570712 -44.60 0.0008752736    2.376    0.579
       374  -8.8573    198.4741     47.5282   4.2870671306e+01   3.0096608121e+01    0.1341064    0.1174312 -77.99 0.0001121425    1.001    0.001
       375  -9.5196    144.6022     46.8242   5.1433195950e+01   4.2934104505e+01    0.1975638    0.1255997 -46.89 0.0008456305    1.682    0.405
       376  -9.0739    192.6236     46.1715   4.3320706350e+01   3.1627233512e+01    0.1730075    0.1286084 -25.60 0.0009360029    1.622    0.384
       377  -9.5022    162.8255     45.5335   4.7692086012e+01   3.8751128248e+01     0.283024    0.1612262 -51.19  0.001306648    1.885    0.469
       378 -10.2045    122.4783     45.9933   5.6025429669e+01   4.8245909790e+01    0.1970567    0.1117305 -56.93 0.0007149913    2.512    0.602
       379  -9.4213    112.3283     46.6801   5.8799226896e+01   5.0441033315e+01      0.13891    0.1100594 -81.08 0.0007047647    1.686    0.407
       380  -9.5261    168.8656     44.3385   4.6362600029e+01   3.7471319380e+01    0.2381721    0.1741004 -49.92 0.0008212743    1.381    0.276
       381  -8.5926    188.0000     43.9991   4.3415341518e+01   3.2998265853e+01    0.2065335    0.0743945 -34.18  0.000691426    2.852    0.649
       382  -9.1050    200.4015     43.2386   4.1598313283e+01   3.0249167968e+01    0.1854306    0.1084788 -48.93 0.0008946321    1.604    0.377
       383  -8.9158    183.3589     43.2318   4.3873448117e+01   3.4188014808e+01    0.1936356    0.1112515 -47.43 0.0009319941    1.708    0.414
       384 -10.1724    132.3612     42.7817   5.2745260358e+01   4.6398789692e+01    0.2416885    0.1876879 -17.22  0.001212806    1.516    0.340
       385  -9.6856    146.5001     42.5124   4.9779904133e+01   4.3078812909e+01    0.1389924      0.12733  73.26   0.00033107    1.013    0.013
       386  -9.7453    118.3557     42.7044   5.5945959773e+01   4.9653655461e+01    0.1394355    0.1077521 -83.88 0.0005725757    1.694    0.410
       387  -8.7505     71.2279     41.0305   6.9506222627e+01   5.9582202124e+01    0.1606296    0.1054755 -32.43 0.0002707076    1.545    0.353
       388 -10.6632    209.1397     39.4133   3.9663166484e+01   2.8800194803e+01    0.3632403    0.1917056 -86.35  0.001194291    2.351    0.575
       389  -9.1162    185.3528     39.2402   4.2584284726e+01   3.4254717772e+01    0.1852663    0.1122572 -46.29 0.0006456665    1.609    0.379
       390  -8.9955    173.4865     39.5094   4.4351086740e+01   3.7019471124e+01    0.1350697    0.1221213  82.86 8.101873e-05    1.037    0.036
       391  -9.1368    160.4904     39.0004   4.6266962729e+01   4.0192321059e+01    0.1954534    0.1332869 -37.49 0.0005733637    1.549    0.354
       392  -9.2708    179.5533     37.7273   4.3002609935e+01   3.5815468725e+01    0.1875784    0.1141585 -49.31 0.0009428928    1.634    0.388
       393  -9.5083    120.3067     38.6584   5.4138554909e+01   4.9758787728e+01    0.1380274    0.1056515 -74.34 0.0007042523    1.686    0.407
       394  -9.1338    168.5793     36.8074   4.4372652127e+01   3.8540524115e+01    0.1888533    0.1163317 -48.45 0.0009420402    1.659    0.397
       395 -10.1659    194.6571     33.9072   4.0071839412e+01   3.2786426167e+01    0.3288638    0.1844331 -26.60  0.001600667    2.193    0.544
       396  -9.0980    189.9947     34.9979   4.0916695716e+01   3.3723567525e+01    0.3651566    0.2250874  -8.27  0.001623475    2.998    0.666
       397  -9.7863    149.3841     34.2472   4.6811078368e+01   4.3465437343e+01    0.3273728    0.1251179 -33.63  0.001309598    2.740    0.635
       398  -9.7099    133.5041     34.9758   5.0053048801e+01   4.7158359365e+01    0.2010145    0.1366584 -31.65  0.001041909    1.617    0.382
       399  -8.9025    186.3730     32.7399   4.0819637170e+01   3.4851159434e+01    0.1653446    0.1272591 -23.81 0.0007087471    1.598    0.374
       400  -8.9338    181.0172     32.0197   4.1338231506e+01   3.6195292610e+01    0.1590404    0.1397534 -59.86 0.0006597143    1.136    0.120
       401 -10.3149    125.8324     30.0468   5.0073879552e+01   4.9566708341e+01    0.3022112    0.1753732 -42.41  0.001113542    1.914    0.478
       402  -9.6311    143.9908     30.1937   4.6570840512e+01   4.5252253250e+01    0.1963356    0.1364359 -55.71  0.001029352    1.608    0.378
       403 -10.7078     30.4742     28.1845   8.1616002981e+01   6.7595326928e+01    0.2575665    0.1771974 -17.57 0.0007653361    1.304    0.233
       404 -11.9358    210.2941     25.9424   3.6490589887e+01   3.0248206153e+01    0.4859878    0.2760541  84.87  0.002250346    1.725    0.420
       405  -8.8713    174.4139     28.2645   4.1258163425e+01   3.8211136573e+01     0.180373    0.1131969 -47.81 0.0006835358    1.603    0.376
       406  -9.1208    166.5231     27.7470   4.2229510887e+01   4.0148718615e+01    0.1855109    0.1121773 -49.30 0.0009395404    1.710    0.415
       407  -9.5752    136.5195     27.0086   4.6972633613e+01   4.7406038839e+01    0.1884481    0.1341735 -30.29 0.0006805544    1.571    0.363
       408  -8.7416     42.4433     27.5434   7.5726089611e+01   6.6167577150e+01    0.1234888    0.1015589  -0.47  9.21816e-05    1.004    0.004
       409  -9.4735    176.2706     23.7096   3.9828770189e+01   3.8305357062e+01     0.396536   0.05198947 -37.17  0.001210999    5.058    0.802
       410  -8.8046    172.2603     24.6623   4.0605094373e+01   3.9144007353e+01    0.1337404   0.08863289 -65.90 0.0003485758    1.582    0.368
       411  -9.0766    145.3010     24.6637   4.4688324577e+01   4.5580994332e+01     0.136583   0.09542799 -70.67 0.0007035683    1.661    0.398
       412  -8.8628    166.4922     22.5319   4.0825652472e+01   4.0756258907e+01    0.1322108    0.1138556  86.57 0.0001238389    1.024    0.024
       413  -9.2373    160.6190     20.6753   4.1147540125e+01   4.2361247756e+01    0.2216023    0.1315764 -22.52  0.001052467    2.094    0.523
       414 -10.2625    132.1075     20.5585   4.5776211645e+01   4.9164923922e+01     0.229399    0.1507171  13.64 0.0009037809    2.190    0.543
       415  -9.0024     84.7144     21.3400   5.7323065271e+01   5.9633341931e+01    0.1185719    0.1012968 -71.80 0.0003596459    1.636    0.389
       416  -9.9835    147.1237     20.0916   4.3032982580e+01   4.5647227977e+01    0.2500927    0.1657847  53.44  0.001359543    1.398    0.285
       417  -9.2232    165.7450     18.0402   3.9718845766e+01   4.1425933142e+01    0.2073843    0.1407673  29.51  0.001080269    2.079    0.519
       418  -9.1717      9.8307     18.1284   8.8271469919e+01   7.1244415162e+01    0.1583696    0.1028917 -19.78 0.0003721525    1.276    0.217
       419  -9.6351    204.0039     17.4857   3.5209299309e+01   3.2631069140e+01    0.1766201   0.08732823 -78.18 0.0004473965    2.332    0.571
       420 -10.2124    202.5420    242.6975   8.3346818726e+01  -4.9378504425e+00    0.2681967    0.2285761 -53.77  0.001084485    1.707    0.414
       421  -9.7811    140.5676     16.7698   4.3113965890e+01   4.7555654110e+01    0.1762386    0.1162347 -44.70 0.0009523775    1.665    0.399
       422  -9.1588     16.9777     17.5051   8.4026083483e+01   7.0691468477e+01    0.1590913   0.09891279  17.57 0.0003718965    1.507    0.336
       423  -9.8125    135.0000     14.9284   4.3491132999e+01   4.9060074375e+01    0.1914706   0.07556088 -26.18 0.0007995439    2.922    0.658
       424  -9.0511    243.3407    243.6776   7.6064529668e+01  -1.0309198961e+01    0.1240099   0.09007608  -2.05 0.0008509004    1.083    0.077
       425  -8.6649    174.5473     12.5074   3.7161612618e+01   3.9927580225e+01    0.1282804    0.1072363 -88.42 6.171252e-05    1.032    0.031
       426  -9.8908    240.3743    240.7083   7.6098699567e+01  -9.5640355958e+00    0.1931033    0.1805869  31.86 0.0007471044    1.678    0.404
       427 -10.5055    163.7859    247.1026   9.1685929425e+01  -5.5819102819e-02    0.2299602     0.181033 -65.15  0.001401337    1.791    0.442
       428  -8.6220    207.6743     10.2978   3.3264321212e+01   3.2606210495e+01    0.1295559   0.07476094 -68.68  0.000307858    1.630    0.386
       429 -10.4982    184.2427    240.6931   8.6613137734e+01  -2.0347083381e+00    0.3747448    0.2631953  64.55  0.001914087    2.656    0.623
       430  -9.9038    219.9503    240.1453   7.9668132028e+01  -6.9125353193e+00    0.2112843    0.1690134 -37.09 0.0007584834    1.501    0.334
       431 -10.8293    216.4017    234.1499   7.9350804419e+01  -5.5721012146e+00    0.3473447    0.3274214  47.80  0.001921043    1.582    0.368
       432  -9.4013    239.0250    214.8873   7.1974908846e+01  -5.7544307504e+00    0.1988183    0.1630997 -47.51 0.0009241013    1.660    0.398
       433  -9.4445    237.1361    235.4707   7.5808421025e+01  -8.4581065769e+00    0.1936991    0.1543421 -41.08  0.000842699    1.652    0.395
       434  -9.8668    240.2425    231.8364   7.4661223366e+01  -8.3431313489e+00    0.2463804    0.1860149 -56.51  0.001138949    2.397    0.583
       435 -10.7276    235.5652    229.5827   7.5105700233e+01  -7.4377730955e+00    0.4658829    0.2594822 -41.90  0.002627112    1.976    0.494
       436 -10.0237    248.9998    240.4427   7.4571971148e+01  -1.0551247907e+01    0.2510295    0.1386588  30.43  0.001196059    1.761    0.432
       437 -10.4950    244.4009    237.6170   7.4896778124e+01  -9.6362689919e+00    0.4011614    0.2136206 -43.31  0.001977469    2.268    0.559
       438 -11.0206    245.9850    231.6766   7.3641878421e+01  -9.0265627322e+00    0.4500562    0.4121422 -55.61  0.002805725    1.894    0.472
       439 -10.5687    247.2390    226.4384   7.2547080628e+01  -8.4599470481e+00    0.3150275    0.1994937  23.67   0.00129758    1.500    0.333
       440 -11.1392    241.0734    222.0770   7.2864861180e+01  -7.0714554801e+00    0.4653532    0.3714674  57.02  0.002875434    2.266    0.559
       441  -9.3167    221.4778    161.5212   6.4989953750e+01   5.7249590988e+00     0.281619    0.1224938 -41.59  0.001185842    2.090    0.522
       442 -10.8624    159.3138    238.4919   9.1364879381e+01   2.0525794740e+00    0.3823843    0.2405441 -76.99  0.001651644    3.577    0.720
