#   1 NUMBER                 Running object number                                     
#   2 MAG_AUTO               Kron-like elliptical aperture magnitude                    [mag]
#   3 X_IMAGE                Object position along x                                    [pixel]
#   4 Y_IMAGE                Object position along y                                    [pixel]
#   5 X_WORLD                Barycenter position along world x axis                     [deg]
#   6 Y_WORLD                Barycenter position along world y axis                     [deg]
#   7 A_WORLD                Profile RMS along major axis (world units)                 [deg]
#   8 B_WORLD                Profile RMS along minor axis (world units)                 [deg]
#   9 THETA_WORLD            Position angle (CCW/world-x)                               [deg]
#  10 FWHM_WORLD             FWHM assuming a gaussian core                              [deg]
#  11 ELONGATION             A_IMAGE/B_IMAGE                                           
#  12 ELLIPTICITY            1 - B_IMAGE/A_IMAGE                                       
         1 -13.5536    243.5394      9.6013   3.1951629682e+01   2.4722137592e+01      1.75899    0.9411847 -55.56   0.01026609    1.560    0.359
         2  -9.7777     12.6812     13.3766   8.7166555107e+01   7.1807561793e+01    0.2369131    0.1442464  -4.03  0.001490762    1.530    0.347
         3 -11.3276      5.3433     12.1129   9.0822971268e+01   7.2607993936e+01    0.5128803    0.3096643  -3.52  0.003347676    1.526    0.345
         4 -11.0084    190.8627      5.2486   3.5305991685e+01   3.6779821301e+01    0.2332694    0.1887908  -7.53  0.001453552    1.647    0.393
         5 -10.3289    104.2961      8.1123   4.9236022105e+01   5.7055252990e+01    0.2446886    0.1482059  49.10  0.001316506    1.394    0.283
         6 -10.5300     14.6532      7.7628   8.3304829492e+01   7.2445621353e+01    0.3055257    0.1543192  15.10  0.001751806    1.991    0.498
         7 -10.9288    194.5745      2.5682   3.4297201089e+01   3.6172592150e+01    0.4341024    0.1819444 -74.59  0.001718185    3.256    0.693
         8 -11.9615    133.6162      4.6991   4.2371995735e+01   5.0529009043e+01    0.5032417    0.2376627  73.60  0.002279921    2.103    0.524
         9 -11.4564    118.9874      2.9939   4.4325571399e+01   5.4117824022e+01    0.4390791    0.2783224 -80.59  0.002204319    2.178    0.541
        10 -11.7162     23.9445      4.4098   7.6427829782e+01   7.1873572768e+01    0.5029848     0.271414  19.99  0.002976245    1.748    0.428
        11 -12.4009    160.2831      2.7388   3.7993913809e+01   4.4285522137e+01    0.8453097    0.2457553  71.35   0.00313291    3.089    0.676
        12 -12.0352    174.8679      3.1375   3.6413092292e+01   4.0755292811e+01    0.5234588    0.2962926  68.44  0.002798761    1.524    0.344
        13  -9.6519     98.1064      2.4154   4.8422000724e+01   5.8902156546e+01    0.2265013    0.1511472 -62.23  0.001182542    2.272    0.560
        14  -9.1371     90.4824      3.4907   5.0702407004e+01   6.0469614241e+01    0.1269626    0.1064444  38.51 0.0008103388    1.010    0.010
        15 -10.8902     40.3220      3.0499   6.7667941048e+01   6.9805970009e+01    0.3853089     0.144797  36.45  0.001859131    2.393    0.582
        16  -8.7112    104.6505      2.3026   4.6924437894e+01   5.7455389033e+01    0.1229444   0.09517819 -74.81 0.0007039782    1.696    0.410
        17  -9.4822     79.6681      2.3326   5.3108712568e+01   6.2821707481e+01    0.1146075   0.09673312 -69.35 0.0005800694    1.726    0.421
        18  -9.5780     54.0321      1.7244   6.1292197971e+01   6.7718287254e+01    0.1765047    0.1319316  29.59 0.0009408762    1.119    0.106
        19 -10.7201      9.7132      1.9118   8.3146043381e+01   7.3730179561e+01    0.4701706    0.1438505  26.41  0.002215907    3.268    0.694
        20  -8.4676     59.3097      1.3381   5.9147769998e+01   6.6822664186e+01    0.1298746   0.07506966  21.30 0.0005627076    1.685    0.407
        21 -11.1010     10.8543     24.9632   9.3200684960e+01   7.0076591356e+01    0.5259607    0.2381518 -19.44   0.00257097    2.551    0.608
        22  -9.0808     64.3398      3.2989   5.8337184143e+01   6.5725477531e+01    0.1315524   0.07556447  25.18 0.0007034675    1.664    0.399
        23  -9.7614    243.4084    119.1602   5.5621209661e+01   8.8964706062e+00    0.2041559    0.1081347 -46.50 0.0009438685    1.750    0.429
        24 -10.7168    249.0342    225.2767   7.5847108595e+01  -8.7164444585e+00    0.3796691    0.1618123 -32.74   0.00194323    2.155    0.536
        25 -10.0145    249.0907    249.8337   7.9959390271e+01  -1.1824619233e+01    0.3332837    0.1908303  16.61  0.002100041    1.503    0.335
        26 -11.3079    242.7993    246.0731   8.0434794271e+01  -1.0605421621e+01    0.5306176    0.2660158 -12.29  0.002773556    2.341    0.573
        27  -9.9013    249.2230    244.7645   7.9112284287e+01  -1.1229646862e+01    0.2774639    0.1915126   3.16  0.001911815    1.139    0.122
        28 -11.2403    247.2443    239.4590   7.8574909050e+01  -1.0330270663e+01    0.4461645    0.2208139 -22.14  0.002474568    1.966    0.491
        29 -10.6037    249.9838    232.7097   7.6965726355e+01  -9.8115581890e+00    0.3863595    0.1747705 -30.20   0.00208133    2.033    0.508
        30 -11.2194    233.9427    245.1377   8.1840381984e+01  -9.3726083513e+00    0.3911377    0.2106994 -16.67  0.002187229    1.953    0.488
        31 -10.4363    211.7656    248.7400   8.6448600275e+01  -6.9013620812e+00     0.313364    0.1833984  -3.12  0.001696882    2.038    0.509
        32 -11.5478    242.7734     92.9109   4.9921310370e+01   1.3375193394e+01    0.3568634    0.1878269 -50.80  0.001671349    1.827    0.453
        33 -10.9873    247.9943    112.7191   5.3553728027e+01   9.1330449483e+00    0.3703206    0.2416592 -60.00  0.001855682    1.814    0.449
        34 -12.1466    248.6436    106.9550   5.2211403177e+01   9.9649151387e+00    0.6339417    0.4640011 -86.66   0.00342698    1.901    0.474
        35 -11.0771    249.3507     97.9688   5.0163554717e+01   1.1296893584e+01    0.4118316    0.1650915 -41.52  0.001353553    2.067    0.516
        36  -9.3647    237.6190     90.3085   5.0031160850e+01   1.4816549956e+01    0.1433968   0.09552408 -67.57 0.0007024372    1.794    0.442
        37 -12.6665    248.8974     74.8060   4.5189552268e+01   1.5020689040e+01    0.9897841    0.5298035 -19.81  0.004101677    3.101    0.678
        38 -11.8781    249.5438     87.0984   4.7777513790e+01   1.2993716076e+01    0.5859306    0.3466572 -52.18  0.003038227    1.573    0.364
        39 -10.4575    225.4437    248.2391   8.3862932468e+01  -8.6680370016e+00    0.2502931    0.1722627 -15.83  0.001280347    1.350    0.260
        40  -9.2435      1.5804     25.6795   9.8520517774e+01   7.0572379254e+01    0.2274306   0.07867907 -49.48  0.001143045    2.147    0.534
        41  -9.0945     20.4912     23.4860   8.7466623466e+01   6.9492959436e+01    0.2275645    0.1062755  23.40   0.00121474    2.180    0.541
        42  -9.7274     33.5870     16.6638   7.7710082298e+01   6.9061484436e+01    0.2250583    0.1358463  30.47    0.0012372    1.627    0.385
        43 -10.2616     18.9250     15.0997   8.4518370318e+01   7.0955505394e+01    0.2650165    0.1440929   8.28  0.001500128    1.930    0.482
        44  -9.2436     38.0028    249.6730   1.2043971386e+02   1.7403329157e+01    0.1987707   0.03172849  49.57  0.000705098    4.327    0.769
        45  -9.2713     12.4141    249.1210   1.2493923790e+02   2.0246258892e+01    0.2322162    0.0888491  51.02  0.001324765    1.942    0.485
        46  -9.4135     39.9986     11.5064   7.2147689661e+01   6.8875307165e+01    0.1799618    0.1044596  34.13  0.001043551    1.623    0.384
        47  -9.8478      3.2442    242.9442   1.2623661485e+02   2.2299785938e+01     0.292006    0.1314275  64.56  0.001763063    1.764    0.433
        48 -11.0869    239.9241    240.3344   7.9994918035e+01  -9.5226869483e+00    0.3320345    0.1574081 -20.07  0.001693263    2.325    0.570
        49 -10.6936    226.1110    241.0768   8.2585985346e+01  -7.8171297725e+00    0.2383825    0.1428386 -26.41  0.001280707    1.623    0.384
        50 -10.1233     16.4186    240.1300   1.2379001545e+02   2.1551901508e+01    0.2459873    0.1137409  42.70  0.001465876    1.806    0.446
        51 -10.5141    231.4466    235.1910   8.0644993556e+01  -7.7410655897e+00    0.2493861    0.1438371 -12.77  0.001381205    1.825    0.452
        52 -10.3903    244.9934    230.2370   7.7404446592e+01  -8.8562054119e+00    0.2177493    0.1267954 -16.52  0.001112597    1.616    0.381
        53 -10.3970    236.9973    228.2375   7.8467492944e+01  -7.5385031645e+00    0.2314383    0.1355256 -17.09  0.001310162    1.664    0.399
        54  -9.1245      1.8393    221.1579   1.2548596688e+02   2.6722902014e+01    0.1449423    0.1151562 -79.30  0.001078082    1.322    0.244
        55  -9.7781    238.5959    219.8169   7.6710644340e+01  -6.5840930862e+00    0.1641083    0.1064194 -39.42 0.0009557926    1.718    0.418
        56 -11.0094    248.7862    214.8884   7.4049719646e+01  -7.2657096225e+00    0.4168853    0.1912248 -34.27  0.002155354    1.987    0.497
        57  -9.1280      2.5053    212.4904   1.2492107537e+02   2.8459976044e+01    0.1168017   0.08419931  74.30  0.000810026    1.053    0.050
        58  -9.1512    250.5575    200.7699   7.1158251100e+01  -5.4871298192e+00    0.2431573    0.1030387 -31.86  0.001148715    2.117    0.528
        59  -9.3177    250.0000    150.9847   6.1400212109e+01   2.4116467929e+00    0.2237559   0.06503014 -37.99 0.0008001307    2.926    0.658
        60  -8.7674    244.6523    149.3186   6.1905688567e+01   3.5742884456e+00    0.1294593    0.1024486 -64.51 0.0007048635    1.731    0.422
        61  -9.5893    247.4864    143.5031   6.0230553249e+01   4.0718814664e+00    0.1352552    0.1136262 -27.75 4.844719e-05    1.001    0.001
        62 -10.2391    248.2747    129.8125   5.7199868728e+01   6.2300103539e+00    0.2560257    0.1878247 -55.44  0.001242269    1.513    0.339
        63 -10.1304    241.8820    125.8093   5.7303813533e+01   8.0472576849e+00    0.2740627    0.1578456 -55.54  0.001246258    2.121    0.529
        64 -11.3313    248.3270    118.0878   5.4669413619e+01   8.1802998596e+00    0.4394807    0.2431561 -49.98  0.002113191    1.805    0.446
