#   1 NUMBER                 Running object number                                     
#   2 MAG_AUTO               Kron-like elliptical aperture magnitude                    [mag]
#   3 X_IMAGE                Object position along x                                    [pixel]
#   4 Y_IMAGE                Object position along y                                    [pixel]
#   5 X_WORLD                Barycenter position along world x axis                     [deg]
#   6 Y_WORLD                Barycenter position along world y axis                     [deg]
#   7 A_WORLD                Profile RMS along major axis (world units)                 [deg]
#   8 B_WORLD                Profile RMS along minor axis (world units)                 [deg]
#   9 THETA_WORLD            Position angle (CCW/world-x)                               [deg]
#  10 FWHM_WORLD             FWHM assuming a gaussian core                              [deg]
#  11 ELONGATION             A_IMAGE/B_IMAGE                                           
#  12 ELLIPTICITY            1 - B_IMAGE/A_IMAGE                                       
         1 -13.5031    232.7873     87.8661   5.3438354279e+01   1.5529550204e+01      5.79551    0.2689283 -39.85   0.01214002    7.835    0.872
         2 -12.3699    245.8912    101.9428   5.4886466672e+01   1.0541766418e+01     2.135382    0.7905582 -37.46  0.008448451    2.282    0.562
         3 -13.5454    236.1512     40.5186   4.1824959284e+01   2.1878933962e+01     2.060655     1.012406 -53.37  0.009724093    1.924    0.480
         4 -13.2086    245.5458     74.9488   4.8725499474e+01   1.4908210521e+01     2.965867    0.9961992 -50.96   0.01010641    3.514    0.715
         5 -12.6440    248.5057     56.6032   4.4209448597e+01   1.7016351246e+01     2.041026    0.7492989 -43.34  0.008663052    2.236    0.553
         6 -14.0227    246.6990     32.9739   3.9122121272e+01   2.0594000566e+01      4.05466     1.040338 -40.04    0.0158988    2.901    0.655
         7 -10.0188    215.4082     16.6797   3.8233747188e+01   2.9504966216e+01    0.3888976    0.2199452 -15.41  0.001840986    2.514    0.602
         8  -9.7936      8.9882     16.4603   9.2756102158e+01   7.1431809903e+01    0.3514523    0.1439023 -48.94  0.001831771    2.239    0.553
         9  -9.4998    139.9455      9.1593   4.5457947796e+01   4.8615193529e+01    0.2693048    0.1766796 -87.52  0.001018833    1.814    0.449
        10  -9.8005     18.7465      9.0204   8.3929997029e+01   7.1681541845e+01    0.1604504     0.115029 -18.14 0.0002705191    1.072    0.067
        11  -9.3972    133.1383      7.3236   4.5970489284e+01   5.0428225157e+01    0.2287676    0.1762878   7.41  0.001306015    1.484    0.326
        12  -9.0298    229.2842      5.6380   3.4501047126e+01   2.7564320365e+01    0.1347325   0.07285155 -59.74  0.000433554    1.682    0.406
        13  -9.7269    116.7032      5.2398   4.8232580646e+01   5.4503882579e+01    0.2214263    0.2066678  56.25 0.0003266185    1.090    0.083
        14  -9.8821    110.9447      5.1272   4.9355267045e+01   5.5842963901e+01    0.2128618     0.176197  13.28            0    1.236    0.191
        15  -9.3329     12.2571      4.9957   8.5399955521e+01   7.2895387256e+01    0.1605099    0.1017779 -15.28 0.0002983423    1.287    0.223
        16 -10.1044     14.7523      1.9895   8.2391944861e+01   7.3059640070e+01    0.2730716    0.1461949 -36.92  0.001347392    1.730    0.422
        17  -9.1231    217.2963      2.7781   3.4780408220e+01   3.0549440884e+01    0.2607644    0.1494816 -25.14  0.001393125    1.996    0.499
        18  -8.4238    153.4734      3.4667   4.1610488084e+01   4.5802859931e+01    0.1312634    0.1159853  70.59 0.0001247229    1.005    0.005
        19  -9.1179     50.9675      3.3269   6.5938757748e+01   6.8023234749e+01    0.1651523    0.1264425  19.51 0.0004293064    1.085    0.078
        20  -8.5730    121.6448      2.0929   4.6136442955e+01   5.3601380404e+01    0.1676234    0.1158174   8.38 0.0003962359    1.668    0.400
        21  -9.1328    225.6501    231.5518   8.5008548607e+01  -6.5181274354e+00    0.1751581    0.1439529 -45.78 0.0007461025    1.760    0.432
        22  -9.1963    224.8072    248.9321   8.7980678388e+01  -8.6068781442e+00    0.2198348    0.1553003 -57.19  0.001244024    2.996    0.666
        23  -9.9447    210.4513    249.2183   9.0582138651e+01  -6.6337704387e+00    0.2736058    0.2034068 -22.35  0.001858983    1.420    0.296
        24 -10.6219    193.5607    247.7080   9.3437890608e+01  -3.9724500102e+00    0.4932069    0.2555754 -43.94  0.002691766    2.372    0.578
        25  -9.9444    168.1567    249.5675   9.8452573392e+01  -3.9514056427e-01    0.2535845    0.1776248  17.50 0.0005978619    1.483    0.326
        26  -9.1923    151.2099    249.7775   1.0168948573e+02   2.1728014185e+00    0.1640497    0.1291448  17.31  0.001061398    1.345    0.257
        27  -9.1022    244.9252    230.5175   8.1452634780e+01  -9.0779683839e+00    0.2045804     0.142026 -41.51 0.0008999929    1.940    0.484
        28  -9.8922    235.2935    229.4666   8.2943893127e+01  -7.6172966052e+00    0.3015613    0.1897007 -36.63  0.001314124    1.771    0.435
        29  -9.4436    229.6796    228.3880   8.3752171810e+01  -6.6784584516e+00    0.2064092    0.1986255 -65.22  0.001102744    1.733    0.423
        30  -9.2033    211.8829    227.3742   8.6813880138e+01  -3.9066519419e+00     0.265633    0.1667928 -36.58  0.001529768    1.724    0.420
        31  -9.7400    199.0041    226.8671   8.9145832245e+01  -1.8425080977e+00    0.2514421    0.1778869 -58.91  0.001374428    2.280    0.561
        32  -9.8238    247.1205    226.2623   8.0342001302e+01  -8.8402644039e+00    0.2987806    0.1899391  42.02  0.001346258    1.913    0.477
        33 -10.3150    240.6431    221.8029   8.0677221724e+01  -7.3678414578e+00    0.3732946    0.3115729  52.81  0.002419184    1.929    0.482
        34  -8.9264    223.3400    227.0085   8.4654152932e+01  -5.5706987396e+00     0.171342    0.1398606  -8.05 0.0008593622    1.137    0.120
        35  -9.6069    230.4007    237.0357   8.5078691137e+01  -7.9028467026e+00    0.2664205     0.223936  82.75  0.001579849    2.810    0.644
        36  -9.1502    205.9513    225.3385   8.7577783860e+01  -2.7025107276e+00    0.2516311     0.167504 -44.05  0.001323164    1.819    0.450
        37  -8.9880    190.5351    225.9969   9.0624355240e+01  -3.6913597142e-01    0.1790821    0.1231868 -37.04 0.0009417608    1.597    0.374
        38  -9.3597    217.3022    223.7772   8.5201194132e+01  -4.2199015860e+00    0.2883674    0.2014084 -59.10  0.001455746    2.682    0.627
        39  -9.9422    228.2776    221.9516   8.2889529596e+01  -5.6050898177e+00    0.2734492    0.2235739  41.28  0.001779629    1.529    0.346
        40 -11.5486    230.9059    191.7567   7.6825683963e+01  -1.5956054854e+00     1.575076    0.2458375 -38.85  0.004281043    6.113    0.836
        41 -10.7788    248.0110    217.3495   7.8614557186e+01  -7.8127158569e+00    0.5122265    0.2995842 -38.91  0.002658925    1.918    0.479
        42 -10.1199    232.6464    174.5038   7.3055109692e+01   8.5118092612e-01    0.7485526    0.1879344 -34.12  0.002319772    4.198    0.762
        43 -10.7867    237.2836    196.5729   7.6621266579e+01  -3.3311008625e+00    0.6973799    0.2083246 -35.80  0.002678687    3.176    0.685
        44 -10.7306    245.6617    191.9821   7.4277734018e+01  -3.9381618529e+00    0.6774612    0.3982828 -50.47  0.003276871    2.606    0.616
        45  -9.2681    241.4766    191.5008   7.4906193875e+01  -3.2250075325e+00    0.2795137    0.2019486 -51.45 0.0009650688    1.988    0.497
        46 -10.1808    247.2226    207.0432   7.6869263672e+01  -6.3134663817e+00    0.4314078    0.2004665 -43.94  0.001662025    2.743    0.635
        47  -9.9968    243.3922    201.0540   7.6407300293e+01  -4.9116208593e+00    0.4837018     0.269232 -35.99  0.002448529    1.747    0.427
        48 -10.1129    236.9879    187.0188   7.4811723367e+01  -1.8402520304e+00    0.4458355    0.2189019 -35.37  0.001767997    1.892    0.471
        49  -9.9451    235.6072    180.8460   7.3822538008e+01  -6.5565978977e-01    0.3340517    0.2259164 -43.16   0.00152961    1.622    0.384
        50  -9.1818    210.9899    218.2318   8.5411752784e+01  -2.4434785727e+00    0.2526286    0.1512921 -34.86  0.001376424    1.729    0.422
        51  -9.4503    192.9306    218.3493   8.8883582884e+01   4.3172198568e-01    0.2844023    0.1689973 -49.09  0.001329702    2.115    0.527
        52  -8.3205    205.3369    217.6608   8.6379205322e+01  -1.4639212499e+00    0.1177968    0.1033995  70.94 0.0005705314    1.757    0.431
        53  -9.0509    239.6627    215.4199   7.9710162946e+01  -6.3716668771e+00    0.2273014     0.203633  79.23  0.001442387    2.128    0.530
        54  -9.9887    250.1032    200.8537   7.5220068385e+01  -5.8700794388e+00    0.3275905    0.1744629 -31.34  0.001184216    1.702    0.413
        55  -9.7515    224.0361    201.8080   8.0002417800e+01  -2.0374529914e+00    0.2318057    0.2025804  46.83 0.0008381798    1.494    0.331
        56  -8.5711    227.5133    201.5163   7.9312366561e+01  -2.5442069161e+00    0.2109588    0.1170288 -33.60  0.001081458    1.738    0.425
        57 -10.0166    232.9786    213.0479   8.0461453206e+01  -5.0622905361e+00    0.3922821     0.204866 -39.72  0.001610763    2.064    0.515
        58  -9.5871    229.7257    207.5337   8.0035254617e+01  -3.7799890898e+00    0.3751924    0.1664675 -44.63  0.001663178    2.801    0.643
        59 -10.4482    240.7351    208.7824   7.8312561571e+01  -5.6114781893e+00    0.4142351     0.250768 -48.85  0.002130572    2.493    0.599
        60  -9.4929    219.6579    217.3123   8.3639622717e+01  -3.6544761410e+00    0.2980699     0.230914 -48.57  0.001301207    1.777    0.437
        61  -8.9020    224.8087    207.9936   8.1012377621e+01  -3.0875151037e+00    0.1826455    0.1418507 -53.62 0.0009703626    1.915    0.478
        62  -9.0662    206.6419    206.9192   8.4215799324e+01  -1.1822628651e-02    0.3049988     0.119081 -38.66  0.001280875    2.635    0.621
        63  -8.9863    217.2626    204.7333   8.1803717598e+01  -1.4002401256e+00    0.2199018     0.149553 -34.38  0.001086505    1.484    0.326
        64  -8.7921    197.3748    203.7413   8.5433102812e+01   2.0505894636e+00     0.185996    0.1189439 -27.56 0.0009523953    1.651    0.394
        65  -9.7678    217.7678    211.8922   8.3020124883e+01  -2.5650926046e+00    0.3029583    0.2832363 -76.08  0.001962334    1.668    0.401
        66  -8.7550    172.6468    203.2587   9.0337718127e+01   6.4120112145e+00     0.183255    0.1242568 -32.83 0.0009398762    1.612    0.380
        67  -8.6744    202.4554    204.4844   8.4577405063e+01   1.0726977957e+00    0.2135149    0.1242219 -49.46  0.001021549    2.184    0.542
        68  -9.5823    223.9416    183.9034   7.6539979080e+01   7.9640020357e-01       0.4275    0.2101865 -48.73  0.001801313    2.684    0.627
        69  -9.3533    226.5943    196.7542   7.8573899722e+01  -1.6731534199e+00    0.2385613    0.1763297 -29.27 0.0009395547    1.298    0.229
        70  -9.6878    224.4443    192.2784   7.8102431260e+01  -6.2728821101e-01    0.4562916    0.2015601 -40.02  0.002031082    2.266    0.559
        71  -8.9412    201.9934    196.7075   8.3216745824e+01   2.4315248475e+00    0.2352563    0.1361974 -37.67  0.001127996    1.751    0.429
        72  -8.3915    176.3006    197.6195   8.8568895718e+01   6.7826323903e+00    0.1346122    0.1108923  84.42 0.0007023303    1.770    0.435
        73  -8.7614    170.3086    195.3499   8.9406842262e+01   8.2729288064e+00    0.1438908    0.1055801  -1.76 0.0007043955    1.711    0.416
        74  -8.7880    185.2878    193.3544   8.5924547305e+01   5.9456930873e+00    0.1428942    0.1028125  -2.89 0.0007024333    1.673    0.402
        75  -8.8529    210.4135    187.7096   7.9841813607e+01   2.4852980052e+00    0.2527136    0.1255387 -42.09  0.001128311    2.073    0.518
        76  -8.6706    220.4794    186.9773   7.7793611611e+01   8.8177723087e-01    0.2026999    0.1230433 -33.56  0.001025694    1.573    0.364
        77  -8.8805    215.1404    186.9187   7.8784099347e+01   1.8011471030e+00    0.1948152    0.1754053 -41.85 0.0006206384    1.324    0.245
        78 -11.0353    233.8625    145.2564   6.6587629131e+01   5.5278601732e+00     1.130958    0.5603182 -56.12  0.003946576    3.765    0.734
        79 -10.5269    236.3195    137.4440   6.4434571802e+01   6.4079445624e+00    0.8011551     0.436081 -61.57  0.002779133    4.026    0.752
        80 -12.0041    245.7928    177.6231   7.1409758658e+01  -1.7985623914e+00     1.373412    0.8094431 -37.71  0.007258474    1.604    0.377
        81 -10.7773    235.3516    166.0445   7.0819079853e+01   1.7709085108e+00     1.110057    0.5156844 -54.69  0.003455189    5.210    0.808
        82 -10.7295    236.8841    158.4432   6.8941440281e+01   2.7604658291e+00     1.120101    0.5529068 -57.55  0.003335702    5.764    0.826
        83  -8.9441    218.4388    248.1856   8.8991810587e+01  -7.6326029391e+00    0.1832856    0.1490479  60.00  0.001174956    2.137    0.532
        84 -10.1459    175.4948    246.4987   9.6638704739e+01  -1.0718029963e+00    0.2800616    0.2203866 -38.77  0.001691778    1.510    0.338
        85 -11.3354    244.6813    154.7746   6.6843685705e+01   2.0116691464e+00     1.435425    0.4140323 -43.54  0.004779235    3.687    0.729
        86 -12.0830    246.4549    144.3698   6.4311599432e+01   3.4079109953e+00     3.954463     1.219584 -49.61   0.00833815    9.901    0.899
        87 -11.3102    246.8117     86.7558   5.1279089928e+01   1.2806981252e+01    0.8187656      0.57332  81.03  0.004329134    1.820    0.451
        88  -9.2943    177.9301    242.4778   9.5596549657e+01  -8.5975315238e-01    0.2165365     0.178213  14.83 0.0005923974    1.132    0.117
        89  -8.5776    232.7901    247.2337   8.6316113943e+01  -9.4854742474e+00    0.1559275      0.13138  74.12 0.0009554537    2.772    0.639
        90  -9.4990    187.2639    246.4333   9.4419086856e+01  -2.8532958881e+00    0.2329641    0.1450725 -31.93  0.001375146    1.844    0.458
        91  -9.9840    163.8290    246.7329   9.8883805111e+01   6.8973436429e-01    0.2085677    0.1608394  84.19  0.001240073    2.086    0.521
        92  -9.0581    197.4901    181.9967   8.1237324983e+01   5.7736068086e+00     0.301397    0.1322272 -46.01  0.001197392    2.490    0.598
        93  -8.4019    183.4647    182.5081   8.4202048934e+01   8.2611609943e+00    0.1415046    0.1314533   8.15 -1.319113e-05    1.011    0.011
        94  -9.5122    227.2100    177.0997   7.4564230067e+01   1.3516405632e+00    0.3853902    0.2227459 -10.99  0.001687353    2.344    0.573
        95  -9.2376    210.4984    176.0118   7.7464371709e+01   4.4709876105e+00    0.2836156    0.1280203 -44.31 0.0008836581    2.329    0.571
        96  -8.7720    197.5923    176.7800   8.0158132897e+01   6.6935642723e+00    0.1969606    0.1312999 -48.67 0.0009487069    1.683    0.406
        97  -9.5846    223.5919    172.9738   7.4373922143e+01   2.6621450562e+00    0.3082545    0.2081449 -46.94  0.001065815    1.679    0.404
        98  -9.5757    227.9250    171.1994   7.3216244253e+01   2.2027254932e+00    0.3139556    0.1758979 -45.31  0.001112018    1.943    0.485
        99  -9.5772    218.9011    167.8304   7.4163149656e+01   4.3729822948e+00    0.3754836    0.1860421 -42.19  0.001639813    1.997    0.499
       100  -9.1014    211.8271    168.7520   7.5693315069e+01   5.5017769209e+00    0.2450926    0.1743561 -58.57 0.0007701146    1.951    0.487
       101  -8.6119     67.4926    166.8949   1.0852651491e+02   3.1848462558e+01    0.2006361    0.1239345 -66.41 0.0004294493    1.492    0.330
       102  -8.8087    229.4279    165.7841   7.1809872958e+01   2.8440740714e+00    0.2740255    0.1204365 -40.90  0.001147927    2.175    0.540
       103  -9.6918    212.9942    162.8803   7.4217237950e+01   6.3268853154e+00    0.4130687    0.1943198 -39.24  0.001733419    2.016    0.504
       104  -8.8476    199.3743    164.1803   7.7151900099e+01   8.6717967289e+00    0.2105148    0.1302556 -48.02 0.0009531982    1.752    0.429
       105  -9.7475    205.3624    161.5773   7.5405612116e+01   8.0045383591e+00    0.4189998    0.1656547 -41.25  0.001577441    2.440    0.590
       106  -9.0556    221.4876    161.0186   7.2229808732e+01   5.0830268289e+00    0.2733954    0.1266856 -41.43   0.00114262    2.072    0.517
       107  -9.1913      2.9164    159.7365   1.2325836029e+02   4.0302573508e+01    0.1611528    0.1278836  87.03 0.0003631829    1.059    0.056
       108  -9.2001    226.7263    157.0840   7.0429131936e+01   4.8059841240e+00    0.2909737    0.1741993 -45.08  0.001378887    1.728    0.421
       109  -9.1405    216.4048    156.2659   7.2136124781e+01   6.8654581885e+00     0.259917    0.1652729 -43.46  0.001244974    1.568    0.362
       110  -8.7009    212.0278    155.5295   7.2797353353e+01   7.8303694561e+00    0.2286867    0.1753426 -34.47 0.0006210718    1.222    0.182
       111  -9.0231    211.5687    150.9833   7.1873837313e+01   8.7457263620e+00    0.3151199    0.1649923 -41.74  0.001352767    1.826    0.452
       112  -8.4964    187.5220    154.9527   7.7547792555e+01   1.2768053446e+01    0.2303541    0.1423294 -38.92  0.001026043    1.577    0.366
       113  -9.3814    204.6630    153.0309   7.3659201025e+01   9.7189277046e+00    0.4567444    0.2954891  77.08  0.001662934    3.594    0.722
       114  -8.9342    228.3000    151.6395   6.8960429127e+01   5.4562478989e+00     0.258523    0.1186315 -37.59  0.001083602    1.976    0.494
       115  -9.1212    229.3811    147.8279   6.7929820552e+01   5.9150483072e+00    0.2825788      0.20004 -21.44 0.0009489901    1.380    0.276
       116  -9.1143    221.1072    151.7395   7.0271483869e+01   6.7812717042e+00    0.2441658    0.1839059 -43.21 0.0008115097    1.334    0.250
       117  -9.0653    215.4843    148.5019   7.0583099877e+01   8.4361180859e+00    0.2624213    0.1243965 -47.35  0.001028886    2.300    0.565
       118  -9.4236    223.7675    146.5705   6.8641131266e+01   7.1902379626e+00    0.3380145     0.250363 -47.91  0.001754935    1.434    0.302
       119  -9.3421    208.0901    145.6336   7.1326540645e+01   1.0416085688e+01    0.2663475    0.1887119 -45.28 0.0009542588    1.418    0.295
       120  -8.6710    219.0283    144.5024   6.9030006629e+01   8.4690121636e+00    0.1850026    0.1316627  77.81 0.0008089333    2.453    0.592
       121  -8.6825    214.4666    142.9418   6.9512425872e+01   9.6451857166e+00    0.2086634    0.1177171 -56.59 0.0008090695    2.556    0.609
       122  -9.0160    182.0390    142.3237   7.5813413459e+01   1.6411724434e+01     0.309998     0.188244 -64.62   0.00115245    2.670    0.626
       123  -9.6134    198.3896    140.4999   7.2028752216e+01   1.3356684747e+01    0.3010085    0.2274987 -61.18  0.001437692    1.633    0.388
       124  -8.9832    224.2789    140.0311   6.7076149959e+01   8.2485254605e+00    0.2113919    0.1667965 -37.65 0.0006732099    1.175    0.149
       125  -9.3740    218.7192    138.1430   6.7635598434e+01   9.6745307355e+00    0.3575592    0.1508897 -41.42  0.001383007    2.197    0.545
       126  -9.2910    171.2848    137.1908   7.6929493445e+01   1.9749078386e+01    0.4660766    0.2706341  75.37  0.001307606    4.936    0.797
       127  -8.7624    192.5726    136.9969   7.2369087902e+01   1.5250834169e+01    0.2394142    0.1418504 -39.45  0.001027391    1.607    0.378
       128  -9.1662    225.2776    133.7551   6.5467461738e+01   9.1658196715e+00    0.2606549    0.1769223 -44.05 0.0008040062    1.415    0.293
       129  -9.2936    221.2755    129.9207   6.5276581103e+01   1.0644446399e+01    0.4968956     0.198901 -49.47  0.001690366    3.104    0.678
       130  -9.3639    198.3161    131.9490   7.0018530515e+01   1.5016330309e+01    0.2209556    0.1796402 -38.88 0.0007711024    1.164    0.141
       131  -9.3120    143.0000    132.0080   8.2295672090e+01   2.6909932332e+01    0.2654596   0.08783337 -45.97 0.0008045185    2.957    0.662
       132  -9.4818    137.3704    132.1769   8.3738117555e+01   2.8048126056e+01    0.2269976    0.1443416 -57.24 0.0005632605    1.711    0.416
       133  -9.2596    233.9267    129.4670   6.3025362643e+01   8.2327587093e+00    0.3233625     0.179377 -39.94  0.001424207    1.607    0.378
       134  -8.7851    192.3556    129.2745   7.0556317876e+01   1.6808510832e+01    0.2188788    0.1340267 -47.41 0.0009224793    1.647    0.393
       135 -11.4273    240.7333    122.9620   6.0453782467e+01   8.0380210010e+00     1.129411    0.7228554 -40.26  0.005737532    1.378    0.274
       136  -9.3132    200.0946    126.2379   6.8293265638e+01   1.5731761047e+01    0.2887948     0.185856 -60.44 0.0009726474    2.060    0.515
       137  -9.2843    227.9760    125.4788   6.3094005634e+01   1.0092876606e+01    0.2835224     0.180878 -47.88  0.001349439    1.575    0.365
       138  -9.0445    179.7157    125.1306   7.2145329758e+01   2.0391484662e+01    0.2562315     0.191921 -58.75  0.001080048    1.514    0.339
       139  -8.7611    164.9206    124.9235   7.5339541018e+01   2.3705687687e+01    0.2475334    0.1932731 -76.91 0.0007973912    1.676    0.403
       140  -9.3264    220.7709    121.2285   6.3318055678e+01   1.2305609355e+01    0.4309817    0.1878757 -52.17  0.001477388    3.099    0.677
       141  -8.3300    212.6868    123.3229   6.5240755094e+01   1.3606149546e+01     0.148357    0.1140063 -67.52 0.0007040194    1.658    0.397
       142  -8.5434    188.4928    123.5183   6.9921022974e+01   1.8779052384e+01    0.1538808    0.1450164 -50.53 9.775882e-06    1.083    0.076
       143  -8.5633    194.2950    121.6191   6.8288875756e+01   1.7875954780e+01    0.1586603    0.1174476 -67.76 0.0007020354    1.756    0.431
       144  -8.3525    173.7033    120.3406   7.2226785559e+01   2.2701633025e+01    0.1587858    0.1234076 -74.03 0.0007032484    1.661    0.398
       145  -9.7181     18.6452    118.9510   1.1484530743e+02   4.8833336191e+01    0.2094804    0.1789743  57.24 0.0005463489    1.329    0.248
       146  -8.3253    190.6747    118.3471   6.8188276222e+01   1.9308902903e+01    0.1589586    0.1201582 -72.25 0.0007049814    1.747    0.428
       147  -8.6925    140.3247    118.6678   7.9611853271e+01   3.0451088920e+01    0.1622352    0.1266114 -85.79 0.0006286619    1.707    0.414
       148  -9.1749    212.4910    115.8722   6.3473376692e+01   1.5011353059e+01    0.3752017    0.1740557 -51.47  0.001294942    2.600    0.615
       149  -8.0650    199.3505    116.6945   6.6086045613e+01   1.7708663304e+01    0.1539708    0.1187736 -74.82 0.0007041836    1.705    0.413
       150  -9.2709    186.2201    115.2344   6.8294241931e+01   2.0911959704e+01    0.2564543    0.1107995 -47.86 0.0008768589    2.449    0.592
       151  -9.8100    218.7075    110.7684   6.1157875459e+01   1.4606304235e+01     0.625419    0.1884352 -45.27  0.001942507    3.393    0.705
       152  -8.7234    173.4503    114.2113   7.0701251959e+01   2.4004522381e+01    0.2279102    0.1424332 -51.44 0.0009420852    1.696    0.410
       153  -9.4316    229.5061    103.1288   5.7573919615e+01   1.3664394138e+01    0.3021505    0.2337913 -63.92  0.001564233    1.457    0.314
       154 -10.3926    227.8534    106.7078   5.8686847434e+01   1.3393995905e+01    0.7439646    0.3666091 -52.45  0.002948414    2.380    0.580
       155  -9.1980    176.9736    110.9674   6.9101931565e+01   2.3852156064e+01    0.2523544    0.1924473 -76.42  0.001125171    1.735    0.424
       156  -8.7734    155.2972    110.6589   7.3850165236e+01   2.8862337328e+01    0.1613612    0.1252968 -76.35  0.000492171    1.663    0.399
       157  -8.9345    189.6022    108.7338   6.5948779053e+01   2.1406539516e+01    0.2956674    0.1324613 -48.16  0.001046889    2.367    0.578
       158  -8.8849    190.0000    104.8933   6.4874716961e+01   2.2047720911e+01    0.2557211   0.08396699 -38.22 0.0006062231    2.886    0.654
       159  -9.1772    183.4050    109.2282   6.7315433691e+01   2.2724034915e+01    0.2336238    0.1368365 -49.15 0.0008621787    1.760    0.432
       160  -9.3885    160.7545    108.3825   7.1974362901e+01   2.8092488663e+01     0.300745    0.1863762 -50.51  0.001232566    1.680    0.405
       161  -9.1975    133.9789    109.4989   7.8798835066e+01   3.3843251370e+01    0.2223964    0.1400662  70.01 0.0008100237    2.529    0.605
       162  -9.2297      9.6240    107.8234   1.1597605181e+02   5.2140943478e+01    0.1794807   0.09910864 -80.14 0.0006000775    1.638    0.389
       163  -9.2518    222.3374    105.0016   5.9158552731e+01   1.4851450105e+01    0.3138438    0.1560289 -42.51  0.001315742    1.823    0.451
       164  -9.0957    205.8014    105.4427   6.2076775816e+01   1.8374292572e+01    0.2965422    0.2184196 -58.81 0.0009546155    1.504    0.335
       165  -8.5795    218.4298    104.2731   5.9619988537e+01   1.5816311082e+01     0.214458     0.123484 -46.89 0.0009376826    1.673    0.402
       166  -8.9277    200.8741    103.1500   6.2381407208e+01   1.9898258023e+01    0.2350785    0.1942217 -60.07 0.0006125232    1.282    0.220
       167 -10.1802    184.0354    102.7055   6.5474083168e+01   2.3838557388e+01    0.3775566    0.2406868  14.30  0.001374441    2.842    0.648
       168  -9.6739    174.8569    101.0981   6.6919458183e+01   2.6284585555e+01    0.5244917    0.2873737 -69.31  0.001467706    4.631    0.784
       169  -9.3014    160.3297    100.7942   6.9998896701e+01   2.9734844144e+01    0.3289842    0.1314852 -47.03   0.00107767    2.613    0.617
       170 -10.5714    211.9081     94.2896   5.8215599248e+01   1.9002516169e+01     0.775216    0.3909155 -53.92  0.002993556    2.368    0.578
       171  -9.0855    202.8581     98.1290   6.0739661133e+01   2.0362815464e+01     0.241877    0.1968785 -63.27  0.001222435    1.327    0.246
       172  -9.1868    194.9712     97.4722   6.1994543706e+01   2.2288443198e+01    0.3024985    0.1984324 -52.49 0.0008949615    1.598    0.374
       173  -9.1179    176.2513     97.0016   6.5518185697e+01   2.6747854924e+01    0.2238425    0.1981866 -41.65 0.0006183186    1.087    0.080
       174  -8.9992     30.5101     97.4344   1.0751536453e+02   5.3042844759e+01    0.1331855    0.1085067 -54.22 6.551246e-05    1.043    0.041
       175  -8.4878    183.6798     96.3707   6.3854029517e+01   2.5121566371e+01     0.164636    0.1176674 -69.15 0.0004256024    1.798    0.444
       176  -8.9274    170.8584     95.5152   6.6233872062e+01   2.8304512746e+01    0.2944675    0.1883508 -50.62 0.0007914024    1.632    0.387
       177  -9.6803    171.6544     90.9793   6.4807132363e+01   2.8980262932e+01     0.307603    0.2397265 -35.14 0.0009465232    1.261    0.207
       178  -8.8189    206.9703     94.7309   5.9156102042e+01   2.0036920795e+01    0.2381726    0.1669839 -78.11    0.0010016    1.974    0.494
       179  -9.5192    224.8305     92.8579   5.5811874003e+01   1.6403787008e+01    0.4123598     0.212241 -52.64  0.001697758    2.142    0.533
       180  -9.2532    164.3300     93.9122   6.7189490427e+01   3.0156961458e+01    0.3205374    0.1305393 -45.36 0.0009787262    2.481    0.597
       181  -9.3874    189.3336     93.3273   6.1950263337e+01   2.4359700847e+01    0.2999136    0.1898033  81.21  0.001164673    2.474    0.596
       182  -8.8622    177.1468     93.1543   6.4283114941e+01   2.7266061312e+01    0.2234749    0.1810675 -64.12   0.00107545    1.360    0.265
       183  -8.6532    196.9879     91.9942   6.0191152079e+01   2.2814694897e+01    0.2466579    0.1772181 -68.43 0.0009588223    1.714    0.416
       184  -9.2924    158.1380     90.2588   6.7523510586e+01   3.2329726515e+01    0.3103808    0.1937786 -60.44  0.001148068    2.079    0.519
       185 -10.3128     25.0352     90.4620   1.0798450247e+02   5.5151586707e+01    0.2413491    0.2058083 -46.46 0.0004825524    1.102    0.092
       186  -8.5862    203.4001     90.2271   5.8607612012e+01   2.1645726409e+01    0.2229466    0.1277636 -45.83 0.0009516292    1.669    0.401
       187  -9.3524    223.4044     76.2700   5.1950097843e+01   1.9451491673e+01    0.3947538    0.1571799 -46.20  0.001224793    2.381    0.580
       188  -9.3826    225.7189     87.5771   5.4390442318e+01   1.7095550778e+01    0.3556384    0.1868809 -50.19  0.001141711    1.915    0.478
       189  -9.5764    222.7424     83.9830   5.3948312278e+01   1.8342794343e+01    0.2286416     0.204146 -57.96 0.0007999467    1.069    0.065
       190  -8.7056    150.7020     88.3571   6.8675485648e+01   3.4452990366e+01    0.1622557    0.1223821 -71.74 0.0007035101    1.703    0.413
       191  -8.9939    163.7304     87.0293   6.5366631052e+01   3.1616001872e+01    0.2293671    0.1929222 -39.62  0.000699057    1.159    0.138
       192  -9.9834     30.4756     86.6857   1.0527522862e+02   5.5572927011e+01    0.2267702    0.1849785 -42.65 0.0006561945    1.111    0.100
       193  -9.0202    206.0777     84.9728   5.6797983401e+01   2.1940440730e+01    0.3179125    0.1955227 -43.53  0.001117477    1.511    0.338
       194  -9.4604    225.0296     81.5238   5.3010273317e+01   1.8242338704e+01    0.2881322    0.1733361 -50.26 0.0008529274    1.602    0.376
       195  -9.3462    170.6627     84.0545   6.3061198307e+01   3.0504874690e+01    0.2565272    0.1818918 -54.31  0.001158297    1.507    0.337
       196  -8.6351    200.5109     83.0272   5.7218775212e+01   2.3567535104e+01    0.2279145    0.1359615 -41.16 0.0007840779    1.560    0.359
       197  -8.6647    193.3472     83.1888   5.8500438751e+01   2.5226512648e+01      0.22516    0.1269745 -44.94  0.000648875    1.705    0.413
       198  -9.5007    159.2231     82.1730   6.4937926363e+01   3.3603530825e+01    0.3577498    0.1964265 -45.25  0.001426489    1.830    0.454
       199  -8.5100    209.9812     80.9932   5.5143903554e+01   2.1715805171e+01    0.2826717    0.1812164 -44.83  0.001327864    1.448    0.309
       200  -8.9573    211.2193     76.9486   5.3914630681e+01   2.2101588800e+01    0.3105429     0.193528 -37.56  0.001061548    1.487    0.327
       201  -9.1195    220.0000     78.9175   5.3096207200e+01   1.9784023273e+01    0.2345558    0.0756681 -35.25 0.0005000934    2.844    0.648
       202  -9.2286    201.1732     78.1069   5.5811555973e+01   2.4248210294e+01    0.3371345    0.1756869 -43.73  0.001030599    1.804    0.446
       203  -9.0951    166.9809     78.4596   6.2210253854e+01   3.2407261957e+01    0.2561256    0.2020867 -38.35   0.00124715    1.242    0.195
       204  -9.9709    183.6750     77.1216   5.8585665658e+01   2.8594291675e+01    0.3114299    0.2193533 -53.59  0.001079159    1.473    0.321
       205  -9.2822    174.5049     77.5737   6.0448354074e+01   3.0737931424e+01    0.3214353    0.1456657 -37.13  0.001199116    2.133    0.531
       206  -9.9526    157.5023     75.5408   6.3350096850e+01   3.5226480135e+01    0.3291047    0.1486062 -37.19  0.001212357    2.174    0.540
       207  -8.9808    206.3893     74.2046   5.3952961310e+01   2.3671763226e+01    0.2144823    0.1224794 -45.45   0.00094089    1.649    0.394
       208  -9.0621    116.5101     72.9975   7.2659378313e+01   4.5194162849e+01    0.2168713    0.1273553 -59.97 0.0008102026    2.536    0.606
       209  -8.8396    210.5101     71.5418   5.2634278818e+01   2.3143317487e+01    0.2557192    0.1152519 -45.09 0.0006798078    2.088    0.521
       210  -8.5143    195.2894     72.6397   5.5326732658e+01   2.6555361420e+01    0.1577518    0.1073106 -63.37 0.0003710447    1.690    0.408
       211  -8.6766    188.7919     77.9938   5.7901110012e+01   2.7211771117e+01    0.2068997    0.1165736 -36.04 0.0008637266    1.711    0.416
       212 -10.2281    220.4491     69.9729   5.0803382699e+01   2.1113988477e+01    0.5111831    0.2770735 -72.17  0.001914134    3.077    0.675
       213  -9.3468    169.9178     69.6202   5.9047796456e+01   3.3227513710e+01    0.4685799    0.2352972 -58.61  0.001591472    3.038    0.671
       214  -8.8700    214.4082     70.1683   5.1709420524e+01   2.2461515109e+01    0.2888667    0.1221227 -39.32 0.0008906761    2.112    0.527
       215  -8.8738    212.4871     66.0456   5.0935154301e+01   2.3553268204e+01    0.2763829    0.1239951 -39.43 0.0008356599    2.007    0.502
       216  -8.7231    219.5009     74.9211   5.2171780973e+01   2.0542737757e+01    0.2219875    0.1308322 -36.36 0.0009116002    1.563    0.360
       217  -8.6330    187.5920     68.7468   5.5564322406e+01   2.9051405183e+01    0.2186176     0.129048 -45.55 0.0009483017    1.652    0.395
       218  -8.9723    101.6863     69.0069   7.5648251324e+01   4.9049531471e+01     0.238424    0.1119796 -57.75 0.0007038993    4.191    0.761
       219  -9.1821    193.8446     67.7617   5.4244578470e+01   2.7698203673e+01     0.303675    0.1838421 -47.06  0.000983173    1.610    0.379
       220 -11.7884    248.7192    127.8397   6.0322135301e+01   5.7307605516e+00     2.012822     0.283998 -38.98  0.005178513    5.523    0.819
       221  -8.9552    203.2103     66.5853   5.2447334415e+01   2.5645968506e+01    0.2821323     0.157514 -46.46  0.001078998    1.713    0.416
       222  -9.3522      8.0787     67.2873   1.0932973664e+02   6.1582215797e+01    0.1636458    0.1375127 -46.36 0.0004548148    1.097    0.088
       223  -9.4073    216.7981     62.9658   4.9550844238e+01   2.3031528701e+01    0.2671193    0.1663445 -42.82  0.001296917    1.458    0.314
       224  -8.9882    171.0072     63.9874   5.7189977674e+01   3.3891639483e+01    0.2479588    0.1767722 -66.42  0.001132855    1.674    0.403
       225 -10.2128    197.3904     59.2606   5.1383341677e+01   2.8176250230e+01    0.2581656    0.2184855 -56.44 0.0005397903    1.127    0.113
       226 -10.3120    192.4920     55.4837   5.1107530280e+01   2.9934109495e+01    0.3153341    0.2234794 -41.67 0.0008954975    1.353    0.261
       227  -9.1085    158.0124     61.7825   5.9076664007e+01   3.7452026635e+01    0.2876018    0.1808212 -47.40  0.001229556    1.662    0.398
       228 -11.0703    192.6506     60.6010   5.2484075583e+01   2.9117604022e+01    0.5169818    0.3399925 -25.81  0.002419387    1.667    0.400
       229  -8.4094     21.6751     61.3049   1.0238092038e+02   6.1960402247e+01     0.113094   0.09519244  80.13  0.000293984    1.644    0.392
       230 -10.6553    221.0262     59.2712   4.8065101970e+01   2.2620029400e+01    0.3145165    0.1606935 -43.85 0.0008881212    1.758    0.431
       231  -8.4254    206.6179     59.1638   4.9997122037e+01   2.5985514877e+01    0.1964602    0.1345567 -23.29  0.000942761    1.655    0.396
       232  -8.7797    153.1354     59.4528   5.9364470196e+01   3.9025593828e+01    0.2542515    0.1716647 -40.14  0.001176777    1.483    0.326
       233  -9.2142    139.5323     55.5258   6.1074373159e+01   4.2956858758e+01     0.145585     0.143673  42.08  0.000372654    1.019    0.019
       234  -8.8191    153.0000     52.9367   5.7348610130e+01   4.0077135292e+01    0.2400468   0.08399829 -32.38 0.0006848531    2.915    0.657
       235  -8.7548    126.0041     51.9751   6.3091645658e+01   4.6715210840e+01    0.1771211    0.1692941  25.10 0.0007857448    1.007    0.007
       236 -10.2460    197.8842     50.0611   4.8836367673e+01   2.9418697369e+01     0.383904    0.1992907 -17.76  0.001469835    2.860    0.650
       237 -10.1578    220.2732     49.0030   4.5617085928e+01   2.4280430813e+01    0.3667818    0.1953563 -54.68  0.001666233    1.901    0.474
       238  -8.7228    178.5090     50.4804   5.1930670060e+01   3.4112757325e+01    0.1446977    0.1364557 -78.61  0.000345024    1.018    0.018
       239  -8.9315    181.3840     47.1875   5.0521426038e+01   3.3873001715e+01    0.2060981    0.1225545 -44.59 0.0007755516    1.661    0.398
       240  -8.9138     95.5478     47.4922   6.9882597396e+01   5.4073371535e+01    0.1418271    0.1287186   3.14 0.0003521586    1.011    0.011
       241  -9.6774    168.6909     35.4950   4.9127456498e+01   3.8608903263e+01    0.4660125    0.1398788 -26.35  0.001471269    3.929    0.745
       242  -8.6310    201.5343     35.0387   4.4362094512e+01   3.0579043772e+01    0.2089496   0.08840431 -51.65 0.0008094572    2.542    0.607
       243  -8.9012    149.4528     34.0475   5.1997695890e+01   4.3582163695e+01    0.2037532    0.1399493 -28.67 0.0004457619    1.535    0.349
       244  -9.8838    126.3907     31.2749   5.5737806445e+01   4.9529347884e+01    0.4892558    0.2057095 -47.53  0.001760309    3.266    0.694
       245 -10.1797     30.4948     27.9827   8.6889636117e+01   6.7516882753e+01    0.3330742    0.2030717  -8.07  0.001206642    1.757    0.431
       246  -8.8457     42.1411     27.6745   8.1447744009e+01   6.6164385012e+01    0.1690936    0.1346181  -3.21 0.0004370059    1.080    0.074
       247  -9.7374     77.7019    185.7723   1.0867992621e+02   2.5994286794e+01    0.2371232    0.2009595  57.77 0.0006254438    1.119    0.106
       248  -9.3525    172.2606     23.5011   4.5040441650e+01   3.9163781510e+01    0.5101607   0.07550373 -31.05  0.001451248    5.101    0.804
       249  -9.6381    136.8319     24.5888   5.1238436377e+01   4.7809880567e+01    0.2721443    0.1829143 -14.83  0.000509462    1.702    0.412
       250  -8.8721     84.9899     21.4631   6.2685962784e+01   5.9828481647e+01    0.1973897    0.1624511 -12.08 0.0005542759    1.186    0.157
       251  -8.3305    118.3165     24.3110   5.5019539212e+01   5.2251755885e+01    0.1451511   0.09555892  28.79 0.0003305141    1.639    0.390
       252  -8.9201    147.1616    247.1622   1.0212487871e+02   3.2026215156e+00    0.1715229    0.1272379  53.50 0.0006685301    1.344    0.256
       253  -9.0252    250.2848    245.0952   8.2982243643e+01  -1.1520179601e+01    0.1534016    0.1176392  -0.94 0.0005150837    1.107    0.096
       254  -9.0316    155.8220     16.4124   4.5303490219e+01   4.4011641847e+01    0.2485248   0.09598687 -28.63 0.0009990227    2.662    0.624
       255  -9.4154     23.3927     15.1798   8.4561736227e+01   7.0296829881e+01    0.1885189    0.1323064  -0.39 0.0006064675    1.265    0.209
       256  -9.5856     29.8749     12.8542   8.0191039769e+01   6.9893685193e+01     0.179285    0.1254763  -5.49 0.0003104798    1.216    0.178
       257  -9.3896    202.2772    242.5460   9.1044758922e+01  -4.5670949385e+00    0.2336241    0.2140697 -66.54  0.001353492    1.707    0.414
       258  -8.7058    210.3484    242.1464   8.9503229091e+01  -5.7010175980e+00    0.1437984    0.1088433 -38.93 0.0005292608    1.632    0.387
       259  -8.5224    248.4999    240.4835   8.2524045200e+01  -1.0757818636e+01    0.1148712   0.08787959   6.06 0.0008099233    1.052    0.049
       260  -9.3556    218.9340    177.6503   7.6201547301e+01   2.6916712049e+00    0.3517736    0.1613557 -39.16  0.001521115    2.099    0.524
       261  -9.0213    239.9581    240.2008   8.3934972867e+01  -9.6006688377e+00     0.161982    0.1393714  17.43 0.0006639264    1.342    0.255
       262  -9.0710    219.8375    239.7895   8.7410178644e+01  -6.7630574009e+00    0.1819957    0.1578985 -61.16  0.001204387    2.000    0.500
       263 -10.4991    190.9707    235.7305   9.2097602776e+01  -1.8925625359e+00    0.5448444    0.3932115  85.35   0.00256309    3.626    0.724
       264 -10.9147    204.2063    233.3114   8.9222536950e+01  -3.5789142464e+00    0.4743834    0.3564935 -76.71  0.000902543    3.115    0.679
       265  -8.5095    207.3727    231.3028   8.8304892812e+01  -3.7766472678e+00    0.1621665    0.1136086 -12.80 0.0005400609    1.481    0.325
       266  -9.3974    244.0378    236.5238   8.2622794582e+01  -9.6990777369e+00    0.1865541    0.1508312 -29.32 0.0006218764    1.524    0.344
       267  -9.8966    215.9528    233.7694   8.7131102409e+01  -5.4014691917e+00    0.3074294    0.2643732 -67.21  0.001968967    2.053    0.513
       268  -8.6191    240.4919    232.0120   8.2471511610e+01  -8.6626772355e+00    0.1400678    0.1018582 -52.29 0.0008097033    2.499    0.600
