#   1 NUMBER                 Running object number                                     
#   2 MAG_AUTO               Kron-like elliptical aperture magnitude                    [mag]
#   3 X_IMAGE                Object position along x                                    [pixel]
#   4 Y_IMAGE                Object position along y                                    [pixel]
#   5 X_WORLD                Barycenter position along world x axis                     [deg]
#   6 Y_WORLD                Barycenter position along world y axis                     [deg]
#   7 A_WORLD                Profile RMS along major axis (world units)                 [deg]
#   8 B_WORLD                Profile RMS along minor axis (world units)                 [deg]
#   9 THETA_WORLD            Position angle (CCW/world-x)                               [deg]
#  10 FWHM_WORLD             FWHM assuming a gaussian core                              [deg]
#  11 ELONGATION             A_IMAGE/B_IMAGE                                           
#  12 ELLIPTICITY            1 - B_IMAGE/A_IMAGE                                       
         1 -10.3693     97.6655     14.8945   8.0667548999e+01   5.8159857804e+01    0.3521735    0.1603826 -39.43  0.001524337    2.592    0.614
         2 -10.3223    160.5733      3.2849   6.4304473393e+01   4.3857058973e+01    0.2463615    0.1249122 -29.75  0.001143403    2.133    0.531
         3  -9.7918    144.3139      4.3237   6.6989326335e+01   4.7936839352e+01    0.1447638   0.08956001  39.97 0.0007041317    1.661    0.398
         4 -10.6033    167.8932    242.6522   1.2024557804e+02   2.2656812495e+00    0.1819678    0.1286646  40.24  0.001118304    1.113    0.101
         5 -10.6227    154.5076    240.4875   1.2248050385e+02   4.7911705544e+00    0.2199373    0.1253525 -48.19  0.001227115    2.225    0.550
         6  -9.2796    238.0090    239.7552   1.0720075810e+02  -8.3883026483e+00    0.1502797   0.07924469  35.22 0.0005215612    1.559    0.359
         7 -12.0126    160.1629    236.6714   1.2089450865e+02   4.4203422159e+00    0.3955674    0.2133229 -37.30  0.002066958    2.497    0.600
         8 -11.2512    229.8229    230.4971   1.0711870365e+02  -6.1004254329e+00    0.3207477    0.1360955 -44.40  0.001464043    3.576    0.720
         9 -12.0029    164.0366    226.5665   1.1872231564e+02   5.3021396402e+00    0.6055411    0.3326647  34.26  0.002754564    1.634    0.388
        10 -10.3619     97.4603    227.3423   1.3197729452e+02   1.6216912583e+01    0.2181216   0.09646253  41.68 0.0007500754    1.879    0.468
        11 -11.6270    125.7929    221.1165   1.2558003741e+02   1.2765003482e+01      0.36101    0.2638544  32.14  0.001010256    1.410    0.291
        12  -9.7692    114.6793    228.5436   1.2871733508e+02   1.3290341610e+01    0.1933658    0.1157336 -60.62 0.0009633029    1.982    0.496
        13 -10.0813    114.7450    221.4163   1.2785030327e+02   1.4545008652e+01    0.1893561    0.1596425 -25.27  0.001152562    1.726    0.421
        14 -10.3817    109.3301    222.2854   1.2904626049e+02   1.5266515654e+01     0.239472    0.1403505  34.05  0.001255406    1.756    0.430
        15  -9.4321    148.6789    220.5247   1.2088691588e+02   8.9402333295e+00    0.1928247    0.1231233 -50.59 0.0006103031    1.892    0.471
        16  -9.5399    143.8321    216.6469   1.2130919264e+02   1.0444801998e+01    0.2025879    0.1789911 -32.62  0.001025968    1.398    0.284
        17 -10.4285    131.1145    215.2767   1.2371530417e+02   1.2896674964e+01    0.2331641    0.1944625 -72.73  0.001369681    1.394    0.282
        18 -10.6161    112.2464    214.6288   1.2751619287e+02   1.6199535650e+01    0.2956115    0.2235335 -31.33  0.001675036    1.996    0.499
        19 -10.0640    185.7579    212.9322   1.1235685600e+02   3.6022815818e+00    0.2951554    0.1647886 -30.62  0.001453034    2.230    0.551
        20  -9.2960    199.0000    213.9687   1.0998383626e+02   1.1239067360e+00    0.1845953   0.07349946 -39.55 0.0007928225    2.876    0.652
        21  -9.3384    202.4983    208.9963   1.0847112107e+02   1.2413022685e+00    0.1808809    0.1267578 -32.78  0.001030989    1.584    0.369
        22  -9.1457    193.0000    209.0216   1.1029421444e+02   2.9130191382e+00    0.1955298    0.0752709 -40.73 0.0008065318    2.971    0.663
        23  -9.3520    123.9878    205.9723   1.2390397403e+02   1.5838571174e+01    0.1919358    0.1369533  65.48  0.001046636    1.455    0.313
        24 -10.1322    185.5353    202.9493   1.1071020907e+02   5.2061547033e+00    0.3158333    0.1334656 -41.41  0.001350381    2.694    0.629
        25  -9.5249    198.4066    202.3008   1.0808006783e+02   2.9712176349e+00    0.2421203    0.1253405 -32.03  0.001133475    2.239    0.553
        26 -10.7727    164.3462    200.4439   1.1457034755e+02   9.5399796504e+00    0.4848918    0.2403111 -39.19  0.002165435    2.434    0.589
        27 -11.0699    250.0252    200.2003   9.8372769449e+01  -5.4616472823e+00    0.3453791    0.1459451 -24.56  0.001571508    2.626    0.619
        28  -9.2715    211.4941    200.9970   1.0535906767e+02   8.3729939302e-01    0.1622719    0.1160906 -63.25 0.0008097446    2.470    0.595
        29  -9.3878    244.6057    199.2104   9.9106376906e+01  -4.4805361853e+00    0.1720218    0.1048619 -17.38 0.0009466419    1.668    0.400
        30  -9.2759    149.3174    198.9725   1.1746968179e+02   1.2591596525e+01    0.2064182     0.112928 -73.77  0.000704872    4.337    0.769
        31  -8.9937     89.3028    199.6851   1.3049906055e+02   2.2793811869e+01    0.1358853   0.08618534  68.34 0.0003209126    1.617    0.382
        32 -10.6183    126.5088    197.4404   1.2211934393e+02   1.7027534166e+01    0.3009561    0.2408013  20.51  0.001680311    1.525    0.344
        33 -10.8891    172.9052    195.6307   1.1198024319e+02   8.7675192554e+00    0.3039588    0.2693469   6.96 0.0008330042    1.194    0.163
        34 -10.1117    173.5311    191.5475   1.1112646353e+02   9.3547597324e+00    0.3223128    0.2307942  76.36  0.001204475    2.205    0.547
        35  -8.6884    209.2953    194.3417   1.0455281866e+02   2.2222024800e+00    0.1371769   0.09488418   7.39  0.000519479    1.660    0.398
        36  -9.9171    162.1103    193.4253   1.1383882235e+02   1.1197328095e+01    0.2919916    0.1869415 -52.70  0.001454177    1.850    0.459
        37  -8.8574    215.3188    193.6523   1.0329380266e+02   1.2457791198e+00    0.1217756    0.1073593  85.12 0.0007048681    1.731    0.422
        38 -11.0299    245.9364    191.4179   9.7423932946e+01  -3.6634606000e+00     0.227251    0.1489886 -19.50 0.0009824582    1.471    0.320
        39  -9.0255    124.6489    192.2900   1.2174058452e+02   1.8368557400e+01    0.1441389   0.09719029  66.55 0.0007026849    1.670    0.401
        40  -9.3979    179.4635    190.4567   1.0971003684e+02   8.4103773423e+00    0.2338148    0.1329544 -55.11  0.001036248    2.398    0.583
        41  -9.8548    138.8881    189.5382   1.1816843337e+02   1.6303531454e+01    0.2687458    0.1878002 -78.92  0.001312076    1.961    0.490
        42  -9.6977    156.4135    187.7315   1.1405366985e+02   1.3324470620e+01    0.2432029    0.1393907 -53.30 0.0009364645    2.055    0.513
        43  -9.7718    120.6464    186.1635   1.2167554034e+02   2.0316406393e+01    0.3585415    0.1303747 -66.22 0.0009483614    6.391    0.844
        44  -9.4399    165.3124    185.8722   1.1182127956e+02   1.1947854446e+01    0.2664112    0.1291077 -53.45  0.001084643    2.615    0.618
        45  -9.8540    211.2604    182.9532   1.0201530760e+02   3.6202203463e+00    0.3540825    0.2379316   4.20   0.00175404    1.855    0.461
        46  -9.7682    203.5476    183.4863   1.0359599645e+02   4.9819358744e+00    0.2687393    0.1333655 -38.10  0.001201435    2.151    0.535
        47 -10.7727    174.3835    181.7536   1.0914583298e+02   1.0920177542e+01     0.537486    0.2665142 -41.51  0.002322586    2.229    0.551
        48  -9.3612    197.4689    182.0069   1.0449779812e+02   6.3812242599e+00    0.1998266    0.1358342 -36.54  0.001026081    1.575    0.365
        49  -9.7706    243.7217    180.1259   9.5625480028e+01  -1.7463677462e+00     0.275905    0.1061878 -31.48  0.001164127    2.600    0.615
        50 -10.6215    147.7775    180.5125   1.1465134249e+02   1.6366681544e+01    0.3250729    0.2015594 -71.68  0.001377694    2.515    0.602
        51  -9.8233    204.9671    176.5221   1.0195435466e+02   5.8425581467e+00    0.2730879    0.2052332 -31.23 0.0009994148    1.384    0.278
        52  -9.5628    192.5497    175.1793   1.0413731897e+02   8.4907857396e+00    0.4853236    0.1803155 -29.17  0.001413103    4.976    0.799
        53 -10.1010    183.1369    174.7995   1.0598070893e+02   1.0427358770e+01    0.3701613     0.211743 -37.12  0.001687439    1.912    0.477
        54 -10.3111    137.7699    178.2554   1.1648639566e+02   1.8742725890e+01    0.3371561    0.1773781 -58.64  0.001429584    2.284    0.562
        55  -9.2613     76.3276    175.6484   1.3035086182e+02   2.9859803798e+01    0.1448823   0.08956042  70.77 0.0007047839    1.766    0.434
        56  -8.9394    218.4564    174.4662   9.8987008937e+01   3.6076300577e+00    0.1386493    0.1189219  10.48 0.0008071245    1.069    0.065
        57 -10.0814    177.2076    170.9855   1.0646026220e+02   1.2308908793e+01    0.2886871    0.2028909 -57.57  0.001394849    1.775    0.437
        58  -9.6622    206.5558    169.9225   1.0031587517e+02   6.6221392174e+00    0.2674087    0.2206708 -79.07  0.001354177    1.808    0.447
        59  -9.5745    121.7962    169.9622   1.1870795761e+02   2.3480494499e+01    0.2392135    0.1627379  85.77  0.001078581    2.029    0.507
        60  -9.6169    184.9925    165.2513   1.0366764004e+02   1.1764997383e+01    0.2629131    0.1831953 -24.04  0.001047081    1.673    0.402
        61  -9.7977    139.4017    165.2753   1.1372141882e+02   2.1074379168e+01    0.3342343    0.2067442  72.08  0.001319952    2.552    0.608
        62 -10.0158    192.2087    163.8757   1.0190360336e+02   1.0532835589e+01    0.4002626    0.1881185 -38.99  0.001635165    2.242    0.554
        63  -9.9009    159.4966    164.4939   1.0899460451e+02   1.7164029485e+01    0.2581016    0.1415234 -57.87  0.001032833    2.377    0.579
        64  -9.4619    212.8499    162.7613   9.7631549109e+01   6.5705795261e+00    0.2624657    0.1602979 -45.93  0.001235815    1.848    0.459
        65  -9.5246    204.8666    161.7177   9.8939660434e+01   8.3369010929e+00    0.2725156    0.1592275 -46.06  0.001235011    1.916    0.478
        66  -9.7993    151.1743    160.4924   1.1006348497e+02   1.9674665094e+01    0.2697841    0.1781709 -72.67    0.0011341    2.256    0.557
        67  -9.9090    177.3098    159.5596   1.0409358031e+02   1.4408826587e+01    0.3741191    0.1293007 -48.13  0.001215485    3.426    0.708
        68  -9.6701    196.4058    157.1610   9.9637706045e+01   1.0857840921e+01    0.3259844    0.1286574 -47.69  0.001137053    3.076    0.675
        69  -9.5276    106.1248    158.3224   1.2043045632e+02   2.8876983789e+01    0.3262821    0.1544749  59.61  0.001156198    2.984    0.665
        70  -9.4642    167.4014    157.1900   1.0573799329e+02   1.6946560131e+01      0.20852    0.1417551 -56.42 0.0009495079    1.737    0.424
        71  -9.7895    212.3574    155.2234   9.6122750757e+01   7.9243806812e+00    0.1994252    0.1275555 -44.99 0.0009442678    1.702    0.412
        72  -9.7401     49.9665    155.4954   1.3409646375e+02   3.7944757809e+01    0.1926932   0.08274247  55.02  0.000809946    2.600    0.615
        73  -9.8109    205.0000    153.4952   9.7154279664e+01   9.7210212764e+00    0.3087527   0.08083155 -38.68 0.0009293958    3.892    0.743
        74  -9.8639    133.4348    153.1489   1.1273890462e+02   2.4821285932e+01    0.2869641    0.1889296  75.39  0.001181734    2.239    0.553
        75  -9.9947    189.8609    149.4985   9.9293921721e+01   1.3617113211e+01     0.422348    0.2419481 -52.42  0.001763943    2.139    0.532
        76 -10.4812     56.4927    146.2171   1.3116434029e+02   3.9279448159e+01     0.403538    0.1890062  65.82  0.001533351    3.288    0.696
        77 -10.4070    149.1067    145.2192   1.0732129325e+02   2.3248820033e+01    0.4708773    0.3003262  79.68  0.001729392    2.884    0.653
        78 -10.0982    107.3093    145.1001   1.1764795796e+02   3.1635709134e+01    0.4828059     0.264409  72.42  0.001583988    3.735    0.732
        79  -9.4156     13.0412    146.5236   1.4224697708e+02   4.3694982524e+01     0.165966   0.07036009  54.00 0.0007258367    2.443    0.591
        80  -9.0267    223.6163    145.1474   9.1862495402e+01   7.3259748568e+00    0.2031586    0.1274921 -23.20  0.000947397    1.717    0.418
        81  -9.9292    125.2104    143.2150   1.1270266687e+02   2.8627478134e+01    0.3832945     0.236267 -83.58  0.001394212    2.969    0.663
        82  -9.4659     88.1724    144.1676   1.2247026362e+02   3.5164857255e+01    0.2060454    0.1595487  77.99 0.0005944187    1.382    0.276
        83 -10.2164     23.9420    138.7829   1.3870521400e+02   4.4515386373e+01    0.3223211    0.1454522  65.08  0.001431763    2.815    0.645
        84  -9.6749    197.5385    136.2965   9.4758329609e+01   1.4357855940e+01    0.3709283    0.1467408 -36.10  0.001312138    2.645    0.622
        85 -10.0190    200.1779    147.5955   9.6799822106e+01   1.1762982040e+01    0.4274554    0.2046517 -36.84  0.001725967    2.145    0.534
        86 -10.2616     83.6570    132.0305   1.2140267935e+02   3.8711758348e+01    0.3945329    0.2426873  70.62  0.001282267    2.261    0.558
        87  -9.7694    132.4196    132.1250   1.0843956799e+02   2.9577806247e+01     0.293252    0.1992273  81.10  0.001180371    2.260    0.557
        88  -9.1571    143.3131    131.6726   1.0563582933e+02   2.7345131519e+01    0.1575973    0.1220914  87.22 0.0006501083    1.668    0.400
        89  -9.8738     13.0862    129.8801   1.4056710443e+02   4.7443805489e+01    0.2772616    0.1357919  67.25  0.001372105    2.391    0.582
        90 -10.1726     99.5147    128.3768   1.1627460425e+02   3.6866030688e+01    0.4062252    0.2494202  79.28  0.001485281    2.842    0.648
        91 -10.8500     59.9172    124.9382   1.2678185884e+02   4.3818479713e+01    0.4812603    0.2527581  68.56  0.001862943    3.166    0.684
        92 -10.8362     44.1482    123.2257   1.3103861883e+02   4.6112161198e+01    0.5865645    0.2963007  76.33  0.002263613    3.445    0.710
        93 -10.9453     28.6912    122.6292   1.3537894846e+02   4.7804034300e+01     0.639221     0.266318  73.82  0.001867461    6.499    0.846
        94  -9.7871    142.3345    120.1301   1.0308683136e+02   3.0001445737e+01    0.3784955    0.2361837 -73.62  0.001355033    2.758    0.637
        95  -9.6925      3.4839    117.9812   1.4188890465e+02   5.0797503091e+01    0.1696693   0.07941513  79.81 0.0008097616    2.487    0.598
        96 -10.1588    109.5286    114.5590   1.1032049173e+02   3.8119417604e+01    0.3413081     0.212444 -80.21  0.001255765    2.841    0.648
        97 -10.5813     79.4900    113.2498   1.1868160050e+02   4.3735440198e+01    0.4381686    0.2774387  84.10  0.001805301    2.587    0.614
        98 -11.2243    248.4385    112.7630   8.0565997761e+01   7.4910156582e+00    0.3905304    0.1909304 -58.01   0.00137839    3.735    0.732
        99 -10.2476     93.2113    113.4168   1.1468337030e+02   4.1409886785e+01     0.351485    0.2495091  89.89  0.001400212    1.943    0.485
       100 -10.6108     14.2458    109.9562   1.3784014355e+02   5.1889378739e+01    0.3692451    0.2064091 -88.54  0.001698239    1.828    0.453
       101 -10.1783     66.7895    110.9868   1.2201672272e+02   4.6148929297e+01    0.2319441    0.1549955  85.82  0.001076889    2.056    0.514
       102 -11.2793     45.6355    102.7313   1.2692357822e+02   5.0710818146e+01     0.665748    0.3362318  68.70  0.002329342    4.422    0.774
       103 -10.9608     22.8960    102.7328   1.3413908346e+02   5.2877432071e+01    0.5946531    0.2911738  72.13  0.002444997    3.533    0.717
       104 -10.6106    109.6278     99.6054   1.0643905181e+02   4.1381205631e+01    0.6331573    0.3569105  69.04  0.002077529    3.609    0.723
       105  -9.6816     82.5694    100.5816   1.1475477876e+02   4.6126512532e+01    0.2967367    0.1846246 -84.98  0.001138176    2.943    0.660
       106 -11.6329    249.1366     98.2507   7.7184436101e+01   9.5724102286e+00    0.3775304    0.2017827 -51.39  0.001692674    2.060    0.515
       107  -9.7034    125.0769     91.7043   9.9940257285e+01   3.9765403758e+01    0.3439855    0.2293609  87.22  0.001285648    2.729    0.634
       108 -10.4494     34.9932     89.9511   1.2784475440e+02   5.4716326966e+01    0.3983409    0.1973285 -80.91  0.001629903    3.062    0.673
       109 -11.0204     64.0184     96.4691   1.1962662320e+02   4.9860115654e+01     0.492678    0.3061186  81.09  0.002017354    2.965    0.663
       110 -10.4070     86.5894     87.1351   1.0992233522e+02   4.8396314796e+01    0.3037326     0.224963  73.14  0.001334906    1.897    0.473
       111 -10.3692    105.3184     84.2004   1.0332458923e+02   4.5484928672e+01    0.3704548    0.2487828 -80.82   0.00145486    2.694    0.629
       112 -10.3202     48.4597     84.5113   1.2198066284e+02   5.4508508321e+01    0.2879272    0.1895521  73.90  0.001371217    2.432    0.589
       113  -9.7750     24.6052     81.3303   1.2968019469e+02   5.7551195428e+01    0.2578522    0.1523499  69.88  0.001247195    2.705    0.630
       114  -9.3841     75.3009     81.6336   1.1203228117e+02   5.1449379078e+01    0.1400866    0.1106334 -89.93 0.0007033917    1.734    0.423
       115  -9.2908     61.4954     76.9776   1.1544006075e+02   5.4488792284e+01    0.1891786    0.1186411 -76.62 0.0008103977    2.603    0.616
       116  -9.2721    128.3833     76.1717   9.4425974539e+01   4.2046689346e+01    0.2243887    0.1389967 -50.48 0.0009456308    1.792    0.442
       117 -10.5391     82.9112     73.6367   1.0712792885e+02   5.1843416410e+01    0.4038329    0.2787974 -89.75  0.001679611    2.845    0.648
       118  -9.2152    106.3101     72.6364   9.9472900614e+01   4.7571254608e+01    0.1500992     0.118612 -80.63 0.0007039618    1.750    0.429
       119  -9.6502     95.3950     71.6289   1.0247604686e+02   4.9953005468e+01    0.2823062     0.125919 -55.42 0.0009522969    3.271    0.694
       120  -9.5647     25.2956     72.3422   1.2747442272e+02   5.9453941454e+01    0.1309376   0.07583292 -38.04 0.0004495921    1.662    0.398
       121 -10.0047     51.7669     70.4782   1.1710229913e+02   5.7133769997e+01    0.3098915    0.1798085 -70.87  0.001375256    2.552    0.608
       122  -9.0902     16.3502     70.6620   1.3046511779e+02   6.0489916268e+01    0.1172965   0.08628161  72.83  0.000704555    1.791    0.442
       123  -9.1183    121.6868     66.3719   9.3099344400e+01   4.5370506977e+01    0.1549922    0.1190955 -75.66 0.0007033875    1.781    0.439
       124  -9.4651    110.2288     64.4152   9.5650444259e+01   4.8266467642e+01    0.2054966    0.1402019  59.29 0.0007228266    1.670    0.401
       125  -9.2291     37.3488     64.6615   1.2092280733e+02   5.9974532643e+01    0.1219814   0.09679859  76.97 0.0007046271    1.788    0.441
       126  -9.7456    100.6909     60.7238   9.7234288729e+01   5.0935224856e+01    0.2900016    0.1712266 -58.52  0.001171696    2.503    0.600
       127  -9.8922     73.6688     60.3769   1.0600231224e+02   5.6001553848e+01    0.2427579    0.1639798 -53.36 0.0009551595    1.641    0.390
       128  -9.6449      7.7823     58.1708   1.3106995874e+02   6.3664140268e+01    0.1827205    0.1098462  68.63 0.0009476259    2.840    0.648
       129  -9.4989    119.7015     56.6739   9.0408822184e+01   4.7488750606e+01     0.295954    0.1663237 -55.12  0.001154501    2.490    0.598
       130  -9.3469     62.7841     55.0244   1.0813256748e+02   5.8712205522e+01    0.1805056    0.1001019 -44.50 0.0008708545    1.693    0.409
       131  -9.1676    106.6481     54.3218   9.3242646345e+01   5.0788386743e+01    0.1449854       0.1167 -82.37 0.0007047807    1.750    0.429
       132  -9.8032    100.5462     54.0713   9.4967291557e+01   5.2121514806e+01    0.2054527    0.1855417  30.50   0.00029548    1.068    0.063
       133  -9.6855     54.2383     54.2419   1.1112409751e+02   6.0066642304e+01    0.2028201    0.1029146 -57.23 0.0008863285    2.442    0.591
       134  -9.9977     92.7305     51.1211   9.6338016325e+01   5.4204056736e+01    0.3090534    0.1866026 -54.19  0.001283594    2.224    0.550
       135  -9.3197     31.4746     52.0002   1.1960062894e+02   6.3116617723e+01    0.1600838    0.1058937 -79.39 0.0005752125    2.487    0.598
       136  -9.1137    112.6667     47.3312   8.9062651182e+01   5.0583829450e+01    0.1447239    0.1153518 -76.60 0.0007052161    1.726    0.421
       137  -9.4315     82.1289     47.1696   9.8370600222e+01   5.6890858688e+01    0.1763016    0.1678158 -75.76 0.0006525284    1.329    0.247
       138  -9.5497     58.3295     42.9958   1.0550155555e+02   6.1541036110e+01    0.2011817     0.104105 -60.67 0.0007052009    4.365    0.771
       139  -9.8641      5.4183     42.6588   1.2824019750e+02   6.6923942783e+01    0.2069413    0.1003104 -76.47 0.0009528522    3.190    0.687
       140  -9.7584     69.4919     41.9766   1.0086813879e+02   5.9967044197e+01    0.2377665    0.1692534  81.25   0.00102405    3.344    0.701
       141  -9.0974     37.3261     41.6588   1.1367830027e+02   6.4479585762e+01    0.1119493     0.098397  87.41 0.0007051257    1.734    0.423
       142  -9.3415     83.5928     39.5127   9.4956299363e+01   5.7848250129e+01    0.1340444    0.1226012   0.67 -0.0001664218    1.039    0.038
       143  -9.6314     95.6778     38.3510   9.0646508604e+01   5.5618462541e+01     0.206184    0.1703036 -75.61  0.001098115    1.736    0.424
       144  -9.6439    112.2169     35.1099   8.4720937418e+01   5.2456047754e+01    0.2655717     0.190804 -89.95  0.001070986    2.137    0.532
       145  -9.3092    119.7994     33.8176   8.2312863329e+01   5.0860257925e+01    0.1951801    0.1713011 -76.31  0.001076104    1.374    0.272
       146  -9.5368     60.9742     33.1625   1.0058340338e+02   6.2761651224e+01     0.189798    0.1523219  66.99  0.001071601    2.005    0.501
       147  -9.6159     73.8521     32.6511   9.5569067211e+01   6.0678882305e+01    0.3347989    0.1208119  53.47  0.001104707    4.405    0.773
       148  -9.3916     13.2959     31.6585   1.2117337035e+02   6.8502547003e+01    0.1000135   0.08849066 -88.11 0.0004366889    1.661    0.398
       149  -9.6797     81.8127     28.0133   9.0913871238e+01   5.9857386834e+01    0.2092229    0.1534614 -59.53  0.001075523    2.099    0.524
       150  -9.8066    110.0000     25.8615   8.1795550990e+01   5.4148563668e+01    0.3681643   0.07893113 -28.17  0.001057015    4.986    0.799
       151  -9.4643     91.9991     27.0009   8.7271148559e+01   5.7948954579e+01    0.2060435    0.1698569 -71.56  0.001134304    1.761    0.432
       152  -8.9507     44.1596     25.5967   1.0434696365e+02   6.6370948823e+01     0.159407    0.1044616  16.54  0.000319974    1.558    0.358
       153 -10.2370     64.1000     21.3922   9.4326743364e+01   6.3962651688e+01    0.2362512    0.1614342  54.70  0.001296344    1.913    0.477
       154  -9.6415     12.9020     21.2995   1.1754814982e+02   7.0356835774e+01    0.1936087    0.1261315   7.57  0.001194878    1.587    0.370
       155  -9.5530     74.2378     19.9927   9.0040299753e+01   6.2340550309e+01    0.2442531    0.1723198  76.66  0.001180192    2.718    0.632
       156  -9.6318     88.5011     17.9917   8.4576820650e+01   5.9773216082e+01    0.1750151     0.104754 -49.69 0.0008091144    2.431    0.589
       157 -11.5246    166.4119    248.3656   1.2128155163e+02   1.7071824694e+00    0.3299362    0.2127079  33.18  0.001009956    1.303    0.233
       158  -9.3108     40.5530     13.5334   1.0045781176e+02   6.8613237233e+01     0.119942   0.09614812  -4.88 4.513113e-05    1.004    0.004
       159  -9.4769    107.6170    248.7430   1.3224886324e+02   1.1000884117e+01    0.1400563    0.1048229  89.38 0.0007739871    1.517    0.341
