#   1 NUMBER                 Running object number                                     
#   2 MAG_AUTO               Kron-like elliptical aperture magnitude                    [mag]
#   3 X_IMAGE                Object position along x                                    [pixel]
#   4 Y_IMAGE                Object position along y                                    [pixel]
#   5 X_WORLD                Barycenter position along world x axis                     [deg]
#   6 Y_WORLD                Barycenter position along world y axis                     [deg]
#   7 A_WORLD                Profile RMS along major axis (world units)                 [deg]
#   8 B_WORLD                Profile RMS along minor axis (world units)                 [deg]
#   9 THETA_WORLD            Position angle (CCW/world-x)                               [deg]
#  10 FWHM_WORLD             FWHM assuming a gaussian core                              [deg]
#  11 ELONGATION             A_IMAGE/B_IMAGE                                           
#  12 ELLIPTICITY            1 - B_IMAGE/A_IMAGE                                       
         1 -11.0987    201.7434     26.9891   5.9186975388e+01   3.2033172963e+01    0.5491406     0.360127  -5.24  0.002655085    3.293    0.696
         2 -10.9322    220.7406     15.0975   5.4872947377e+01   2.9324638550e+01    0.4635418    0.3874983  72.35  0.003311207    1.331    0.249
         3  -9.9433    240.1165      2.2506   5.0992995019e+01   2.6802630862e+01    0.3051485    0.1640669 -62.99  0.001012484    1.535    0.349
         4 -10.2712    228.5506     16.3843   5.4443135520e+01   2.7550396560e+01    0.5032214     0.283914  61.72  0.002985344    1.840    0.457
         5  -9.5709    231.6982      2.5512   5.1645511689e+01   2.8449846306e+01    0.3055891    0.1480091 -85.77  0.001255858    1.894    0.472
         6 -10.5336    250.1531     18.7555   5.3149274125e+01   2.2944837289e+01    0.5537116    0.2199622 -33.85  0.002651809    3.240    0.691
         7 -10.1572    233.1172     10.5602   5.2990540128e+01   2.7284130916e+01    0.2361403    0.2002346  68.17  0.001300178    1.472    0.321
         8 -10.3833    238.0576      7.8031   5.2118129106e+01   2.6600521750e+01    0.5534927    0.2179539 -67.61  0.002606297    2.709    0.631
         9 -10.6947    246.0358     13.3465   5.2509076700e+01   2.4390571539e+01    0.5415975    0.1551881  65.29  0.002513817    3.143    0.682
        10 -10.9144    249.2310      5.2799   5.0892998325e+01   2.4693138740e+01     0.560933    0.2706528 -42.21  0.003397723    1.995    0.499
        11 -10.7056    244.2883     21.4530   5.4081777526e+01   2.3764160909e+01    0.3794022    0.2586573 -59.75  0.002564661    1.220    0.181
        12 -10.9403    239.2688     17.4313   5.3755939121e+01   2.5248407957e+01    0.5487947    0.2650363 -59.41  0.003098679    1.797    0.444
        13  -9.9737    234.5987     19.5190   5.4520234435e+01   2.5941606266e+01    0.2878091    0.2333572  53.52  0.001758536    1.718    0.418
        14 -10.1584    198.1236     10.8576   5.6140668484e+01   3.4648773856e+01    0.6826656     0.436009   8.58  0.003212569    4.004    0.750
        15  -9.2709    201.6898     11.6641   5.5956534673e+01   3.3784433952e+01    0.1997247    0.1264641  59.04 0.0009811945    1.614    0.380
        16 -10.2590    155.2131      9.1667   6.0772115797e+01   4.4412237108e+01    0.2826394    0.1725694 -33.67  0.001390051    1.898    0.473
        17  -9.7909     67.7825     10.6877   7.9403769031e+01   6.2481760923e+01    0.2193589    0.1467868  27.02  0.001409739    1.293    0.227
        18 -10.7463    213.2791      7.8835   5.4121643114e+01   3.1695315733e+01    0.4260756    0.3507729 -61.49  0.003082167    1.244    0.196
        19  -9.5461    187.2551      9.4492   5.6960185206e+01   3.7190664429e+01    0.2650225    0.1516119 -65.93  0.001474681    1.800    0.444
        20  -9.6846    116.5081      6.5016   6.6237209057e+01   5.3207078025e+01    0.1559791    0.1104069 -40.44 0.0009710442    1.704    0.413
        21  -9.9863    222.5324      6.5129   5.3080901577e+01   2.9900979023e+01    0.4208553    0.1656192  63.23  0.001834987    2.340    0.573
        22  -8.9115    220.6311      2.8145   5.2536763107e+01   3.0687046710e+01    0.2155223    0.0778125 -43.75 0.0006929702    2.492    0.599
        23  -9.3488    206.3661      6.5995   5.4481004437e+01   3.3305631162e+01    0.2068665    0.1392223 -38.95  0.001328216    1.680    0.405
        24  -9.6778    171.2155      5.2163   5.7789761218e+01   4.1177588201e+01    0.1676474    0.1207158 -77.01 0.0007711397    1.336    0.251
        25  -8.9462    164.8487      2.7746   5.7964437965e+01   4.2822251721e+01    0.2592393   0.07423355 -31.03  0.001100377    3.756    0.734
        26  -9.6207     64.0312      2.1292   7.7209681011e+01   6.3859701652e+01     0.181706    0.1465308  10.01 0.0008627198    1.181    0.153
        27  -8.9627    190.2920      2.0233   5.5044814813e+01   3.7249146532e+01     0.195912    0.1372945  62.04  0.001151214    1.394    0.283
        28  -9.5661    199.8932     15.0425   5.6843044680e+01   3.3812386015e+01    0.2763264    0.2214034  67.57  0.001049772    1.275    0.216
        29  -9.8867    194.1236    219.5652   1.0242698958e+02  -1.7357098949e+00    0.3269807    0.2547583  38.48  0.001652388    1.301    0.231
        30  -8.5210    209.3349    250.3213   1.0472777428e+02  -9.3450640205e+00    0.1315155   0.08639608  -0.56 0.0007050053    1.706    0.414
        31  -8.7534    193.0397    250.2334   1.0791872132e+02  -6.9232698621e+00    0.1741682   0.09567867  33.48 0.0008835398    1.648    0.393
        32  -8.6979     48.6794    219.6689   1.3455014388e+02   2.1993780830e+01    0.1231412   0.09782057 -42.52 0.0007048941    1.695    0.410
        33 -10.1498    247.5934    216.4501   9.1644594918e+01  -9.3302827581e+00    0.3355128    0.2399012 -24.20  0.001637632    1.204    0.169
        34 -11.1929    214.4955    215.5136   9.7604636252e+01  -4.2971227993e+00    0.3448371    0.2939781 -66.36  0.001736507    1.620    0.383
        35 -10.5139    219.4883    215.4823   9.6633211853e+01  -5.0711024029e+00    0.3110449    0.2546484  53.38  0.001814623    1.611    0.379
        36  -8.6842    109.4700    216.4789   1.2056154456e+02   1.3605547823e+01    0.1422627    0.1310695  66.32 0.0001390635    1.002    0.002
        37  -8.7558     62.9830    216.3209   1.3106779410e+02   2.0848952950e+01    0.2329669    0.0661306  51.80 0.0003292297    4.325    0.769
        38  -8.9242    179.6714    215.6974   1.0474295156e+02   1.4554374543e+00    0.1439052    0.1063381  -2.32 0.0007033475    1.647    0.393
        39  -9.7858    232.2768    212.6532   9.3700382803e+01  -6.5183883657e+00    0.3785878    0.1602487 -46.92  0.001531192    2.521    0.603
        40 -10.0244    186.5799    213.0994   1.0280805297e+02   7.6805379407e-01    0.3306191    0.2359892 -55.47  0.001290914    1.627    0.385
        41  -9.5468    132.5169    213.9463   1.1488027395e+02   1.0180596279e+01    0.2112842    0.1432483 -56.40 0.0006067841    1.552    0.355
        42  -8.8255    160.1508    218.6376   1.0948586768e+02   4.2847704733e+00    0.2124348    0.1277382  28.07 0.0009526759    1.790    0.441
        43  -9.9558    207.0346    208.9990   9.7855047833e+01  -1.9080664291e+00    0.2951666     0.189673  60.68   0.00131301    2.578    0.612
        44  -9.4683    236.0523    203.9643   9.1379542335e+01  -5.5825124729e+00    0.2578916    0.1978696  46.92  0.001501113    1.630    0.387
        45  -9.0436    188.1300    203.9541   1.0076585651e+02   2.2958320777e+00    0.2245772    0.1675701 -74.69 0.0007528566    2.008    0.502
        46  -9.2248    198.4920    202.4965   9.8338824490e+01   7.7149496562e-01    0.2462042    0.1316637 -54.61  0.001026159    2.303    0.566
        47  -9.5445    193.3172    202.4386   9.9392809512e+01   1.6834853568e+00    0.2942169    0.2143561 -84.85  0.001313942    2.466    0.594
        48  -9.0566    178.3360    203.3164   1.0272919684e+02   4.1726980962e+00    0.1496106     0.110892  -4.41 0.0003491189    1.696    0.410
        49  -9.7852    218.1624    201.6985   9.4284682546e+01  -2.3797899068e+00    0.2003621    0.1731418  56.87 0.0008840712    1.485    0.327
        50  -8.6707    160.4506    202.4356   1.0649845324e+02   7.6218945268e+00    0.1437326     0.139934  39.78 0.0001164358    1.037    0.036
        51  -9.1492    249.8167    201.2266   8.8435872509e+01  -7.1239894046e+00    0.1847751    0.1575998 -40.65 0.0006646701    1.258    0.205
        52  -8.9112    222.6418    201.3142   9.3356623710e+01  -3.0317476148e+00    0.1275168    0.1096099 -87.84 8.767586e-05    1.747    0.428
        53  -9.6253    164.9829    200.9942   1.0521495604e+02   7.0946800930e+00    0.2326749     0.184564  77.51  0.001012841    1.675    0.403
        54  -8.8741     16.4736    201.4810   1.3967998570e+02   2.9919433829e+01    0.1265113    0.1003375  89.90 0.0001903831    1.017    0.017
        55  -9.3179    240.5704    199.9626   8.9810917347e+01  -5.5622125597e+00    0.2473522    0.1711852  12.73   0.00125157    1.658    0.397
        56  -9.7329    231.0543    194.4743   9.0471471132e+01  -3.1273887331e+00    0.2270266     0.189818  24.10 0.0008420376    1.263    0.208
        57 -10.3267    248.5152    194.3504   8.7359456646e+01  -5.7632934904e+00    0.3917381    0.3360745  89.04  0.002129789    1.850    0.459
        58  -9.2238    204.0887    197.3461   9.6206448050e+01   8.0424781746e-01    0.2281706    0.1720831  11.55  0.001181752    1.491    0.330
        59  -9.3287    176.4092    196.7044   1.0187671741e+02   5.8929186045e+00    0.2809733    0.1405705 -51.05  0.001131815    2.109    0.526
        60  -9.6103    184.9717    195.9851   9.9894241920e+01   4.4728278070e+00    0.3504867    0.2054064 -37.72  0.001565367    1.734    0.423
        61 -11.0472    237.8234    190.4686   8.8476072497e+01  -3.4668279455e+00    0.6763725    0.2724015 -47.12  0.002778211    2.478    0.597
        62 -10.1672    197.2173    192.3220   9.6612935910e+01   3.0035042756e+00    0.4812233    0.1697102  38.52   0.00169676    2.993    0.666
        63 -10.3808    224.9767    184.7146   8.9674682555e+01  -3.3484017674e-01    0.4008364    0.2487346 -47.02  0.001777388    1.560    0.359
        64  -9.4567    230.6806    180.3343   8.7762081989e+01  -4.6203578799e-01    0.1969172    0.1742254  63.71 0.0009243622    1.445    0.308
        65 -10.3719    226.5592    179.4146   8.8326183531e+01   4.0070811474e-01    0.3914994    0.2819815 -34.51  0.001164595    1.256    0.204
        66  -9.5204    249.5445    184.5302   8.5304984904e+01  -4.2044813830e+00    0.3600405    0.1861723 -50.17  0.001693875    2.056    0.514
        67  -9.3592    210.3339    183.4455   9.2206510770e+01   2.4305301623e+00    0.2669289    0.1238239 -43.63  0.001097944    2.011    0.503
        68  -8.7315    105.5717    184.3640   1.1623915789e+02   2.1865150846e+01    0.3049282    0.1091976  49.20 0.0009531106    3.271    0.694
        69  -9.7649    242.0736    180.4592   8.5782494711e+01  -2.3273761890e+00    0.4159553    0.1881022 -48.68  0.001794325    2.230    0.552
        70  -8.8788    245.2663    178.0296   8.4763059687e+01  -2.3900954710e+00    0.1968941    0.1640889 -77.79  0.001138949    1.695    0.410
        71  -9.2661    236.3100    181.1725   8.6925575201e+01  -1.5380578572e+00    0.3101663    0.1097184 -44.61  0.001190555    2.563    0.610
        72  -8.8741    198.1270    182.1433   9.4380233324e+01   4.8963144155e+00     0.196176    0.1756659 -71.84  0.001071124    1.311    0.237
        73  -9.7705    218.3492    178.1060   8.9587063546e+01   2.0638894413e+00     0.414268    0.2221184  58.66  0.001623879    3.074    0.675
        74  -8.7574    151.9969    178.0000   1.0367146538e+02   1.4672832367e+01    0.2490211   0.08728217  40.88 0.0005187566    2.875    0.652
        75  -9.9109    233.5240    174.5743   8.6105968120e+01   1.4336870156e-01    0.3436361    0.2192399 -50.20  0.001736018    1.564    0.361
        76 -10.3505    157.5009    179.0421   1.0260103201e+02   1.3355556306e+01    0.3570929    0.2568305 -30.19   0.00113968    1.593    0.372
        77  -9.7440    225.4389    172.3512   8.7105941085e+01   1.9403609266e+00     0.378079     0.217768 -40.01  0.001781703    1.559    0.359
        78  -9.1890    237.4996    169.9976   8.4497576473e+01   3.3651243866e-01    0.2122882    0.1191379 -42.04 0.0006929545    1.554    0.356
        79 -10.2200    212.5902    169.0906   8.8830907355e+01   4.8724073085e+00    0.4502481    0.2325419 -47.85  0.001390172    1.855    0.461
        80  -9.6786    213.3229    163.8634   8.7601874747e+01   5.7823560921e+00    0.2777391    0.2199762  31.61  0.001473359    1.405    0.288
        81  -9.1103    169.7617    168.7441   9.7652758269e+01   1.3237580838e+01    0.2786449    0.1829053 -44.22 0.0008206327    1.486    0.327
        82  -9.6680    147.4423    167.9433   1.0266341392e+02   1.7905996161e+01    0.2881969     0.232311  44.98 0.0005041541    1.258    0.205
        83  -9.9772    192.9419    165.9206   9.2061707031e+01   9.2491081236e+00    0.3732416    0.2143387 -42.17  0.001293761    1.656    0.396
        84  -9.2977    234.1466    164.4012   8.3948434453e+01   1.9540071050e+00    0.2741118    0.1624575 -55.27  0.001141886    1.880    0.468
        85  -8.9712    240.5879    163.2342   8.2618094140e+01   1.0811423219e+00    0.1947625    0.1142663 -34.23 0.0006802273    1.596    0.373
        86  -8.8872     46.6997    161.6902   1.2774518135e+02   3.6353906156e+01     0.138913   0.09804044 -40.40 0.0004270475    1.602    0.376
        87  -9.9566    246.0623    158.1155   8.0694518471e+01   1.1161812079e+00    0.3797033     0.254741  28.75  0.001468049    1.921    0.479
        88  -8.8955    184.0000    157.9884   9.2217069965e+01   1.2723557552e+01    0.2621103   0.08348965 -45.36 0.0008095435    2.992    0.666
        89  -9.6698    226.7895    156.6538   8.3642244024e+01   4.7344189847e+00    0.3025092    0.2289471   6.00  0.001184168    1.786    0.440
        90  -8.9535     41.4467    157.5189   1.2851867730e+02   3.8007970273e+01    0.1386741    0.1187005 -69.53 3.573867e-05    1.025    0.025
        91 -10.1094    250.1758    150.7691   7.8580873847e+01   1.7804595195e+00    0.5331036    0.2036058 -47.86  0.002159565    2.379    0.580
        92 -10.0127    242.8430    152.8340   8.0154620318e+01   2.6364120895e+00     0.320224    0.2757844 -77.11  0.001323106    1.382    0.276
        93 -11.2025    244.1974    148.6694   7.9097919703e+01   3.1784284583e+00    0.6383035    0.3223162 -43.64  0.002167288    1.686    0.407
        94  -9.5151    221.9475    153.3648   8.3813712423e+01   6.2634417682e+00    0.2835115    0.1822155 -55.71 0.0007934673    1.636    0.389
        95  -9.2273    234.7045    147.9310   8.0487246155e+01   4.9847584902e+00    0.2531906    0.1806148 -44.11  0.001089384    1.220    0.180
        96  -9.8827    229.8108    147.8489   8.1291344200e+01   5.8870437458e+00    0.3121195    0.1779674 -47.01  0.000875743    1.569    0.363
        97  -9.5952    233.0629    152.5008   8.1702889053e+01   4.4073839046e+00    0.3513156     0.227877 -30.61  0.001216576    1.587    0.370
        98  -9.0734    229.1942    152.2088   8.2302399206e+01   5.1589607086e+00    0.2497419     0.232537  84.35  0.000786264    1.236    0.191
        99  -8.5260    206.3915    152.8004   8.6570034432e+01   9.3438506076e+00    0.2088088     0.130457 -34.67 0.0008902984    1.626    0.385
       100  -8.5518     39.3232    153.3209   1.2845613088e+02   3.9292004660e+01    0.1409489   0.09396979 -39.79 0.0006128259    1.676    0.403
       101 -10.1891    197.2046    149.3187   8.7602505771e+01   1.1890343933e+01    0.3491027       0.1894 -45.79  0.001467503    1.723    0.420
       102 -10.1076    224.1558    146.1522   8.1907307582e+01   7.2642027895e+00    0.3317179    0.2762054 -32.68  0.001221181    1.171    0.146
       103  -9.6909    206.5599    146.9106   8.5262527979e+01   1.0513471132e+01    0.3263311    0.2319931   1.22  0.001423563    2.262    0.558
       104  -8.9810    112.0447    147.3078   1.0718282051e+02   2.9827124387e+01    0.2174334    0.2066593  58.85 0.0008318676    1.077    0.071
       105 -10.5981    230.4487    141.2184   7.9801673591e+01   7.0439812223e+00    0.4006358    0.2256243 -48.38  0.001230596    1.600    0.375
       106  -9.6041    250.2413    140.1306   7.6451054770e+01   3.7136417255e+00    0.2657393     0.245562  23.23  0.001046776    1.316    0.240
       107 -10.2935    249.2394    134.6569   7.5505436657e+01   4.8861934360e+00    0.4481776    0.2240735 -53.83  0.001542603    2.006    0.501
       108 -10.3158    248.6714    130.3571   7.4726369424e+01   5.7699465467e+00    0.3157327    0.2265716 -87.84  0.001297898    1.908    0.476
       109  -8.7858      9.3046    141.6581   1.3497775914e+02   4.4906929493e+01    0.1288081   0.08560519  75.87 0.0007040864    1.682    0.406
       110 -10.3076    225.1531    138.2975   8.0076104514e+01   8.6040535924e+00    0.4265786    0.2119938 -36.70  0.001798509    2.003    0.501
       111  -9.9502    218.7974    138.5966   8.1234489689e+01   9.7714594957e+00    0.2744821     0.205797  83.51 0.0009340938    1.774    0.436
       112  -9.2308    209.8085    137.7938   8.2668116465e+01   1.1710683686e+01    0.2045855    0.1668528 -72.07 0.0006067477    1.352    0.261
       113 -10.8366    241.7069    133.2612   7.6357872688e+01   6.4815246314e+00    0.5060959    0.4150606 -39.52  0.002283014    1.126    0.112
       114  -9.0411     53.0414    135.6908   1.2153494341e+02   4.2071850759e+01    0.1887374     0.178154 -35.43  0.000748155    1.123    0.110
       115 -10.3340    233.8122    133.6033   7.7664284668e+01   7.8684850096e+00    0.6166891    0.1872509 -40.92  0.002124676    2.994    0.666
       116  -9.4474    169.9135    134.2177   8.9866540878e+01   2.0861324363e+01    0.2643901    0.2241373 -30.03 0.0005663164    1.268    0.211
       117  -9.3888    221.4512    129.3659   7.8794907853e+01   1.1053388014e+01    0.2542454    0.1781876  58.34 0.0007366505    1.610    0.379
       118  -9.5581     86.2262    128.9938   1.1029782391e+02   3.8888075840e+01    0.2049787    0.1182066 -53.48 0.0008709151    1.637    0.389
       119  -8.8714     61.7266    129.6402   1.1773673918e+02   4.2427852987e+01     0.150335      0.10011 -34.51 0.0003799778    1.654    0.395
       120  -9.5136    193.0333    127.3496   8.3485647614e+01   1.7316111825e+01    0.2815003    0.2049753 -67.88  0.001049527    1.565    0.361
       121  -8.9457     69.0028    128.0183   1.1520018706e+02   4.1803196325e+01    0.1794395    0.1598836 -53.21 0.0004526821    1.029    0.029
       122 -10.0831    206.4091    126.6580   8.0824704889e+01   1.4633433689e+01    0.2612248    0.2281878 -53.64 0.0005877629    1.047    0.045
       123 -10.0554    212.1330    124.5187   7.9334680313e+01   1.3873425234e+01    0.4397185    0.3390648 -12.92  0.002169232    1.793    0.442
       124 -10.7425    241.4539    124.3597   7.4575105383e+01   8.1727120132e+00    0.3754181    0.2916258 -73.32   0.00183507    1.404    0.288
       125  -9.7183    229.1357    124.9199   7.6588338291e+01   1.0400844844e+01    0.3202364    0.2208586 -36.91  0.001382021    1.412    0.292
       126  -9.1711    189.0592    123.0461   8.3266698286e+01   1.9053091041e+01    0.3997498    0.2082501 -43.71  0.001634193    1.822    0.451
       127  -9.2155    161.4787    124.1228   8.9330212640e+01   2.4895036675e+01    0.2387925    0.2063458 -79.80 0.0005347759    1.250    0.200
       128  -9.3877    221.6274    121.0882   7.6982181951e+01   1.2609102711e+01     0.249346    0.2134847  48.55   0.00076207    1.330    0.248
       129  -9.0244    195.6362    121.7182   8.1695284716e+01   1.7900461890e+01    0.1458166    0.1194418   9.35 0.0007015928    1.681    0.405
       130  -9.1993    243.8005    119.4041   7.3219734885e+01   8.6441197610e+00    0.3477116    0.2034872 -72.06  0.001509757    2.574    0.612
       131  -8.3866    114.6872    120.6638   1.0017159425e+02   3.5630873036e+01    0.1583076    0.1223783 -11.22 0.0005413329    1.688    0.408
       132 -11.8290    213.3941    115.8587   7.7206594275e+01   1.5290516284e+01    0.7295419    0.4731207  32.94  0.002999655    2.219    0.549
       133 -10.9598    230.5798    115.9206   7.4461597010e+01   1.1803966003e+01    0.4847643    0.3478695  54.41  0.002412735    1.564    0.361
       134  -9.9789    231.8504     83.0958   6.7394801536e+01   1.7358048261e+01     0.470289     0.247318 -58.12  0.002213344    1.877    0.467
       135 -10.6211    237.2426     89.5607   6.8021508024e+01   1.5178240374e+01    0.4397293    0.3384853 -60.80  0.002003112    1.112    0.101
       136  -9.8224    238.1482     84.0035   6.6770106942e+01   1.5933335701e+01    0.4171645    0.2171701 -59.67  0.001353314    1.942    0.485
       137 -10.8593    236.1026     74.4798   6.5089381445e+01   1.7904883817e+01    0.7253568    0.3371438 -52.48   0.00339657    1.934    0.483
       138 -10.0361    245.1301     97.7127   6.8645553190e+01   1.2240370833e+01    0.3419549    0.2468472 -53.01  0.001423325    1.164    0.141
       139 -10.3047    243.1422     92.7110   6.7895940305e+01   1.3481208433e+01    0.4258861     0.268793 -46.83  0.001595807    1.367    0.269
       140 -10.0108    246.5309     86.5916   6.6247327106e+01   1.3855997429e+01    0.3777962    0.1943126  62.21   0.00188421    2.143    0.533
       141 -11.6920    244.7542     79.5811   6.5071523225e+01   1.5354804417e+01     0.952294    0.5052466 -66.14  0.004526116    2.117    0.528
       142 -11.7420    247.8492    111.9851   7.1150910844e+01   9.2283151146e+00    0.5629346    0.5326696  67.88  0.003697377    1.259    0.205
       143 -11.6804    248.7041    105.2858   6.9694104649e+01   1.0250433146e+01    0.9562013    0.3362719 -40.98  0.003827981    2.531    0.605
       144  -8.4496    125.0193    119.7767   9.7166728765e+01   3.3732455128e+01    0.1944715    0.1279213  44.34 0.0002474693    1.547    0.354
       145  -9.1993     52.3923    113.3027   1.1710614068e+02   4.7522600387e+01    0.2678716    0.1153287 -53.11 0.0007852148    2.005    0.501
       146  -9.9869    104.5250    111.7819   1.0074927403e+02   3.9610901780e+01    0.2602547    0.2084425  35.75 0.0004843229    1.289    0.224
       147  -9.5105     15.1171    111.8653   1.2875246774e+02   5.1512466067e+01    0.1830976    0.1568092 -78.70 0.0004718826    1.218    0.179
       148 -10.1364    183.4337    108.2570   8.0873563958e+01   2.3264929169e+01    0.2969186    0.1436502 -38.08  0.001143655    2.161    0.537
       149 -10.0349    235.7415    107.6982   7.1973459942e+01   1.2295372712e+01    0.2727222    0.2165166  64.97  0.001544809    1.389    0.280
       150  -9.9194    215.3632    107.7258   7.5087070569e+01   1.6417746405e+01    0.3043767    0.2037857  63.39  0.001513359    1.630    0.387
       151  -8.5495    197.6679    108.2877   7.8225685524e+01   2.0104265261e+01    0.1503054    0.1098247 -79.53 0.0003366447    1.623    0.384
       152  -9.3433    189.5092    108.5375   7.9780335748e+01   2.1854796639e+01    0.1483556    0.1386626 -68.52 0.0001581761    1.016    0.015
       153  -8.7575     73.7005    108.3284   1.0914045609e+02   4.5714982919e+01     0.140403    0.1140432  84.71 0.0007029732    1.640    0.390
       154  -8.7577    104.5007    107.4854   9.9629891821e+01   4.0561011896e+01    0.1480875    0.1452053 -58.97 0.0001465188    1.053    0.050
       155 -10.6078    241.5967    104.5204   7.0496720426e+01   1.1728548071e+01    0.4778181     0.317707 -56.89  0.002586846    1.347    0.258
       156 -11.3149    236.8989     99.5549   7.0123758628e+01   1.3517253646e+01    0.4423793    0.4202724 -70.99  0.002846509    1.178    0.151
       157  -8.8458    230.2955    106.6491   7.2547428329e+01   1.3560374558e+01    0.1454076    0.0958678 -68.40 0.0007033108    1.682    0.406
       158  -8.8783    196.1829    103.1652   7.7302605409e+01   2.1409026388e+01    0.2053141    0.1645536 -82.65 0.0008403757    1.330    0.248
       159 -10.3392    221.4723    100.5179   7.2556694824e+01   1.6467392911e+01    0.2634623    0.1725712 -69.39  0.001035224    1.715    0.417
       160  -9.9661    130.2309     97.9641   9.0092693790e+01   3.7272018334e+01     0.249733    0.2200511  43.98 0.0008570629    1.133    0.117
       161  -9.7539     51.2260     95.4216   1.1322825856e+02   5.1681030099e+01    0.2360398    0.1678345 -48.94  0.000291125    1.272    0.214
       162 -10.5904    230.4588     94.2934   6.9921612791e+01   1.5727295052e+01      0.37274    0.3228525 -62.31  0.001819972    1.036    0.035
       163 -10.0011    224.6962     94.0602   7.0690456763e+01   1.6949980233e+01    0.3648398    0.1743758 -37.92  0.001573194    2.121    0.529
       164  -7.9121    208.3044     95.3140   7.3459197430e+01   2.0204990164e+01     0.132018    0.1149172   5.81 0.0006382503    1.619    0.382
       165  -9.4698    171.8377     91.1620   7.8951427024e+01   2.9170463177e+01    0.1935215    0.1782246  20.91 0.0004459174    1.300    0.231
       166 -10.8236    216.7150     89.0694   7.0777407214e+01   1.9502572633e+01    0.4454687    0.3450007 -58.38  0.002494402    1.157    0.136
       167 -10.3534    225.4541     86.5287   6.8977633364e+01   1.8098066759e+01    0.4546282    0.3569956  22.92  0.002347238    2.084    0.520
       168  -9.3716    176.3978     87.2718   7.7103769341e+01   2.8829726984e+01      0.20732    0.1297172 -52.40  0.000940671    1.616    0.381
       169  -9.2248    139.5824     87.2220   8.4877299073e+01   3.7284974304e+01    0.1998462    0.1438786 -29.29 0.0004463802    1.573    0.364
       170  -8.7187     10.6357     85.2889   1.2507521446e+02   5.7695755084e+01    0.1110189   0.09091118  67.10 0.0003750185    1.699    0.411
       171  -9.2499    116.8308     84.6093   8.9867707352e+01   4.2728888362e+01    0.2036393    0.1364584  56.69  0.000556582    1.626    0.385
       172  -8.5183    205.6915     83.3427   7.1168263543e+01   2.2888419249e+01    0.1492749    0.0986459 -71.87 0.0002763706    1.693    0.409
       173  -8.5590    135.2777     83.6588   8.4921491673e+01   3.8905674380e+01    0.1478066    0.1147407 -77.25 0.0003935834    1.622    0.383
       174  -8.9700     88.1779     82.1439   9.7408285292e+01   4.8787346092e+01    0.1823313    0.1694271 -78.95 0.0004487347    1.315    0.239
       175  -8.5526     21.2857     81.6890   1.2039236423e+02   5.7655249258e+01    0.1100373   0.09544848  85.09 0.0002079284    1.575    0.365
       176  -9.0119    189.5944     78.2312   7.2562311507e+01   2.7379486199e+01    0.1990389    0.1362413 -30.88 0.0009638706    1.727    0.421
       177  -9.5591    175.9259     77.4561   7.4751628890e+01   3.0657415163e+01     0.286872    0.1870081 -57.39  0.001262768    1.616    0.381
       178  -9.4242    119.4943     78.4947   8.7404241593e+01   4.3285652949e+01     0.142989    0.1378382  32.42 -0.0001289973    1.003    0.003
       179 -10.1358    214.1878     75.9962   6.8279788766e+01   2.2264437448e+01    0.3237356     0.236034  53.33  0.001773621    1.535    0.349
       180 -10.2038    226.4595     74.3614   6.6274163460e+01   1.9913031950e+01    0.3626077    0.3232908 -79.26  0.001687888    1.102    0.093
       181  -8.8931    194.7074     76.3511   7.1283774119e+01   2.6532765385e+01    0.1488967   0.09933281 -71.32 0.0004161884    1.676    0.403
       182  -8.4378    126.4948     76.4881   8.5044718185e+01   4.2128431643e+01    0.1429742    0.1376552  45.34  7.16189e-05    1.001    0.001
       183  -9.0475    203.3591     72.6727   6.9103896330e+01   2.5193622600e+01    0.1499996   0.09625557 -74.88 0.0007043073    1.786    0.440
       184  -9.3363    249.9505     70.6415   6.2732155475e+01   1.5769518978e+01    0.2639696    0.1867272 -44.11 0.0008102658    1.368    0.269
       185 -10.3237    250.1315     65.4804   6.1722561048e+01   1.6532882579e+01    0.4503614    0.2367823 -59.75  0.002069547    1.732    0.423
       186 -10.5883    241.7580     68.7952   6.3285553747e+01   1.7667599338e+01    0.3572184    0.2888444  71.90  0.001581534    1.321    0.243
       187  -9.5451    238.4797     64.5529   6.2816627366e+01   1.8983754051e+01    0.3018604    0.2500012 -76.22  0.001953703    1.050    0.047
       188  -9.7137    226.9767     60.8148   6.3393767748e+01   2.1929113110e+01    0.3688884    0.1484039 -49.29  0.001630385    2.228    0.551
       189 -11.1007    225.7490     66.3665   6.4692961409e+01   2.1333779209e+01    0.5440651    0.3471472 -87.19  0.002865672    1.691    0.409
       190  -8.6963    221.2023     61.1733   6.4168349186e+01   2.3099923020e+01    0.2529732    0.1476423 -57.92 0.0007600945    1.599    0.375
       191  -8.6020    210.6881     66.3557   6.6649842929e+01   2.4580364142e+01    0.1459339   0.09089723 -70.55 0.0007044061    1.734    0.423
       192  -8.7135    197.9988     63.9524   6.7904347706e+01   2.7785900352e+01    0.1667408    0.1457309 -79.20 0.0007087361    1.013    0.013
       193  -9.8208    206.8534     59.6049   6.5680724141e+01   2.6467525814e+01     0.325145    0.1416669 -51.59  0.001398401    2.263    0.558
       194  -8.8308    158.4735     61.5000   7.3896961512e+01   3.7299616670e+01    0.1402257     0.128184  80.35 0.0001476235    1.020    0.020
       195  -9.7069    236.3519     60.0340   6.2156867206e+01   2.0103567117e+01    0.3960238    0.1776989  67.67  0.001882529    2.290    0.563
       196  -9.8298    171.8874     58.8888   7.0811396628e+01   3.4568656251e+01    0.3288218    0.1906554  60.04  0.001577636    1.608    0.378
       197  -8.7701    245.2996     58.0360   6.0802977988e+01   1.8602839097e+01    0.1760473    0.1037478 -19.94 0.0007033804    4.165    0.760
       198  -8.8531    126.6890     58.3221   7.9714299115e+01   4.5036645959e+01    0.1377955    0.1078834 -80.92 0.0004434809    1.651    0.394
       199 -10.0945    213.9002     57.2394   6.4244949808e+01   2.5270856272e+01    0.3337132    0.1484634  54.93   0.00149691    2.362    0.577
       200  -9.5048    250.3984     54.5688   5.9628479030e+01   1.8112296230e+01    0.2670304     0.134212 -46.65  0.001378405    1.700    0.412
       201 -10.6608    228.4025     51.8733   6.1404405838e+01   2.2953604902e+01    0.4091049    0.3861724 -70.73  0.001992535    1.302    0.232
       202 -11.2283    200.2251     52.6138   6.5013441468e+01   2.8982207292e+01    0.4463001    0.3100217 -87.00  0.002449879    1.432    0.302
       203 -10.2222    131.8486     54.7624   7.7496772360e+01   4.4411295766e+01    0.2597922    0.1538167 -46.54  0.001234272    1.886    0.470
       204 -10.4262    244.4574     51.2068   5.9581760998e+01   1.9768490785e+01    0.3938634    0.2202487 -77.68  0.001650459    1.894    0.472
       205 -10.1605    236.2152     53.6235   6.0902129440e+01   2.1081382533e+01     0.485796     0.234956  69.41   0.00244892    2.069    0.517
       206  -8.8938    207.5527     53.5155   6.4247592969e+01   2.7215458288e+01    0.1328477     0.111903 -79.72 5.194851e-06    1.009    0.008
       207  -9.2186    163.3189     52.4908   7.0656126856e+01   3.7499051567e+01    0.2597549    0.1687554 -43.33  0.001332284    1.608    0.378
       208 -10.2161    250.0078     46.4781   5.8157017134e+01   1.9346720087e+01    0.5235725    0.1735512 -41.66  0.002348519    2.664    0.625
       209 -10.9004    244.3057     41.9799   5.7851604605e+01   2.1095511770e+01    0.3861682    0.2806702 -49.96  0.001731668    1.313    0.238
       210 -10.0994    199.2501     47.9653   6.4098647047e+01   2.9862248264e+01    0.3374651     0.155292 -47.43  0.001458852    2.091    0.522
       211 -10.4622    216.9126     42.4153   6.0748908408e+01   2.6729598691e+01     0.509848    0.3973477  55.31  0.002691309    1.525    0.344
       212  -8.9608    238.4768     44.9762   5.8983472892e+01   2.1853177447e+01    0.1843576    0.1402838  89.91  0.001194201    1.161    0.138
       213  -9.5758    233.3418     43.8674   5.9284476562e+01   2.3058266636e+01    0.2952499    0.2599622   5.00  0.001897217    1.934    0.483
       214 -10.6855    189.5301     42.9614   6.4260138427e+01   3.2750524273e+01    0.4354859    0.1885258 -37.12  0.001951268    2.420    0.587
       215  -9.5489    192.5146     40.4697   6.3288306033e+01   3.2402904243e+01    0.1698161    0.1293691 -24.52 0.0009703054    1.735    0.424
       216  -9.9843    186.1791     39.1122   6.3821612919e+01   3.4022922418e+01    0.2427414    0.1652903 -82.86 0.0008384685    1.493    0.330
       217 -10.8646    185.4619     35.5105   6.3078519003e+01   3.4646734114e+01    0.2674502     0.227112  15.24  0.001619197    1.725    0.420
       218 -10.2708    175.6133     40.9183   6.5756259824e+01   3.6217311699e+01    0.5788804    0.2791026 -88.64  0.002012114    3.967    0.748
       219 -11.3272    201.2072     38.1662   6.1675514694e+01   3.0749136186e+01    0.5043195    0.2315616 -29.33  0.002223446    2.933    0.659
       220 -10.1246    203.9905     31.5088   5.9904245739e+01   3.0981777923e+01    0.2085603    0.1375584  89.65  0.001196806    1.391    0.281
       221  -9.0786    165.5253     39.9430   6.7066193164e+01   3.8678366015e+01    0.1858689    0.1288253 -39.66  0.001020396    1.563    0.360
       222 -10.0665    238.6457     38.2345   5.7676742797e+01   2.2741269394e+01    0.2680962    0.1919354 -73.99  0.001022994    1.141    0.124
       223  -9.1803    209.1311     39.1447   6.0947812086e+01   2.8865102222e+01     0.180803     0.160375  86.85 0.0006536708    1.160    0.138
       224 -11.0150    228.0976     33.7221   5.7819435021e+01   2.5509211053e+01    0.7077415    0.3059836 -60.70  0.003321349    2.382    0.580
       225 -10.3644    234.9796     31.5615   5.6749503856e+01   2.4366344587e+01    0.5038961    0.1947095  64.26  0.002456336    2.443    0.591
       226  -8.9280     61.4762     37.9352   9.1722869550e+01   6.0480102966e+01    0.1783342    0.1133043 -29.92   0.00102748    1.577    0.366
       227  -8.6847    241.5589     26.8336   5.5284251888e+01   2.3638404122e+01     1.162797    0.1986195  71.66  0.003322677    7.358    0.864
       228  -9.8656    250.3281     35.6642   5.6146163910e+01   2.0762353510e+01    0.2828912    0.1377119 -61.85   0.00113198    1.832    0.454
       229 -10.8629    247.4789     31.6412   5.5659817527e+01   2.1848897360e+01    0.4467729    0.3011914 -83.98  0.002004853    1.249    0.199
       230  -9.8786    242.2953     33.9377   5.6533380398e+01   2.2576873700e+01     0.286875    0.1675829 -57.22   0.00171527    1.437    0.304
       231  -9.3077    163.8243     33.8111   6.5774894846e+01   3.9832820177e+01    0.3043582    0.1715796  -9.48   0.00126099    3.568    0.720
       232  -8.4416     76.7456     43.9924   8.8783218418e+01   5.7111792553e+01    0.1542065    0.1052974 -29.24 0.0004601935    1.504    0.335
       233 -10.2548    221.4688     30.8925   5.7914897741e+01   2.7269077546e+01    0.5063648    0.2892765 -60.84  0.002851474    1.600    0.375
       234 -10.7071    212.9738     30.6902   5.8747876642e+01   2.9117483182e+01    0.4544246      0.22366 -60.24  0.002272202    2.043    0.511
       235  -9.4071    216.4756     30.4759   5.8338034295e+01   2.8388574941e+01    0.2466229    0.1812492 -83.46  0.001046232    1.142    0.125
       236  -9.2669    197.5155     28.5170   5.9998432633e+01   3.2788026993e+01    0.2429008    0.1346351 -71.72 0.0007405325    1.988    0.497
       237  -9.6837    177.0402    248.1321   1.1081361151e+02  -4.0917537800e+00    0.3074575    0.1572425  42.21   0.00147118    1.859    0.462
       238  -9.1467    170.4687     29.8969   6.3807027822e+01   3.8766835599e+01    0.1770042    0.1253532 -38.70 0.0007917623    1.563    0.360
       239 -10.1068    118.7528     25.4461   7.1581354968e+01   5.0965190537e+01    0.2117201    0.1785036 -23.80 0.0007611252    1.362    0.266
       240 -11.0073    224.8842     22.8343   5.6000115150e+01   2.7547167236e+01    0.4179526    0.2578414  88.27  0.002355669    1.418    0.295
       241 -10.4645    143.7908     24.9461   6.6688956911e+01   4.5437864767e+01    0.4407758    0.2100387  68.98  0.002047343    2.024    0.506
       242  -9.5853    186.9682    247.0039   1.0861309401e+02  -5.4563360114e+00    0.1983897    0.1743498  12.85 0.0006019666    1.013    0.013
       243  -8.9320    132.6714    247.3402   1.1994878413e+02   3.2608674869e+00    0.1385911   0.09674815  66.92   2.1282e-05    1.738    0.424
       244  -9.5660    191.5436    245.1528   1.0738712597e+02  -5.8534223653e+00     0.269542    0.1554067  20.06  0.001312483    1.929    0.482
       245  -9.7565    224.9443    243.2435   1.0054863435e+02  -1.0453321383e+01     0.312325    0.2360341  55.65  0.001808861    2.108    0.526
       246  -9.2805    202.9889    242.0384   1.0458271326e+02  -7.0815860211e+00    0.2054233    0.1752499  11.38 0.0009420119    1.030    0.029
       247  -9.3175    215.3288    240.8887   1.0197658084e+02  -8.7195986974e+00    0.2080913    0.1668663  32.85   0.00130256    1.302    0.232
       248  -9.0509    240.2103    240.4397   9.7243425861e+01  -1.2084547005e+01    0.1593495    0.1081024  39.78 0.0009145507    1.750    0.429
       249  -8.8579    182.5052    239.4992   1.0828874408e+02  -3.4563690600e+00    0.1314414    0.1191427  21.85 -6.330058e-05    1.063    0.059
       250  -9.5865    230.9370    236.9657   9.8339892503e+01  -1.0307406015e+01    0.2698208    0.1666817 -43.98  0.001068351    1.767    0.434
       251 -10.7535    206.3549    235.8503   1.0285684271e+02  -6.5604663682e+00    0.4423924    0.3619685  44.39  0.002229271    1.431    0.301
       252  -9.0753    148.6534    238.3030   1.1521521674e+02   2.3523151037e+00    0.1388429    0.1014417  64.85 0.0007040051    1.690    0.408
       253  -8.8916    243.8389    236.5677   9.5914618046e+01  -1.1976028103e+01    0.1481068    0.1093733  37.49 0.0009238297    1.606    0.377
       254  -8.8075    199.5000     20.5250   5.8047892487e+01   3.3286843337e+01    0.1234404    0.1004794  89.44 0.0002443061    1.032    0.031
       255  -9.5200    172.3539     20.2928   6.1216808494e+01   3.9414886283e+01    0.1260819    0.0848611  46.09 0.0005936979    1.683    0.406
       256 -10.0558    219.4516    235.3704   1.0022696251e+02  -8.4278130915e+00    0.3141646    0.2084432  30.08  0.001797758    1.448    0.309
       257  -9.3512    239.0164    231.7108   9.5929258016e+01  -1.0590564094e+01    0.3120333    0.1899803  44.79  0.001696565    2.125    0.529
       258  -8.4072    187.4387     16.4988   5.8499479640e+01   3.6415186497e+01    0.1240913   0.09988198 -89.40 0.0001796848    1.030    0.029
       259  -9.1931    162.6492     15.1134   6.1248525096e+01   4.2159605771e+01     0.196254    0.1401455 -64.88  0.001183327    1.484    0.326
       260  -9.0751    207.4553     13.7035   5.5817634011e+01   3.2312649548e+01    0.1347398    0.1178143 -29.09 0.0009342519    1.570    0.363
       261  -9.0514    113.6647    231.2983   1.2178244575e+02   9.6526580123e+00     0.144581   0.09842221  66.29 0.0004189844    1.652    0.395
       262  -9.5668    227.3830    219.4292   9.5862593033e+01  -6.9463210407e+00    0.3272807    0.1662525 -32.04  0.001564993    1.926    0.481
       263 -10.1748    229.5506    227.8991   9.6992473750e+01  -8.6674531333e+00    0.4150894    0.2149891 -44.73  0.002069966    2.024    0.506
       264  -9.0360    193.0037     10.7693   5.6642362749e+01   3.5783399472e+01    0.1619816   0.08383399  73.07 0.0007082811    1.621    0.383
       265  -9.7002    229.6212    222.7578   9.6051413108e+01  -7.8322802065e+00    0.2531865    0.1942813  -5.58  0.001010189    1.228    0.185
       266  -9.2721    248.2071    227.3073   9.3499277589e+01  -1.1131199091e+01    0.1998362    0.1523928 -28.22 0.0006800112    1.176    0.149
       267  -8.8558    211.3192    228.2987   1.0055169342e+02  -6.0367511928e+00    0.1345458   0.09308659  -2.84 0.0002923798    1.618    0.382
       268  -8.8160    164.4733    228.5034   1.1023658189e+02   1.5720436384e+00    0.1382853    0.1266288  16.73 7.425588e-06    1.043    0.041
       269  -8.9145     99.2982    225.9980   1.2422265679e+02   1.3153405419e+01    0.1918695     0.169251 -88.43 0.0007163455    1.114    0.102
       270 -10.4087    208.5425    223.4478   1.0022676516e+02  -4.7652739547e+00    0.3008929    0.2195247  24.09   0.00160501    1.331    0.249
       271  -8.5981     84.4682     10.5046   7.4650058199e+01   5.9426957984e+01    0.1188736   0.09733541  37.51 0.0008097431    1.019    0.018
       272 -10.5910    239.0019    220.3747   9.3893656560e+01  -8.7785028734e+00    0.3764556     0.314127 -57.39  0.001930927    1.680    0.405
       273  -9.1354    186.4928    220.9954   1.0426351951e+02  -7.2874341954e-01    0.2120252    0.1332607 -43.96  0.001046283    1.631    0.387
       274  -9.3771    205.1731    219.9238   1.0025561910e+02  -3.6041495180e+00    0.2692086     0.177522 -21.34  0.001368659    1.662    0.398
