#   1 NUMBER                 Running object number                                     
#   2 MAG_AUTO               Kron-like elliptical aperture magnitude                    [mag]
#   3 X_IMAGE                Object position along x                                    [pixel]
#   4 Y_IMAGE                Object position along y                                    [pixel]
#   5 X_WORLD                Barycenter position along world x axis                     [deg]
#   6 Y_WORLD                Barycenter position along world y axis                     [deg]
#   7 A_WORLD                Profile RMS along major axis (world units)                 [deg]
#   8 B_WORLD                Profile RMS along minor axis (world units)                 [deg]
#   9 THETA_WORLD            Position angle (CCW/world-x)                               [deg]
#  10 FWHM_WORLD             FWHM assuming a gaussian core                              [deg]
#  11 ELONGATION             A_IMAGE/B_IMAGE                                           
#  12 ELLIPTICITY            1 - B_IMAGE/A_IMAGE                                       
         1 -10.1385     69.3319     41.6616   9.0917513695e+01   5.8618155058e+01    0.1142237    0.1025718 -87.38 0.0007051885    1.742    0.426
         2 -10.7121    156.9964    248.5029   1.1556985989e+02  -9.1563949309e-01    0.1867625    0.1003386  55.63 0.0008091402    2.431    0.589
         3 -11.3634    154.9829    240.7548   1.1480754104e+02   8.3759701212e-01    0.2275466    0.1778623 -71.80 0.0009761036    1.632    0.387
         4 -11.6835    160.3198    239.1461   1.1343736259e+02   2.4446696810e-01    0.2647685    0.2418226 -80.13  0.001076531    1.306    0.234
         5 -10.3262    147.3881    239.2240   1.1617177145e+02   2.4027530832e+00    0.1777693    0.1307012 -66.80 0.0009482964    1.661    0.398
         6 -10.3881     92.3397    237.8371   1.2766670982e+02   1.1735342255e+01    0.2520789    0.1216163 -73.06  0.001077462    2.564    0.610
         7  -9.9418    114.3800    234.1742   1.2249268752e+02   8.9588938852e+00    0.1890358    0.1270713 -75.85 0.0008573869    1.754    0.430
         8 -10.2749    144.8671    232.5431   1.1567803566e+02   4.1341640398e+00    0.2627992    0.1857122 -76.54  0.001308619    1.920    0.479
         9 -10.6865     92.4909    230.9560   1.2677848608e+02   1.3184716850e+01    0.2006612    0.1293118 -67.42  0.001035572    1.604    0.376
        10 -11.2434     84.4108    226.8272   1.2800141868e+02   1.5345949222e+01    0.2539834    0.1276472 -69.48  0.001140178    2.121    0.528
        11 -10.4858     72.5660    226.6756   1.3052851539e+02   1.7155568038e+01    0.2506443    0.1169611 -61.15  0.001143348    2.115    0.527
        12 -10.4643    162.8259    225.0831   1.1060476315e+02   2.5045149476e+00    0.2639598     0.195294 -22.87  0.001361353    1.620    0.383
        13 -10.1103    183.1673    223.1545   1.0597477265e+02  -6.2302875004e-01     0.183587     0.166249  65.96 0.0009545218    1.343    0.255
        14 -10.3600    148.7951    222.3094   1.1317798212e+02   5.5159789468e+00    0.3393033    0.1735441 -58.06  0.001429577    2.313    0.568
        15  -9.8899    114.5174    223.4878   1.2093745980e+02   1.1211970723e+01    0.1410151    0.1265917  63.57 0.0008101768    1.025    0.025
        16 -10.3979    193.4243    221.2234   1.0351861398e+02  -1.9897587119e+00    0.1839295    0.1297256 -53.88 0.0009500408    1.674    0.403
        17  -9.5420    126.2878    220.6871   1.1789377849e+02   9.8016511200e+00    0.1424465    0.1054545  72.84 0.0002839298    1.583    0.368
        18 -10.8213     74.3057    219.3449   1.2927715169e+02   1.8553373204e+01    0.2960828    0.1663751  68.91   0.00134044    2.078    0.519
        19 -10.2689    143.8442    216.3302   1.1327098512e+02   7.6385913033e+00    0.2449954    0.1966547 -66.39  0.001299581    1.384    0.277
        20 -10.2254    111.9876    216.4723   1.2045847097e+02   1.3186762182e+01    0.2251038    0.1861628 -67.12 0.0008604465    1.239    0.193
        21 -10.4599    199.3592    215.1534   1.0120828942e+02  -1.8622132309e+00    0.1906047    0.1252601 -52.00 0.0009448424    1.742    0.426
        22 -10.7832    185.9695    214.4436   1.0382498665e+02   5.5057421089e-01    0.2558764    0.1997185 -61.67 0.0009433338    1.581    0.368
        23 -10.8631     76.3456    212.6467   1.2797989221e+02   1.9793475449e+01    0.2765162    0.1623705 -64.54  0.001350124    1.651    0.394
        24 -10.6729    218.0000    211.0015   9.6761409821e+01  -4.1556903376e+00    0.2204078   0.07124951 -42.74 0.0008050631    2.961    0.662
        25 -11.1903    116.4062    209.4296   1.1835489301e+02   1.4013240217e+01    0.4373388    0.2668823 -64.14  0.002006825    1.764    0.433
        26 -10.2935    177.1979    209.8220   1.0482502688e+02   2.9981359045e+00    0.3079681    0.1117147 -53.13  0.001023619    3.454    0.710
        27 -10.3918    206.0034    207.9960   9.8539464660e+01  -1.6478308333e+00    0.1714807    0.1527417 -20.08  0.001013387    1.050    0.047
        28 -10.4515     99.1981    206.0351   1.2181203681e+02   1.7726660765e+01    0.2428819    0.1571721  84.78  0.001077316    1.992    0.498
        29 -11.0593    198.9216    204.4261   9.9283691721e+01   2.3189859224e-01    0.2660674    0.1981997 -59.01  0.001368534    1.642    0.391
        30 -11.8645    186.1448    203.6954   1.0178253254e+02   2.6225890119e+00     0.395922    0.2510998 -53.12  0.001841768    1.744    0.427
        31 -12.2551    164.8150    200.7740   1.0582717467e+02   7.1161661916e+00    0.7738007    0.4105705 -43.56  0.003235477    1.933    0.483
        32 -11.0918    162.5579    193.3929   1.0492107041e+02   9.1231887738e+00    0.4820245    0.2848009 -56.41  0.001979988    1.872    0.466
        33  -9.9066    130.6789    202.4918   1.1389435066e+02   1.3047206896e+01    0.2657346      0.13541 -54.17  0.001088071    2.016    0.504
        34 -10.4812    148.7933    197.5214   1.0882135927e+02   1.0813467099e+01    0.4139134    0.2048265 -65.27  0.001419429    3.163    0.684
        35 -10.8674     88.4744    197.8623   1.2309739256e+02   2.1415908309e+01    0.4314047     0.228084 -81.27  0.001644046    2.690    0.628
        36 -11.1002    124.2960    197.0110   1.1443163575e+02   1.5463686072e+01    0.4061256    0.2754575 -72.89  0.001666648    1.740    0.425
        37 -10.7429    112.7294    197.4368   1.1724791964e+02   1.7432396187e+01    0.3517934    0.2051655 -79.19  0.001373571    2.486    0.598
        38 -10.1161    203.3711    197.2361   9.6997926731e+01   8.4309476091e-01    0.1987159    0.1277125 -51.16 0.0007861573    1.676    0.403
        39 -10.0656    193.4843    195.9789   9.8763945188e+01   2.8434854234e+00    0.2206445    0.1366208 -45.22  0.001030036    1.592    0.372
        40 -10.3807    209.5033    194.9799   9.5339036067e+01   2.1215514377e-01    0.2185765    0.1297948 -41.28 0.0009618801    1.595    0.373
        41 -10.2308     66.0062    193.9994   1.2788564091e+02   2.5751498454e+01    0.2594276    0.1385251  87.73  0.001020924    2.613    0.617
        42 -10.5971    186.4126    192.7867   9.9612118760e+01   4.7774917303e+00    0.2839814    0.1379519 -49.55  0.001140762    2.129    0.530
        43 -10.2365    199.6503    191.2016   9.6560008649e+01   2.6844820198e+00    0.2133737     0.124584 -35.54 0.0009551513    1.724    0.420
        44 -11.3522    172.6429    190.6808   1.0215679879e+02   7.7949119153e+00    0.3048666    0.2336723 -65.95  0.001489092    1.549    0.355
        45 -10.8325    138.8277    188.6210   1.0946356572e+02   1.4707190280e+01    0.4537944     0.213225 -58.98   0.00166314    2.454    0.592
        46  -9.7175    132.6939    195.3381   1.1215420730e+02   1.4310135878e+01    0.1545345    0.1154847  78.80 0.0007041244    1.677    0.404
        47 -11.0932     86.8495    188.5420   1.2204385568e+02   2.3938914693e+01    0.3052078    0.1880268 -81.58  0.001329676    1.930    0.482
        48 -10.0437    192.5708    187.3588   9.7243136978e+01   4.7491422157e+00    0.2789333    0.1371448 -49.02   0.00112866    2.071    0.517
        49 -10.3945    129.0128    187.4812   1.1158364267e+02   1.6821337797e+01    0.3588196    0.1934741 -60.27  0.001436506    2.022    0.505
        50 -10.1587    217.4167    187.2237   9.2273054609e+01   3.2856423069e-01    0.1971745    0.1252503 -50.35 0.0009486895    1.643    0.391
        51 -10.8497    165.3663    185.8788   1.0281518276e+02   1.0225534194e+01    0.4296588    0.2528098 -59.82  0.001773781    2.029    0.507
        52 -10.4084    155.9304    185.8394   1.0494478663e+02   1.2058626472e+01    0.4640129     0.190006 -56.22  0.001551575    2.933    0.659
        53 -11.3352    120.2443    184.1666   1.1308878986e+02   1.9234347505e+01    0.7632088    0.2562034 -60.82  0.002180939    4.010    0.751
        54 -11.4299     94.9778    184.9123   1.1944639010e+02   2.3500262391e+01     0.650172    0.2942284 -65.32  0.002429796    2.429    0.588
        55 -11.3844    203.9917    183.3431   9.4110071121e+01   3.4627230368e+00    0.3347122    0.1912494 -50.63  0.001484811    1.819    0.450
        56 -11.5934    174.3397    182.4762   1.0014093785e+02   9.2304948692e+00    0.4994986      0.27139 -50.94  0.002072225    1.884    0.469
        57  -9.9102     74.3082    183.6453   1.2436810042e+02   2.7086913832e+01    0.1536721    0.1028784  76.03 0.0007042682    1.722    0.419
        58 -10.9329     83.3231    181.4428   1.2177331785e+02   2.6249008292e+01    0.2973457    0.1767852 -65.90  0.001337505    1.638    0.389
        59 -11.4679    147.6176    178.8473   1.0547870602e+02   1.5266026691e+01    0.5803784    0.2740834 -50.58  0.002204329    2.114    0.527
        60 -10.9096    137.9543    178.3164   1.0766946838e+02   1.7272881254e+01    0.3619369    0.2266835 -52.70  0.001575162    1.593    0.372
        61 -10.2263    183.3127    183.8730   9.8485232132e+01   7.2099759671e+00    0.3030094    0.1308976 -52.36  0.001087708    2.579    0.612
        62 -10.8272    192.3584    177.0192   9.5177643429e+01   6.9195507980e+00    0.3813441     0.172367 -45.24  0.001482255    2.122    0.529
        63 -10.3973    109.0044    185.3104   1.1605148255e+02   2.0988676178e+01    0.3144697    0.1880763 -86.49  0.001169306    2.680    0.627
        64 -11.1877     77.6791    176.0455   1.2231370532e+02   2.8468099507e+01    0.4794435    0.2149086  53.88  0.001761106    2.765    0.638
        65 -11.0653    183.1716    174.8771   9.6663125697e+01   9.1448598157e+00    0.4097769    0.2155093 -43.34  0.001686215    1.845    0.458
        66 -10.3013    105.4762    174.6157   1.1498602766e+02   2.4226793806e+01    0.3201436     0.208523  86.71  0.001294725    2.213    0.548
        67 -10.9023    177.3904    170.4465   9.6976957927e+01   1.1240361785e+01    0.4249056    0.2572183 -54.68  0.001813316    1.758    0.431
        68 -10.2128    134.4952    170.5149   1.0693365958e+02   1.9789946179e+01    0.3291218    0.1515832 -52.35  0.001207143    2.159    0.537
        69 -10.9297    206.0710    169.1526   9.0775242187e+01   5.9320234777e+00    0.3479756    0.1808858 -52.90  0.001419359    2.095    0.523
        70 -10.2277    198.6310    169.5121   9.2328422788e+01   7.2744121972e+00    0.2658859    0.1334965 -44.25  0.001085407    1.878    0.468
        71 -10.8819    121.1978    168.1396   1.0975174860e+02   2.2925811713e+01    0.5541633    0.2740214 -65.51  0.001922206    2.677    0.626
        72 -10.3254    167.9020    168.2904   9.8614547944e+01   1.3618667937e+01    0.3754486    0.1956773 -54.58   0.00144711    2.076    0.518
        73 -10.2461    149.5662    168.3060   1.0284545272e+02   1.7315958469e+01    0.3083731    0.1504631 -53.71  0.001144083    2.126    0.530
        74 -10.1788     55.3073    169.6714   1.2703085920e+02   3.3230266147e+01    0.1463646   0.09926476  75.53 0.0003743986    1.658    0.397
        75 -10.3691     88.4188    167.7448   1.1810709382e+02   2.8845355447e+01    0.2935396    0.1421144 -64.00  0.001129249    2.133    0.531
        76 -10.3157    185.4171    166.7214   9.4463482258e+01   1.0446333389e+01     0.292594    0.1409386 -49.73  0.001122839    2.079    0.519
        77  -9.8351    111.5040    167.0036   1.1198692300e+02   2.5013272975e+01     0.224357    0.1348361 -80.70 0.0008106615    2.593    0.614
        78 -10.9985    192.2439    163.8838   9.2433112242e+01   9.6944749340e+00    0.5665776    0.1932477 -45.38  0.001888911    2.785    0.641
        79 -11.3609    139.0845    163.6833   1.0438578876e+02   2.0502685122e+01    0.6686451    0.2929238 -57.98  0.002246634    2.687    0.628
        80 -10.6543     98.8550    165.3689   1.1493873084e+02   2.7677981709e+01    0.3021611    0.2046819 -84.30  0.001300781    1.873    0.466
        81 -10.7840     79.5122    163.5304   1.1968714670e+02   3.1322145395e+01    0.4607657    0.2397817 -88.39  0.001390999    4.252    0.765
        82 -11.7303    213.0581    163.3503   8.8213942645e+01   5.7855011611e+00    0.2894179    0.2055899 -49.78  0.001276129    1.359    0.264
        83  -9.8645    219.5337    163.4695   8.7031841822e+01   4.5602909312e+00    0.1427092    0.1289243 -37.59 0.0001608418    1.007    0.007
        84 -11.5793    205.4242    161.3898   8.9262899199e+01   7.6342723054e+00    0.3996529    0.2448014 -36.36  0.001811709    1.608    0.378
        85 -10.1981    159.4736    162.5919   9.9306475217e+01   1.6617123382e+01    0.3382298    0.1502187 -47.53   0.00121927    2.200    0.545
        86 -10.8569    177.6499    159.1715   9.4492282045e+01   1.3649660176e+01    0.5190117    0.1715715 -47.55   0.00164151    2.958    0.662
        87 -10.7331     92.4302    159.6219   1.1552229355e+02   3.0210055755e+01     0.429379    0.2489788 -79.75  0.001613271    2.527    0.604
        88 -10.1696    151.4954    159.5585   1.0051016769e+02   1.8949990446e+01    0.3349843    0.1519471 -48.97  0.001209983    2.163    0.538
        89 -11.3835    196.4866    156.5086   8.9979301820e+01   1.0399470649e+01    0.4576795    0.2783553 -49.08  0.001602897    1.585    0.369
        90  -9.8968    128.0061    158.2149   1.0596791643e+02   2.4010143228e+01    0.2366361    0.1749738 -76.82 0.0009858365    1.625    0.385
        91 -10.7055    105.2978    157.4734   1.1168058599e+02   2.8494724247e+01    0.3693924    0.2621206 -81.63  0.001368177    1.736    0.424
        92 -10.7707    218.3210    156.4949   8.5792161160e+01   6.1608298180e+00    0.2639025    0.1217672 -43.05  0.001072706    1.962    0.490
        93 -10.5004    167.5726    155.5652   9.5919350226e+01   1.6530099135e+01    0.4548772    0.1480616 -46.85   0.00141027    2.982    0.665
        94 -10.8156    204.4736    154.2800   8.7922545242e+01   9.2747625632e+00    0.4185651     0.134239 -38.96  0.001301071    3.303    0.697
        95 -10.8270    119.2536    154.4206   1.0738949679e+02   2.6634480613e+01    0.5258171     0.273389 -65.95  0.001851246    2.567    0.610
        96  -9.9565    157.4801    154.9966   9.8099146492e+01   1.8760937980e+01    0.2506364    0.1513226 -48.70 0.0008455106    1.617    0.382
        97 -10.8740     81.5283    153.9721   1.1736726370e+02   3.3403997233e+01    0.4608065    0.2816733 -86.01  0.001834113    2.375    0.579
        98 -10.7427     49.4508    155.1302   1.2630684812e+02   3.7604291521e+01    0.2740975    0.1594615  67.71  0.001189251    2.314    0.568
        99 -10.0384    144.4156    154.1992   1.0102521232e+02   2.1653007689e+01    0.2340075    0.1473826 -61.21 0.0009517995    1.778    0.437
       100 -10.6480     67.6490    153.5248   1.2107869847e+02   3.5601552730e+01     0.330748    0.1991419  81.17   0.00132065    2.539    0.606
       101 -10.6614    133.1058    151.9212   1.0330964393e+02   2.4499048175e+01    0.4867313    0.2514187 -62.71  0.001716543    2.485    0.598
       102 -10.2165     98.4088    150.1754   1.1201057418e+02   3.1529205703e+01      0.36733    0.1478676 -63.13  0.001144903    3.195    0.687
       103 -11.2109    190.0689    148.5092   8.9519828959e+01   1.3389619212e+01    0.4541908    0.2218435 -43.85  0.001786315    1.939    0.484
       104  -9.9479    182.0000    149.9753   9.1524508215e+01   1.4750879882e+01    0.2601626    0.0842037 -45.09 0.0008033593    2.949    0.661
       105 -11.2486    200.1833    147.2224   8.7216443781e+01   1.1587256430e+01    0.4966755    0.2094305 -41.54  0.001841999    2.258    0.557
       106 -10.8195     39.3102    147.4583   1.2784280302e+02   4.0681912371e+01    0.3128648    0.1772314  76.46  0.001325134    2.588    0.614
       107 -10.6615    234.2346    146.7453   8.0974776536e+01   5.1087549766e+00    0.2311764    0.1023649 -34.56 0.0008940857    2.427    0.588
       108 -11.2356    106.8371    144.0395   1.0840826613e+02   3.1513131236e+01    0.7421879    0.4049568 -69.95  0.002644547    2.648    0.622
       109 -11.4216     55.7316    145.1233   1.2287165944e+02   3.9313275036e+01    0.5392526    0.3036947  83.74  0.002035646    3.068    0.674
       110 -10.8134    223.8028    145.7658   8.2544080755e+01   7.2354052546e+00    0.3363667     0.101707 -37.92  0.001034474    3.574    0.720
       111 -11.2563    148.5193    143.2528   9.7548761282e+01   2.3335950960e+01    0.8308858    0.3411573 -54.58    0.0027012    2.776    0.640
       112 -11.0009    124.6206    142.0381   1.0324139026e+02   2.8560601556e+01    0.5842597    0.3055891 -70.03  0.001800751    3.534    0.717
       113 -11.2064     87.7688    142.7374   1.1337438953e+02   3.5187579207e+01    0.4902034    0.2059782 -62.61  0.001669723    2.756    0.637
       114 -10.2057    165.5681    142.7347   9.3463874765e+01   1.9817674792e+01    0.3155119    0.1479537 -42.39  0.001152605    2.125    0.529
       115 -10.2287    182.0724    140.6378   8.9397813224e+01   1.6746344396e+01    0.2875329    0.2031562 -54.38  0.001323511    1.412    0.292
       116 -10.8930     23.3650    138.2922   1.3084626469e+02   4.4505798754e+01    0.3431638    0.1854104  75.98  0.001475682    2.796    0.642
       117 -10.5063    198.0000    133.9822   8.4686543933e+01   1.4769408664e+01    0.3547719    0.1771536 -41.43  0.001422855    1.910    0.476
       118 -10.2311    112.6274    132.8218   1.0427275488e+02   3.3113541000e+01    0.3333508    0.1955677 -74.65  0.001150328    2.918    0.657
       119 -11.7116     83.4083    130.3039   1.1190782868e+02   3.8938494090e+01    0.8378047    0.3305023 -59.78  0.002857894    2.800    0.643
       120 -11.0224    131.7090    129.5614   9.8460349186e+01   3.0026762715e+01    0.6761488    0.2328784 -53.57  0.001992814    3.375    0.704
       121 -10.4354    142.7162    130.0314   9.5820378618e+01   2.7587782139e+01    0.4364597    0.1835141 -52.71   0.00146352    2.563    0.610
       122 -10.7698     12.3974    128.9064   1.3254311122e+02   4.7651001024e+01    0.3397725    0.1763982  81.06  0.001464045    2.953    0.661
       123 -10.2287    179.4828    132.4354   8.8045796270e+01   1.9055065600e+01    0.3349122    0.1464014 -44.57  0.001216817    2.188    0.543
       124 -10.0136    192.8446    128.9738   8.4543923508e+01   1.6893225328e+01    0.2479641    0.1755681 -18.78   0.00108266    1.969    0.492
       125  -9.9228    168.3733    128.5805   8.9514537453e+01   2.2310070444e+01     0.317995    0.1291016 -55.83 0.0009571728    3.317    0.699
       126 -10.4903    152.6709    128.2874   9.3008009002e+01   2.5821564817e+01    0.4107518    0.1850526 -56.14  0.001362366    2.726    0.633
       127 -11.9383     98.4408    125.7922   1.0653699072e+02   3.7432265663e+01    0.9144562    0.3344124 -57.85  0.002819561    3.344    0.701
       128 -10.4765     72.7306    128.7793   1.1469795645e+02   4.0972213199e+01    0.2965004    0.1780282 -79.14  0.001175719    2.488    0.598
       129 -11.1463     59.1538    123.7877   1.1768730996e+02   4.4082617094e+01    0.5977578    0.3433722 -87.99  0.002164565    3.462    0.711
       130 -10.7396    117.0255    124.3404   1.0103355411e+02   3.4229534693e+01    0.3621861    0.2153423 -57.78  0.001482678    1.818    0.450
       131 -11.4848     43.4417    121.7348   1.2205962775e+02   4.6483660494e+01    0.7998732    0.3983229 -82.05  0.002748266    3.933    0.746
       132 -10.5204    179.8023    122.7833   8.5707540339e+01   2.1015738126e+01    0.4713632    0.2023497 -34.39  0.001549673    2.986    0.665
       133 -11.3486     28.2169    122.3170   1.2680918423e+02   4.7892520563e+01    0.5559063    0.2888272  82.06  0.001983226    4.212    0.763
       134  -9.7538    188.5891    122.7993   8.3946889551e+01   1.9081376234e+01    0.2275979    0.1343173 -53.47 0.0009578075    1.713    0.416
       135 -10.9381    141.3795    117.7481   9.3105407351e+01   3.0602642225e+01    0.7060802    0.2466982 -53.42  0.002033776    3.662    0.727
       136 -10.3335    130.0430    117.5398   9.5896671160e+01   3.3084613695e+01    0.3458215    0.1945196 -63.49  0.001261133    2.466    0.594
       137 -10.8083      3.0172    117.2259   1.3353282017e+02   5.1015341349e+01    0.4058273    0.1881996  89.71  0.001656394    3.380    0.704
       138  -9.8143    186.0000    114.9726   8.2611721549e+01   2.1239549900e+01    0.2578912   0.08263639 -42.69 0.0008090264    2.988    0.665
       139 -11.2919    108.6829    112.2987   1.0027844949e+02   3.8597983431e+01    0.7697976    0.2842899 -53.32  0.002476475    3.064    0.674
       140 -11.3018     78.7510    112.0426   1.0898760865e+02   4.3977159130e+01     0.629456    0.3563708 -74.02  0.002259635    3.231    0.691
       141 -11.4515     92.2080    110.4250   1.0453330284e+02   4.2080167625e+01    0.8500248    0.2959982 -53.89  0.002753273    3.144    0.682
       142 -10.5279    121.7904    111.2871   9.6442588590e+01   3.6183647371e+01    0.3979068    0.1817216 -51.79  0.001442746    2.325    0.570
       143 -11.4647     66.3153    110.0473   1.1235160970e+02   4.6311062045e+01    0.4596217    0.2489795 -71.50  0.001737706    2.947    0.661
       144 -11.1809     14.1401    110.1508   1.2898373900e+02   5.1883057591e+01    0.3740383    0.2208196 -81.50  0.001931982    1.962    0.490
       145 -11.6855     22.5740    102.0312   1.2472965244e+02   5.3057763997e+01    0.6320852    0.3542724  75.81  0.002459409    4.164    0.760
       146 -10.2321    139.3450    103.8777   9.0023829346e+01   3.3986772161e+01    0.3129174     0.134664 -50.80  0.001086544    2.545    0.607
       147 -12.0251     45.4728    102.3076   1.1722369699e+02   5.0738530520e+01    0.6881974    0.4138229  74.06  0.002608384    3.961    0.748
       148 -10.4808    128.2807    101.4245   9.2135889991e+01   3.6902175708e+01    0.2727936    0.1862441 -63.84  0.001140165    1.806    0.446
       149 -11.2663    108.4395     97.9938   9.6527476457e+01   4.1713335711e+01    0.6092957    0.3702087 -67.16  0.002371633    2.596    0.615
       150 -10.6139     81.8002     99.5306   1.0482469140e+02   4.6251824684e+01    0.3431079    0.2024161 -66.81  0.001384275    2.526    0.604
       151 -11.1082     94.7851     95.8418   9.9875940374e+01   4.4763475761e+01    0.5199436    0.1862341 -47.93  0.001813257    2.785    0.641
       152 -11.5661     63.4611     95.6643   1.0964398387e+02   4.9896275200e+01    0.4617139    0.2892959 -74.94  0.001953003    2.714    0.632
       153 -10.9508      4.7075     91.6873   1.2865637080e+02   5.6604010352e+01    0.2376847    0.1367533 -87.34  0.001181146    2.564    0.610
       154 -10.2634    149.8213    102.0099   8.7055610470e+01   3.2025536989e+01     0.412045   0.09692741 -48.38  0.001006612    5.093    0.804
       155 -10.8980    124.3078     88.5382   8.9622773951e+01   4.0316455063e+01    0.6121852    0.2371078 -38.89   0.00215369    2.735    0.634
       156 -11.2077     34.4880     89.1377   1.1780175942e+02   5.4780175010e+01    0.4608096    0.2251267 -67.42  0.001959271    2.766    0.639
       157 -11.1084     86.4851     86.7294   9.9815688669e+01   4.8097030625e+01    0.3350304    0.2498618 -89.77  0.001498827    2.262    0.558
       158 -11.1836     48.6622     84.5535   1.1167693263e+02   5.4165046713e+01    0.3767875    0.2535419  76.18  0.001628295    3.327    0.699
       159 -11.4601    104.3776     82.6366   9.3321996357e+01   4.5551505165e+01    0.4253534    0.2601033 -61.07  0.001795009    2.334    0.571
       160 -11.0965     24.2217     80.2850   1.1927431856e+02   5.7579666186e+01    0.3742468    0.2136866 -70.90  0.001834889    2.402    0.584
       161 -11.5644     82.1232     72.0735   9.6812841335e+01   5.1622794525e+01    0.4494855    0.2386723 -55.36  0.001879055    2.628    0.620
       162 -10.4111     95.0100     71.0170   9.2554394875e+01   4.9471322922e+01    0.3071674    0.1906638 -62.01  0.001313738    2.577    0.612
       163 -10.8598     51.2401     69.2751   1.0638800955e+02   5.6819574421e+01     0.442694     0.206283 -60.36  0.001632234    3.973    0.748
       164 -10.5909     73.1510     59.2654   9.5640335724e+01   5.5333529621e+01    0.3005103    0.1634574 -48.65  0.001416745    2.188    0.543
       165  -9.9324     24.6697     59.3142   1.1339801124e+02   6.1586012469e+01    0.1044763   0.09566013  72.47  0.000585449    1.677    0.404
       166 -11.0203      7.4145     57.1198   1.1967389734e+02   6.3359591314e+01    0.2604917    0.1089945 -64.02  0.001143932    3.336    0.700
       167 -10.1209    100.4596     54.6266   8.5853762254e+01   5.1063026817e+01     0.173551    0.1280182 -17.79 0.0009331587    1.498    0.333
       168 -10.3198     74.4860     80.4848   1.0179705998e+02   5.1329972735e+01     0.247222    0.1290253 -55.82   0.00103495    2.415    0.586
       169 -10.4794     54.2342     54.2300   1.0050973326e+02   5.9035122111e+01    0.1908703   0.09806249 -50.80 0.0008887957    2.466    0.594
       170 -10.2866     31.1684     51.9649   1.0853603175e+02   6.2231867132e+01    0.1729786     0.142467 -74.22  0.001077891    2.040    0.510
       171 -10.3099     92.3275     50.1808   8.6711873843e+01   5.3303913767e+01    0.3272995    0.1005977 -44.20  0.001102747    4.169    0.760
       172 -10.2530     16.6091     44.8105   1.1217316131e+02   6.4813973361e+01    0.1532205   0.09941388 -52.07 0.0009510852    1.706    0.414
       173 -10.9850      4.9316     41.3888   1.1609029656e+02   6.6282579247e+01    0.3000384    0.1540845 -61.63    0.0015741    2.812    0.644
       174 -10.1413     58.3178     42.6442   9.5041829286e+01   6.0220368908e+01    0.1105037    0.1013904 -83.24  0.000704559    1.750    0.429
