#   1 NUMBER                 Running object number                                     
#   2 MAG_AUTO               Kron-like elliptical aperture magnitude                    [mag]
#   3 X_IMAGE                Object position along x                                    [pixel]
#   4 Y_IMAGE                Object position along y                                    [pixel]
#   5 X_WORLD                Barycenter position along world x axis                     [deg]
#   6 Y_WORLD                Barycenter position along world y axis                     [deg]
#   7 A_WORLD                Profile RMS along major axis (world units)                 [deg]
#   8 B_WORLD                Profile RMS along minor axis (world units)                 [deg]
#   9 THETA_WORLD            Position angle (CCW/world-x)                               [deg]
#  10 FWHM_WORLD             FWHM assuming a gaussian core                              [deg]
#  11 ELONGATION             A_IMAGE/B_IMAGE                                           
#  12 ELLIPTICITY            1 - B_IMAGE/A_IMAGE                                       
         1 -16.5775    133.7420     24.0795   7.8769023652e+01   4.9462841420e+01     11.70645     4.642481 -44.78    0.0422318    3.071    0.674
         2 -18.5214    235.4884     51.0498   7.1176846837e+01   2.0117247205e+01     7.659212     3.631622 -28.43   0.03224263    2.125    0.529
         3 -14.9139    215.0367     71.7254   7.9329100799e+01   2.1959027278e+01     1.712907    0.8546401 -61.40  0.005472338    3.114    0.679
         4  -9.9125    201.4761     15.9976   6.5754008721e+01   3.2976205403e+01     0.238224    0.1416112 -12.72  0.001078346    2.169    0.539
         5 -11.3323    232.1928      8.6242   6.0888781267e+01   2.6175351470e+01    0.1737778     0.109745  64.14 0.0009172479    1.607    0.378
         6 -10.4077    227.4710      6.3853   6.0724663078e+01   2.7544695239e+01    0.1445988    0.1123767 -82.23 0.0008403123    1.158    0.137
         7 -11.2411    214.4578      4.0451   6.1239337005e+01   3.0965720909e+01    0.1469717    0.1053099  35.05 0.0004938156    1.825    0.452
         8 -11.6082    206.5268    177.4551   1.0598599889e+02   5.8632708594e+00     1.023239    0.4779878  61.78   0.00299133    5.730    0.825
         9 -14.1506    234.1407    242.6036   1.1240007701e+02  -7.4411005833e+00     2.719097    0.8627886  36.39   0.01272866    2.616    0.618
        10 -14.2499    193.5397    247.8111   1.1995633678e+02  -1.8815909156e+00     2.738346    0.4989325  41.12  0.009461331    4.354    0.770
        11 -11.4818    214.0855    168.9606   1.0288260315e+02   5.7796768299e+00     0.509491    0.2252651  47.27    0.0021384    2.254    0.556
        12 -10.9940    180.5021    165.3239   1.0863643262e+02   1.3069385366e+01    0.5698883    0.3242762  67.10  0.001782216    3.107    0.678
        13 -11.6165    192.3605    171.6965   1.0755530085e+02   9.5668819241e+00    0.5815924    0.3141176  64.00  0.002145097    3.324    0.699
        14 -10.6592    188.7874    169.8364   1.0788600334e+02   1.0597959050e+01    0.3091576     0.193379  47.55 0.0006023824    1.544    0.352
        15 -10.7028    230.1133    172.9857   1.0082830273e+02   2.1502843940e+00    0.4293259    0.1852189  48.15  0.001227519    2.437    0.590
        16 -13.5094     30.6458    168.6766   1.4231086079e+02   3.6944433574e+01      1.56851    0.6814507  63.47  0.007414614    2.379    0.580
        17  -9.9658    195.7751    167.8268   1.0611204951e+02   9.5563555433e+00    0.2444644    0.1788284  70.33 0.0007081362    1.909    0.476
        18 -11.0721    203.4306    166.0818   1.0428389886e+02   8.3333778035e+00    0.3753026    0.3097756  34.96  0.001496498    1.150    0.130
        19 -10.2648    203.3967    160.8417   1.0319919762e+02   9.2280265689e+00    0.2332842    0.1909643  52.77 0.0006528722    1.300    0.230
        20 -10.0483    155.9163    160.1227   1.1275013752e+02   1.9056728014e+01    0.3054531     0.208905  83.13  0.001266266    2.260    0.558
        21  -9.8109    146.8887    158.1126   1.1433069614e+02   2.1279771748e+01    0.2276895    0.1931705  78.96 0.0008582427    1.272    0.214
        22 -12.7682      8.1785    247.4733   1.5107472252e+02   2.4005412879e+01     1.062009    0.3286209  47.29  0.006486651    2.207    0.547
        23 -10.6122    133.7039    147.1812   1.1512435274e+02   2.6211244707e+01    0.6037871    0.1996161 -53.19  0.001958814    3.279    0.695
        24 -10.1651    132.5871    137.1982   1.1327139914e+02   2.8604963123e+01    0.6476186    0.1732104 -49.93  0.001897772    3.796    0.737
        25 -11.9530     36.0943    166.5499   1.4093141141e+02   3.6836949131e+01    0.6244795    0.2629366 -81.43  0.002629297    2.256    0.557
        26 -11.1324    192.0882    144.0151   1.0173206309e+02   1.4566158870e+01    0.2763316    0.2145457  39.37 0.0004700926    1.278    0.217
        27 -12.7399    200.1530    144.2780   1.0021043251e+02   1.2796208533e+01    0.5827737    0.5383701 -72.80  0.000658689    1.252    0.201
        28 -10.9164    195.9553    141.9596   1.0050201893e+02   1.4111586609e+01    0.3125193    0.2397878  61.81 0.0007857749    1.482    0.325
        29  -9.8639     58.1671    249.1604   1.4332620340e+02   1.8083759516e+01    0.1496785     0.117589  64.15 0.0004168713    1.183    0.154
        30 -11.6438    192.4881    152.9674   1.0363492647e+02   1.2849399834e+01    0.5293843    0.2003874 -46.08  0.001874304    2.906    0.656
        31  -9.0752    125.8274    144.1441   1.1636129419e+02   2.8416710543e+01    0.1841076    0.1727335  -8.94  0.001014072    1.280    0.219
        32 -11.2208     83.8433    145.7267   1.2694718937e+02   3.5389355343e+01      0.89829    0.4730834 -83.88  0.002870303    2.821    0.645
        33 -10.4903    157.8427    140.1838   1.0809115174e+02   2.2700805355e+01    0.2276887    0.1999788  89.86   0.00054858    1.257    0.205
        34 -11.9947    135.0175    124.5674   1.0979865042e+02   3.0867432604e+01     1.247437    0.4280309 -53.00  0.003850803    3.336    0.700
        35 -10.8449    129.3249    115.8121   1.0907616069e+02   3.3973861186e+01    0.3941949    0.2688201 -70.51 0.0009361865    1.842    0.457
        36 -11.6614    126.2619    108.4215   1.0797413501e+02   3.6231481080e+01    0.7187324    0.3834974 -42.68  0.002907394    1.878    0.468
        37 -13.1220    122.4604    105.1655   1.0810763702e+02   3.7732661989e+01     1.664094    0.7015376 -49.77  0.006003884    2.354    0.575
        38 -11.4729    152.9390    121.6618   1.0483286217e+02   2.7615558165e+01    0.4627274    0.3395694 -54.70  0.001259924    1.413    0.292
        39  -9.7411    180.1438    198.0531   1.1480368353e+02   7.4648812354e+00    0.1874065    0.1678914  38.61 0.0002579221    1.033    0.032
        40 -10.1365    140.6786    121.0025   1.0756348568e+02   3.0438099899e+01    0.3080108    0.1893728  73.21 0.0009645687    2.616    0.618
        41 -11.9079    134.7326    109.1842   1.0602711713e+02   3.4264701459e+01     1.443911    0.2233135 -44.97  0.003134191    6.345    0.842
        42 -10.1531    137.1804    100.1520   1.0298963197e+02   3.5645637330e+01    0.2153726    0.1851479 -87.89 0.0004703506    1.313    0.238
        43 -11.7978    132.0893     98.2714   1.0374921569e+02   3.7164073818e+01    0.4934162    0.3836028 -31.39   0.00130352    1.382    0.276
        44 -12.5542    137.1302     94.3049   1.0136256327e+02   3.6871585325e+01    0.6322383    0.4650285  64.80   0.00108596    1.546    0.353
        45  -9.8734     97.6487    112.8186   1.1671499003e+02   4.0764295580e+01    0.5407003     0.245914 -69.38  0.001592112    4.340    0.770
        46 -12.8954    160.4642    128.6397   1.0482276839e+02   2.4501100733e+01    0.8149979    0.4663817  44.61  0.003416933    1.754    0.430
        47 -11.6270    142.6442    104.0882   1.0272254313e+02   3.3600145891e+01    0.6407909    0.3665181  34.16  0.002488267    2.195    0.544
        48  -9.7055     84.9721    103.9263   1.1818954145e+02   4.4949486646e+01    0.3837229    0.1903113 -68.23  0.001219426    2.750    0.636
        49 -12.4764    152.5725     99.2620   9.9039132361e+01   3.2316027124e+01    0.6165444    0.4419176  43.43  0.002531641    1.444    0.307
        50 -10.7631    198.8091    152.5472   1.0230446001e+02   1.1607802173e+01    0.2629551     0.202181 -32.71 0.0006874753    1.319    0.242
        51 -11.8907    149.4255     90.6533   9.7336609245e+01   3.4774296122e+01    0.4369901    0.3458956 -75.11  0.002040908    1.524    0.344
        52  -9.4722     32.5016     89.2923   1.3117160416e+02   5.4943664437e+01    0.2386633    0.1093343 -70.11  0.001105537    2.042    0.510
        53  -9.3275     83.0101     88.7302   1.1489255978e+02   4.8706591307e+01     0.185874    0.1807908 -51.62 0.0002852318    1.067    0.063
        54 -10.6711     81.5804     83.4814   1.1388239130e+02   5.0094384607e+01    0.4104536    0.2337641 -64.81    0.0017433    2.185    0.542
        55 -11.0313    154.4921    126.5055   1.0566013459e+02   2.6261276552e+01      0.31158    0.2464455 -36.34   0.00131331    1.325    0.245
        56 -12.2034     56.7109    154.5606   1.3487330241e+02   3.7134942554e+01    0.3758322    0.3337192  65.23 0.0008347384    1.185    0.156
        57  -9.8220    175.9550     52.4360   8.0218186193e+01   3.4858787677e+01    0.4585685    0.1702743 -43.44  0.001552573    2.742    0.635
        58 -12.4252    104.0338     50.6939   9.6210565443e+01   5.2409114308e+01     0.808562    0.2343997 -36.23  0.002586373    3.422    0.708
        59  -9.6059    192.2918     40.5404   7.3989693851e+01   3.2329603063e+01    0.2829105    0.1564309 -28.16 0.0005320209    1.875    0.467
        60 -10.7841    190.0770     35.3341   7.2776965413e+01   3.3596418652e+01    0.2177545    0.1773989 -81.72  0.001137992    1.247    0.198
        61 -14.2453     67.5980    147.0233   1.3118228924e+02   3.7445015805e+01     1.402061     1.153496 -36.79  0.003301597    1.598    0.374
        62 -10.2216     91.8794     32.8742   9.2934697001e+01   5.7703574098e+01    0.3042203     0.180414 -30.18  0.000799892    1.633    0.388
        63 -10.2899    204.2613     29.3964   6.9177766750e+01   3.0695954340e+01    0.1779239    0.1521014 -64.41 0.0005461626    1.106    0.095
        64 -12.1372    198.5011     25.1917   6.8700998790e+01   3.2683950261e+01    0.3339896     0.229796  -8.94  0.001611287    1.855    0.461
        65  -9.5466    177.7016     25.3611   7.1546436121e+01   3.8062481399e+01    0.1815446    0.1561491  33.34 0.0005824913    1.291    0.226
        66  -9.6518     78.6593     19.8533   9.1528111482e+01   6.2045028192e+01    0.1770788    0.1095433 -35.94 0.0003861746    1.643    0.391
        67  -9.3660    162.7939     17.5554   7.1282649231e+01   4.2827430028e+01    0.3094237    0.1493541  41.07  0.001229737    2.395    0.582
        68 -10.3937    191.6560    192.6553   1.1165359408e+02   6.2166423476e+00    0.5895367    0.3053164 -63.87  0.001786554    6.305    0.841
        69 -10.4566    181.4474    152.7793   1.0581966576e+02   1.5198392450e+01    0.2876471    0.2332619  72.12 0.0008969959    1.479    0.324
        70  -9.9149    208.4840    186.0019   1.0726873736e+02   4.1515718793e+00    0.1876237    0.1289864 -35.40 0.0004688883    1.541    0.351
        71 -11.5427    210.4962    178.5742   1.0546744583e+02   4.9348323976e+00    0.4285825    0.3017704 -66.00  0.002068668    2.389    0.581
