#   1 NUMBER                 Running object number                                     
#   2 MAG_AUTO               Kron-like elliptical aperture magnitude                    [mag]
#   3 X_IMAGE                Object position along x                                    [pixel]
#   4 Y_IMAGE                Object position along y                                    [pixel]
#   5 X_WORLD                Barycenter position along world x axis                     [deg]
#   6 Y_WORLD                Barycenter position along world y axis                     [deg]
#   7 A_WORLD                Profile RMS along major axis (world units)                 [deg]
#   8 B_WORLD                Profile RMS along minor axis (world units)                 [deg]
#   9 THETA_WORLD            Position angle (CCW/world-x)                               [deg]
#  10 FWHM_WORLD             FWHM assuming a gaussian core                              [deg]
#  11 ELONGATION             A_IMAGE/B_IMAGE                                           
#  12 ELLIPTICITY            1 - B_IMAGE/A_IMAGE                                       
         1  -9.6029     38.3961      8.6612   7.5797894887e+01   7.2546948788e+01    0.6410664    0.4296635  -7.85  0.003401358    1.720    0.419
         2 -10.8167     39.5833     29.6427   8.7177722120e+01   6.8559027870e+01     1.036199     0.484216 -48.35  0.004653549    1.907    0.475
         3 -12.0209     44.9300     22.2004   8.0526483642e+01   6.9187631666e+01     1.395887    0.9391759 -57.53  0.006661392    1.847    0.459
         4 -11.8058    128.8436     15.6886   5.0730857582e+01   5.1277547193e+01     1.742515    0.9743967  59.77  0.007647569    1.726    0.421
         5 -11.9270     82.9426      6.3197   5.6344217049e+01   6.3795537427e+01      2.08127      1.19403   7.61  0.008971934    2.286    0.562
         6 -11.9273    115.9623      4.3025   4.8009638357e+01   5.5781387548e+01     2.983149    0.5487349  70.36  0.007476139    5.806    0.828
         7 -11.5790    131.6432      3.6050   4.5246265640e+01   5.1741728550e+01      1.80714    0.4768425  71.10  0.005680538    3.639    0.725
         8 -12.2846    155.8370     20.4955   4.8386630132e+01   4.3657889743e+01     1.512876    0.8771191  48.32  0.004487343    1.843    0.457
         9 -13.3582    169.2573     12.0158   4.3752294182e+01   4.1066965741e+01     2.039184     1.872949 -14.59  0.008719615    1.151    0.131
        10 -10.0656    116.7629     17.7499   5.3911608376e+01   5.4169904929e+01    0.9280027    0.2962548 -32.49  0.003216943    2.788    0.641
        11  -9.5532    114.5183     14.4843   5.2911765164e+01   5.5119541579e+01    0.3890232    0.2481946  51.70  0.001445536    1.535    0.348
        12 -10.4420    248.3164     15.2644   3.8366576362e+01   2.2232819060e+01    0.3475057    0.2069509 -39.80  0.001572423    1.312    0.238
        13 -10.7524    249.0344      5.8807   3.6053392313e+01   2.3005939625e+01    0.7429358    0.2562687 -32.03  0.003439002    2.095    0.523
        14  -9.2013     94.3614     17.4248   5.9050043893e+01   5.9780180937e+01    0.4789978    0.3451251 -85.86  0.002288032    1.876    0.467
        15  -9.2750    227.5594     15.5573   3.9766076998e+01   2.6605298083e+01    0.4586062     0.186094 -67.80  0.001778274    3.262    0.693
        16  -8.9085     20.3444     14.1748   9.0593098151e+01   7.4071130745e+01    0.5076515    0.2283211 -37.97  0.002364874    2.070    0.517
        17  -9.2583     69.7563     13.8485   6.4856478955e+01   6.5840967431e+01    0.3433724     0.259262 -37.95  0.001860925    1.338    0.253
        18  -9.5524    104.2163     12.4387   5.4167821134e+01   5.7956774430e+01    0.4095511    0.3282743 -27.36  0.002041691    1.234    0.190
        19 -12.3649    156.0730      7.6671   4.3700427953e+01   4.4928958070e+01      1.50775     1.171526  78.24   0.00807322    1.279    0.218
        20  -8.6598     55.6785      8.3561   6.7098127422e+01   6.9471249454e+01    0.3302839    0.2515613  58.01   0.00185366    1.540    0.351
        21  -9.5883     60.8754     10.6924   6.6392920927e+01   6.8116865140e+01     0.516918    0.1982921 -34.12  0.002082609    2.414    0.586
        22  -8.0817     53.3286      1.8926   6.3817041243e+01   7.0761256119e+01    0.5869698    0.2391939  56.77  0.002442864    2.749    0.636
        23  -8.9282     59.5062      5.5026   6.3682910232e+01   6.9070866084e+01    0.3134942     0.243626 -24.32  0.001800512    1.219    0.180
        24  -9.3470     62.7861      1.4563   5.9818426579e+01   6.8852885779e+01    0.5436497     0.195379  56.00  0.002167178    2.714    0.631
        25  -9.9522     71.4909      5.6217   5.9420193089e+01   6.6490811020e+01    0.5307787    0.3834869  49.72  0.001971519    1.368    0.269
        26  -9.0226    229.4033      6.7912   3.7350724614e+01   2.7068059291e+01    0.1818634    0.1151027 -11.35 0.0009580161    1.762    0.433
        27  -8.2579     49.5102      6.9798   6.8970568645e+01   7.0843791093e+01    0.2834643    0.1440058  31.22  0.001206015    2.395    0.582
        28  -9.5593    221.6846      1.9232   3.6517945759e+01   2.9243093505e+01    0.2579936    0.2454286 -80.17  0.001353663    1.176    0.150
        29 -10.2761    193.4336      5.5219   3.9434516167e+01   3.5581387583e+01    0.2970588    0.2554612  77.63  0.001769143    1.213    0.175
        30  -9.6668    213.4922      4.7543   3.7787694261e+01   3.0854683441e+01     0.273148    0.1368276  61.28  0.001299697    2.170    0.539
        31  -9.2772    204.0142      3.5291   3.8072430612e+01   3.3200414933e+01    0.3918025    0.1834984 -65.08  0.001699785    2.291    0.563
        32  -8.7253     17.3004      2.3250   8.5105633151e+01   7.6609496584e+01    0.3046927    0.2133914 -65.24  0.001660873    2.256    0.557
        33  -8.5945     40.5630      1.9127   6.9883286300e+01   7.3166820423e+01    0.3045452    0.1800808  46.75  0.001604605    1.809    0.447
        34  -7.2357      1.3525      1.3204   9.7863774242e+01   7.8368954669e+01    0.1301129   0.07086983 -30.51 0.0007047405    1.749    0.428
        35  -8.1554     69.7672     61.9726   8.6930440515e+01   5.6870031173e+01    0.2899843    0.1909809   5.55  0.001061991    2.651    0.623
        36  -8.9662    199.2862     55.7373   5.3783328795e+01   2.8250476360e+01     0.253186    0.2297247 -14.88 0.0005130668    1.128    0.114
        37  -8.6910     66.4201     53.9297   8.5299815167e+01   5.9227412899e+01    0.5121235    0.1775493 -50.77  0.001759807    2.771    0.639
        38  -8.3387     35.6650     53.1008   9.8502885100e+01   6.3856736275e+01    0.2213539    0.1924028  52.02  0.001318234    1.333    0.250
        39  -8.1942     23.0003     52.0610   1.0438372403e+02   6.5396096484e+01     0.210819    0.1499856  68.92  0.001129939    1.765    0.433
        40 -10.0664     82.5520     45.9383   7.6028961404e+01   5.7819492869e+01    0.8589979    0.4707385 -47.72  0.003655859    1.818    0.450
        41 -10.2201      3.1709     40.7297   1.1202533980e+02   6.9523363935e+01    0.4975748    0.4232634  63.48  0.002708592    1.374    0.272
        42  -8.8073     12.4228     33.6587   1.0451708341e+02   7.0612322149e+01    0.3883542    0.2418967 -63.24  0.001530598    1.367    0.268
        43  -9.2672      6.6202     35.6944   1.0866747154e+02   7.0528092242e+01    0.4090139    0.2021602  22.32  0.002097226    2.359    0.576
        44 -10.2834    183.0511    245.8309   9.5638979297e+01   3.3230372740e+00    0.2842174    0.1100565  31.85  0.001575545    2.074    0.518
        45  -9.8644     52.4738     39.4023   8.5321293684e+01   6.4627664381e+01    0.6579679    0.5770456 -90.00  0.003767196    1.441    0.306
        46  -9.5290    160.4937    240.0376   9.8770826784e+01   6.8844890074e+00     0.198625    0.1071783 -44.70  0.001158648    2.349    0.574
        47 -10.6999    170.1834    243.0689   9.7463347723e+01   5.2674855239e+00    0.2915806    0.1764346  13.38  0.001878998    1.823    0.451
        48  -8.0061     27.5292     35.3324   9.6309674517e+01   6.8849942222e+01     0.205268    0.1248992  24.95 0.0008337636    1.899    0.474
        49  -8.3219    197.5810     34.2533   4.7693952695e+01   3.1464351134e+01    0.2501618     0.163835  43.25  0.001206317    1.814    0.449
        50  -9.9434     86.7389     31.8445   6.8330378488e+01   5.9443849679e+01     0.327664    0.2994909 -24.29  0.001367269    1.040    0.038
        51  -9.7554     90.5315     28.9582   6.5768869251e+01   5.9050060487e+01     0.371341    0.2931778 -29.31  0.001935337    1.218    0.179
        52 -10.2672    225.0605     29.0972   4.3559207991e+01   2.5703809681e+01    0.5211507    0.3430566  57.07  0.002610189    1.746    0.427
        53 -10.0202    201.6763    227.6777   9.0201891026e+01   2.9730303040e+00    0.2721588    0.1231029  18.00  0.001309799    2.993    0.666
        54 -10.7446    101.0043    176.0010   1.0249328307e+02   2.5647808036e+01    0.1820558    0.1623773  54.83  -0.03019764    1.001    0.001
        55 -11.2732      9.4185    141.1319   1.2190153665e+02   4.4298772439e+01     0.684045    0.3438421  56.00  0.003680097    1.758    0.431
        56  -8.4306     41.2844    142.7747   1.1333697332e+02   4.0943715020e+01    0.1830547     0.110751  14.33  0.000888877    2.370    0.578
        57 -12.5939    241.6466    132.4103   6.6884340289e+01   8.9801492860e+00     1.261055    0.9798823  29.74  0.005228971    1.360    0.265
        58  -9.6056     17.9871    129.0399   1.1859054849e+02   4.6507306235e+01    0.3698076    0.1392049 -69.37  0.001656639    2.220    0.550
        59  -9.1875    104.2231     26.1154   6.0581417279e+01   5.6232445207e+01    0.3938377     0.225509  59.82  0.001724107    1.797    0.444
        60  -8.6882    111.2070     16.3897   5.4474016138e+01   5.5744602049e+01    0.4144441    0.2349886  68.00  0.001452164    1.852    0.460
        61  -9.2393     13.1168    126.3843   1.1979654252e+02   4.7545402973e+01    0.3263973     0.119343 -45.20  0.001194926    4.276    0.766
        62  -7.8017     22.7535    125.4453   1.1684571509e+02   4.6979241846e+01    0.1547876    0.1284114   1.75 0.0009481061    1.632    0.387
        63  -7.9867     21.9365     23.0994   9.4248233532e+01   7.2091326788e+01    0.1849405    0.1740995 -65.67  0.001171763    1.239    0.193
        64  -8.1084     11.0141     23.0609   1.0141622433e+02   7.3106483388e+01    0.1854025    0.1477654  77.60  0.001127772    1.674    0.403
        65  -7.8180    192.6815    116.3300   7.1044773285e+01   2.0279755154e+01    0.1392366    0.1098135 -65.22 0.0007047473    1.687    0.407
        66  -7.9163      1.6616    115.6784   1.2244597086e+02   5.0962591643e+01    0.1254539   0.08001457 -52.60 0.0007050449    1.715    0.417
        67  -9.3517     66.6887     29.4500   7.4442492807e+01   6.4026342509e+01    0.3185671    0.2364585 -10.11  0.001618151    1.547    0.354
        68  -8.4949     14.5117    113.4963   1.1822002799e+02   5.0617466716e+01    0.1299907    0.1062912 -88.19 0.0008104798    1.021    0.020
        69  -9.6661     17.5410    105.0974   1.1633199303e+02   5.2491405560e+01    0.4753479    0.3210781  55.18  0.002707262    1.482    0.325
        70  -9.5022     63.6270     15.8927   6.8375669633e+01   6.6823457354e+01    0.2392489    0.1831799  33.38  0.001310306    1.336    0.252
        71  -9.8939     46.8591    100.4731   1.0555084092e+02   5.0782260734e+01    0.4974357    0.2351163 -58.24  0.002185289    1.857    0.461
        72  -9.2665     30.4199    101.7244   1.1146437293e+02   5.2228911472e+01    0.2771331    0.2000033 -56.28  0.001350846    1.343    0.255
        73 -10.3651     39.4139     89.4453   1.0610209748e+02   5.4433457497e+01    0.7058917    0.4146016   7.14  0.003146011    2.643    0.622
        74 -11.2182     42.1082     83.2100   1.0377524826e+02   5.5709070770e+01     1.101321    0.5440989  35.96  0.004969482    2.177    0.541
        75 -10.1008     25.3104     65.3470   1.0669407192e+02   6.1923635319e+01    0.6624705    0.2595821 -56.95  0.002840426    2.031    0.508
        76  -9.1834      2.4145     87.7739   1.1982042967e+02   5.7870329967e+01    0.7375075     0.208592 -85.51  0.002576034    3.517    0.716
        77  -9.3884      9.9507     80.0491   1.1595588324e+02   5.9380141874e+01    0.3920171    0.2832321 -23.11  0.002281656    1.750    0.429
        78 -10.5354      4.1808     75.9520   1.1775566181e+02   6.0754810316e+01    0.6102162    0.5032969 -57.47   0.00383855    1.196    0.164
        79 -10.5175     18.6309     74.1561   1.1142902629e+02   6.0264766657e+01    0.5934205    0.3787051 -57.46  0.002718025    1.356    0.262
        80 -10.5691     13.1083     70.4162   1.1313011962e+02   6.1609683544e+01    0.8221512    0.3547635 -75.42  0.003677116    2.003    0.501
        81  -8.9420    132.5950     26.5371   5.4477476421e+01   4.9004059620e+01     0.285034    0.2795019 -49.49   0.00108183    1.003    0.003
        82  -7.9992    110.5288     46.5222   6.7609292840e+01   5.1501574725e+01    0.1508675    0.1450519 -29.01 0.0002285325    1.012    0.012
        83  -9.0416    227.9955     79.3598   5.6403853188e+01   1.8709874403e+01    0.4402402    0.2481913  -9.24  0.001915178    2.335    0.572
        84 -11.3530     46.2746     80.6117   1.0156578679e+02   5.5865620109e+01    0.9641445    0.5226927 -69.19  0.004331499    1.778    0.438
        85  -8.3321    138.9199     79.5586   7.2011653905e+01   3.8698071908e+01    0.3008104    0.2158906 -21.86 0.0008016153    1.602    0.376
        86  -7.6453     78.3245     78.3195   8.9123736831e+01   5.1624599120e+01     0.150548    0.1155356 -20.02 0.0001242329    1.676    0.403
        87  -9.3072     75.3604     68.6229   8.7117544230e+01   5.4386707417e+01    0.4879328     0.387982   9.60  0.002441916    1.620    0.383
        88  -7.9351     34.2110     68.5875   1.0355898749e+02   6.0247228445e+01    0.1703056    0.1339385  -0.99 0.0009404881    1.604    0.377
        89  -8.2091     19.5970     88.4414   1.1340277864e+02   5.6558851773e+01    0.2834497    0.1469169  59.79  0.001308563    2.214    0.548
        90  -9.0556     49.1362     61.9731   9.5265599025e+01   6.0060318979e+01     0.310149    0.2503711  41.04  0.001720892    1.386    0.279
