#   1 NUMBER                 Running object number                                     
#   2 MAG_AUTO               Kron-like elliptical aperture magnitude                    [mag]
#   3 X_IMAGE                Object position along x                                    [pixel]
#   4 Y_IMAGE                Object position along y                                    [pixel]
#   5 X_WORLD                Barycenter position along world x axis                     [deg]
#   6 Y_WORLD                Barycenter position along world y axis                     [deg]
#   7 A_WORLD                Profile RMS along major axis (world units)                 [deg]
#   8 B_WORLD                Profile RMS along minor axis (world units)                 [deg]
#   9 THETA_WORLD            Position angle (CCW/world-x)                               [deg]
#  10 FWHM_WORLD             FWHM assuming a gaussian core                              [deg]
#  11 ELONGATION             A_IMAGE/B_IMAGE                                           
#  12 ELLIPTICITY            1 - B_IMAGE/A_IMAGE                                       
         1 -14.7725    205.2794      8.6769   4.6318535187e+01   3.1818446544e+01     3.537113     1.946248  31.02   0.01477535    2.559    0.609
         2 -14.0050    185.9431     37.3565   5.7434502012e+01   3.3619535863e+01     1.016558    0.8856038  17.21  0.003617864    1.268    0.212
         3 -12.3085     60.0637      3.0683   7.4129204095e+01   6.7583334645e+01    0.6112731    0.2012245  39.01  0.002418512    3.206    0.688
         4 -13.7192    171.4139     51.7855   6.4465270912e+01   3.5418739742e+01     1.891137     1.126015  31.95  0.005296469    2.140    0.533
         5 -11.8743    153.1992    199.5579   1.0269793323e+02   1.3381367797e+01    0.4203753    0.1882624 -50.02  0.002013131    2.727    0.633
         6 -13.1235    248.9734    248.8722   9.3468646050e+01  -7.3971779150e+00    0.6946329    0.5141925   7.29  0.005655395    1.211    0.174
         7 -12.9348    246.8481    244.0827   9.3111465097e+01  -6.7044788804e+00    0.4800796     0.312038 -26.63  0.003558187    1.864    0.464
         8 -18.3855     44.8005    242.5185   1.2640423510e+02   2.2006667343e+01     6.619443     5.331681  54.43   0.05720451    1.322    0.244
         9 -12.6229     64.6822    198.6983   1.1991246694e+02   2.7075243951e+01    0.3571802    0.2385019 -45.86  0.001373159    2.319    0.569
        10 -10.9523    159.8974    197.0931   1.0104926800e+02   1.2608575929e+01    0.2108462    0.1709467  52.91 0.0003050655    1.175    0.149
        11 -10.9242     81.9367    195.8128   1.1625784537e+02   2.5305782990e+01    0.2908289    0.2707529 -61.43  0.001695119    1.418    0.295
        12 -12.6509     71.9489    210.6068   1.1955271642e+02   2.3991102447e+01    0.3567579     0.207371  34.73 0.0009878693    1.855    0.461
        13 -10.7672    152.0818    211.0444   1.0451518800e+02   1.1814567095e+01    0.1831372    0.1489785  48.63 0.0003355816    1.071    0.067
        14 -13.3728     74.3915    184.8160   1.1664907100e+02   2.8425422261e+01    0.7309445    0.6457839 -69.10    0.0051914    1.341    0.254
        15  -8.2564     58.7506    188.0484   1.2014620449e+02   2.9831802956e+01    0.2952537    0.2032021 -41.19  0.001758086    2.397    0.583
        16 -11.3587    154.5401    186.8754   1.0051707473e+02   1.5181252973e+01    0.2986955    0.2316098 -83.23  0.001131387    1.764    0.433
        17 -12.5598    149.3976    186.9606   1.0155197016e+02   1.6080249598e+01    0.4416294     0.316871  67.73  0.001572376    1.659    0.397
        18 -11.7923     95.9606    187.8249   1.1254545684e+02   2.4760827667e+01     0.614347    0.3496114  59.67  0.002332232    1.693    0.409
        19 -11.1715     99.4386    180.7927   1.1095367015e+02   2.5562903006e+01    0.2280419    0.1906337  55.54 0.0005524196    1.071    0.066
        20 -10.1235    149.4121    180.2090   1.0047986289e+02   1.7219589017e+01    0.1667883     0.126596 -66.88  0.000941784    1.634    0.388
        21 -11.0233    204.5636    176.5369   8.9162854320e+01   7.6209082735e+00    0.3780589    0.2759099 -46.41  0.001612154    1.724    0.420
        22  -9.4278    198.4432    177.2380   9.0415738023e+01   8.6466226476e+00    0.1619232    0.1260327 -46.32 0.0009397551    1.586    0.369
        23  -9.9749    185.1083    169.6917   9.1536515300e+01   1.2288260453e+01    0.2163661      0.18718 -47.48 0.0008374268    1.365    0.267
        24 -10.5625    163.9285    169.7943   9.5752050781e+01   1.6309382270e+01    0.2204578    0.1961148 -62.15 0.0004424346    1.319    0.242
        25 -12.0511    193.7767    196.0105   9.4545461074e+01   6.8395637787e+00     1.093478    0.6232308 -62.90  0.004300259    4.771    0.790
        26 -11.2823    230.2413    166.5897   8.2729466854e+01   4.3000497975e+00    0.2282555    0.1505711 -38.47 0.0008928611    1.730    0.422
        27  -9.7186    139.0137    167.2917   1.0050071685e+02   2.1412386056e+01    0.1898646    0.1573816  46.75 0.0001840419    1.082    0.076
        28 -10.1352    192.5604    164.7139   8.9154746590e+01   1.1633163795e+01    0.2386081    0.2217028  37.35  0.000666593    1.122    0.109
        29 -10.5705      7.2869    162.0084   1.2874660069e+02   4.0346405605e+01    0.2272871    0.1444605 -76.03  0.001582867    1.395    0.283
        30  -9.1195      3.5127    162.4470   1.2955087474e+02   4.0560627634e+01    0.1646381    0.1545232  85.99 0.0009234504    1.399    0.285
        31 -11.9139    204.1796    199.7346   9.3297174255e+01   4.5514026845e+00    0.3992007    0.1910965  32.65  0.001968707    1.946    0.486
        32  -9.4925     88.2957    157.3253   1.1023083868e+02   3.1981823085e+01    0.1194811    0.1027056 -27.48 0.0003833328    1.625    0.385
        33 -12.4699     99.1193    152.5339   1.0699021301e+02   3.1287649299e+01    0.5671808    0.4506955 -28.06  0.003158574    1.782    0.439
        34 -10.9588    188.8694    154.6968   8.7872350719e+01   1.3944783790e+01    0.5315614    0.2644272  40.95  0.002346164    1.869    0.465
        35 -11.6362    133.9315    145.6230   9.7688024102e+01   2.6526292670e+01      1.06092     0.291967 -54.92   0.00295744    5.262    0.810
        36  -9.8335    113.3008    151.2754   1.0347680324e+02   2.9161088551e+01    0.2698035    0.1610434 -80.67  0.001159656    2.504    0.601
        37 -10.5246    174.6729    148.9703   8.9531166934e+01   1.7773672924e+01    0.2689985    0.2284332  41.65 0.0007229677    1.093    0.085
        38 -10.2012    159.6503    146.8597   9.2242427264e+01   2.1206019153e+01    0.3266356    0.2299712 -82.38  0.001464514    2.303    0.566
        39 -10.9719    144.0221    146.8071   9.5645809052e+01   2.4336587723e+01    0.4214686    0.2342491 -58.47  0.001823076    2.221    0.550
        40 -12.4760     97.8757    138.3465   1.0491056169e+02   3.4512505513e+01    0.2742153     0.247518  67.40 0.0004172495    1.043    0.041
        41 -11.4237    109.0165    139.1577   1.0232896690e+02   3.2441897078e+01    0.4854032     0.296416 -35.18  0.002174164    2.309    0.567
        42 -11.4256    105.9124    130.8712   1.0151879088e+02   3.4762198618e+01    0.3577712    0.2998023 -74.21  0.001153882    1.196    0.164
        43 -11.4987    103.8393    125.5060   1.0097898500e+02   3.6291183229e+01    0.2768339    0.2493907  -4.53 0.0008363032    1.399    0.285
        44 -10.4517    135.6668    129.1060   9.3884945318e+01   2.9509634979e+01    0.4174884    0.1352152 -50.16  0.001359589    3.352    0.702
        45 -10.7621    116.0972    129.4485   9.8695595844e+01   3.3229273435e+01     0.283751    0.2539801  -0.22 0.0007902529    1.390    0.280
        46 -10.0729    160.6684    127.9838   8.7928522578e+01   2.4514482157e+01     0.311964    0.2290014 -64.10  0.001374932    1.706    0.414
        47 -10.1352    120.4091    123.7965   9.6429887922e+01   3.3615497593e+01    0.2017396    0.1340241 -39.06 0.0006907116    1.697    0.411
        48  -9.5048    135.0000    119.9427   9.1982306577e+01   3.1516036839e+01     0.239631   0.08398092 -46.28 0.0007992136    2.920    0.658
        49 -10.0561    110.9895    118.7463   9.7714964906e+01   3.6473863044e+01    0.2209606    0.1972117 -61.73  0.000392573    1.107    0.097
        50 -10.1991    168.0995    113.0614   8.2731311847e+01   2.5669743342e+01    0.3480713    0.2432116 -81.34  0.001363717    2.362    0.577
        51 -11.0255    119.0163    110.4313   9.3732753288e+01   3.6728843954e+01    0.5791358    0.3310084  67.98  0.002144639    2.879    0.653
        52 -10.2545    205.6654    110.1334   7.4549165470e+01   1.7635273677e+01    0.2738353    0.2066672  40.62 0.0006869786    1.314    0.239
        53 -19.0555     23.3480    101.9930   1.1933493655e+02   5.2086984837e+01      15.3406     0.858322 -70.09   0.02791255   14.363    0.930
        54  -9.8084     73.0985    103.1190   1.0477555875e+02   4.6249367450e+01    0.2001513    0.1747591 -45.74 0.0004599434    1.201    0.167
        55 -10.2227     87.6497    203.1056   1.1587741709e+02   2.3179645848e+01     0.345855    0.1833744 -61.68  0.001983183    2.099    0.523
        56  -8.9538    152.6579     80.7403   7.7366317368e+01   3.5288686485e+01    0.1564461     0.118572  22.20  0.000371786    1.590    0.371
        57  -9.3399     73.4836     73.4755   9.7404173125e+01   5.2829387060e+01    0.1376805    0.1258343 -52.12 8.413631e-05    1.015    0.015
        58 -11.7900    166.6638     66.7022   7.0071996111e+01   3.4285624931e+01     1.159383    0.6113693 -60.88  0.002506318    3.305    0.697
        59 -10.6098     76.6602    206.3035   1.1829020847e+02   2.4126531305e+01    0.2585618    0.1419249  82.40 0.0008922301    2.114    0.527
        60 -11.5957    158.3680    235.7272   1.0651189778e+02   7.3695973349e+00    0.3122043     0.200294  32.45  0.001187409    1.403    0.287
        61 -13.2607    190.4207     30.9867   5.4798652730e+01   3.3242832847e+01    0.5950249    0.4700447  57.03  0.001284823    1.249    0.199
        62 -10.2095     31.0049    204.9532   1.2667461898e+02   2.9839294192e+01    0.1348752   0.08463904  62.02 0.0003674592    1.198    0.165
        63 -11.4483    220.4758     16.9979   4.7129378694e+01   2.7077826003e+01    0.2703056    0.1822845 -76.83 0.0007601648    1.583    0.368
        64 -10.7392     71.7362    230.7044   1.2117451968e+02   2.0640481462e+01    0.2572992    0.1676314  52.48  0.001331993    1.154    0.134
