#   1 NUMBER                 Running object number                                     
#   2 MAG_AUTO               Kron-like elliptical aperture magnitude                    [mag]
#   3 X_IMAGE                Object position along x                                    [pixel]
#   4 Y_IMAGE                Object position along y                                    [pixel]
#   5 X_WORLD                Barycenter position along world x axis                     [deg]
#   6 Y_WORLD                Barycenter position along world y axis                     [deg]
#   7 A_WORLD                Profile RMS along major axis (world units)                 [deg]
#   8 B_WORLD                Profile RMS along minor axis (world units)                 [deg]
#   9 THETA_WORLD            Position angle (CCW/world-x)                               [deg]
#  10 FWHM_WORLD             FWHM assuming a gaussian core                              [deg]
#  11 ELONGATION             A_IMAGE/B_IMAGE                                           
#  12 ELLIPTICITY            1 - B_IMAGE/A_IMAGE                                       
         1 -12.3425     69.3158    146.0054   1.0529832261e+02   3.6691073872e+01     1.699261    0.8731943  87.22  0.005732901    3.807    0.737
         2 -12.5200    216.7656     22.9952   4.0279820134e+01   2.8458976870e+01     1.411099    0.8885547  37.40  0.006973728    2.298    0.565
         3 -12.2540    204.3681     35.9282   4.4933868683e+01   2.9791067568e+01    0.9533764    0.8765175  79.56  0.004434441    1.103    0.093
         4  -9.5016     32.7231     31.6038   8.7974692521e+01   6.6609036368e+01    0.4491332   0.07438449 -43.15  0.001423994    4.760    0.790
         5  -9.7118    241.7494      1.7345   3.3361315741e+01   2.5238833291e+01    0.5189021    0.1541959  76.17  0.002145491    3.268    0.694
         6  -8.5699     12.6801      2.3118   8.4309265657e+01   7.3179883427e+01   0.09230828   0.08569732 -22.99 0.0004625358    1.648    0.393
         7  -9.6208     40.3460    222.1247   1.2061689321e+02   2.3111891625e+01    0.2337082    0.1849276 -46.19  0.001569539    1.879    0.468
         8 -13.5254     85.9697    228.6682   1.1239471413e+02   1.5889787652e+01     3.411979     1.332952  45.65   0.01380309    2.134    0.531
         9 -14.6744      4.5155    176.6186   1.2444772666e+02   3.6411035651e+01     13.96918    0.8792323 -75.79   0.02973299   11.692    0.914
        10  -8.4616    111.6728    197.3256   1.0312376158e+02   1.8264688147e+01    0.1434364    0.0981138  70.59 0.0007049812    1.697    0.411
        11  -9.5097     60.2264    219.9243   1.1660785887e+02   2.1120099428e+01    0.3579786    0.1417602  39.88  0.001396458    2.249    0.555
        12 -10.4009     65.3184    177.9568   1.1099984681e+02   2.9583679767e+01    0.4313074     0.288427 -37.98  0.002186039    2.116    0.527
        13 -10.2975     69.8984    172.8268   1.0923883298e+02   3.0157684678e+01    0.3344833    0.2767738 -44.32 0.0007971733    1.444    0.307
        14  -9.6639     41.2267    178.8149   1.1663068557e+02   3.2353750160e+01    0.2347247     0.186422  87.28  0.000701572    1.040    0.039
        15  -7.9711    115.0000    174.0323   9.8625272287e+01   2.2780584254e+01    0.2304578   0.08066611 -54.95 0.0006558755    2.893    0.654
        16  -8.9872    101.5798    170.8287   1.0129153418e+02   2.5797798559e+01    0.2042861    0.1323102 -74.27 0.0009040845    1.735    0.424
        17 -11.7959     66.7482    159.0842   1.0804487246e+02   3.3861126308e+01    0.5016823     0.365674 -49.36  0.001323671    1.466    0.318
        18 -14.8231      8.6273    240.2683   1.2728997247e+02   2.3015392682e+01     5.599192     2.021587 -72.45   0.03177381    2.518    0.603
        19  -7.5533    175.3124    149.3155   7.9632610809e+01   1.6431614284e+01    0.1545525    0.1183464  -0.36 0.0002976747    1.639    0.390
        20  -8.1169    134.1965    143.9687   8.7971222687e+01   2.6034562885e+01    0.2115307    0.1186801 -49.46 0.0006113299    1.760    0.432
        21  -9.0387    100.5508    141.5795   9.6111260417e+01   3.2897005798e+01    0.4734736     0.271796 -37.86   0.00194136    2.124    0.529
        22 -10.3804     87.9422    141.1462   9.9404511147e+01   3.5100664858e+01    0.2873876    0.2599271 -47.26 0.0003682908    1.149    0.129
        23  -8.4698     81.7530    141.5758   1.0116066856e+02   3.5963561200e+01    0.2855881    0.1988043  71.86 0.0008678156    1.737    0.424
        24 -13.4092      9.1544    207.4689   1.2549372383e+02   2.9375299613e+01     1.671018     1.207662 -30.65  0.004174149    2.619    0.618
        25 -10.7311     79.3016    163.0774   1.0550575202e+02   3.1123743180e+01    0.4343601    0.3668096 -66.98 0.0004180632    1.127    0.112
        26 -10.8428     85.5975    156.8968   1.0290118942e+02   3.1653268327e+01    0.7735937     0.413231 -42.85   0.00172525    2.247    0.555
        27  -8.8458     30.9923    137.4913   1.1430114912e+02   4.3255101313e+01    0.1716239    0.1292628  32.96 0.0009485948    1.567    0.362
        28  -9.3608    108.9459    131.0398   9.1575553508e+01   3.3918228940e+01     0.591664    0.2326317  39.78  0.001681498    2.658    0.624
        29  -8.9084     97.7958    127.3422   9.3794247173e+01   3.6803191107e+01    0.3212091    0.2466634 -19.94  0.001525174    1.684    0.406
        30  -9.5912     33.0352    156.7590   1.1615566654e+02   3.8407351190e+01    0.2778299    0.1392315 -71.67  0.001386153    1.679    0.405
        31  -8.0130    198.5459    222.4766   8.9204805242e+01  -9.8100367305e-01    0.1275798     0.107346  15.99 8.855933e-05    1.008    0.008
        32  -8.1660    107.2358    119.7698   8.9382347583e+01   3.6902783291e+01    0.1998921    0.1736618 -18.69 0.0003608278    1.303    0.233
        33  -7.9787     32.6486    119.3144   1.1117616843e+02   4.7527582853e+01    0.1350766   0.09103563  72.49 0.0007046369    1.730    0.422
        34  -8.0772    168.0125    113.0262   7.2351864983e+01   2.5493698166e+01    0.2596631    0.1959275 -76.47   0.00113703    1.779    0.438
        35  -8.7236     32.6073    113.1434   1.1016743963e+02   4.9031026312e+01    0.2033605   0.09459605 -56.07 0.0009224815    1.744    0.427
        36  -7.9917    205.7855    110.3853   6.4103728644e+01   1.7470650682e+01    0.2056063    0.1394424  40.08 0.0005742551    1.640    0.390
        37 -10.3294     23.2730    155.3573   1.1838294734e+02   3.9681320501e+01    0.4343697    0.1691151 -62.51  0.002027131    2.108    0.526
        38  -9.2584    247.8244    103.6148   5.5765562630e+01   9.8471077473e+00    0.1798392    0.1334656  74.96 0.0009560247    1.748    0.428
        39 -12.2412     30.3419    247.4712   1.2405019614e+02   1.9419738499e+01    0.8088732    0.7141075 -49.89  0.005014966    1.825    0.452
        40  -8.8123     33.0000    100.9482   1.0782800581e+02   5.1930963163e+01    0.2266053   0.06375483 -63.44 0.0007350635    2.942    0.660
        41 -11.8241     38.6692    205.6591   1.1965359447e+02   2.6701650250e+01    0.5055215     0.461928  65.90  0.001239537    1.279    0.218
        42  -8.4170     41.2397     92.1459   1.0323569795e+02   5.3208850767e+01    0.1712235    0.1475311 -85.14 0.0006512879    1.286    0.222
        43  -8.0447    114.4969     83.4419   7.7272790398e+01   4.3544666715e+01    0.1514299    0.1451851 -19.32  0.000242386    1.010    0.010
        44  -9.0468     51.1306     63.8147   9.1967915491e+01   5.8368403414e+01    0.2664227    0.2294717  62.09  0.001272955    1.591    0.371
        45 -10.5474     13.3509     60.1763   1.0594428407e+02   6.2734543515e+01    0.2948717    0.1956914 -74.36 0.0008349313    1.697    0.411
        46 -13.4093     48.6031    194.9363   1.1663684519e+02   2.7859905998e+01     2.013905     1.328554  77.47   0.01182797    1.390    0.280
        47 -10.3252    189.5441     50.0909   5.0800551627e+01   3.1461097206e+01    0.6582443    0.2142016 -47.90  0.002088474    3.547    0.718
        48  -9.4778     43.5285    236.4664   1.2106421714e+02   1.9944633794e+01    0.1916378     0.160364 -56.83 0.0007775755    1.664    0.399
        49 -11.7136    195.4155     42.0814   4.7742634752e+01   3.1144277546e+01    0.6045563     0.531936  42.15  0.002229601    1.288    0.224
        50  -9.7530     41.4109    232.5319   1.2117164689e+02   2.0944690518e+01    0.2913857    0.1670538 -65.48  0.001500682    1.855    0.461
        51  -9.1217    139.8794     45.5109   5.8436606247e+01   4.4411785091e+01    0.3433897    0.2521399 -87.68  0.001199375    1.800    0.444
        52  -7.8200    113.4532    207.4871   1.0419068874e+02   1.5878377301e+01     0.133837    0.1171408  61.80 -2.599132e-05    1.038    0.037
        53  -7.7579    143.3035     40.6337   5.6092129275e+01   4.4264196738e+01    0.1510173    0.1083284 -64.76 0.0007035382    1.740    0.425
        54 -13.9303     63.5503    247.4768   1.1828740646e+02   1.5436798674e+01     6.555426      2.02428  30.15  0.005812948    7.332    0.864
        55  -8.0907    209.4162    199.1906   8.2998298480e+01   8.5246591327e-01    0.1726578    0.1231233 -45.09  0.000650499    1.625    0.385
