#   1 NUMBER                 Running object number                                     
#   2 MAG_AUTO               Kron-like elliptical aperture magnitude                    [mag]
#   3 X_IMAGE                Object position along x                                    [pixel]
#   4 Y_IMAGE                Object position along y                                    [pixel]
#   5 X_WORLD                Barycenter position along world x axis                     [deg]
#   6 Y_WORLD                Barycenter position along world y axis                     [deg]
#   7 A_WORLD                Profile RMS along major axis (world units)                 [deg]
#   8 B_WORLD                Profile RMS along minor axis (world units)                 [deg]
#   9 THETA_WORLD            Position angle (CCW/world-x)                               [deg]
#  10 FWHM_WORLD             FWHM assuming a gaussian core                              [deg]
#  11 ELONGATION             A_IMAGE/B_IMAGE                                           
#  12 ELLIPTICITY            1 - B_IMAGE/A_IMAGE                                       
         1  -9.7104     24.3480     16.6124   1.0326962472e+02   6.9108920931e+01    0.2562642    0.2361709  37.00 0.0005951258    1.471    0.320
         2  -9.2138     64.2063     14.2805   8.5403484464e+01   6.4432917314e+01    0.3500224    0.2176405  20.10 0.0008512043    1.864    0.463
         3  -9.6630     31.5475     11.0924   9.7518077214e+01   6.9349961074e+01    0.3745019    0.1816674 -30.17  0.001269157    1.991    0.498
         4  -8.6773     80.1021     12.7838   7.9157343797e+01   6.1873209313e+01    0.2846536    0.2293732 -42.48  0.001023222    1.453    0.312
         5  -7.8505     97.5022     11.9739   7.3524055196e+01   5.8504115299e+01    0.2046304    0.1698659  34.64 0.0003585286    1.167    0.143
         6 -11.4089    245.1658      5.3767   4.8248190841e+01   2.1774245681e+01    0.7679088    0.6695143  47.58  0.003479087    1.216    0.178
         7  -7.6205    106.1924     10.7810   7.0657678517e+01   5.6754599623e+01    0.1975237     0.146184  20.07 0.0004419396    1.314    0.239
         8 -10.2913     20.2801      8.7536   1.0184485183e+02   7.0868775725e+01    0.2069965     0.170091 -22.12 0.0003116573    1.128    0.114
         9  -7.5068     39.3290      8.3208   9.2649436169e+01   6.8896244083e+01    0.1260327   0.07983883 -12.49 0.0007048345    1.690    0.408
        10  -7.5904      2.2158      8.2048   1.1084860538e+02   7.2318222912e+01    0.1547917    0.1200247  82.20  0.001060112    2.082    0.520
        11  -8.0212     76.8627      7.1580   7.7500761195e+01   6.3203104497e+01    0.1919052    0.1382181  14.58 0.0008491013    1.362    0.266
        12  -8.3512     56.3388      4.9543   8.3779836539e+01   6.7006743423e+01    0.2968704    0.1627268   3.11  0.001312088    2.790    0.642
        13  -9.5515     49.0180      4.7065   8.6618594233e+01   6.8139325792e+01    0.2566127    0.1806562  -9.04 0.0004304736    1.323    0.244
        14  -8.2119    111.0701      4.5600   6.6677238031e+01   5.6307054381e+01    0.2037267    0.1727089   1.92  0.000327021    1.098    0.089
        15  -8.3366     68.6798      4.1035   7.8745815620e+01   6.5067189815e+01    0.3104011    0.1383117 -21.83  0.001269682    2.226    0.551
        16  -7.3259     13.3202      5.3175   1.0382345195e+02   7.2059501858e+01    0.1190478   0.06625765 -28.29 0.0007041722    1.661    0.398
        17  -8.1936    125.6197      3.7825   6.3145296617e+01   5.2906730656e+01    0.2195685    0.1589205  13.79 0.0005898898    1.382    0.276
        18  -7.7322    182.0664      2.2724   5.3589677409e+01   3.8280837291e+01    0.2052104    0.1702201  62.29 0.0005592552    1.142    0.124
        19  -7.6674    143.1699      2.1483   5.9195036742e+01   4.8619046893e+01    0.1801538     0.166788 -60.46 0.0003747936    1.241    0.194
        20  -7.5664      2.8190      1.2969   1.0767256993e+02   7.3525896556e+01    0.1334675   0.08665312  -6.47 0.0003520458    1.716    0.417
        21  -8.5778    195.3144    236.5161   1.0682275556e+02   4.7698610080e+00    0.2286118    0.1260711  20.38  0.001222858    2.303    0.566
        22  -7.8366    228.3292    250.3141   1.0358220820e+02  -1.3733972855e+00    0.1081234    0.0573861  24.41 0.0007044415    1.675    0.403
        23  -9.1640    211.5368    250.0046   1.0603279186e+02   1.0876189685e+00    0.3658285    0.1083943  45.49   0.00183096    2.576    0.612
        24 -10.3330    201.4870    248.6743   1.0738114095e+02   2.6826261434e+00    0.5213991    0.1918627  32.59  0.002591598    2.682    0.627
        25  -7.5743    123.9453    250.5264   1.1945536277e+02   1.3693756861e+01    0.1368347   0.07296734  29.81 0.0008091426    2.537    0.606
        26  -8.6433     27.2971    250.5619   1.3369098261e+02   2.5127074269e+01    0.1617251   0.05580963  45.05  0.001125168    2.008    0.502
        27 -10.1590    188.9490    235.1445   1.0764918374e+02   5.8855759212e+00    0.2536216      0.23727 -87.45  0.002119915    1.587    0.370
        28  -8.7715    184.3052    235.9346   1.0848026160e+02   6.5164802807e+00    0.1504273    0.1171966  34.92    0.0011658    1.091    0.083
        29  -9.3941    249.0459    239.7159   9.9118607647e+01  -3.5236377131e+00    0.2813126    0.1635955  -0.98  0.001880949    1.873    0.466
        30  -8.4382    247.9431    233.6071   9.8408636986e+01  -2.8946471671e+00    0.1754784    0.1160807  11.93  0.001197727    1.340    0.253
        31  -8.0280    161.7707    234.1431   1.1185792038e+02   1.0156806713e+01    0.2036495    0.1088841  30.21 0.0008227127    2.029    0.507
        32  -8.1078    195.0410    228.9486   1.0588565389e+02   5.5802079635e+00    0.1710376    0.1074192  22.76 0.0005524612    1.632    0.387
        33  -8.0856    250.2839    225.3288   9.6840630263e+01  -2.5808439310e+00    0.1663129    0.1056986  32.43 0.0002885836    1.147    0.128
        34  -8.9793    247.3027    225.3336   9.7285252625e+01  -2.1378442982e+00    0.2815504    0.1501453   2.47  0.001691902    2.236    0.553
        35  -8.5084    237.9590    226.7198   9.8895674193e+01  -8.4975201498e-01    0.2115521    0.1771611  47.26 0.0009324669    1.599    0.375
        36  -7.8052    230.4695    226.5115   1.0000537891e+02   3.0823678820e-01    0.1117325   0.07967444  29.24 0.0001874553    1.010    0.010
        37  -8.5351    232.9993    235.5727   1.0091165674e+02  -8.5333035156e-01    0.1530384    0.1184263  16.22 0.0004684432    1.196    0.164
        38  -7.7341     11.6919    226.3151   1.3497409115e+02   3.0041192894e+01   0.09613158   0.04284932  63.63 0.0003693659    1.629    0.386
        39  -7.8857    223.8090    224.9496   1.0080558206e+02   1.4762516581e+00     0.170774    0.1004016  12.22  0.001051757    1.930    0.482
        40  -7.3733     51.6584    221.6958   1.2860776500e+02   2.6731273957e+01   0.07843316   0.07573788  31.84 0.0007040451    1.681    0.405
        41  -7.7216    216.6572    220.0068   1.0120752756e+02   3.0679939704e+00     0.152847    0.1157301  23.97 0.0004842389    1.105    0.095
        42  -8.1584    182.3265    219.9857   1.0675156906e+02   8.5697134036e+00    0.2066074    0.1228374  28.73 0.0007116063    1.643    0.391
        43  -9.1640    155.3815    219.1744   1.1113312686e+02   1.2952196250e+01      0.19897    0.1419626  44.45 0.0002588934    1.072    0.067
        44  -9.2208     14.9853    218.2294   1.3415487880e+02   3.0962263887e+01    0.2683382     0.114635  67.03  0.001272872    1.851    0.460
        45  -8.1498    241.3034    218.5812   9.7165601554e+01  -6.5867523581e-01     0.252052    0.1123606  46.31 0.0009356374    2.029    0.507
        46  -8.1497      2.0230    219.3420   1.3614863645e+02   3.1933279692e+01    0.1236797   0.08111054  61.38 0.0005020897    1.112    0.101
        47  -8.3374    227.9941    217.8378   9.9104612902e+01   1.4816472067e+00    0.1749886    0.1373807  14.15 0.0005634867    1.179    0.152
        48  -7.3196    173.6988    218.6924   1.0800788326e+02   1.0103913306e+01    0.1102939   0.07482674  23.42 0.0007011337    1.599    0.375
        49  -8.0615    203.2974    216.8589   1.0288930981e+02   5.5296688075e+00     0.224662    0.1110994  28.17  0.001111978    2.073    0.518
        50  -8.2248    193.5312    215.4783   1.0428628628e+02   7.2647641998e+00    0.2122284   0.08079071  36.71  0.001020042    2.267    0.559
        51  -7.1582    179.3358    215.3111   1.0661611364e+02   9.5942392128e+00     0.115836   0.07500955  23.39 0.0007044607    1.683    0.406
        52  -8.7674    248.0225    212.3559   9.5170657267e+01  -1.1534049388e+00    0.2719538    0.1337714  23.05  0.001540781    1.923    0.480
        53  -7.6129    122.0199    213.4942   1.1615756958e+02   1.8821835992e+01    0.1694039   0.08767655  43.59 0.0007211749    1.544    0.352
        54  -8.3126    232.9936    211.3554   9.7326659711e+01   1.2965146250e+00    0.1974029    0.1213925  20.63 0.0008020101    1.452    0.311
        55  -7.7304    186.4672    210.4419   1.0474248860e+02   8.9977862812e+00    0.1179308   0.08947054  35.44  0.000119264    1.037    0.035
        56  -9.1011     27.0117    209.2878   1.3184592065e+02   3.1225014928e+01     0.167921    0.1518001  62.74 0.0007905211    1.460    0.315
        57 -10.0968    124.0057    205.9934   1.1496875265e+02   1.9611578671e+01     0.160675    0.1266459  52.77  0.001160624    1.008    0.008
        58  -7.9018    247.1777    204.8262   9.4080379153e+01  -3.5538246650e-01     0.169698    0.1032213  22.25  0.001079356    1.360    0.265
        59  -7.8902    215.8409    205.4748   9.9137593120e+01   4.6718984119e+00     0.174722   0.09091632  40.65 0.0004847533    1.497    0.332
        60  -7.6753    117.3312    205.3120   1.1607116286e+02   2.0713355640e+01    0.1030813   0.08353421  19.63 0.0005718755    1.674    0.403
        61  -7.9013    195.4665    200.5047   1.0174542249e+02   8.6543047485e+00    0.1220543   0.09306982  30.74 0.0001743462    1.078    0.073
        62  -7.6822    250.4955    198.4790   9.2510867261e+01  -3.0687166563e-01    0.1191089     0.085768  21.92 -2.129262e-05    1.035    0.034
        63  -7.9983    166.1646    197.3442   1.0635241417e+02   1.4044272676e+01    0.1894197    0.1240702  33.49 0.0006548514    1.400    0.286
        64  -8.2394    192.8852    194.8093   1.0129407785e+02   9.7803094505e+00    0.2778443    0.1391268 -25.65   0.00139872    2.750    0.636
        65  -7.4244    246.3116    190.2896   9.1743731489e+01   1.1414574607e+00    0.1231398    0.0713371  20.38 0.0003435754    1.584    0.369
        66  -7.2705    186.2991    189.3322   1.0156433261e+02   1.1616561201e+01    0.1234124    0.0841541  18.47 0.0005968575    1.647    0.393
        67  -7.6613    149.3130    185.3429   1.0765022625e+02   1.8611617252e+01    0.1188781    0.0901712  14.91  0.000704681    1.705    0.413
        68  -7.0271    130.3217    182.6949   1.1084408972e+02   2.2189320071e+01    0.1214428   0.08391422  68.66 0.0006308301    1.637    0.389
        69  -7.6303    148.3501    175.3083   1.0629913365e+02   2.0309273017e+01    0.1244217   0.09232699  17.80 0.0004535007    1.711    0.416
        70  -7.4204    184.3151    171.6745   9.8931779510e+01   1.4331772531e+01    0.1207024   0.09914272  75.63 0.0007043256    1.668    0.401
        71  -7.1621    105.6758    168.6727   1.1373182652e+02   2.8452795518e+01    0.1109826   0.09545367  -1.15 0.0007049291    1.694    0.410
        72  -7.7262    177.3260    167.3221   9.9448083343e+01   1.6251869274e+01    0.1327284   0.09262688  17.84 0.0007047836    1.686    0.407
        73  -7.4258    168.6477    163.6878   1.0043826416e+02   1.8417090903e+01    0.1344461   0.09435768  18.45 0.0004131584    1.726    0.421
        74  -7.4457    246.6521    162.3264   8.6479341554e+01   3.9336111312e+00    0.1095837    0.1025107 -76.78 0.0001312557    1.752    0.429
        75  -7.2748    138.4903    158.4571   1.0548396827e+02   2.4792421759e+01    0.1284334    0.1140403  49.30 3.094049e-05    1.007    0.007
        76  -7.5468    101.4721    156.5606   1.1288187091e+02   3.1283914936e+01    0.1209832    0.1075284  65.53 0.0001021722    1.021    0.021
        77  -8.5802    248.8347    154.3179   8.4529912223e+01   4.4045205608e+00    0.2565051    0.1515275  55.20  0.001315506    2.109    0.526
        78 -10.2007    216.5201    152.3223   8.9451921625e+01   1.0753616378e+01    0.2605672    0.2038003  39.68 0.0002391641    1.180    0.152
        79  -7.7839    133.4819    147.5280   1.0460256774e+02   2.7586458196e+01     0.129844    0.1192084  45.61 0.0001002904    1.048    0.046
        80  -9.1702     67.1321    144.3292   1.1863436189e+02   3.8432663506e+01    0.3840287    0.2233113  64.43  0.002151425    1.841    0.457
        81  -7.1904     34.3550    145.7238   1.2596688831e+02   4.1801649663e+01    0.1143254   0.06594019  66.37 0.0007006967    1.649    0.394
        82  -7.2586      5.6849    124.3367   1.3041547612e+02   4.8438198029e+01    0.1113662   0.06126332  70.50 0.0004675392    1.695    0.410
        83  -7.6172     12.3374    121.3125   1.2861679122e+02   4.8565540952e+01    0.1035607   0.06989136 -51.26 0.0007045895    1.690    0.408
        84  -7.5912     37.5492    115.4613   1.2183360252e+02   4.7617782535e+01    0.1163427   0.09338587  89.22 0.0002098508    1.087    0.080
        85  -7.7081     52.2016    113.4433   1.1782750136e+02   4.6512056781e+01    0.1573115    0.1029997  52.30 0.0006944101    1.595    0.373
        86  -7.6786      1.3336    111.2907   1.3034818169e+02   5.1354725556e+01    0.1009196   0.06660855 -53.23 0.0003496241    1.632    0.387
        87  -7.7920      4.6315    107.6912   1.2921139680e+02   5.1877779698e+01    0.1060397    0.0666169 -49.85 8.476419e-05    1.760    0.432
        88  -7.6785    133.8563    106.3944   9.5850104337e+01   3.5085645635e+01    0.2002375    0.1293133  35.38 0.0005079454    1.660    0.398
        89  -8.8549     14.8426    105.2775   1.2637088533e+02   5.1670958560e+01    0.3645664    0.1687221 -33.30  0.001622266    4.481    0.777
        90  -6.9290    130.0270     97.0000   9.4408683509e+01   3.7623563585e+01    0.2305132    0.0801421  46.56 0.0007909865    2.864    0.651
        91  -8.8431     12.1433     96.3416   1.2604766730e+02   5.3727064971e+01     0.230076   0.09272009  53.32  0.001156315    2.972    0.664
        92  -8.5130     44.6577     91.7558   1.1625446793e+02   5.1916450953e+01    0.2415857    0.1673045   0.33  0.001192365    2.258    0.557
        93  -9.3686     35.3245     82.3438   1.1728080141e+02   5.4837246501e+01    0.4486238    0.2053813 -39.67  0.002104222    2.798    0.643
        94  -7.6597    126.5121     84.0131   9.1770584182e+01   4.0778681906e+01    0.2065668    0.1263086 -16.68 0.0005670599    2.544    0.607
        95  -9.3318    232.1513     78.8943   6.9474046496e+01   1.6946749838e+01    0.2672565    0.2206382  38.80 0.0004275602    1.192    0.161
        96  -7.8633     88.7615     79.0098   1.0054186809e+02   4.8751732752e+01     0.215663    0.1460518 -23.82 0.0006762109    1.920    0.479
        97  -9.3537      7.8405     77.5007   1.2483078530e+02   5.7965954211e+01    0.3446193    0.1563189 -45.07  0.001905917    2.311    0.567
        98  -7.8414    184.4697     78.0393   7.7255367543e+01   2.8501584384e+01    0.2248175    0.1463811 -29.38 0.0006294324    1.536    0.349
        99  -8.5008     48.5107     76.5979   1.1206403986e+02   5.4731203127e+01    0.2546683    0.1755474 -47.47  0.001529954    1.330    0.248
       100  -9.6514     24.7757     72.7102   1.1876997787e+02   5.7793526788e+01    0.6120402    0.2446641 -39.19  0.002695113    3.351    0.702
       101  -7.9053     23.4544     69.5114   1.1859307232e+02   5.8575542409e+01     0.189403    0.1332093 -51.83 0.0006694031    1.247    0.198
       102  -8.0282     75.0076     74.4941   1.0338706600e+02   5.1795440699e+01    0.1830401    0.1316295  35.33 0.0007012581    1.549    0.355
       103  -7.8837     80.5566     68.1979   9.9952713350e+01   5.2234856343e+01    0.1840462    0.1166584 -38.93 0.0004771356    1.521    0.343
       104  -8.1120     43.0688     68.0176   1.1184856986e+02   5.7120302276e+01    0.2030806    0.1262081 -36.32  0.001131933    1.754    0.430
       105  -7.9822     61.6271     66.7877   1.0549603207e+02   5.5221067688e+01    0.1795663    0.1106316 -61.73 0.0003095033    1.627    0.385
       106  -7.9217     84.2767     63.6927   9.7475379563e+01   5.2533243894e+01    0.2522031    0.1613395  14.84  0.001149238    2.371    0.578
       107  -9.3021     17.7009     62.0805   1.1906987467e+02   6.0571421024e+01    0.3297133    0.1830378 -50.08  0.001276834    1.528    0.346
       108  -9.3216     65.3045     61.3657   1.0278288622e+02   5.5837740837e+01    0.3372359    0.2363417 -10.45 0.0005830255    1.975    0.494
       109  -9.0944     34.2809     60.4047   1.1300269445e+02   5.9575465314e+01    0.3161936    0.2218144  22.03  0.001624853    1.763    0.433
       110 -10.2369     39.1045     57.1284   1.1050564965e+02   5.9794173437e+01    0.2229646    0.1886493 -52.23 0.0002986823    1.024    0.023
       111  -8.2369     51.6869     59.9062   1.0690616286e+02   5.7859824817e+01    0.2790241    0.1916958 -85.13  0.001477967    2.117    0.528
       112  -9.6370      2.3231     55.5328   1.2317833928e+02   6.2885217974e+01    0.6036971    0.1875403 -49.92  0.002986195    2.550    0.608
       113  -9.0921      8.5084     48.5634   1.1958991917e+02   6.3989677306e+01     0.207821    0.1474582 -42.22 0.0007248967    1.331    0.249
       114  -9.1683     11.5362     46.5423   1.1800471091e+02   6.4221872918e+01    0.2361243    0.1876292 -81.64 0.0007851348    1.309    0.236
       115  -7.8682    118.2978     51.7178   8.3732443970e+01   4.8269039902e+01    0.1997087    0.1621641   7.82   0.00103229    1.331    0.249
       116  -8.9143     75.0491     50.3521   9.6107796116e+01   5.6572486792e+01    0.2889622    0.1962874 -16.07 0.0005117695    1.842    0.457
       117  -9.9572     45.3133     49.0145   1.0601261000e+02   6.0796139871e+01    0.2332142    0.1920014 -32.99 0.0004542542    1.150    0.131
       118  -7.7173    106.5587     48.4556   8.5784578384e+01   5.1263899644e+01       0.1433    0.1298596  -7.60 6.320536e-05    1.046    0.044
       119  -9.4181     24.3256     47.3395   1.1334414271e+02   6.3140509447e+01    0.3707701    0.2045814  -0.92   0.00173008    2.898    0.655
       120  -9.1474     30.9658     44.3398   1.0999439132e+02   6.3182615367e+01    0.2994382    0.1827484 -11.93  0.001523683    2.345    0.574
       121  -8.5114    206.0109     41.0965   6.2666682726e+01   2.8011330642e+01    0.2215504    0.2144297  13.19 0.0005142558    1.011    0.011
       122  -9.3427     83.4172     39.9391   8.9629471476e+01   5.7082301626e+01    0.2880414    0.2168605  15.41 2.535508e-05    1.495    0.331
       123  -9.2862      2.2846     45.7764   1.2135582670e+02   6.4909379707e+01    0.2521183    0.1946927 -81.70  0.001282417    1.274    0.215
       124  -9.3967     17.2454     38.9673   1.1388119493e+02   6.5383451502e+01    0.4222509    0.1231946 -39.24  0.001598265    4.183    0.761
       125  -8.4809      3.7383     39.8787   1.1952773194e+02   6.6042932308e+01    0.2699617   0.08102371 -67.98    0.0011927    2.839    0.648
       126  -8.3544    105.9935     36.9827   8.1665262452e+01   5.3250113377e+01    0.4101839    0.2346747  20.19  0.001638835    2.596    0.615
       127  -8.1885     92.1538     36.8105   8.5669107330e+01   5.6023859785e+01     0.255306     0.168816  37.88 0.0008454823    1.580    0.367
       128  -9.2272     96.0997     33.3066   8.3085471583e+01   5.5824545442e+01    0.2440996    0.2126308 -14.10 0.0002830351    1.043    0.041
       129  -9.0780     54.6428     36.6727   9.8441294471e+01   6.2061606040e+01    0.2580796    0.2083644 -12.18 0.0008101483    1.274    0.215
       130  -8.5999     38.1653     35.3316   1.0433839311e+02   6.4257616760e+01     0.278776    0.1765895 -11.00 0.0009422151    2.115    0.527
       131  -9.2823      7.2103     33.9375   1.1666200957e+02   6.7052500526e+01    0.3118922    0.1646918   8.07   0.00185372    2.567    0.610
       132  -8.5585    214.6739     33.1100   5.9117664910e+01   2.6683029070e+01    0.3175312    0.2122095  66.39  0.001269801    1.532    0.347
       133  -8.0025     82.0376     32.4522   8.7144558816e+01   5.8586600960e+01    0.1791034     0.108977  17.57 0.0003461429    2.254    0.556
       134  -8.3648    226.1380     29.8134   5.6770861365e+01   2.4125553925e+01     0.307379    0.1996899 -15.46  0.001188188    1.558    0.358
       135  -8.8241    127.9667     30.1288   7.3317148366e+01   4.9343984495e+01    0.2322861    0.1997786 -13.95 0.0002675559    1.125    0.111
       136  -8.8794      1.3990     29.7169   1.1804111459e+02   6.8217720327e+01    0.2593583   0.07647011 -61.93  0.001236152    2.394    0.582
       137  -9.6081     71.5384     26.0613   8.8051501945e+01   6.1417023943e+01    0.3531404    0.2246573  34.63   0.00168014    1.687    0.407
       138  -8.2971     57.4719     25.3587   9.2915337386e+01   6.3691124724e+01    0.2177061    0.1843738   4.90  0.001104186    1.199    0.166
       139  -8.6451     48.1687     25.8125   9.6750841546e+01   6.4862350433e+01    0.3112813    0.1670782  20.45  0.001535467    2.507    0.601
       140  -8.9132     84.3726     21.5062   8.1757777433e+01   5.9858376876e+01    0.2944828    0.2464708  33.98 0.0007804481    1.238    0.192
       141  -8.0738     92.2949     21.1360   7.9132740863e+01   5.8381509728e+01    0.2220262    0.1563582  -6.01 0.0006311412    1.466    0.318
       142  -9.5893      8.8170     20.0546   1.1183163343e+02   6.9683187485e+01    0.2064164    0.1627101 -14.80 0.0003427774    1.379    0.275
       143  -8.2592     12.3464     18.3342   1.0956967156e+02   6.9770114458e+01    0.1725359    0.1324873 -29.43 0.0007052008    1.201    0.167
       144  -8.9171    151.4121    249.4892   1.1513797836e+02   9.9518426711e+00    0.2289736   0.07418509  43.48  0.001217884    2.191    0.544
       145  -7.8287    127.9490     16.7026   6.7999882485e+01   5.1008563725e+01    0.2048055    0.1729403  46.55 0.0004118762    1.151    0.131
       146  -9.1718     21.5075    248.5019   1.3441446889e+02   2.5966014334e+01    0.1878505   0.09604163  62.71 0.0008266387    1.338    0.252
       147  -7.8898    189.4804     15.4739   5.6968334173e+01   3.5114558590e+01    0.1462094    0.1381506  38.68 0.0002519298    1.021    0.021
       148  -7.7715    171.5907     15.1546   5.9400995161e+01   3.9927539924e+01    0.2073405    0.1367835   4.06  0.000534863    1.713    0.416
       149  -8.2329     50.8488     14.8521   9.0873496304e+01   6.6349321877e+01    0.2225971    0.1528158  27.72 0.0007628446    1.584    0.369
       150  -9.3181     17.6541    247.7022   1.3491807801e+02   2.6439100791e+01    0.1346642    0.1117853  56.36 0.0009622892    1.486    0.327
       151  -7.9940    146.7125     14.0800   6.3178883556e+01   4.6583143180e+01    0.2007339    0.1794719   8.99 0.0003481722    1.085    0.078
       152  -8.5675    134.0883     13.7259   6.5496159417e+01   4.9823400365e+01    0.2619919    0.1370735  35.09  0.001076403    2.012    0.503
       153  -9.3968     34.3623    247.7464   1.3258135583e+02   2.4808564520e+01    0.2414402   0.07491424  46.30  0.001592046    2.129    0.530
       154  -8.2766     74.6718     13.7360   8.1418705615e+01   6.2734858155e+01    0.2687603    0.1604666  33.06  0.001080536    1.746    0.427
       155  -8.3730     89.5049     12.8707   7.6254363510e+01   6.0040789977e+01     0.320077    0.1265689  37.54  0.001229994    2.821    0.645
       156  -8.9737    218.9807    246.0177   1.0441598810e+02   3.3841804694e-01    0.2210704     0.153916 -20.11  0.001720562    1.815    0.449
       157  -8.8614    175.8939    245.5045   1.1092734901e+02   6.7909862659e+00    0.3078656    0.1373045 -29.18  0.001638446    4.184    0.761
       158 -10.7104    242.9978    242.4210   1.0037856510e+02  -2.8634387081e+00     0.260975    0.2138262 -14.26 0.0004009301    1.590    0.371
       159  -9.1710    241.9702    237.0067   9.9775714363e+01  -2.2918442572e+00    0.2624673    0.1593631  24.71   0.00171491    1.262    0.207
       160  -8.8830    235.0131    246.2485   1.0206783548e+02  -2.0131275208e+00    0.1524238    0.1125242  30.62 0.0005571411    1.142    0.124
       161  -9.1463    210.7660    245.4932   1.0558470540e+02   1.5962380357e+00    0.1624779    0.1361756   5.22  0.001372252    1.368    0.269
       162 -10.6043    192.8190    244.5656   1.0820582893e+02   4.3573889569e+00    0.3282282    0.1709295  41.11   0.00195154    1.359    0.264
       163  -9.0653    157.6481    244.8183   1.1368882127e+02   9.5638643142e+00    0.1844829    0.1073325  39.07 0.0007817553    1.325    0.245
       164  -8.9517    225.0362    243.0720   1.0312529624e+02  -3.0322262703e-01    0.1633289    0.1247415  21.40 0.0005227517    1.168    0.144
       165  -9.4790      4.0075    241.5367   1.3659328009e+02   2.8527536425e+01    0.1785372    0.1140909  66.60 0.0007426899    1.019    0.018
       166  -7.9880     63.3701    241.8664   1.2803478415e+02   2.2491593078e+01    0.1707873   0.08741187  53.80 0.0008201505    1.388    0.280
       167  -8.6358    201.8212    240.5373   1.0632263193e+02   3.3894635159e+00    0.1927688     0.127107   1.88   0.00133031    1.984    0.496
       168  -8.7843    170.5941    239.9317   1.1111908357e+02   8.1747053763e+00    0.1789672    0.1293835  -1.82  0.001267683    2.062    0.515
       169  -8.9410     38.1397    240.9046   1.3172377075e+02   2.5372224726e+01    0.1477894   0.08287862  64.17 0.0007197526    1.291    0.226
       170  -8.6701     26.1704    241.3039   1.3347217432e+02   2.6514891539e+01    0.1638959   0.07196304  34.54  0.001094582    2.647    0.622
