#   1 NUMBER                 Running object number                                     
#   2 MAG_AUTO               Kron-like elliptical aperture magnitude                    [mag]
#   3 X_IMAGE                Object position along x                                    [pixel]
#   4 Y_IMAGE                Object position along y                                    [pixel]
#   5 X_WORLD                Barycenter position along world x axis                     [deg]
#   6 Y_WORLD                Barycenter position along world y axis                     [deg]
#   7 A_WORLD                Profile RMS along major axis (world units)                 [deg]
#   8 B_WORLD                Profile RMS along minor axis (world units)                 [deg]
#   9 THETA_WORLD            Position angle (CCW/world-x)                               [deg]
#  10 FWHM_WORLD             FWHM assuming a gaussian core                              [deg]
#  11 ELONGATION             A_IMAGE/B_IMAGE                                           
#  12 ELLIPTICITY            1 - B_IMAGE/A_IMAGE                                       
         1 -12.3602     60.4010     45.2405   1.0114732521e+02   6.0976404965e+01     1.003671    0.4845855 -44.79  0.004508939    1.874    0.466
         2 -12.0915    124.6328     27.6095   7.2140009863e+01   5.0925775311e+01    0.9738005    0.7352577  20.38  0.003470784    1.367    0.269
         3 -12.8710    120.4653     38.9730   7.7704733653e+01   5.0360486404e+01    0.8695562    0.5902107 -58.38  0.002390702    2.111    0.526
         4 -12.2327    106.0056     20.1516   7.3958208704e+01   5.6349775619e+01    0.3312107     0.266235  -7.66 0.0003845282    1.229    0.186
         5 -11.8754     27.5971     27.9465   1.1004573696e+02   6.8239789368e+01    0.5758138    0.5248988  66.95  0.003874746    1.581    0.368
         6 -12.7489     15.8282     13.3857   1.1076239578e+02   7.2040410621e+01     1.094283    0.5357366 -34.10  0.004033487    1.732    0.423
         7 -11.9863     22.4956     10.9380   1.0558683624e+02   7.1941085194e+01    0.5305964    0.3701731 -15.60  0.002147092    1.283    0.221
         8 -11.5246     19.7880     23.1286   1.1243325333e+02   6.9844382133e+01    0.5825661    0.2776148 -52.10  0.002251329    1.715    0.417
         9 -11.6393    250.2050     23.8340   5.2423762086e+01   1.9947684217e+01    0.5986141    0.1622322 -25.98    0.0021977    3.301    0.697
        10 -11.4141    178.3120     21.4968   5.9699485925e+01   3.7668577562e+01    0.5949212     0.361219  22.98  0.002026575    2.119    0.528
        11 -10.8960    145.4313     16.4145   6.3321267886e+01   4.6889337737e+01     0.569086    0.3212929  55.91 3.830916e-05    1.589    0.371
        12  -9.7752     87.4354      7.4594   7.3618957802e+01   6.2026139009e+01    0.6553141    0.3422876  48.84  0.003054819    1.753    0.430
        13 -11.4776     91.2450     19.6264   7.8240325680e+01   5.9726104383e+01    0.6147774    0.4601296 -20.82  0.001334304    1.308    0.235
        14 -11.2949     86.0389     13.8675   7.7239962689e+01   6.1575050686e+01     0.461909    0.3188632 -11.91   0.00162589    1.433    0.302
        15 -10.9090     47.1371     18.5437   9.5807332087e+01   6.7773460664e+01    0.4037622    0.2866859 -12.67  0.001577631    1.316    0.240
        16  -9.8494     38.6810     21.5040   1.0150956467e+02   6.8333197282e+01    0.4201492    0.1688619 -40.64  0.001894003    2.130    0.530
        17 -11.5954     36.0881     17.6380   1.0107614992e+02   6.9331237063e+01    0.6299241     0.249827 -34.67  0.002150807    2.387    0.581
        18 -12.0337     48.8823     12.9478   9.2105798645e+01   6.8435269259e+01    0.6284824    0.3977788  37.33  0.002886825    1.709    0.415
        19 -10.6934     42.5030     14.3258   9.6048514882e+01   6.9105853321e+01     0.317169    0.2082308  31.72  0.001251152    1.626    0.385
        20 -11.9796     68.1687     17.7537   8.5862149269e+01   6.4550352065e+01    0.7720371    0.4378579  51.16  0.003638755    2.179    0.541
        21 -12.3883    245.4476      6.1578   4.8573071749e+01   2.2739528183e+01     1.021674    0.5396247 -83.36  0.005068716    2.161    0.537
        22 -11.1846    165.2852     17.2549   6.0249550519e+01   4.1552393341e+01    0.4409471    0.2659851  35.10  0.001244477    1.817    0.450
        23  -9.5190    141.3876     12.7425   6.2693509570e+01   4.8321381406e+01    0.2745709    0.1448419 -13.35  0.001145154    2.145    0.534
        24 -12.1288    133.6464     15.1860   6.5157705759e+01   5.0086783794e+01     1.409333    0.3797374  63.25  0.004281397    3.596    0.722
        25 -11.2228    126.5373     11.4969   6.5173215181e+01   5.2285793043e+01    0.7220451    0.4029894  82.76  0.002829218    2.660    0.624
        26 -12.8987    237.4662     15.2068   5.1388323241e+01   2.3651234388e+01    0.5142879    0.4763178 -19.62  0.002172321    1.147    0.129
        27 -11.6200    244.1585     14.3217   5.0627292869e+01   2.2238084688e+01    0.3508524    0.2099275 -28.54  0.001451078    1.548    0.354
        28 -12.1919    104.9603     12.8397   7.0989161486e+01   5.7453739210e+01    0.5172555    0.4076812 -19.59   0.00177903    1.298    0.229
        29 -11.3600    191.8307      8.2999   5.3899803735e+01   3.5446805449e+01    0.6508304    0.3872784  23.51  0.002470636    2.219    0.549
        30  -9.6748    193.9772      1.4324   5.1643563798e+01   3.5500695286e+01    0.2018704    0.1259219  75.51 0.0004177481    1.522    0.343
        31  -9.7961     31.9025     12.1191   1.0067399402e+02   7.0774884307e+01    0.1703936    0.1517124 -21.58 0.0004398035    1.242    0.195
        32 -11.2134      3.2200      1.7607   1.1376332904e+02   7.5041828947e+01    0.4020317    0.1775448   3.57    0.0021166    2.630    0.620
        33 -10.2781      5.0419     10.0593   1.1613348214e+02   7.3365803875e+01    0.3931861    0.1685735 -41.63  0.002136551    1.731    0.422
        34  -9.4116      5.2149      5.0758   1.1390319260e+02   7.4310187858e+01    0.2249426    0.1106311 -46.57  0.001298084    1.510    0.338
        35 -10.7386    169.3282      9.8159   5.7161719776e+01   4.1204152602e+01    0.3974744     0.223941  44.57  0.001783685    1.770    0.435
        36 -10.6838     65.9566     10.1143   8.2852437422e+01   6.6022144078e+01    0.3481889    0.2445397  41.83  0.001586714    1.461    0.316
        37 -10.4163     63.1022      6.2590   8.1962001124e+01   6.7043302982e+01    0.3127953    0.2324485  10.56  0.001257517    1.211    0.174
        38  -9.7209    157.3694      9.0709   5.8645991249e+01   4.4447333391e+01    0.3342432   0.09616437 -31.28  0.001129119    3.227    0.690
        39 -11.6987    211.8841      9.7021   5.2238310566e+01   3.0252717088e+01    0.4852723    0.3232263   3.59  0.001089781    1.912    0.477
        40  -9.6324    151.8041      7.8230   5.9071427453e+01   4.6037460340e+01    0.4198913   0.08581582  52.91  0.001156056    3.562    0.719
        41 -10.0085      1.3028      7.2380   1.1744993394e+02   7.4098956240e+01    0.1846281   0.07996405 -55.27 0.0002671097    1.776    0.437
        42 -10.8751     77.4247      5.0623   7.5763588417e+01   6.4411749067e+01    0.5534995    0.2564677 -24.24  0.002479651    2.124    0.529
        43  -9.5578     82.1594      1.3002   7.2173361408e+01   6.3814537664e+01    0.2489078    0.1213883  56.49  0.000438565    2.091    0.522
        44  -9.3466    199.0268      5.9567   5.2450215555e+01   3.3817178388e+01    0.1660521    0.1432296  79.37 0.0003812089    1.104    0.094
        45 -10.7320    176.4988      5.4685   5.4812758074e+01   3.9699877905e+01    0.4375122    0.2587355 -89.57 0.0008856858    1.915    0.478
        46  -9.8825    162.9991      5.8515   5.6706923696e+01   4.3239571907e+01    0.2459416    0.2038261  22.99 0.0006895008    1.282    0.220
        47  -9.0190     50.6532      6.7597   8.7879334678e+01   6.9087162283e+01    0.1306217   0.08512948   9.40 0.0004092499    1.567    0.362
        48 -10.6594     42.0146      3.8579   9.0597635850e+01   7.0801012382e+01    0.4133202    0.2251981 -12.22  0.002004744    2.135    0.532
        49 -11.1625    205.4253      2.5987   5.0881375899e+01   3.2502106755e+01    0.4277014      0.30338 -85.56  0.001016635    1.419    0.295
        50 -10.3404     71.1274      3.9937   7.7503300777e+01   6.5799533619e+01    0.4227999    0.2239108  21.91  0.001894504    2.172    0.540
        51 -11.5533    218.7993      3.0260   4.9829651231e+01   2.9179569782e+01    0.6268859    0.3134138  82.16  0.001009261    2.074    0.518
        52 -11.5046    223.9540      1.7733   4.9088360737e+01   2.8058710545e+01    0.6228572    0.2489194 -88.48  0.002362693    3.292    0.696
        53 -10.5676    142.0778      3.3278   5.8996072575e+01   4.8998583635e+01    0.3699927    0.2957976  84.74  0.001979925    1.338    0.253
        54 -12.0213    133.6682      2.6846   6.0209934898e+01   5.1254223200e+01     0.427046     0.262065  54.84  0.000764034    1.423    0.297
        55  -9.5593    123.0170      1.2799   6.1666054064e+01   5.4115872512e+01    0.4224799    0.1158678  64.06  0.001375852    3.238    0.691
        56 -11.0612    105.0802      1.7703   6.5882079512e+01   5.8529002104e+01    0.5179738    0.2785132  73.64 0.0008110972    2.411    0.585
        57 -11.3365    111.6062      1.7691   6.4325692152e+01   5.6938104354e+01    0.9651063     0.269975  66.30  0.002903738    4.141    0.759
        58  -9.8626     54.8259      3.8191   8.4238299413e+01   6.8805778223e+01    0.2274701    0.1864841 -68.53  0.001256228    2.336    0.572
        59  -9.5711    157.7667      2.6273   5.6329246532e+01   4.4903119531e+01    0.1951077    0.1758648  38.68  0.001118524    1.095    0.087
        60  -9.8194     13.1763      2.0706   1.0704770291e+02   7.4316326003e+01    0.2137021    0.1291571 -15.76  0.000814856    1.557    0.358
        61 -10.9179     55.7202    123.2995   1.2195272342e+02   4.3856309794e+01    0.4815322    0.3237635  16.90  0.001795021    1.846    0.458
        62 -11.4546    104.6242    121.5508   1.0751461475e+02   3.7244210806e+01    0.4478424    0.4035556 -48.27  0.001475507    1.117    0.105
        63 -10.5135     46.1510    120.8961   1.2438843855e+02   4.5446042629e+01    0.4191452    0.2186067  59.26  0.001944978    2.340    0.573
        64  -8.8600     40.6483    122.2399   1.2617228452e+02   4.5676001896e+01    0.1261919    0.0845401  60.57 0.0003946496    1.576    0.366
        65 -10.3853    221.0151    120.0567   8.0258768057e+01   1.3664827877e+01     0.250946    0.1378722 -49.35  0.001021635    2.586    0.613
        66 -10.6586     33.9767    119.2140   1.2771844388e+02   4.6988740784e+01     0.208777    0.1717236 -26.30  0.001114525    1.494    0.331
        67  -9.1982     72.9352    119.7284   1.1630141002e+02   4.2548370512e+01    0.1635534    0.1201107  30.74 0.0004897561    1.450    0.310
        68  -9.3678    113.5421    115.9914   1.0376642868e+02   3.6873772680e+01    0.2126703    0.1439467 -47.53 0.0003657252    1.490    0.329
        69 -11.9689     35.7353     93.1582   1.2334678498e+02   5.2956057528e+01     1.698133     1.048648  73.29  0.007772346    2.085    0.520
        70 -11.0780     37.5652     85.9441   1.2140839673e+02   5.4494903493e+01    0.3323147     0.301819  38.34  0.001574797    1.253    0.202
        71 -11.3699     43.6930     85.4288   1.1912472837e+02   5.4039996310e+01    0.4587381    0.2915644   8.86  0.001915593    2.007    0.502
        72 -12.3676     20.3701    104.2323   1.2995860035e+02   5.1543220304e+01    0.8316773    0.2874429 -45.07  0.000764472    3.290    0.696
        73 -12.2587      7.7571     89.2380   1.3221788334e+02   5.5784005050e+01    0.4424288     0.396092 -80.62   0.00322313    1.112    0.101
        74 -11.9712     28.4686    113.0369   1.2857332772e+02   4.8887283310e+01    0.7688827    0.3584311  12.38  0.003558475    3.043    0.671
        75 -11.4581     21.5173    114.2044   1.3076954464e+02   4.9145351622e+01    0.3871624    0.2431519   0.52  0.002014256    2.245    0.555
        76 -12.7106     25.4656    107.5528   1.2879632981e+02   5.0400529626e+01    0.9951252    0.4999799 -32.89   0.00443759    2.795    0.642
        77 -11.9533     20.3471     95.5649   1.2885697769e+02   5.3570664431e+01     0.588092    0.3849948  -7.35  0.003067718    2.043    0.511
        78 -12.7655     18.0842     90.4178   1.2890761595e+02   5.4922738308e+01    0.5345936    0.3117792 -45.36 0.0005853475    1.678    0.404
        79 -10.0375      7.0306    114.3118   1.3495933828e+02   5.0057966357e+01    0.2225389    0.1835815  47.45  0.001156217    1.331    0.249
        80 -11.4723      2.4655    112.1338   1.3607135140e+02   5.0801773259e+01     0.339175    0.2088411 -77.25 0.0009311058    1.300    0.231
        81 -12.0816      3.9882    105.2862   1.3504857352e+02   5.2280135392e+01    0.4030222    0.3285328  87.16  0.001445733    1.094    0.086
        82 -10.3861     67.1813    112.1772   1.1662687052e+02   4.5066640609e+01    0.4475092    0.2361535 -65.63  0.002033279    1.895    0.472
        83 -10.0994    107.8111    112.4991   1.0456639298e+02   3.8683941785e+01    0.2822635    0.1969169  85.61  0.001189381    2.341    0.573
        84 -10.5407    170.4891    110.2937   8.7893949742e+01   2.6172618387e+01    0.4134919    0.3168672 -33.38   0.00202339    1.317    0.241
        85  -9.7665     48.9228    112.1534   1.2223624432e+02   4.7207256524e+01    0.2020904    0.1663674  72.17  0.001191436    1.262    0.208
        86 -10.8010     79.3714    108.3248   1.1209758111e+02   4.4286344782e+01    0.5006931    0.3682287  40.50  0.002638611    1.407    0.289
        87 -12.2338      9.3633     96.0842   1.3247521096e+02   5.4114282158e+01    0.6972173    0.4568335  66.14  0.003922937    1.626    0.385
        88 -10.2894    175.3135    107.4054   8.6070532351e+01   2.5610327522e+01    0.3353225    0.2410485 -39.11  0.001555273    1.433    0.302
        89  -9.8505    103.1254    106.6397   1.0452558756e+02   4.0818213983e+01    0.3751501    0.1778174 -43.66 0.0008182298    2.146    0.534
        90  -9.7492    157.9589    105.9307   8.9642959719e+01   2.9772826554e+01    0.2370127    0.2207646  11.06 0.0006035504    1.017    0.017
        91  -9.9394    143.3829    106.0316   9.3262218779e+01   3.2952897867e+01    0.2889048    0.2642809  34.96 0.0008579982    1.070    0.066
        92 -11.5554     47.9503    103.3576   1.2107052734e+02   4.9381964352e+01    0.4573802    0.2630751 -30.76 0.0001962573    2.338    0.572
        93 -10.1916     52.4295     96.7418   1.1837644626e+02   5.0463728040e+01    0.3427872    0.1400041 -59.76  0.001054494    2.129    0.530
        94 -10.0118     86.0055    104.4413   1.0918521205e+02   4.4176291281e+01    0.2866797    0.2051762 -53.00 0.0008540818    1.345    0.256
        95  -9.7031     93.4853    103.9711   1.0677462576e+02   4.3075134295e+01    0.2064577    0.1296456 -78.76 0.0008103286    2.600    0.615
        96  -9.8462     57.4066    102.1883   1.1779916775e+02   4.8614472696e+01    0.2367992    0.1587425 -70.75 0.0006337376    1.473    0.321
        97  -9.9265     57.4608     97.7036   1.1689368713e+02   4.9663544102e+01    0.2783752    0.2035348 -78.44 0.0008430026    1.457    0.313
        98  -9.0272     82.2607    102.6666   1.0994619993e+02   4.5160572134e+01    0.1390403    0.1097546  85.36   0.00055984    1.574    0.365
        99 -10.1936    145.7093    100.1967   9.1097761488e+01   3.3593377660e+01    0.3930579    0.2684419 -17.72  0.001372884    1.791    0.442
       100 -11.6860     68.0036     96.8853   1.1323164173e+02   4.8533466417e+01    0.5686378    0.3055471 -53.65 0.0007743418    1.696    0.410
       101  -9.2752     96.0201     99.9919   1.0502426191e+02   4.3541370575e+01    0.2133769    0.1691265  -7.67 0.0003115902    1.531    0.347
       102 -10.1174     78.0239     96.9975   1.0997982948e+02   4.7099720291e+01    0.2043493     0.193087 -52.37            0    1.015    0.015
       103 -10.9805     80.6726     92.6262   1.0805354771e+02   4.7702714039e+01    0.6575637    0.4316967  47.69   0.00295477    1.699    0.412
       104 -10.9361     66.6619     81.8009   1.1008318819e+02   5.2200063608e+01    0.4413494    0.3009635  20.91  0.002239394    1.675    0.403
       105 -10.9798     79.6865     82.9974   1.0586781518e+02   5.0032797360e+01    0.6127185     0.518639  82.97  0.002858883    1.490    0.329
       106 -11.1731     73.4396     77.4338   1.0650343977e+02   5.2226857457e+01    0.5951867    0.4473389 -15.20  0.003059523    1.552    0.356
       107  -9.3349    137.5256     93.6202   9.1371327509e+01   3.6688653159e+01    0.3205059    0.2106295  13.75 0.0007496881    2.188    0.543
       108 -10.3904    126.3525     93.1170   9.4254225507e+01   3.9195763793e+01    0.3618252    0.2229324  42.37  0.000882707    1.610    0.379
       109 -10.1705    117.6756     92.8393   9.6637221587e+01   4.1043331959e+01    0.2742912    0.2030084  27.84 0.0008688212    1.434    0.303
       110  -9.3506    152.5037     92.4806   8.7246446454e+01   3.3538027891e+01     0.155662     0.148547  12.01 0.0008102904    1.019    0.019
       111 -11.0775    101.9891     90.3221   1.0063087840e+02   4.4613935853e+01    0.4102857    0.3291275 -13.45 0.0006931394    1.419    0.295
       112 -11.0194     89.3936     90.0883   1.0455562691e+02   4.6879331858e+01    0.4035612    0.2610742 -47.21 0.0009973552    1.478    0.323
       113 -10.0192     50.5338     91.4842   1.1796732481e+02   5.1909124671e+01    0.4420071    0.2082286  28.28  0.002007052    2.336    0.572
       114  -9.1804     52.0000     87.9865   1.1672491971e+02   5.2569758476e+01    0.1985166    0.1385104 -41.85 0.0005434348    1.395    0.283
       115  -9.4737     67.4576     87.9962   1.1135347219e+02   5.0669326354e+01     0.216431    0.1247676 -52.39 0.0007195867    1.578    0.366
       116  -8.9903    212.2982     87.3495   7.3549019692e+01   2.0446440468e+01    0.1540616    0.1082212  12.28 0.0004500621    1.685    0.407
       117 -11.1228    143.3583     84.1776   8.7095071784e+01   3.7198701243e+01    0.3442351    0.2941689 -20.61  0.001283069    1.180    0.152
       118  -9.8628    119.6146     85.3686   9.3916811006e+01   4.2190830505e+01    0.3796779     0.140328  39.39  0.001240997    2.859    0.650
       119  -9.2371     92.7655     85.5993   1.0223587874e+02   4.7298344803e+01    0.1874944    0.1388441  47.11 0.0003833857    1.465    0.318
       120 -10.1462    165.7264     83.2605   8.1478779215e+01   3.2094314827e+01    0.3255987    0.2806003 -68.26  0.001611289    1.434    0.303
       121  -9.9503    104.5105     76.4721   9.5768633625e+01   4.7073734862e+01    0.3164291    0.2859729 -36.52  0.001702108    1.093    0.085
       122 -10.2195    113.6369     83.4698   9.5107217267e+01   4.3810184031e+01    0.3225126    0.2614374 -42.57 0.0009605844    1.233    0.189
       123 -11.1239    109.2987     80.4570   9.5509117030e+01   4.5305003610e+01    0.3386508    0.3073503  29.04  0.001038216    1.101    0.092
       124  -9.5094    127.4751     83.5215   9.1131976833e+01   4.0886200716e+01    0.1554014    0.1464211   4.27 0.0001232036    1.019    0.019
       125  -9.6387     60.0608     83.3226   1.1280906054e+02   5.2708019244e+01    0.1894791    0.1819247 -16.42  0.001169852    1.095    0.087
       126 -11.3592     52.7966     76.3986   1.1375983763e+02   5.5173566053e+01    0.5987443    0.3142837 -58.70  0.002813876    1.733    0.423
       127 -10.8270     52.5215     72.9038   1.1298085972e+02   5.6006382446e+01    0.3146734    0.2148293 -44.52 0.0009245338    1.316    0.240
       128 -10.4541     58.7337     78.3588   1.1205817319e+02   5.4015898606e+01    0.2821169    0.2448199  33.41 0.0009622987    1.269    0.212
       129  -9.9630     20.4572     71.7289   1.2507726445e+02   5.9134314560e+01    0.2664069     0.143935 -13.65  0.001296604    2.526    0.604
       130 -11.8644     14.0787     74.4879   1.2796843873e+02   5.8875149139e+01     0.459703    0.3053927 -68.17  0.001775075    1.227    0.185
       131  -9.9200      9.4355     76.0605   1.2992323753e+02   5.8754196557e+01    0.1920947    0.1330354 -50.72 0.0004289306    1.282    0.220
       132 -11.8381      1.9495     71.4212   1.3204355664e+02   6.0155334355e+01    0.6719377    0.1538434 -71.89  0.002609866    3.187    0.686
       133 -11.1211     14.3524     66.5945   1.2653396763e+02   6.0685561140e+01     0.342461    0.2290502 -74.61 0.0008970482    1.337    0.252
       134 -12.2437      5.8850     62.5192   1.2921766727e+02   6.2034287465e+01    0.7587198    0.3202009 -48.69  0.003527275    1.934    0.483
       135 -11.5097     12.6445     62.1891   1.2642182288e+02   6.1789023571e+01    0.2509556     0.199475  -4.70 0.0003649592    1.480    0.324
       136 -11.8214    247.3820     76.6267   6.5600762258e+01   1.4308827922e+01    0.3977833    0.3014709   4.25  0.002207037    1.432    0.301
       137  -9.5411      5.0684     78.3366   1.3180831553e+02   5.8433274960e+01    0.1531122    0.1368656 -76.73 0.0005040499    1.122    0.109
       138  -9.0404    134.4375     77.4635   8.7367616947e+01   4.0505681362e+01    0.1538129    0.1485598   3.19 8.661523e-05    1.038    0.037
       139  -9.4239    126.8478     76.8370   8.9245378945e+01   4.2329704284e+01     0.199118     0.185226  88.23  0.001029421    1.286    0.222
       140 -10.3616     93.6715     76.2797   9.9210105911e+01   4.9152145044e+01    0.4030139    0.2731504  22.72  0.001379129    1.700    0.412
       141 -11.6348     85.8198     73.7307   1.0108277524e+02   5.1071415154e+01    0.6845032    0.6339776  80.22  0.003853579    1.303    0.233
       142 -11.3030     78.5453     67.2650   1.0163789055e+02   5.3660119854e+01     1.079345    0.5865906 -60.49  0.004376555    2.420    0.587
       143 -10.1488     81.6799     49.9130   9.4482541864e+01   5.6651150427e+01     0.561352    0.3372457 -17.52  0.001714828    2.190    0.543
       144 -11.6614     74.5039     52.9750   9.8315486749e+01   5.7273675721e+01    0.6348389    0.3903073 -37.20  0.002105029    1.524    0.344
       145 -10.3370     72.6575     47.0123   9.6826183425e+01   5.8749928993e+01    0.7875751     0.525871 -66.07  0.003493361    2.472    0.595
       146 -11.6225    186.9366     70.6749   7.3426561124e+01   2.8978281439e+01    0.7136384    0.5320887  -5.48  0.003141105    1.500    0.333
       147  -9.6887     66.6582     74.2847   1.0806908506e+02   5.3903068179e+01    0.3434872     0.217234 -76.41  0.001487456    2.409    0.585
       148  -9.1884     60.9779     72.9603   1.0980608806e+02   5.4960803891e+01    0.1606881    0.1493496 -28.85 0.0003932262    1.052    0.050
       149 -11.6723     32.7276     72.1100   1.2040966059e+02   5.8144828668e+01    0.5479528    0.2599917  27.64  0.002421519    2.350    0.574
       150 -11.3691     40.8994     70.2076   1.1679456683e+02   5.7852604266e+01    0.5547991    0.2786522 -61.52  0.002646619    1.780    0.438
       151 -11.5405    122.6977     68.7603   8.7810004898e+01   4.4787771935e+01    0.5802785    0.4520437  45.73  0.002102881    1.294    0.227
       152  -9.7413    161.6769     70.2021   7.8429625864e+01   3.5295548908e+01    0.2680784    0.2179748  65.80  0.001074821    1.379    0.275
       153 -11.2719    220.1586     66.6532   6.6796237718e+01   2.1593762372e+01    0.5824865    0.3142979  66.05  0.002504417    2.188    0.543
       154  -9.8782    172.0849     67.8734   7.5493124010e+01   3.3092208876e+01    0.2881204    0.2239198 -30.65  0.001392842    1.284    0.221
       155  -9.8580     21.5529     65.1999   1.2338705786e+02   6.0571881768e+01    0.2266047    0.1702657  77.34  0.001091703    1.607    0.378
       156  -9.4777     25.7770     65.2200   1.2168274368e+02   6.0275254248e+01    0.1759543    0.1148133 -47.69 0.0004811045    1.305    0.234
       157  -9.8876     98.1210     63.0909   9.3459218603e+01   5.1024407457e+01    0.4028168    0.2422022  -1.06  0.001415956    3.195    0.687
       158 -11.0267     91.4541     62.4677   9.5494846207e+01   5.2415165830e+01    0.4512472    0.3671376 -38.47    0.0013451    1.188    0.158
       159 -10.5649     87.6095     56.9519   9.4911159168e+01   5.4217655972e+01    0.4676022    0.2279062 -40.84  0.001295069    1.964    0.491
       160 -10.3904     91.2498     57.5910   9.3864031318e+01   5.3418089031e+01    0.3336118    0.2615763  32.46 0.0009567091    1.290    0.225
       161 -11.0347     58.1928     61.7211   1.0763079743e+02   5.7818585504e+01    0.4687056    0.3660638 -63.80  0.002107845    1.405    0.288
       162 -10.1120    142.4846    249.5256   1.1830269599e+02   8.1324996572e+00    0.1133726   0.08301596  37.09 2.877331e-05    1.001    0.001
       163 -11.1721     60.8671     36.2468   9.7414454376e+01   6.2647625219e+01    0.3774047    0.2064212 -41.72 0.0009279075    1.684    0.406
       164  -9.7532     84.6047     62.2627   9.7822708160e+01   5.3688139223e+01    0.2668826    0.1783008 -35.04  0.001280176    1.444    0.307
       165 -11.0902     20.9806     47.2233   1.1948140105e+02   6.4670962224e+01     0.658644    0.2117335 -51.24  0.002899621    2.252    0.556
       166  -9.7293     51.9147     48.1968   1.0583627167e+02   6.1505049613e+01    0.2333367     0.218948 -35.68 0.0007160562    1.152    0.132
       167 -10.1082     26.0479     48.0201   1.1736523019e+02   6.4132093726e+01     0.213525    0.1495282 -50.03 0.0003400695    1.159    0.138
       168 -10.3510     33.9889     57.9492   1.1653675083e+02   6.1274618155e+01    0.4737757    0.3027353 -22.42  0.002556291    1.755    0.430
       169 -11.3452     32.7995     44.1576   1.1309818629e+02   6.4411447549e+01    0.7835734    0.4449243 -19.77  0.003343333    2.102    0.524
       170 -12.3941     49.4197     60.3058   1.1074564413e+02   5.9195870965e+01    0.6867554    0.5334444  59.98  0.001947587    1.735    0.424
       171 -11.4038     40.1162     55.7401   1.1331438102e+02   6.1196541127e+01     0.501381    0.4249286 -55.87  0.002481778    1.141    0.124
       172 -10.4971     26.0207     60.0163   1.2041865198e+02   6.1447287003e+01    0.3730896    0.2449873  35.18   0.00182242    1.806    0.446
       173 -11.5590     27.3274     54.1294   1.1841992118e+02   6.2677970810e+01    0.9248444    0.4217023   0.79  0.003919414    3.389    0.705
       174 -11.7341     42.2318     45.2140   1.0910259514e+02   6.3254522992e+01    0.4421748    0.3200188   3.28 0.0009670549    1.520    0.342
       175 -10.3341    159.5382     61.6024   7.6178522026e+01   3.7222335173e+01    0.4507421    0.2508788  41.47  0.001818814    1.828    0.453
       176  -9.9700    113.5127     61.2581   8.7955847136e+01   4.8203358955e+01    0.3923146     0.200133 -39.32   0.00156929    1.947    0.486
       177 -10.8739    122.5455     59.1325   8.4574060472e+01   4.6578003864e+01    0.4195044    0.3890825  48.21  0.001478362    1.148    0.129
       178 -10.4218    117.6553     56.1085   8.4907349601e+01   4.8218729159e+01    0.3854107    0.2751775  55.99  0.001075486    1.554    0.357
       179 -10.6077    136.5814     56.2760   7.9809677219e+01   4.3760000660e+01    0.6488594    0.4122118  18.13  0.002605035    2.125    0.529
       180  -9.8032    145.6246     52.1976   7.6192963450e+01   4.2184757663e+01    0.3981012    0.2500362  39.61  0.001574391    1.599    0.375
       181 -11.0841    145.9584     46.5819   7.4164698568e+01   4.2949983531e+01    0.6214591    0.3049127 -28.73  0.002232251    2.086    0.521
       182 -11.4660    156.2962     51.9955   7.3729741206e+01   3.9522245457e+01    0.8170574    0.3417282 -43.42   0.00228542    2.714    0.632
       183  -9.4343      1.7883     56.3445   1.2988772055e+02   6.3600001591e+01    0.1440621    0.1007085 -21.39  0.000627037    1.598    0.374
       184  -9.9848     67.0118     54.6132   1.0181329100e+02   5.8108265032e+01    0.2548328    0.1916891 -60.14 0.0007963143    1.555    0.357
       185 -11.3092     46.5028     48.9903   1.0846012669e+02   6.1982729865e+01    0.4518908    0.3241791  -0.43  0.001726981    1.565    0.361
       186 -10.9691    248.4159     52.6147   5.9590271599e+01   1.7094664049e+01    0.2872905    0.2385917 -45.14  0.001736132    1.153    0.133
       187 -11.3351    240.3465     50.2599   5.9909539971e+01   1.9126208859e+01    0.3036868    0.2364082 -20.11 0.0008553195    1.236    0.191
       188  -9.9845    133.5176     50.0382   7.8391456489e+01   4.5512477446e+01    0.3428383    0.2477514 -77.26  0.001445825    2.210    0.548
       189  -9.6064    199.5005    244.5133   1.0750558093e+02   6.2117577550e-01    0.1151594   0.08246399  25.82 1.656141e-05    1.024    0.023
       190 -11.0662    113.4341     49.6740   8.3795691057e+01   5.0278218524e+01    0.6482658    0.3728053  24.70  0.002071481    2.300    0.565
       191 -12.8001    116.6139     42.4785   8.0135024346e+01   5.0728964939e+01     1.089469    0.7760543  73.50  0.004874777    1.993    0.498
       192 -11.6176    127.5787    242.7379   1.2031272450e+02   1.1129462947e+01    0.3204667    0.2137501 -75.54  0.002081228    2.292    0.564
       193 -10.5917    174.1042     48.3611   6.8998506755e+01   3.5476525566e+01    0.4054558    0.3098504  78.02  0.001641911    1.508    0.337
       194 -10.0694     13.9630     46.3093   1.2250064371e+02   6.5302987710e+01    0.6253789    0.1450578 -37.35  0.001955139    5.404    0.815
       195  -9.9152     18.5007     41.4588   1.1909678786e+02   6.6098038541e+01    0.3166341    0.2285058 -12.26  0.001989081    1.484    0.326
       196  -9.8408      2.3371     48.5418   1.2828012525e+02   6.5335820114e+01    0.2703914    0.2214463  85.40  0.001818136    1.372    0.271
       197  -9.6458      3.2094     44.5497   1.2710110381e+02   6.6192765796e+01    0.4453253    0.1848547 -20.47   0.00177366    2.970    0.663
       198 -11.1557      4.1921     35.9462   1.2471684752e+02   6.8044163963e+01     0.368059    0.2403276 -67.27 0.0004568316    1.330    0.248
       199  -9.6781      6.5657     30.6278   1.2211825696e+02   6.9086933718e+01    0.3147738    0.1487198  -7.71  0.001619642    2.583    0.613
       200 -10.5928    201.7004     47.0398   6.4053663980e+01   2.8635803316e+01    0.4322225    0.2979077 -47.02   0.00209236    1.515    0.340
       201  -9.5666     90.9951     48.1007   9.0441589866e+01   5.5258941566e+01    0.2225967    0.1861282 -77.85  0.001123605    1.764    0.433
       202 -10.5671    233.2168     45.5336   5.9522998397e+01   2.1291407142e+01     0.313275    0.1263285  61.34  0.001283845    2.531    0.605
       203  -8.6184    132.3139     45.3209   7.6988448042e+01   4.6539706224e+01     0.161821    0.1128343  19.89 0.0002317488    1.655    0.396
       204  -9.9313    101.2129     44.0153   8.5414250800e+01   5.3902224140e+01    0.3267545    0.2278242 -55.22  0.001298296    1.922    0.480
       205 -11.1558     94.1960     41.3658   8.6685117018e+01   5.5809118757e+01    0.6419044    0.2814714  42.60  0.002443959    2.262    0.558
       206  -9.8313    139.4900     43.7425   7.4657456587e+01   4.4996539973e+01    0.3364658    0.1524937  45.67  0.001255501    2.116    0.527
       207 -10.2350    189.0647     42.3328   6.4578880656e+01   3.2429739208e+01    0.2544072    0.2018216 -33.67 0.0003527809    1.257    0.204
       208 -11.4496    156.2155     41.8295   7.0303003141e+01   4.0999924803e+01    0.3783592    0.3486014  -1.16 0.0007937362    1.091    0.083
       209 -10.5409    153.4649     36.2777   6.8937377397e+01   4.2455568799e+01    0.2942311    0.2692921 -81.38 0.0006077548    1.234    0.190
       210  -9.8423     26.0981     43.5248   1.1605542836e+02   6.5109893423e+01    0.1626991    0.1216943   9.91 0.0003693027    1.500    0.333
       211  -8.9947     69.4840     32.6885   9.2274387629e+01   6.1916137939e+01     1.184479    0.2901224  38.38  0.003662811    4.371    0.771
       212 -10.4253     81.1162     39.6788   9.0670159900e+01   5.8637874250e+01    0.7097552    0.5098176  13.72  0.003590681    1.515    0.340
       213 -10.8264     77.6952     34.4259   8.9764655232e+01   6.0175474743e+01    0.3986267    0.2517628  35.81  0.001131439    1.588    0.370
       214 -10.1734     81.7082     31.1677   8.6830686552e+01   5.9967007675e+01    0.4894401    0.4008169  50.38  0.002697345    1.441    0.306
       215 -10.8888    231.5977     39.2904   5.8090005845e+01   2.2398224905e+01    0.3030988    0.2295461 -38.27 0.0008122897    1.225    0.184
       216 -10.9019     23.0178     37.0729   1.1557888843e+02   6.6727891440e+01    0.3586587    0.2514458  51.55  0.001543592    2.066    0.516
       217 -10.8160    176.5303     36.8305   6.4889599014e+01   3.6363190895e+01    0.3794245    0.2849869 -18.93  0.001460946    1.387    0.279
       218  -9.7974    133.5221     37.5312   7.3801557156e+01   4.7381278103e+01     0.342207    0.2274649 -68.07  0.001384006    2.434    0.589
       219  -9.6618    206.9714     37.0633   6.0457134283e+01   2.8556987807e+01    0.2142901    0.2097938 -34.63 0.0007354231    1.011    0.010
       220 -10.7055    138.6292     32.9774   7.0906071234e+01   4.6710240065e+01    0.5444953    0.4968917  89.33  0.002930241    1.265    0.210
       221 -11.9185    105.7628     32.9771   7.9517524663e+01   5.4658839031e+01    0.9276426    0.5120439   5.62  0.001493159    3.219    0.689
       222 -12.5492    114.1178     24.5875   7.3618720041e+01   5.3873847405e+01    0.9162749    0.3907395  61.75  0.001722811    2.753    0.637
       223 -10.1959    150.3969    237.8155   1.1554234060e+02   8.5473030108e+00    0.1398636    0.1058103 -23.99 0.0009556325    1.736    0.424
       224  -9.8886    172.0294     33.0052   6.4405264171e+01   3.8010110620e+01    0.2269357    0.2211106 -75.24 0.0008447435    1.076    0.071
       225 -10.5262    176.1489     30.1204   6.2796041679e+01   3.7273422596e+01    0.3447191    0.2659873  31.37  0.001605251    1.375    0.273
       226 -11.3939    159.9124     30.1569   6.5571634794e+01   4.1537188476e+01    0.4342596    0.2979729 -37.25  0.000450086    1.519    0.342
       227 -11.1907    164.0116     27.4704   6.3925615766e+01   4.0775219216e+01    0.3565873    0.3079638 -24.22 0.0003836102    1.200    0.166
       228 -11.3299    240.7616     31.2323   5.5085944460e+01   2.1229966879e+01    0.3709113    0.2358564 -14.96  0.001461026    1.698    0.411
       229 -11.0006    147.4754     31.7155   6.8536190474e+01   4.4596367021e+01    0.2691988    0.2404422  41.94 0.0003041147    1.051    0.048
       230 -10.6611    144.6809     25.1120   6.6692390044e+01   4.6125828265e+01    0.8356628    0.3615976  70.27  0.002884635    2.887    0.654
       231  -9.6595    158.4603     20.4570   6.2461535984e+01   4.3025155737e+01    0.7073274    0.1689915  64.88  0.002011169    3.993    0.750
       232 -10.4609    152.5340     26.9739   6.5830914037e+01   4.3854106510e+01    0.5403366     0.302983  26.40  0.001593151    2.280    0.561
       233 -10.7273    156.9356     24.7964   6.4247337995e+01   4.2948294263e+01    0.6390545      0.35618 -84.80  0.001704453    3.116    0.679
       234 -11.3827     56.1687     30.9844   9.7263012187e+01   6.4310935010e+01     0.314891     0.264553  10.84 0.0002672229    1.169    0.145
       235 -11.9426     48.2555     30.4468   1.0069288671e+02   6.5496863422e+01    0.7395938    0.3265802  27.27  0.003242114    2.532    0.605
       236 -11.5483    199.1900     28.0472   5.8863989673e+01   3.1549994649e+01    0.4861126     0.390506  10.79   0.00103098    1.418    0.295
       237  -9.3016     15.1615    233.8629   1.3979994408e+02   2.5702209304e+01    0.1179179    0.1031587  79.19  0.001070842    1.349    0.259
       238  -9.5541    247.3147    231.3184   9.7440119189e+01  -4.6375267713e+00     0.117918    0.0639689  11.76 0.0004726821    1.651    0.394
       239  -9.4119     23.4972    231.5262   1.3829933897e+02   2.5317181816e+01    0.1013188   0.07122017  60.48 0.0008100327    1.019    0.018
       240  -9.4432    165.6438    212.3292   1.0927000603e+02   9.7763442145e+00    0.1222724   0.08921372  58.56 0.0007044681    1.783    0.439
       241 -10.8606     14.9805     22.4989   1.1490073672e+02   7.0310979317e+01    0.2789801    0.2070805   0.37 0.0006671082    1.432    0.301
       242 -10.3713    189.2734     27.8560   6.0134256279e+01   3.4113106366e+01    0.4050033    0.2540665   7.48  0.001763268    2.131    0.531
       243  -9.9310     99.2445     30.0058   8.0284393307e+01   5.6542799191e+01    0.2986993    0.2377455 -85.84  0.001452576    2.000    0.500
       244 -10.4486    230.8079     26.7970   5.4936826316e+01   2.3980392354e+01    0.1934749     0.182097  29.14 0.0008661647    1.170    0.146
       245 -10.1205     59.9702     24.5008   9.2640436070e+01   6.4870725489e+01      0.39669    0.2041089 -51.17  0.001669912    2.752    0.637
       246  -9.7670    152.7913    207.5999   1.1114791792e+02   1.2530452741e+01    0.1833117   0.09814133  44.57 0.0008394978    1.645    0.392
       247 -11.6100    246.9687     20.8043   5.1966149099e+01   2.0965224715e+01    0.3139299    0.2537759 -51.23  0.001708322    1.130    0.115
       248 -11.5137    183.3490     24.8710   6.0045726186e+01   3.5984245905e+01    0.5905755    0.2697359  50.30   0.00237768    2.105    0.525
       249 -10.8748    214.5293     24.5410   5.6040648393e+01   2.8106347876e+01    0.3405262    0.2757256 -19.26  0.001170396    1.272    0.214
       250  -9.7999    238.5839    204.6544   9.4510347675e+01  -6.5553097654e-01    0.2138887    0.1027323 -22.07  0.001132314    2.149    0.535
       251  -9.4535    181.0848     16.1967   5.7631961858e+01   3.7487811846e+01    0.1941674    0.1586732 -67.03 0.0005845652    1.308    0.235
       252  -9.9153    133.2771     23.4207   6.8460963635e+01   4.9266794203e+01    0.3922392     0.299316 -67.06  0.001897887    1.720    0.419
       253 -10.2629      4.3947    204.9222   1.4063239999e+02   3.1573239621e+01    0.1846534   0.09917884 -70.94   0.00126832    1.913    0.477
       254 -10.2932    138.2094     21.5933   6.6696132710e+01   4.8210830466e+01    0.3964259    0.2289834  50.57  0.001138632    1.569    0.363
       255  -9.4510    141.5108     19.5186   6.5236884622e+01   4.7584828193e+01    0.2828264    0.2060494  51.14  0.001065281    1.257    0.204
       256 -11.3276    242.0120     22.6503   5.2840676454e+01   2.1869231716e+01    0.2448283    0.1861396 -17.67 0.0008295767    1.358    0.264
       257 -10.7243    244.2384    199.2589   9.2604080397e+01  -8.8936366205e-01    0.2704304    0.1830505 -45.98  0.001521738    2.673    0.626
       258  -9.8864    233.8061    197.1760   9.4019708562e+01   9.2009501081e-01    0.1779514    0.1173071  10.14 0.0008228131    1.317    0.240
       259 -10.3913    169.8360    191.3005   1.0514942440e+02   1.2238168841e+01    0.3659936    0.1716734  27.19  0.001264455    2.397    0.583
       260 -12.3966      5.0668    184.9192   1.3971837826e+02   3.5240990945e+01    0.6213978    0.3419297  68.02  0.004041153    1.471    0.320
       261  -9.7380     16.7067    192.0633   1.3775043008e+02   3.2928549183e+01    0.1469465    0.1106453  79.25 0.0004112219    1.100    0.091
       262  -9.3795     28.3087    176.0049   1.3441046847e+02   3.5052914243e+01    0.1614945    0.1260246  81.73  0.001158495    1.085    0.078
       263 -10.0555     39.5327    173.5064   1.3175195527e+02   3.4487030823e+01    0.1162404   0.09553986  71.87 5.208923e-05    1.009    0.009
       264 -10.1906     35.5613    169.6996   1.3234106819e+02   3.5663953055e+01    0.2166935   0.09635349 -70.26  0.001141563    2.075    0.518
       265  -9.4605    223.5028     22.4467   5.4530404317e+01   2.6161656249e+01    0.1997554    0.1125383 -37.68 0.0001075075    1.639    0.390
       266 -10.1839    221.0160     19.0028   5.3863455472e+01   2.7113652935e+01    0.1943303    0.1831719 -59.84  0.001209569    1.002    0.002
       267 -10.5040     66.1589     21.9026   8.8728157109e+01   6.4271630473e+01    0.2552415    0.2078665  -9.84 0.0004507139    1.074    0.069
       268 -10.6877      8.8404    155.9112   1.3745927541e+02   4.0803468463e+01    0.2272649    0.1672592 -76.24  0.001620615    1.252    0.201
       269 -12.2153      9.9679    165.6173   1.3776095690e+02   3.8704500523e+01    0.4871475    0.3514576 -73.19  0.002822446    1.342    0.255
       270  -9.1017    211.4495     19.0063   5.4846275300e+01   2.9443918212e+01    0.1956652    0.1300998 -26.22  0.000332578    1.494    0.331
       271 -10.8585     13.8194    157.9841   1.3644989546e+02   3.9998104191e+01    0.3721528     0.170176 -86.71   0.00157879    1.950    0.487
       272  -9.0718      1.5033     20.5528   1.2199089873e+02   7.1417727027e+01    0.1191173   0.08792768 -45.26  0.000808216    1.020    0.019
       273  -9.8490    191.5470     16.7244   5.6459180978e+01   3.4710561837e+01    0.3195346    0.2044588  24.75  0.001474316    1.956    0.489
       274  -9.7707    198.1495    167.8245   9.5115244195e+01   1.0841691051e+01    0.1963392    0.1741681  20.86 0.0005791726    1.130    0.115
       275  -9.1964    156.5348    166.5027   1.0361520283e+02   1.8721946989e+01    0.1399119    0.1238973  28.35 0.0002800987    1.014    0.014
       276 -10.4015     18.8835    165.2229   1.3576898874e+02   3.8083529294e+01    0.2181172    0.2062391   0.23  0.001345801    1.443    0.307
       277 -10.4425    205.5155    163.1008   9.2722886094e+01   1.0204285367e+01    0.3496231    0.2412444   8.42  0.001592026    1.500    0.333
       278  -9.6715    188.5786    164.2180   9.6322490990e+01   1.3163245490e+01    0.1869728    0.1257714 -19.47 0.0007115249    1.626    0.385
       279 -10.2887    186.4066     15.2187   5.6638498045e+01   3.6194042918e+01    0.2651049    0.2342652  65.74 0.0004996225    1.082    0.076
       280 -10.5483    104.6653    154.2884   1.1372547923e+02   3.0133214782e+01    0.4653448    0.2859741 -64.66  0.002274115    1.842    0.457
       281 -10.6241     30.7951    153.7482   1.3214309971e+02   3.9493015844e+01    0.3666057      0.22121  60.58   0.00218319    1.558    0.358
       282 -10.4262     30.6216    149.2982   1.3179762364e+02   4.0477422602e+01    0.2623278    0.1499602  66.51 0.0007928404    1.728    0.421
       283 -11.0026     82.5990     19.0205   8.0927010879e+01   6.1611735049e+01    0.5145566    0.2095366  47.13  0.001591582    2.375    0.579
       284 -12.2287     23.0876    149.1685   1.3363516638e+02   4.1150505624e+01    0.6819023    0.3870923 -49.36  0.002510395    2.072    0.517
       285 -12.0611     16.0331    148.0243   1.3525828430e+02   4.1955426938e+01    0.6245418    0.1863636  40.39  0.002950441    2.860    0.650
       286 -12.3744      3.7660    147.4776   1.3814064780e+02   4.2937252048e+01    0.5800578    0.3895666 -78.29  0.003993561    1.274    0.215
       287 -11.8037      3.7566    141.7661   1.3780484734e+02   4.4162569923e+01    0.3550137    0.3138235  30.88   0.00147944    1.384    0.278
       288 -11.9735      3.8688    136.6928   1.3746085980e+02   4.5256182438e+01    0.2219966    0.1853259 -78.77 0.0002889198    1.146    0.127
       289 -10.2280     71.2939    151.5789   1.2178165313e+02   3.5549024714e+01    0.2965787     0.161647  45.96   0.00148383    1.754    0.430
       290 -10.7490     46.9645    146.4208   1.2738704431e+02   3.9533657762e+01    0.4112732    0.2337779 -80.33  0.002194182    1.723    0.420
       291  -9.7341     48.0123    151.7135   1.2770268606e+02   3.8252758737e+01    0.2341945    0.2069583 -63.92 0.0008943851    1.212    0.175
       292 -10.6291     44.0590    150.5129   1.2856715115e+02   3.8927756294e+01     0.393843    0.2395363  64.58  0.002206022    1.658    0.397
       293 -10.6715     62.2999    149.8283   1.2385499919e+02   3.7054880215e+01    0.3923329    0.3058114  78.76  0.002388433    1.255    0.203
       294 -10.2975     56.2725    148.9946   1.2529723697e+02   3.7944878164e+01    0.1767844    0.1490476 -82.37 0.0003253013    1.103    0.094
       295  -9.5435    108.0927    146.2540   1.1146489605e+02   3.1275426371e+01    0.2009553    0.1680513  42.30  0.001124926    1.135    0.119
       296 -10.7227     33.0740    144.3038   1.3072058724e+02   4.1358392330e+01    0.2403317    0.2034937  80.36 0.0007634516    1.026    0.026
       297 -10.4677    249.6708    141.6896   8.0350975446e+01   5.2480679509e+00    0.3696324    0.1106033 -28.41  0.001362358    3.177    0.685
       298 -12.1875     11.1535    137.9954   1.3573294639e+02   4.4495624721e+01    0.5167326    0.2235174  86.23  0.002580342    2.256    0.557
       299  -9.5722    133.6936    140.6078   1.0388294964e+02   2.7912197258e+01    0.3049954    0.1705396 -33.99  0.001275402    2.181    0.542
       300 -12.6866     22.8429    135.7876   1.3256124854e+02   4.4124827603e+01    0.7983215    0.3492969  42.55  0.004149564    2.206    0.547
       301 -11.7297     29.8158    132.8321   1.3043010885e+02   4.4219364193e+01    0.5164278    0.3004151  86.60  0.000453677    1.700    0.412
       302  -9.1007     44.3079    132.7397   1.2648258888e+02   4.2895688368e+01    0.1556034    0.1001338  31.66 0.0001821267    1.661    0.398
       303  -9.6764     82.1319    135.1113   1.1640097522e+02   3.7746732617e+01     0.203187    0.1841577 -14.32 0.0006842269    1.292    0.226
       304 -10.4334     71.0712    134.0565   1.1927593247e+02   3.9500471661e+01    0.3516778    0.2157141  -9.10  0.001432121    3.319    0.699
       305 -10.9355     10.5812    127.3856   1.3507102168e+02   4.6889295342e+01     0.412645    0.1479231 -62.74  0.001800869    2.318    0.569
       306 -10.2462     92.8776    129.3955   1.1239802510e+02   3.7424580529e+01    0.3438928    0.2780855 -89.62  0.001858552    1.406    0.289
       307 -10.2505     18.5902    124.7126   1.3267587882e+02   4.6945493360e+01    0.3831074    0.1275685 -62.92  0.001546532    2.422    0.587
       308 -10.2912     47.5784    134.6510   1.2582655546e+02   4.2123806099e+01    0.3613611    0.1663915 -56.49  0.001340601    2.042    0.510
       309  -9.8853      2.0794    125.4366   1.3716819482e+02   4.7839712110e+01    0.2658576    0.1404831 -81.36  0.001564527    1.534    0.348
       310 -10.4181      4.2848    121.4607   1.3629461769e+02   4.8601313448e+01    0.2572759    0.1519558  65.46   0.00155878    1.637    0.389
       311  -9.4628     80.5659    125.1526   1.1507866853e+02   4.0235102701e+01    0.3333213    0.1303932  46.68  0.001250721    2.824    0.646
       312  -9.3702     84.5105    123.4683   1.1362980876e+02   4.0044324346e+01    0.1991085    0.1381909  19.23 0.0007430829    1.745    0.427
