#   1 NUMBER                 Running object number                                     
#   2 MAG_AUTO               Kron-like elliptical aperture magnitude                    [mag]
#   3 X_IMAGE                Object position along x                                    [pixel]
#   4 Y_IMAGE                Object position along y                                    [pixel]
#   5 X_WORLD                Barycenter position along world x axis                     [deg]
#   6 Y_WORLD                Barycenter position along world y axis                     [deg]
#   7 A_WORLD                Profile RMS along major axis (world units)                 [deg]
#   8 B_WORLD                Profile RMS along minor axis (world units)                 [deg]
#   9 THETA_WORLD            Position angle (CCW/world-x)                               [deg]
#  10 FWHM_WORLD             FWHM assuming a gaussian core                              [deg]
#  11 ELONGATION             A_IMAGE/B_IMAGE                                           
#  12 ELLIPTICITY            1 - B_IMAGE/A_IMAGE                                       
         1 -13.6773    229.4324     35.6144   2.8212186805e+01   2.2931207684e+01     1.348627     0.913265  37.44  0.006799125    1.788    0.441
         2 -11.8738      2.2833     13.4290   8.5129543912e+01   7.4524819850e+01     1.401412          nan -49.75  0.004041329    5.847    0.829
         3  -8.8483    189.5195     15.5244   2.6336090525e+01   3.5096740797e+01    0.1434533    0.1354774 -52.34 0.0001947863    1.002    0.002
         4 -13.7760     43.4055    215.7341   1.0209860694e+02   2.6342543230e+01     1.259729    0.6099222  45.69  0.001284469    1.588    0.370
         5 -12.4741     45.5163    176.6309   9.8914443583e+01   3.3465354446e+01    0.5853698    0.4575094 -15.49  0.001259789    2.311    0.567
         6 -11.6582     52.7369    170.6706   9.6804562001e+01   3.3847101599e+01    0.2538303    0.2427501 -85.19 0.0005035502    1.320    0.243
         7 -15.7547     28.1434    184.7897   1.0314140086e+02   3.3696355325e+01     8.332285     2.665047  82.41   0.03104782    4.744    0.789
         8 -12.5593     74.0477    155.0265   9.0112496968e+01   3.4409981084e+01     0.964738    0.5582415  69.15  0.001892049    1.963    0.490
         9 -12.8247     68.2326    144.2485   9.0059482478e+01   3.7580230064e+01    0.7646126    0.4718341  72.02  0.003231954    1.779    0.438
        10 -13.1305     50.5566    157.4475   9.5977322614e+01   3.6911182786e+01    0.4344299    0.3277594 -40.27  0.001468192    1.883    0.469
        11 -14.6409     10.3419    205.3450   1.0759326949e+02   3.1529212693e+01     1.386493    0.8015693 -78.93  0.009950208    1.664    0.399
        12 -14.6288     20.6200    195.5008   1.0523301567e+02   3.2378562122e+01     2.149696    0.7706983  59.47   0.00892246    2.290    0.563
        13 -15.6093     14.9346    247.1076   1.0829608867e+02   2.4161871784e+01     6.835979     2.430511  28.49   0.03457421    4.288    0.767
        14 -12.0631    141.5753    229.1301   8.5491821564e+01   1.1284692071e+01    0.4673198    0.1698708  36.55  0.002274856    2.366    0.577
        15 -10.3041     90.5022    142.2063   8.4176787841e+01   3.4762237576e+01    0.2828602    0.2334048  47.16 0.0008202098    1.205    0.170
        16  -9.7272     93.8620    139.1824   8.2821247505e+01   3.4889471703e+01    0.2357619     0.190197 -36.62 0.0002849104    1.526    0.344
        17 -11.9305     77.8893    139.8857   8.6969965681e+01   3.7194825605e+01    0.2807246    0.2436321 -74.83 0.0004387897    1.108    0.098
        18  -9.0750    134.7476    130.0668   7.1051328265e+01   2.9445212447e+01    0.4376455    0.2473918 -70.53  0.001558318    3.323    0.699
        19 -10.4691    105.5375    130.7426   7.8302145563e+01   3.4770539628e+01    0.3343257    0.3240184  28.40  0.001020672    1.160    0.138
        20 -10.7814     65.1339    161.3456   9.3000991991e+01   3.4258156280e+01    0.2244964     0.200074  65.39 0.0004049005    1.128    0.113
        21  -9.9448     91.3912    126.8062   8.1178229128e+01   3.8050984767e+01    0.2564381    0.2294762 -10.40 0.0006881247    1.444    0.307
        22  -8.9385    187.3958    176.2049   6.9363426415e+01   1.1447917726e+01    0.1657692    0.1204396 -44.71 0.0009542093    1.640    0.390
        23  -9.4779    103.1956    119.1913   7.6493747833e+01   3.7737340229e+01    0.1962288    0.1928057 -27.01 0.0004383823    1.141    0.123
        24  -9.0003     84.5140    112.5090   8.0154900090e+01   4.2449507052e+01     0.142696    0.1291677 -82.80 -0.0001166807    1.029    0.029
        25  -9.2140    204.5204    110.9708   5.2115542097e+01   1.8132612620e+01    0.3253562    0.1587189  34.98   0.00126941    2.483    0.597
        26 -11.0882     53.1907     91.1485   8.5137699155e+01   5.2055350813e+01    0.3768778    0.2717287 -61.76  0.001650574    1.204    0.169
        27  -9.8393     41.6128     92.0869   8.9189926946e+01   5.3188476221e+01    0.2008525    0.1738266  72.23 0.0004580639    1.199    0.166
        28  -8.8274     73.8139     83.8281   7.6524125595e+01   5.0863296378e+01    0.1892586    0.1598466 -88.19 0.0002697641    1.284    0.221
        29  -8.4643    110.5833    167.5296   8.3511204013e+01   2.6273482491e+01    0.1293241    0.1150595  64.56 8.657188e-05    1.026    0.026
        30  -9.9144     60.7695     70.8312   7.7348472539e+01   5.5850553015e+01    0.1935202    0.1610063 -86.06  0.001071566    1.345    0.257
        31 -10.7401     13.4445     60.1731   9.3304009869e+01   6.3373697863e+01    0.2344113    0.1882817 -68.32 0.0005468823    1.028    0.027
        32 -12.6602    215.0961     46.9253   3.2973689200e+01   2.4973948982e+01     0.623337    0.5304394 -11.36  0.003431059    1.188    0.158
        33 -10.2919    247.7999    246.6822   7.0631275116e+01  -5.2684461160e+00    0.2109456   0.06094528  33.71  0.001093158    2.666    0.625
        34 -11.8506    208.0168     51.4751   3.5191601633e+01   2.6107278166e+01    0.7066724    0.3839617 -49.22   0.00298209    1.947    0.486
        35 -10.6296      2.1527     50.9493   9.6352818531e+01   6.6211093766e+01    0.3159586   0.06897232 -71.16  0.001114849    3.562    0.719
        36  -8.6207     94.7100     46.3706   5.6902414450e+01   5.4949111427e+01    0.1521206    0.1137716 -64.84 0.0007023456    1.717    0.418
        37 -10.1761      2.2344     38.9907   9.3640524991e+01   6.8965123945e+01    0.1715321   0.08022109 -67.36 0.0008875707    1.655    0.396
        38  -9.6841    119.3196     27.3547   4.2098788976e+01   5.2258436730e+01    0.3835447    0.2149131 -60.52  0.001416974    2.781    0.640
        39 -12.8895     54.8419    123.2427   9.0512780756e+01   4.4160820275e+01      2.33417    0.7564598 -77.81   0.00574648    7.277    0.863
