#   1 NUMBER                 Running object number                                     
#   2 MAG_AUTO               Kron-like elliptical aperture magnitude                    [mag]
#   3 X_IMAGE                Object position along x                                    [pixel]
#   4 Y_IMAGE                Object position along y                                    [pixel]
#   5 X_WORLD                Barycenter position along world x axis                     [deg]
#   6 Y_WORLD                Barycenter position along world y axis                     [deg]
#   7 A_WORLD                Profile RMS along major axis (world units)                 [deg]
#   8 B_WORLD                Profile RMS along minor axis (world units)                 [deg]
#   9 THETA_WORLD            Position angle (CCW/world-x)                               [deg]
#  10 FWHM_WORLD             FWHM assuming a gaussian core                              [deg]
#  11 ELONGATION             A_IMAGE/B_IMAGE                                           
#  12 ELLIPTICITY            1 - B_IMAGE/A_IMAGE                                       
         1 -14.4472    156.1334     51.4438   8.7429292987e+01   3.9428825594e+01     1.536684     1.292756   2.74  0.004894688    1.300    0.231
         2 -14.5407    167.3217     35.2285   7.9839360003e+01   3.8944435828e+01     1.223114    0.9553978 -11.32  0.004112327    1.337    0.252
         3 -13.8633    181.8508      4.3530   6.7016459444e+01   3.8597576021e+01     1.066495    0.6516479  66.89  0.004069556    1.599    0.375
         4  99.0000     20.6504    237.9921   1.4470536341e+02   2.7200284819e+01    0.1710683    0.0771368  68.52  0.001306253    1.649    0.394
         5 -19.7571     66.2579    166.7451   1.3251106649e+02   3.3804851419e+01     15.29678      5.10674 -69.86   0.07134306    3.112    0.679
         6 -11.1463    140.0117    249.8007   1.2785887424e+02   1.1384282994e+01    0.2357157    0.1410094  54.05  0.001191218    1.327    0.247
         7 -10.5713    112.6421    210.9942   1.2851742680e+02   2.0186688835e+01    0.1868671    0.1270605  36.06  0.001290402    1.568    0.362
         8 -10.3285     33.5427    210.8846   1.4157983353e+02   2.9966266688e+01    0.1710566   0.09123116  41.87 0.0005548232    1.721    0.419
         9 -11.3886    165.7181    207.3522   1.1924762966e+02   1.2625197100e+01    0.2366627     0.188663  46.72  0.001046172    1.045    0.043
        10 -11.8631    164.6958    204.3504   1.1902786921e+02   1.3168015542e+01    0.2906454    0.2051028 -86.59  0.001332133    2.375    0.579
        11 -10.6417    140.5462    245.4711   1.2738678441e+02   1.1798787233e+01    0.1474048    0.1324937 -37.41  0.000645139    1.637    0.389
        12 -11.3086    170.1333    205.1724   1.1823648828e+02   1.2192653122e+01    0.1771559    0.1601671 -57.52 0.0003901182    1.423    0.297
        13 -10.7067     30.2159    205.7073   1.4185066624e+02   3.1128851742e+01    0.1080358   0.08992529  67.30 0.0003545876    1.318    0.241
        14 -10.9757    211.5034    201.5065   1.1106276923e+02   5.9199474290e+00    0.1642693    0.1047021 -45.73  0.001025852    2.245    0.555
        15 -11.5649    182.2236    189.2057   1.1396496000e+02   1.2210473114e+01    0.2322784    0.1991993 -33.56 0.0008999159    1.408    0.290
        16 -11.8869    177.5377    189.4942   1.1479988796e+02   1.2966842651e+01    0.2523823    0.1937616  38.53 0.0007057969    1.089    0.082
        17 -12.6473    178.0258    197.0015   1.1580863628e+02   1.1928155950e+01    0.4054156    0.2102389  51.73  0.002055508    1.778    0.437
        18 -12.8326    180.2329    193.5377   1.1494134618e+02   1.1996621622e+01    0.3950553    0.2574842 -57.87  0.002351903    2.273    0.560
        19 -11.2878    158.3657    193.9918   1.1871655323e+02   1.5563617007e+01    0.2259856    0.1634172  71.47 0.0007450423    1.699    0.412
        20 -11.5013    135.6603    196.2719   1.2294661667e+02   1.8885833239e+01    0.3221595    0.1999184  82.58  0.001771518    2.550    0.608
        21  -9.6602      5.5386    198.5802   1.4553251031e+02   3.4609685481e+01   0.09558041   0.06270649  68.91 0.0008037648    1.023    0.023
        22 -11.4934    169.9637    195.2483   1.1691313063e+02   1.3485064798e+01    0.1710505    0.1693006  31.63 0.0006868662    1.229    0.186
        23 -10.9885     25.1378    233.3067   1.4388011526e+02   2.7432699525e+01    0.1436013    0.1057615 -66.76  0.001290073    1.947    0.486
        24 -13.2515    207.5054    183.5142   1.0888188426e+02   8.5849419986e+00    0.5590361    0.3942882 -53.89  0.003398853    2.157    0.536
        25 -12.9056    210.4994    181.5332   1.0806945541e+02   8.3009264399e+00    0.3709694     0.288027  -2.02  0.001944246    1.384    0.278
        26 -10.4374    165.4838    188.5196   1.1672141489e+02   1.5129801580e+01    0.1183675   0.09719154  46.80 0.0008099445    1.031    0.030
        27 -12.0665    201.7562    232.9042   1.1683546284e+02   4.2684418073e+00    0.1596617    0.1469522  77.28  0.001363301    1.605    0.377
        28 -10.2962    157.4673    184.5176   1.1754481571e+02   1.7038422295e+01    0.1191269   0.09888927  48.80  9.79888e-05    1.020    0.020
        29 -10.2913    116.6446    230.8983   1.2973457150e+02   1.6889940791e+01    0.1995584    0.1076496  63.38 0.0008739294    1.877    0.467
        30 -11.6586    197.7175    176.2479   1.0929418636e+02   1.1168531815e+01    0.3471087    0.2681736 -57.15  0.001529969    1.832    0.454
        31 -10.8067    220.4815    228.9051   1.1355921702e+02   1.8743743175e+00    0.1897286     0.096421 -39.60  0.001206017    2.781    0.640
        32 -10.4783      6.3975    250.3676   1.4706665834e+02   2.6818795288e+01   0.08247839   0.05280013  63.05 0.0007853312    1.071    0.066
        33 -11.8895    178.8757    174.3617   1.1221273626e+02   1.4756193081e+01    0.3071598    0.2208995 -16.41  0.001835336    1.821    0.451
        34 -11.0010    137.4834    170.5143   1.1914587197e+02   2.2543389609e+01    0.2286563    0.1600968  40.65  0.000772875    1.339    0.253
        35 -10.4791    110.1429    223.0054   1.3006229232e+02   1.8842860575e+01    0.1505151     0.113085  60.12 0.0004556293    1.066    0.062
        36 -10.8315    205.9429    170.0223   1.0684993356e+02   1.0481997183e+01    0.3913045    0.2027514  21.58  0.001724284    2.919    0.657
        37 -10.9082    226.4692    168.1986   1.0319101680e+02   7.0473009966e+00    0.3504908    0.1997233 -58.40  0.001314049    5.537    0.819
        38 -11.5873    144.7944    168.6865   1.1749579822e+02   2.1589360327e+01    0.3688072    0.2287718  52.92  0.002095481    1.454    0.312
        39 -11.3785    112.8534    169.0757   1.2365280946e+02   2.6793864304e+01    0.3278333    0.1863612  59.06  0.001812996    1.715    0.417
        40 -11.3647    140.0046    174.0006   1.1918482315e+02   2.1562973787e+01    0.2932645     0.177835  76.67  0.001022444    2.671    0.626
        41  -9.3925    163.2613    168.6395   1.1406995796e+02   1.8355424482e+01    0.1174681    0.0931273  84.25 0.0006978951    1.631    0.387
        42 -11.5111    230.0127    166.0253   1.0223608760e+02   6.6683429634e+00    0.1706852    0.1550396  89.77  0.001141374    1.692    0.409
        43 -10.8095    200.4791    164.0891   1.0671366299e+02   1.2226198745e+01    0.2492125    0.2208688  73.90   0.00137749    1.455    0.313
        44 -11.8867    105.5455    160.5879   1.2394408068e+02   2.9425668090e+01    0.2264995    0.1983356  67.17 0.0004401505    1.053    0.050
        45 -10.6384    122.6018    157.8005   1.2012543962e+02   2.7180902009e+01     0.278575    0.1824958  81.68  0.001476367    2.026    0.506
        46 -13.0002    133.9377    145.2670   1.1578900297e+02   2.7437032581e+01    0.9965302    0.2748072 -55.15  0.003104133    5.258    0.810
        47 -12.1558     14.1045    151.2863   1.4163801228e+02   4.2258964318e+01     0.394378    0.2209653  39.80  0.002733624    1.828    0.453
        48 -13.0810     14.1277    144.9299   1.4121256052e+02   4.3483514959e+01    0.4089634    0.2512631 -75.57  0.002914726    1.412    0.292
        49 -13.4733      5.7599    139.5988   1.4260758117e+02   4.5205503968e+01    0.6756541    0.3894293  77.74  0.001834024    1.364    0.267
        50 -13.4039      3.0412    126.4752   1.4233759368e+02   4.8013317650e+01     1.218317    0.3307034 -79.78  0.005706876    2.971    0.663
        51 -12.2156      3.1887    112.2777   1.4125926413e+02   5.0896926641e+01    0.2625856    0.2321815  79.05  0.001307752    1.254    0.203
        52 -10.9375    174.2962    148.3837   1.0846992796e+02   1.9380384392e+01    0.3045075    0.2410643 -57.49  0.001157932    1.526    0.345
        53 -12.7267    143.8392    145.1828   1.1376976718e+02   2.5655260061e+01    0.5365745    0.3188987 -69.10  0.002475508    2.551    0.608
        54 -13.0125    116.0640    139.0950   1.1846127215e+02   3.1685711577e+01    0.4898539     0.395797 -29.15  0.002898264    1.678    0.404
        55 -13.1979    106.3868    139.1972   1.2056392209e+02   3.3273574850e+01    0.4358455    0.2984018  58.93 0.0007233987    1.402    0.287
        56 -12.6924     21.0244    139.9316   1.3939232458e+02   4.3863886933e+01    0.3340059    0.1522082 -70.85  0.001238531    1.858    0.462
        57 -13.4092    119.8004    129.6979   1.1597189208e+02   3.2821984636e+01    0.5147313    0.4151058  39.91  0.001318729    1.305    0.234
        58 -13.8959    125.1909    125.6052   1.1400314626e+02   3.2634695816e+01    0.7027469    0.4378212 -57.34  0.003583083    1.694    0.410
        59 -12.7957    135.3827    122.5689   1.1116451999e+02   3.1301769660e+01    0.6042382    0.2170072 -51.45  0.002236089    3.094    0.677
        60 -11.5763    160.4858    128.1015   1.0708916159e+02   2.5378056756e+01    0.4017855    0.2443524 -36.03  0.001961715    1.823    0.452
        61 -10.3002    239.3336    126.6953   9.2873410276e+01   9.5295679221e+00    0.1204651    0.1041293 -64.97 0.0007038335    1.663    0.399
        62 -12.6462    113.7116    118.8403   1.1524627670e+02   3.6005899885e+01    0.3770845    0.2671435  78.10 0.0004260696    1.708    0.415
        63 -11.0133    172.0987    117.6020   1.0248576160e+02   2.4744124579e+01    0.4226745     0.274404  83.32  0.001640935    2.878    0.653
        64 -11.7688    134.5404    104.6116   1.0737777479e+02   3.4848393147e+01    0.5595062    0.1795509 -44.97   0.00193469    3.139    0.681
        65 -10.8255    205.5035    110.1566   9.4581592385e+01   1.8706230059e+01    0.3078564     0.188826  41.71 0.0008469806    1.583    0.368
        66 -10.5442    139.4925    216.9117   1.2468956652e+02   1.5444584484e+01    0.2505667    0.1550116  87.69  0.001455924    2.781    0.640
        67 -11.6210      9.6299    216.3674   1.4554799329e+02   3.1425021201e+01     0.266644    0.1393592 -53.07  0.001713747    3.877    0.742
        68 -10.9409     13.7759    243.6140   1.4586288825e+02   2.7064779613e+01   0.07030951   0.05591261 -84.87 0.0006876823    1.620    0.383
        69 -12.3295     10.7078    110.8712   1.3930283007e+02   5.0646101814e+01    0.3862499    0.2138323   8.82  0.002060161    3.334    0.700
        70 -10.4452     99.5284    213.6984   1.3096045602e+02   2.1618408573e+01     0.126042   0.08566298  81.40 0.0009037433    1.529    0.346
        71 -10.7641    124.5910     94.8632   1.0732502228e+02   3.8705775056e+01    0.2287145    0.1912362  35.99  0.000530922    1.302    0.232
        72 -10.6697     95.5236    208.4074   1.3115349968e+02   2.2949642257e+01    0.1764352     0.085706  42.67 9.352918e-05    1.741    0.426
        73 -12.1919     94.3707    202.7252   1.3082627844e+02   2.3976589848e+01    0.6367273     0.342456 -61.47  0.004105868    2.141    0.533
        74 -10.0971     13.9626    248.0641   1.4597631814e+02   2.6436527700e+01    0.2075122   0.09057564  50.71   0.00167798    1.498    0.333
        75 -10.4624     13.5395     59.8228   1.3190856451e+02   6.1402813753e+01     0.166454    0.1534835 -82.63 0.0003793677    1.204    0.170
        76 -13.0210    170.9475     27.6764   7.6627732956e+01   3.8970726189e+01     0.483445    0.3691647  -5.51  0.001096072    1.403    0.287
        77 -10.5987    140.7312     32.5975   8.4045739403e+01   4.6036535516e+01    0.2453416    0.1864038  72.28 0.0005812244    1.499    0.333
        78 -11.3954     21.7841    242.2278   1.4469717762e+02   2.6496411304e+01    0.1255408   0.09674923 -73.39  0.001112332    1.809    0.447
        79 -11.6164    189.5244     14.9851   6.9623062003e+01   3.5495758706e+01    0.2285877     0.203188  67.15 0.0007384525    1.134    0.118
