#   1 NUMBER                 Running object number                                     
#   2 MAG_AUTO               Kron-like elliptical aperture magnitude                    [mag]
#   3 X_IMAGE                Object position along x                                    [pixel]
#   4 Y_IMAGE                Object position along y                                    [pixel]
#   5 X_WORLD                Barycenter position along world x axis                     [deg]
#   6 Y_WORLD                Barycenter position along world y axis                     [deg]
#   7 A_WORLD                Profile RMS along major axis (world units)                 [deg]
#   8 B_WORLD                Profile RMS along minor axis (world units)                 [deg]
#   9 THETA_WORLD            Position angle (CCW/world-x)                               [deg]
#  10 FWHM_WORLD             FWHM assuming a gaussian core                              [deg]
#  11 ELONGATION             A_IMAGE/B_IMAGE                                           
#  12 ELLIPTICITY            1 - B_IMAGE/A_IMAGE                                       
         1 -12.7919     84.7804     24.2368   1.3013203546e+01   6.1124162787e+01    0.3420909    0.2179975 -63.20  0.001403974    2.096    0.523
         2 -11.3408     70.6322     20.9959   1.6084797048e+01   6.4970598931e+01    0.1934997    0.1777848 -21.89 0.0006727369    1.170    0.145
         3 -11.0253    147.0334     11.9744   3.5638964876e+02   4.6415034453e+01     0.203913    0.1752521 -80.66 0.0003286043    1.008    0.008
         4 -11.6461     92.3616      8.2836   3.4372195589e+00   6.1012458940e+01    0.2291261     0.193103  42.31 0.0006423959    1.220    0.180
         5 -10.2382     32.9831      8.7640   2.7041417781e+01   7.4584445578e+01    0.1650068     0.100226  41.75 0.0004515424    1.529    0.346
         6 -11.0370     72.3006      6.6724   7.7428695504e+00   6.6229867486e+01    0.1361157    0.1009509 -67.26 0.0002941025    1.640    0.390
         7 -10.6140    140.4842      4.4558   3.5458331915e+02   4.8812521160e+01    0.1353523    0.1171303 -87.05 0.0003023942    1.036    0.034
         8 -10.4596     36.5303      4.5563   2.1690127369e+01   7.4479472852e+01    0.1282882    0.1148903  28.36 5.293433e-05    1.054    0.051
         9 -11.2424     24.9907      2.0221   2.7565700871e+01   7.6936306762e+01    0.1952502    0.1651308  19.99 0.0007898592    1.031    0.030
        10 -10.2640      4.4369      1.4430   4.6951300250e+01   7.9862810401e+01    0.1212859    0.1018411 -10.86  0.000122286    1.011    0.010
        11 -12.1836    171.3248    240.8930   4.5132118333e+01   2.9233168111e+00    0.4154777    0.2186122  31.49  0.001799903    1.638    0.390
        12 -10.7162    237.5552    250.7144   3.5045153334e+01  -5.0984515713e+00    0.1787308   0.07110016  26.02  0.001100831    2.204    0.546
        13 -11.3708    171.6343    249.7259   4.6216545893e+01   1.6884141802e+00    0.2395773    0.1397983   0.53  0.001434235    1.792    0.442
        14 -12.5018    139.6985    248.0669   5.2292647154e+01   5.6180276692e+00    0.3268727    0.2643945 -56.40  0.002115508    1.716    0.417
        15 -12.2434    143.0163    242.1917   5.0919403883e+01   6.1020854164e+00     0.266529    0.2238495   4.13 0.0006551979    1.127    0.113
        16 -11.2263    125.0578    249.3353   5.5456339836e+01   7.1709388587e+00    0.1793824     0.148586  -9.76  0.000541203    1.301    0.231
        17 -11.6163    114.8932    249.3896   5.7600013719e+01   8.3765041966e+00    0.3136168    0.1758652  51.92  0.001703084    2.205    0.546
        18 -10.6375    105.7603    250.6547   5.9667344340e+01   9.2599944354e+00    0.1702103   0.08322906  34.74 0.0004494741    1.566    0.362
        19 -11.7294     57.4715    249.1347   7.0036751869e+01   1.5045480836e+01    0.2292196    0.1950434  14.02  0.001183033    1.318    0.241
        20 -12.6177     50.2962    245.9037   7.1417074043e+01   1.6399099135e+01    0.4377102     0.287151 -88.25  0.002119052    1.802    0.445
        21 -14.1716     36.2082    230.0760   7.3716159477e+01   2.0898121953e+01     1.000632    0.6140899 -64.62  0.004206561    1.941    0.485
        22 -14.5469      5.2867    182.6576   7.9243136707e+01   3.4218341517e+01    0.9090167    0.8021082  81.22   0.00407864    1.145    0.126
        23 -14.9785     10.6131    190.6782   7.8141425441e+01   3.1890040874e+01     1.075382     0.918866  -7.46  0.005450387    1.511    0.338
        24 -15.4950     27.2479    184.0534   7.3269192812e+01   3.1973431543e+01     1.737803    0.8243103 -56.11  0.007192609    2.398    0.583
        25 -14.8451     15.2150    165.4668   7.5569742808e+01   3.7678703534e+01     1.523954    0.6165915  75.40  0.005546522    2.650    0.623
        26 -12.5255      1.7883    227.0647   8.1458764271e+01   2.4679930416e+01    0.2065939    0.1481652  77.19 0.0006934132    1.317    0.240
        27 -14.8034      3.7625    216.9405   8.0747806224e+01   2.6607776608e+01     1.403749    0.5504935 -82.53  0.006859023    2.596    0.615
        28 -14.3464      5.0014    201.5570   7.9987661457e+01   2.9854474225e+01    0.8345926    0.5524845  10.33  0.004812643    1.809    0.447
        29 -13.7447     17.7824    237.6417   7.8217341800e+01   2.1192627702e+01    0.4606167     0.247753  45.38  0.001504825    1.365    0.267
        30 -14.5813     16.1009    230.4148   7.8338132241e+01   2.2768369884e+01    0.8686414    0.5155015  39.19  0.005337349    1.285    0.222
        31 -15.4197      4.2951    247.1763   8.1382882417e+01   2.0578611140e+01     1.047885    0.6251612  56.20  0.007026062    1.288    0.223
        32 -14.8433     10.1068    239.2094   7.9945318942e+01   2.1578878068e+01    0.5397556    0.4576763 -82.79  0.004031486    1.422    0.297
        33 -14.3489      6.8649    235.5111   8.0549288461e+01   2.2576164875e+01    0.4145069    0.2804039  76.00  0.002204999    1.400    0.286
        34 -11.7838    126.7078    242.2573   5.4329724837e+01   8.0817072946e+00    0.2329627    0.1582434  47.47 0.0007125601    1.639    0.390
        35 -13.8042     14.4969    209.5082   7.7927946647e+01   2.7288981571e+01    0.6812258    0.5517461  86.07  0.004519045    1.260    0.206
        36 -12.0550    117.2414    241.5616   5.6276924397e+01   9.3565861790e+00    0.2184254    0.1772329  26.74 0.0001837122    1.042    0.041
        37 -10.3343     76.2645    242.3210   6.5388513371e+01   1.4158394689e+01    0.1095155   0.08806471  -9.06  0.000560208    1.556    0.357
        38 -10.7331    180.7845    240.3743   4.3274000114e+01   1.9078264288e+00    0.1470477   0.08586355  16.63 0.0001143512    1.445    0.308
        39 -11.9838     66.6451    239.8446   6.7361367307e+01   1.5715662015e+01    0.4686312    0.1155913  39.66  0.001904345    2.746    0.636
        40 -10.7978    175.4497    238.2679   4.3993855313e+01   2.8081479318e+00    0.1311994    0.1105784 -43.44 0.0009365979    1.637    0.389
        41 -11.2379    210.3742    236.2268   3.7414863022e+01  -8.0032694081e-01    0.1839035    0.1646915 -42.48  0.001278771    1.904    0.475
        42 -11.2975    137.8871    236.3283   5.1270525617e+01   7.6415614123e+00    0.1736685    0.1604748  36.56 0.0005036395    1.306    0.234
        43 -12.4575     69.2210    235.6261   6.6453039752e+01   1.6206243196e+01    0.3313041     0.264794 -13.16  0.001075365    1.620    0.383
        44 -11.9459     73.5640    231.0016   6.5072808063e+01   1.6573079610e+01    0.3615866    0.1953818 -68.82  0.001028325    2.240    0.554
        45 -11.3323     47.6979    235.9480   7.1407225598e+01   1.8545360694e+01    0.1665457    0.1375569  53.98  0.000630546    1.112    0.101
        46 -12.1981    165.6832    234.3389   4.5351410430e+01   4.5234854661e+00    0.2120845    0.1730955  17.96  0.000254273    1.140    0.123
        47 -12.9302    243.3209    233.2814   3.1703340425e+01  -3.7279873261e+00    0.2045412    0.1459738  -8.83 0.0005296587    1.092    0.085
        48 -12.4564    158.5146    233.4524   4.6657764598e+01   5.5279859524e+00    0.2245808    0.1857332   3.04 0.0005988769    1.089    0.082
        49 -11.7005     58.1595    233.8777   6.8868893446e+01   1.7799410544e+01    0.2932184     0.154479  44.58 0.0008999171    1.525    0.344
        50 -11.3055     56.3366    230.1817   6.9031887149e+01   1.8722016989e+01     0.221124    0.1836405   2.80 0.0006857057    1.449    0.310
        51 -12.0281    181.7102    231.3206   4.1848870474e+01   3.0422225820e+00     0.363245    0.2114094  45.97  0.001974791    2.575    0.612
        52 -10.8707    111.3102    233.6580   5.6714174728e+01   1.1430292398e+01    0.1256006   0.08348768  52.26 0.0007045087    1.696    0.410
        53 -13.4169     13.9541    224.2631   7.8611183408e+01   2.4208710507e+01    0.3728894    0.2623101  54.65   0.00188983    1.121    0.108
        54 -11.8487    222.7355    231.7327   3.4705488933e+01  -1.5349876536e+00    0.1829617    0.1075923 -25.06 0.0008001346    1.477    0.323
        55 -13.0622    149.7032    228.7581   4.7831565332e+01   7.3522604904e+00    0.4476047    0.3333588 -76.39  0.001623933    2.464    0.594
        56 -11.7600     61.5206    231.4740   6.7915567000e+01   1.7884232095e+01    0.2513628    0.1839787  47.17 0.0009012634    1.147    0.128
        57 -10.8313     61.4894    228.4627   6.7696467182e+01   1.8476062826e+01    0.1496185    0.1193995 -58.43 -5.439278e-05    1.531    0.347
        58 -10.8102    216.7681    231.4127   3.5642275826e+01  -8.7803903854e-01     0.142923   0.08254902  13.59 0.0002779507    1.498    0.333
        59 -12.9473    194.1760    227.8521   3.9048233023e+01   2.0678144003e+00    0.3606463    0.2405565 -25.53  0.001569523    1.412    0.292
        60 -12.3342     80.5287    225.6649   6.2964843238e+01   1.6757478743e+01     0.336869    0.2681123 -52.46  0.001352018    1.516    0.340
        61 -11.7415    155.8172    227.3385   4.6379678761e+01   6.7993832584e+00    0.1877614    0.1317022  36.01 0.0008205521    1.409    0.290
        62 -11.0752    138.3643    227.1596   5.0013209021e+01   9.0651414896e+00    0.1473963    0.1211171 -65.53 0.0005293312    1.702    0.413
        63 -11.5823    127.9347    227.3266   5.2296273611e+01   1.0389820911e+01    0.1811172    0.1362017  23.32 0.0004428341    1.099    0.090
        64 -13.3444    117.0083    225.5918   5.4514070990e+01   1.2115644596e+01    0.5057378    0.3305434  70.02  0.001305818    2.568    0.611
        65 -13.0277    116.6991    214.9433   5.3270839691e+01   1.4097099248e+01     0.465956    0.2663808  13.78 0.0003393332    2.031    0.508
        66 -13.1250    125.5849    222.1552   5.2166923258e+01   1.1594653207e+01    0.6203111    0.2369774  38.51  0.002729332    2.276    0.561
        67 -11.9318    122.4739    217.5058   5.2273292794e+01   1.2842255986e+01    0.2253269    0.1692609  31.74 0.0007271761    1.143    0.125
        68 -12.1208    106.2972    226.3151   5.7030464706e+01   1.3376515039e+01    0.2735206    0.1940035  -5.72  0.001543995    1.737    0.424
        69 -12.8571    161.0507    222.9154   4.4696755969e+01   6.8226940271e+00    0.3532498    0.1961291  34.19  0.001167177    1.627    0.386
        70 -11.4215    100.6942    224.5391   5.8125018884e+01   1.4426727319e+01    0.2308726    0.1103546  25.92 0.0006471489    1.862    0.463
        71 -11.9837     92.9822    223.5177   5.9816757972e+01   1.5608803443e+01    0.3629227     0.200325  -0.48  0.001145293    3.385    0.705
        72 -13.8119     49.7289    216.5752   6.9645790492e+01   2.2228804398e+01     1.094981    0.5282237 -65.15  0.004470432    2.309    0.567
        73 -13.1567     36.1324    196.2047   7.1676805717e+01   2.8203369969e+01    0.7277761    0.3388342  32.09  0.003429872    1.807    0.447
        74 -13.6352     35.7876    204.5627   7.2325420875e+01   2.6339300098e+01    0.4257971    0.3186721  54.27   0.00108354    1.129    0.114
        75 -12.6222     34.1818    200.1931   7.2457879012e+01   2.7490497224e+01    0.3524971    0.2049625  27.50 0.0004964049    1.579    0.367
        76 -11.5953     57.0084    220.3144   6.8145620383e+01   2.0628890594e+01    0.3085579    0.1904383 -76.13  0.001149533    1.862    0.463
        77 -14.8748     26.5378    216.5680   7.5310966319e+01   2.4647374830e+01     1.532469     1.044093  27.42  0.009233322    1.369    0.269
        78 -11.4918    246.9676    221.0089   2.9334495389e+01  -2.6807699763e+00    0.1370606    0.1202854 -18.86  0.001131188    1.664    0.399
        79 -12.4223    190.1140    220.1483   3.8649310369e+01   3.6153561794e+00    0.2046076    0.1589386   7.73 0.0003096354    1.050    0.047
        80 -12.9225    173.6190    219.9007   4.1752746929e+01   5.6878048467e+00    0.3107565    0.2167431 -34.74  0.001103854    1.495    0.331
        81 -11.8220    238.7410    220.0384   3.0425136421e+01  -1.7567070359e+00    0.1953959    0.1100228  10.78  0.001287645    1.647    0.393
        82 -11.5796    174.2749    228.0733   4.2807421464e+01   4.3948651477e+00    0.1597974    0.1316249  -5.81 0.0003897307    1.126    0.112
        83 -12.8188     76.2118    219.2168   6.3391723016e+01   1.8562778304e+01    0.5907673    0.2100993  39.14  0.002220136    2.195    0.544
        84 -13.2390    129.4230    217.1240   5.0654440708e+01   1.1971051113e+01    0.2993506    0.2097449  25.92 0.0008391739    1.214    0.176
        85 -13.4595    143.9693    215.7893   4.7268095807e+01   1.0234846397e+01    0.5720224    0.3688004  62.35  0.002721374    2.915    0.657
        86 -11.9994     93.3645    217.2019   5.9049745882e+01   1.6781482503e+01    0.4148247    0.1614658  34.02  0.001421419    2.051    0.512
        87 -11.9683     61.6122    215.8383   6.6660874622e+01   2.1021370510e+01    0.3132184    0.1794042  69.22  0.001566322    2.042    0.510
        88 -10.7517    226.2130    216.3933   3.1830842608e+01  -6.8341679018e-03      0.13329   0.09177061  27.41 0.0003448198    1.543    0.352
        89 -12.7085    107.9161    214.1040   5.5222736466e+01   1.5448210614e+01    0.3633103    0.2645015 -59.58  0.002105462    1.634    0.388
        90 -11.4810    233.2728    214.2111   3.0371901078e+01  -4.8542298122e-01     0.215491    0.1258508  -9.95  0.001113453    1.545    0.353
        91 -11.7053     84.2600    214.0603   6.0918726390e+01   1.8589189927e+01    0.4279564    0.2289239  45.81  0.001938054    1.702    0.413
        92 -12.0331    156.3008    212.2191   4.4124322677e+01   9.1691498461e+00    0.4914386    0.1794799 -49.59  0.001735027    3.216    0.689
        93 -12.5723    126.3641    212.2197   5.0687887003e+01   1.3276107756e+01    0.3523341    0.2321156  88.56  0.001609127    3.119    0.679
        94 -10.8295     73.4320    212.1778   6.3401593370e+01   2.0350718948e+01    0.2936745    0.1498352  12.53  0.001220654    2.703    0.630
        95 -11.2703    250.6287    211.2167   2.7292371536e+01  -1.8957343613e+00    0.1466773   0.07401082 -23.67 0.0002988909    1.601    0.375
        96 -12.7003    161.8080    207.8369   4.2314117943e+01   9.1481690680e+00    0.4601263    0.3011038 -59.69  0.001247131    2.310    0.567
        97 -11.1452     96.9750    209.3953   5.7285425372e+01   1.7855504587e+01    0.2909391      0.17299 -75.44  0.001413158    2.306    0.566
        98 -12.9713     26.9695    206.6896   7.4693243627e+01   2.6751389623e+01    0.3396875    0.2984257 -67.31 0.0006737083    1.354    0.262
        99 -11.9967    180.1806    207.3495   3.8554409485e+01   6.7647949107e+00    0.2498733    0.1807663  24.86 0.0003750029    1.262    0.208
       100 -11.3630    242.6291    207.1812   2.7834316869e+01  -5.9796117777e-01    0.1532384   0.07772554 -24.60 0.0008982532    1.638    0.389
       101 -11.6528    103.7754    205.5725   5.5153933103e+01   1.7694986819e+01    0.2590015    0.2028293  35.66 0.0009927077    1.113    0.101
       102 -11.2208     89.1547    204.2292   5.8616427858e+01   1.9974118251e+01    0.2737388    0.2074393  61.22   0.00129901    1.420    0.296
       103  -9.9591     83.0334    201.9728   5.9908564823e+01   2.1273195536e+01    0.6809393     0.441655 -40.13  0.001785622    1.921    0.479
       104 -12.2076     82.9833    196.8076   5.9324607044e+01   2.2400001706e+01    0.3567536    0.2977526  52.28  0.002084619    1.139    0.122
       105 -12.3269     90.9850    198.9913   5.7525624722e+01   2.0833792229e+01    0.5391799    0.3814556  29.38  0.001622816    1.264    0.209
       106 -12.4113     92.0422    192.9716   5.6494779391e+01   2.1986559962e+01    0.4973376    0.3879213  55.75  0.001913708    1.306    0.234
       107 -10.3742     62.3140    205.6439   6.5595222088e+01   2.3113775259e+01     0.146102   0.08368146  56.54 0.0007044578    1.741    0.426
       108 -12.8792    145.2297    200.8436   4.4787098320e+01   1.2686350907e+01    0.4471083    0.3591229  82.15  0.001123765    2.005    0.501
       109 -12.7010     42.3219    211.2399   7.1111075299e+01   2.4179247716e+01    0.5988435    0.3358682  16.46  0.001728621    1.992    0.498
       110 -11.7942    214.7332    200.5980   3.1197119510e+01   3.3959150358e+00    0.3287117    0.1581409  26.71  0.001143104    2.067    0.516
       111 -13.3651    136.5396    198.8852   4.6441780977e+01   1.4307907497e+01    0.4120927    0.3429618 -57.21  0.002468069    1.450    0.310
       112 -13.2712    121.8426    197.5310   4.9678544850e+01   1.6721862434e+01    0.4971865    0.3157375 -43.93  0.002567857    1.729    0.422
       113 -13.0114    176.7482    197.6769   3.7663160149e+01   8.7633945296e+00    0.3875695    0.3514912  53.17  0.002547444    1.550    0.355
       114 -12.7153    172.7050    195.7708   3.8154818382e+01   9.6410859623e+00    0.2483004    0.2220914 -14.18 0.0003592765    1.148    0.129
       115 -12.0480     32.8993    209.3413   7.3352250592e+01   2.5577524128e+01     0.303801    0.2359252  66.46 0.0009078812    1.174    0.149
       116 -12.3663    149.6178    196.8883   4.3199099977e+01   1.2764850888e+01    0.2886127    0.1619508 -54.44  0.001395029    2.208    0.547
       117 -10.3542     59.2724    198.3814   6.5717173571e+01   2.5093650538e+01    0.1310033   0.09982387 -32.54 0.0006996976    1.701    0.412
       118 -12.3278    192.6763    194.5646   3.4089080958e+01   7.0877705728e+00    0.3121099    0.2158087  20.33 0.0009693234    1.347    0.257
       119 -10.8583    188.5777    191.8026   3.4386817786e+01   8.0758846893e+00    0.1704998    0.1475541 -16.05   0.00046985    1.137    0.120
       120 -10.9439    160.4987    192.9641   4.0211557246e+01   1.1874196453e+01    0.1829923    0.1246456 -40.60 0.0005088885    1.520    0.342
       121 -12.7593    132.6451    191.9495   4.6270190762e+01   1.6213273274e+01    0.3874077    0.2571296 -25.14  0.001947231    1.804    0.446
       122 -10.7662    164.5218    192.4189   3.9274235918e+01   1.1382536868e+01    0.1298353    0.1123557   7.64 4.489159e-05    1.022    0.022
       123 -12.9328    110.6683    188.8843   5.1153586148e+01   2.0149454381e+01    0.4148135    0.2943487 -85.77  0.002043514    2.011    0.503
       124 -13.0239    105.1195    182.9218   5.1687545906e+01   2.2270840111e+01    0.3173889    0.2445686 -47.57 0.0006112825    1.412    0.292
       125 -10.4758    168.2977    189.3004   3.7963344779e+01   1.1371501434e+01    0.1321259    0.0916738  -5.19 0.0002981175    1.577    0.366
       126 -12.3732    151.3926    188.7484   4.1478404749e+01   1.3988234766e+01    0.3274994    0.2009852 -22.40   0.00138786    1.994    0.499
       127 -12.4630    155.8679    185.8792   4.0011414848e+01   1.3837646592e+01    0.3550996    0.2270834 -29.71   0.00182967    1.664    0.399
       128 -11.7880    197.9046    188.0969   3.2022165204e+01   7.3830610699e+00      0.20096    0.1588088  16.55 0.0003684525    1.190    0.160
       129 -11.6710    186.0936    187.2038   3.4065270782e+01   9.1595176259e+00    0.2045926    0.1601203 -21.93 0.0004226545    1.162    0.139
       130 -12.5358    106.5865    195.1446   5.3075148399e+01   1.9436153699e+01    0.4103378     0.222752  20.73 0.0009900106    2.005    0.501
       131 -11.7686     51.0057    190.4341   6.7207454077e+01   2.7906160322e+01    0.3450674    0.1771898  40.58  0.001186827    1.640    0.390
       132 -11.2786    227.6131    186.3515   2.6694880835e+01   3.8140118232e+00    0.2395145    0.1407093 -19.31  0.001434952    1.548    0.354
       133 -13.6023    126.1912    185.2304   4.6743106681e+01   1.8540781951e+01    0.6939237     0.303865  43.92  0.002802705    2.338    0.572
       134 -11.0235    209.3266    186.2894   2.9692038461e+01   6.1341436324e+00    0.1239522    0.0800591  -4.01 0.0002640182    1.615    0.381
       135 -11.1468    163.8660    184.9245   3.8133171089e+01   1.2798568794e+01    0.1910581    0.1648547  69.28  0.001114835    1.687    0.407
       136 -12.9253    134.2428    181.9894   4.4274318858e+01   1.7939796254e+01    0.3096057    0.2841291   4.35 0.0004200995    1.043    0.041
       137 -12.8782    138.3838    177.9962   4.2611522513e+01   1.8083429435e+01     0.365182    0.2920493  53.80 0.0003805697    1.453    0.312
       138 -12.0314     94.8682    181.6188   5.4203208582e+01   2.4101186555e+01    0.4312102    0.3067964 -64.07  0.002032954    1.558    0.358
       139 -11.1767    235.4756    189.4602   2.6008668731e+01   2.4578833910e+00    0.1143101   0.08639646 -12.65 -9.742387e-06    1.002    0.002
       140 -10.8021    249.0287    181.0265   2.2590245111e+01   2.0137048084e+00    0.1336198   0.09819184 -16.97 0.0003017109    1.008    0.008
       141 -13.3383    115.8454    178.4509   4.8224300325e+01   2.1582356575e+01    0.4404757    0.2863491  15.56  0.002049053    1.785    0.440
       142 -12.1279     49.1336    178.7325   6.6634954540e+01   3.0932295046e+01    0.2537927    0.2366627 -56.58 0.0005978544    1.227    0.185
       143 -12.7928    154.9925    177.5146   3.8738104021e+01   1.5529328714e+01    0.4008644    0.3291749  89.65  0.002167224    1.887    0.470
       144 -11.3138    171.7495    178.1871   3.5299993748e+01   1.2796305096e+01     0.181532    0.1716036  -4.72 0.0005120155    1.160    0.138
       145 -12.3412     63.9015    176.7166   6.2173905583e+01   2.9599153632e+01    0.5004518    0.2955833   7.23  0.002102443    2.397    0.583
       146 -11.5425    214.1568    176.5420   2.7147261684e+01   6.9464819400e+00    0.2020971    0.1450068 -27.55 0.0002813647    1.198    0.165
       147 -11.1607    191.4432    177.4876   3.1324751075e+01   9.9757311679e+00     0.127307     0.108776  -9.43 9.657608e-05    1.021    0.021
       148 -13.7783    129.0091    175.7737   4.4481237745e+01   2.0046340842e+01    0.5182828    0.4851721 -56.60  0.001747299    1.192    0.161
       149 -12.6234    132.9933    169.1217   4.2330005068e+01   2.0782065130e+01    0.3588148    0.3156937 -58.92 0.0008190714    1.274    0.215
       150 -14.3461      5.6416    166.3853   7.8460436128e+01   3.8191931987e+01     1.060213    0.6004414 -85.28   0.00437752    1.644    0.392
       151 -12.2042    106.5924    175.2418   5.0112594013e+01   2.3745282398e+01    0.2802507    0.1871881  34.30 0.0008680779    1.377    0.274
       152 -12.3664    145.8022    173.4358   4.0073849638e+01   1.7792681776e+01    0.2487821     0.229082  -2.87 0.0002526119    1.033    0.032
       153 -11.5591    122.9721    174.0572   4.5685919372e+01   2.1385880381e+01    0.2176473    0.1987527  15.17 0.0003806452    1.050    0.047
       154 -13.2646     81.1203    172.6151   5.6718531635e+01   2.8220460387e+01    0.5384542    0.2735649  27.90  0.001424909    1.927    0.481
       155 -12.9043     90.5775    171.4167   5.3876605498e+01   2.7102547299e+01    0.4388121    0.3103782 -36.25  0.002124016    1.688    0.408
       156 -12.3288     87.7091    168.4349   5.4233531068e+01   2.8246131824e+01    0.3099006    0.2316283   1.57 0.0009357609    1.690    0.408
       157 -12.1880     44.1822    172.1211   6.7436756922e+01   3.3142376328e+01    0.2697101    0.1972223  69.11 0.0003651807    1.323    0.244
       158 -12.2000     40.3439    168.8636   6.8270228777e+01   3.4392222981e+01    0.3127371    0.2327802  23.67 0.0008933314    1.384    0.277
       159 -12.4319    153.1605    170.1970   3.7809561542e+01   1.7223493758e+01    0.2414213    0.2329197 -17.87 0.0005998433    1.122    0.109
       160 -12.8023    152.2560    164.8288   3.7000180266e+01   1.8421960414e+01    0.3360055    0.2766123  44.12 0.0005262243    1.296    0.228
       161 -12.1881    138.0601    169.7922   4.1227724349e+01   1.9800025714e+01    0.4784638    0.1865768 -41.44  0.001767852    2.813    0.645
       162 -12.4571     53.4438    170.6355   6.4535666942e+01   3.2424112592e+01    0.2967415    0.2298314 -49.98 9.262062e-05    1.460    0.315
       163 -11.4449    145.3091    169.0870   3.9391447048e+01   1.8738408596e+01     0.188588     0.174177 -31.91 0.0003224532    1.116    0.104
       164 -11.8270     62.7718    170.3003   6.1734061183e+01   3.1324990175e+01    0.2454253    0.1877576  34.54 0.0007109905    1.221    0.181
       165 -14.6381     34.2897    247.2294   7.4990892416e+01   1.7800896454e+01     2.103009    0.4380866  34.60  0.008989212    2.713    0.631
       166 -12.5601    199.0744    164.3715   2.7488771615e+01   1.0991750000e+01     0.232437    0.2030874 -35.47 0.0003361708    1.232    0.188
       167 -13.0053    111.4959    163.4664   4.6823115452e+01   2.5613354856e+01    0.4657219     0.308418 -34.31  0.002134232    1.785    0.440
       168 -12.7822     45.1203    164.5127   6.6387035709e+01   3.4966294091e+01    0.5621067    0.2437335 -35.49  0.001706713    4.781    0.791
       169 -12.0539    127.3943    166.2507   4.3194629008e+01   2.2328922533e+01    0.3073871    0.2272273 -12.67  0.001388116    1.680    0.405
       170 -11.7374     96.6977    164.3136   5.1037106420e+01   2.7831518853e+01    0.2223862    0.1850725  32.77 0.0004738548    1.141    0.123
       171 -13.9352     92.4541    162.6971   5.1974943650e+01   2.8890148339e+01    0.7216172    0.3675796  23.93  0.002116027    2.234    0.552
       172 -12.9302    120.6359    167.2771   4.5097625474e+01   2.3237801829e+01    0.5572495    0.2218809  42.69  0.002060043    2.466    0.594
       173 -10.2326    141.7005    162.7046   3.9035827334e+01   2.0642767686e+01    0.1433611    0.1082647  -6.58 0.0002476604    1.571    0.364
       174 -12.3986    170.0437    160.5064   3.2313689993e+01   1.6266528906e+01    0.2662602    0.2444423  -9.28   0.00102913    1.029    0.028
       175 -12.0567    198.0638    170.4312   2.8812524252e+01   1.0156897316e+01    0.2897017    0.2555936  60.60  0.001840046    1.655    0.396
       176 -12.4213    191.5916    158.5255   2.7712433179e+01   1.3117949316e+01      0.43035    0.2426963 -54.86  0.001832643    2.513    0.602
       177 -11.7533     25.8022    159.7224   7.1925899489e+01   3.8224474019e+01    0.2461174    0.2036002  76.35 0.0003111279    1.099    0.090
       178 -12.3922    105.0419    158.7048   4.7737787187e+01   2.7792609342e+01    0.4561733     0.240152  52.01  0.001504605    2.218    0.549
       179 -11.7155     69.2357    159.0156   5.8291212037e+01   3.3284500788e+01    0.2039139    0.1918251  75.61  0.000419679    1.048    0.046
       180 -12.9449    132.1182    155.9904   4.0067336476e+01   2.3726691942e+01    0.4981487    0.3312624  55.83   0.00226856    1.826    0.452
       181 -12.3046     31.8725    157.4848   6.9823637807e+01   3.8219257564e+01    0.2344156    0.1853765 -54.60  0.001160964    1.388    0.280
       182 -11.9279    213.2224    156.9760   2.3655515546e+01   1.0072225849e+01    0.1915692    0.1701513   5.43 0.0004120786    1.160    0.138
       183 -12.6838    118.5375    156.8607   4.3732595817e+01   2.5914968094e+01    0.2967503    0.2329403  -3.76  0.001255569    1.549    0.355
       184 -12.1254     47.8073    155.8082   6.4576240079e+01   3.6908659160e+01    0.2418081    0.1810235 -65.43 0.0007349898    1.356    0.263
       185 -13.8893     82.3114    152.4694   5.3274990987e+01   3.3000604567e+01    0.6907322     0.406309 -35.25  0.002519315    2.288    0.563
       186 -13.3239     75.3959    151.0308   5.5168734248e+01   3.4424441851e+01    0.5466172    0.2796711  45.54  0.001611701    1.907    0.476
       187 -12.5564     67.1648    153.7692   5.8168567881e+01   3.4919377060e+01    0.3100447    0.2353982 -27.59 0.0006238391    1.660    0.398
       188 -11.9419     19.8789    154.0799   7.3358013802e+01   4.0232082327e+01     0.294418    0.2189616  67.84  0.001078204    1.221    0.181
       189 -13.5453      4.6794    151.3269   7.8026754444e+01   4.2119535384e+01    0.6099088    0.4398819 -60.84  0.002403894    1.464    0.317
       190 -13.9983     11.5987    143.1624   7.5281864843e+01   4.3786436911e+01     0.695427    0.4256659 -54.82  0.001961335    1.730    0.422
       191 -10.9421    200.0738    153.7255   2.5241977862e+01   1.2588877665e+01    0.1728789    0.1537068  -7.79 0.0003248256    1.064    0.060
       192 -11.1970     61.9962    154.5278   5.9904919051e+01   3.5436874490e+01    0.2342252    0.1375715  32.80  0.001032231    1.607    0.378
       193 -13.1411     20.2895    203.4309   7.6215443695e+01   2.8111907579e+01    0.4034121    0.2854587 -77.63  0.001508632    1.502    0.334
       194 -11.7822    141.2204    155.5395   3.7750254326e+01   2.2212999703e+01    0.2435579    0.1977589 -44.20 0.0003392959    1.250    0.200
       195 -11.1353    154.1584    150.8498   3.3792332046e+01   2.0869946012e+01    0.2000964    0.1928553  80.18 0.0004008836    1.210    0.174
       196 -12.4635     27.5659    150.3036   7.0553724072e+01   4.0535499918e+01    0.3352412    0.2698338 -12.61 0.0008784297    1.548    0.354
       197 -12.2612    146.9203    149.0591   3.5080755556e+01   2.2538143650e+01    0.2811333    0.1956841 -43.99 0.0007134461    1.430    0.301
       198 -12.2069     95.9132    148.9858   4.8579376654e+01   3.1659105562e+01    0.2686011    0.2135973  36.68 0.0007395371    1.209    0.173
       199 -11.6360    210.0192    148.1126   2.2442911954e+01   1.1956243550e+01    0.1878642     0.158635 -22.59 0.0003447393    1.014    0.013
       200 -12.8811     20.4029    138.5051   7.1904038618e+01   4.4345535753e+01    0.3308475    0.2614896  54.74 0.0008873526    1.184    0.156
       201 -10.6429    192.5255    147.4824   2.5327233855e+01   1.4856697762e+01    0.1333243    0.1170484 -19.94 4.984424e-05    1.002    0.002
       202 -10.6338    232.3327    145.3047   1.8477576881e+01   9.0842106573e+00    0.1219302   0.08249145  -6.35 0.0003926663    1.661    0.398
       203 -11.4437    157.5545    145.1841   3.1849048356e+01   2.1387489402e+01    0.2753158    0.1975992  28.17 0.0007584909    1.476    0.322
       204 -11.8038    109.1152    149.2961   4.4844105842e+01   2.9309681740e+01    0.3077314    0.2493088  50.08 0.0006642033    1.242    0.195
       205 -11.0607    150.8643    141.4888   3.2560404926e+01   2.3368967041e+01    0.2302789    0.1905702 -26.72 0.0003806218    1.227    0.185
       206 -12.9102    142.9618    143.5246   3.4849629710e+01   2.4421566334e+01    0.3377379    0.2741127 -19.72 0.0005107021    1.346    0.257
       207 -11.4288    105.1610    145.2128   4.5163143561e+01   3.0978372227e+01    0.2885428    0.2207543  43.90 0.0008438974    1.271    0.213
       208 -11.7969    101.9835    141.9850   4.5441389749e+01   3.2320523921e+01    0.3607634    0.2498448 -79.62   0.00156227    1.878    0.467
       209 -12.4994      1.9964    140.8069   7.8354635882e+01   4.5056997052e+01    0.6236241    0.1818976  83.79   0.00201524    3.733    0.732
       210 -11.2421    178.7608    141.8004   2.6725427323e+01   1.8218206821e+01    0.2301535    0.1430697  -3.09 0.0009431682    2.710    0.631
       211 -12.7019     94.3598    140.0437   4.7330711649e+01   3.4134170607e+01    0.3838584    0.3037628 -32.27  0.001846633    1.455    0.313
       212 -11.8109     60.0082    135.9631   5.7744653781e+01   4.0609951147e+01    0.2173411    0.2030355  66.04 0.0004250041    1.015    0.015
       213 -12.0678     58.0142    133.0000   5.7946637143e+01   4.1681289503e+01      0.31035    0.1952947  46.66  0.001222317    1.562    0.360
       214 -12.0637     48.8807    141.7123   6.2423061300e+01   4.0522657360e+01    0.4048266    0.1536028  25.79  0.001429715    2.669    0.625
       215 -12.9613     52.4850    136.9630   6.0499711969e+01   4.1348604604e+01    0.5518441    0.2946928 -55.94  0.002314433    1.861    0.463
       216 -12.5032     72.8389    139.1858   5.3983342670e+01   3.7878738550e+01    0.2539083    0.2329474  60.52 0.0003803639    1.048    0.046
       217 -13.0417     67.5898    137.2447   5.5386062929e+01   3.9180170886e+01    0.5303013    0.2177318  30.74   0.00160235    2.389    0.581
       218 -11.3257    206.1730    139.1266   2.1252327932e+01   1.4021793574e+01    0.1957287    0.1587912  -9.12 0.0005171837    1.229    0.186
       219 -12.7929     40.5205    137.6527   6.4769700495e+01   4.2603528842e+01    0.4342659     0.261173  49.99 0.0006070972    1.629    0.386
       220 -11.5104    183.9342    137.0516   2.4720068291e+01   1.8162878086e+01    0.2008641    0.1815414 -24.77 0.0003064507    1.010    0.010
       221 -12.3104     45.5466    135.7459   6.2747458196e+01   4.2539527608e+01      0.42397    0.2337947  84.65  0.001682162    2.222    0.550
       222 -11.3068     31.8770    136.6594   6.7690216037e+01   4.3791079444e+01     0.247392     0.185271 -57.04 0.0008611415    1.368    0.269
       223 -13.2789    123.7421    134.6484   3.7772191586e+01   3.0017912404e+01    0.5943485    0.3585489  31.20  0.001337203    1.806    0.446
       224 -12.5857     85.1236    135.7066   4.9352136208e+01   3.6805247075e+01    0.4335582    0.2799412   4.55  0.001673721    2.450    0.592
       225 -11.5207    174.6847    134.2140   2.5882388745e+01   2.0356254221e+01    0.2393524    0.1625307 -42.00 0.0006287691    1.387    0.279
       226 -10.8409     25.5796    135.4999   6.9794678794e+01   4.4708639663e+01    0.1444699    0.1287854  77.66 0.0001635334    1.019    0.019
       227 -10.6180    192.5538    134.5916   2.2620914845e+01   1.7080912006e+01    0.1329184    0.1191904 -25.63 5.719495e-05    1.018    0.018
       228 -12.7385     78.0072    132.9327   5.1122167159e+01   3.8696178773e+01    0.3669071    0.2708581 -39.57 0.0005803144    1.528    0.345
       229 -12.4134     81.9902    130.9380   4.9416316803e+01   3.8556535537e+01    0.3459134    0.2663351  74.30  0.001240342    1.488    0.328
       230 -12.1492     83.5362    127.4680   4.8194472979e+01   3.9189395835e+01     0.269596    0.2492635 -28.56 0.0008468691    1.186    0.157
       231 -12.3739     19.8434    131.8424   7.1485921545e+01   4.6203796162e+01    0.3086323    0.2398381 -81.45 0.0007656623    1.194    0.162
       232 -12.9697     16.0088    131.2192   7.2814171431e+01   4.6678624663e+01    0.5913614    0.2462359 -41.62  0.002161343    3.131    0.681
       233 -11.0146    210.1964    133.6311   1.9464830888e+01   1.4260480334e+01    0.1667435    0.1172792  29.30 0.0006042439    1.643    0.391
       234 -12.9725     59.8996    140.2617   5.8472182689e+01   3.9476444222e+01    0.4792075    0.2666062 -51.48  0.001516974    1.875    0.467
       235 -12.5827     49.6671    130.3889   6.0486185363e+01   4.3490209349e+01    0.4011947    0.2414217  36.44  0.001780958    1.599    0.374
       236 -10.8381     31.1571    131.5119   6.7347944643e+01   4.5269355529e+01    0.2025343    0.1410882  27.38 0.0005632067    1.467    0.318
       237 -11.2040    187.9818    129.5026   2.2332307002e+01   1.8783935081e+01    0.2011457    0.1671732 -33.54 -0.000244966    1.084    0.078
       238 -11.3031    246.9787    130.0000   1.3559817811e+01   9.2236630557e+00    0.1594962   0.06807269  47.61 0.0008064942    2.971    0.663
       239 -10.7220    110.4641    136.4919   4.1845262497e+01   3.2102739283e+01    0.1526747    0.1486476   2.17 0.0008087571    1.062    0.059
       240 -11.6538    122.6819    127.8615   3.6515027215e+01   3.1772979585e+01    0.2694689    0.2171197  23.89  0.001137128    1.364    0.267
       241 -13.6157     56.9543    127.3369   5.7360001732e+01   4.3355975881e+01     0.593063    0.3794308  21.21  0.002606187    1.731    0.422
       242 -11.5966    183.0152    126.9381   2.2670140570e+01   2.0151072707e+01    0.2023433    0.1838275 -31.18            0    1.014    0.014
       243 -12.0677    177.5575    126.8636   2.3681453177e+01   2.1184921130e+01    0.3642805    0.2164394  37.12  0.001704368    1.881    0.468
       244 -10.7574    109.5275    127.5424   4.0134343184e+01   3.4415323483e+01    0.1533408    0.1514681  16.88 0.0001699597    1.039    0.037
       245 -11.8345     42.1770    125.8949   6.2537704712e+01   4.5628003793e+01    0.4803179    0.2421356 -57.79  0.001978789    1.898    0.473
       246 -11.3394     36.0047    127.2641   6.5027129757e+01   4.5938320963e+01    0.2051498     0.188159  56.59 0.0005162794    1.065    0.061
       247 -13.3527      9.3102    125.8569   7.4815746086e+01   4.8617141679e+01     0.319972    0.2649472  34.42  0.001826864    1.250    0.200
       248 -12.2394     26.9087    125.4302   6.8195416834e+01   4.7347145281e+01    0.2758543    0.2167349 -77.54 0.0005093952    1.194    0.162
       249 -10.8010    121.5297    124.0261   3.5926923712e+01   3.2879703293e+01    0.2276919    0.1518628 -49.91 0.0004089934    1.504    0.335
       250 -11.1748    124.4656    122.4888   3.4764291209e+01   3.2638760756e+01    0.2845191    0.1996427   9.75 -6.692245e-05    2.128    0.530
       251 -13.1338     75.9838    123.4913   4.9906222520e+01   4.1493976266e+01    0.5303402    0.3467177 -59.68  0.002336661    1.528    0.345
       252 -13.5199     73.7822    114.3441   4.8697467616e+01   4.4257598789e+01    0.5941485    0.4148932 -51.96 0.0002045044    1.435    0.303
       253 -14.1384     82.0614    115.8714   4.6138828417e+01   4.2433110057e+01    0.6837332    0.5589538 -32.47   0.00136576    1.389    0.280
       254 -12.6747     20.2441    110.5819   6.9012980968e+01   5.2024551087e+01    0.6928503    0.2623724 -68.59   0.00114842    2.299    0.565
       255 -14.3404     13.5014    119.5074   7.2680238261e+01   5.0069878969e+01    0.6766573    0.4552585  48.55  0.002687564    1.460    0.315
       256 -10.7131    179.0002    121.9902   2.2297007838e+01   2.1806345851e+01    0.1674862     0.154789 -30.90 0.0003763282    1.010    0.009
       257 -12.3262    193.4005    121.4786   1.9602097887e+01   1.9201818800e+01    0.2386727    0.2114672 -31.50 8.284606e-05    1.004    0.004
       258 -11.4396    189.0147    121.2839   2.0316960781e+01   2.0044188168e+01    0.1801312    0.1732795 -12.11 0.0003183897    1.087    0.080
       259 -11.4485    104.8762    121.1518   4.0024674189e+01   3.6852061829e+01    0.3186177    0.2111066  55.06 0.0007467939    1.660    0.398
       260 -11.9460    100.4484    119.4765   4.0979931955e+01   3.8116824444e+01    0.3645262    0.2558441  26.76  0.001566116    1.605    0.377
       261 -12.1709     29.1803    118.4634   6.6444706694e+01   4.9056908976e+01    0.3861466    0.1866026 -61.88 0.0009201854    1.896    0.473
       262 -11.2853     64.5263    118.5056   5.2945230388e+01   4.4636562905e+01    0.1544794    0.1480175  79.53  4.97231e-05    1.005    0.005
       263 -13.3446      8.8910    118.0397   7.4334372244e+01   5.0779785179e+01    0.3732333      0.33791  -4.14    0.0012011    1.271    0.214
       264 -11.7208    100.5040    113.5288   3.9513573808e+01   3.9557963307e+01    0.2929741    0.2476179  13.48 0.0008768298    1.384    0.278
       265 -11.7236     96.5784    116.2008   4.1409422393e+01   3.9666510236e+01      0.28929    0.2172907 -32.27 0.0004799519    1.556    0.357
       266 -12.1424     93.4954    116.4701   4.2464172685e+01   4.0186542828e+01    0.3067627    0.2678548  64.42 0.0005801251    1.185    0.156
       267 -12.2456     67.9183    114.2554   5.0807219245e+01   4.5240211947e+01    0.2924857    0.2389507 -64.31 0.0002676053    1.213    0.176
       268 -13.0892     62.2820    111.5678   5.2332051155e+01   4.6835252157e+01     0.655229    0.4164084 -58.38  0.002878875    1.533    0.348
       269 -11.5382     64.0327    104.6910   5.0118378813e+01   4.8392033137e+01    0.2183065    0.2043407  43.67 0.0005444837    1.075    0.069
       270 -11.3452    201.9204    114.2683   1.6592635462e+01   1.8869634172e+01    0.1737546    0.1646052 -29.88 0.0003908394    1.091    0.083
       271 -13.2327     10.1309    111.2117   7.3222072324e+01   5.2575134741e+01     0.433526    0.2372455  21.08   0.00123949    1.930    0.482
       272 -11.5678      1.9729    109.4796   7.6386039224e+01   5.3507886595e+01    0.3448943    0.1124237  36.89  0.001299975    2.876    0.652
       273 -10.5532    108.2985    111.6667   3.6658330162e+01   3.8439858265e+01    0.1615099    0.1246666  84.89 0.0004800147    1.648    0.393
       274 -10.6768     36.5071    110.0673   6.2250679330e+01   5.0627774981e+01    0.1988238    0.1155053  72.20 0.0006730295    2.119    0.528
       275 -11.8664     77.5352    113.4491   4.7156581968e+01   4.3851529709e+01     0.251214    0.1537257 -58.65 3.016343e-05    1.634    0.388
       276 -10.8769    139.9363    107.4933   2.7049413098e+01   3.2665727077e+01    0.2289924    0.1513283  48.79 0.0007471934    1.553    0.356
       277 -12.0890     12.5473    104.3834   7.1502997418e+01   5.4297452250e+01    0.2815861    0.2276039 -46.09 0.0006994696    1.275    0.216
       278 -11.1898     78.6052    101.8931   4.3941175550e+01   4.6629977956e+01    0.3318268    0.1958224  52.44  0.001319875    1.880    0.468
       279 -11.7909     55.9742    101.3491   5.2546003814e+01   5.0512103422e+01    0.2780161    0.2191859 -62.71 0.0004769072    1.238    0.192
       280 -12.0233     57.6771     97.5773   5.0963141818e+01   5.1259651471e+01    0.3279265    0.2623505  42.70 0.0009340809    1.258    0.205
       281 -10.7228     29.3725    102.2542   6.3957319424e+01   5.3517708076e+01    0.2127635    0.1334914 -85.10 0.0005902551    1.653    0.395
       282 -11.8006      1.3813     93.9239   7.5334335843e+01   5.7768903522e+01    0.2037586    0.1197145 -81.23  0.000437875    1.525    0.344
       283 -11.6352      4.9470     93.9423   7.3717006331e+01   5.7597379946e+01     0.348517    0.1637921  28.18  0.001530483    2.177    0.541
       284 -12.9976      5.8930    100.1349   7.3924562094e+01   5.5859185433e+01    0.4543865     0.280328  33.15  0.001760709    1.678    0.404
       285 -11.6578      8.8869     96.8395   7.2251953662e+01   5.6594215014e+01    0.3285291    0.1868219 -82.05  0.001125261    1.632    0.387
       286 -10.9235    209.0270    100.9570   1.2530721429e+01   1.9732671880e+01     0.159976    0.1346132 -39.34 0.0003285787    1.014    0.014
       287 -10.8880    129.7490    100.5678   2.7731712432e+01   3.6357895595e+01    0.2090245    0.1489828  59.80 0.0007779983    1.525    0.344
       288 -11.2795    115.9297     99.0948   3.1061373384e+01   3.9721272342e+01    0.3418482    0.2239623 -80.30  0.001088221    2.490    0.598
       289 -10.7186     85.4973    100.4387   4.1094390819e+01   4.5705286339e+01    0.1564668    0.1531033  72.34 0.0001679143    1.009    0.009
       290 -12.1108     94.1358     98.5045   3.7614085484e+01   4.4470459627e+01    0.3633064    0.2892309  60.82 0.0009580761    1.340    0.254
       291 -12.4343     75.5500     96.5760   4.3665727637e+01   4.8531693566e+01     0.346044    0.2252491 -37.93  0.001452985    1.759    0.431
       292 -11.0487     31.2397     97.1157   6.2248895705e+01   5.4743453943e+01    0.3209926    0.1559862  49.25  0.001252747    2.303    0.566
       293 -12.2208     82.3084     95.9919   4.1015985845e+01   4.7417607851e+01    0.2931348    0.2121938  22.44  0.000930828    1.639    0.390
       294 -12.4178    121.3654     91.2216   2.7303408751e+01   4.0230800818e+01     0.371641    0.3076138 -12.73 0.0004241732    1.515    0.340
       295 -10.7625     90.6604     93.7230   3.7435759059e+01   4.6322252239e+01    0.1571204    0.1272483  -1.72 0.0002486877    1.617    0.382
       296 -11.2216     25.3256     91.9904   6.4023019295e+01   5.6710558975e+01    0.2732855     0.215555  22.10 0.0008007656    1.348    0.258
       297 -13.1248     74.8890     90.3238   4.2181397690e+01   5.0218173486e+01    0.4704655    0.3291661  67.78  0.002006906    1.826    0.452
       298 -10.7403     57.7444     91.4637   4.9404543957e+01   5.2852995121e+01    0.2036406     0.152334  14.67 0.0006295215    1.552    0.356
       299 -10.3240     41.3468     91.7116   5.6622743761e+01   5.5075734317e+01    0.1575582    0.1088359  60.38 0.0005138215    1.657    0.396
       300 -11.1524    154.5079     90.4602   1.9235187985e+01   3.2829368957e+01    0.1485763    0.1409957 -58.37 0.0008092734    1.008    0.007
       301 -12.1458      3.4987     87.8275   7.3738104812e+01   5.9325972285e+01      0.35225     0.337079  72.91   0.00139772    1.096    0.088
       302 -12.1468     54.7242     85.4939   4.9117921946e+01   5.4864526097e+01     0.526897     0.432686  -4.78  0.002608738    1.433    0.302
       303 -10.9462    144.5468     82.6779   1.9160960326e+01   3.6587408117e+01    0.1988546    0.1392264 -51.36 0.0006903817    1.411    0.291
       304 -10.8866    216.0069     81.9836   7.2870073219e+00   2.1352111160e+01    0.1601363    0.1281579 -42.52 0.0003188368    1.041    0.040
       305 -11.9738     89.0995     79.6405   3.3686771505e+01   4.9929842565e+01     0.430235    0.3708413  23.03  0.002130265    1.295    0.228
       306 -12.1877      9.4562     78.8000   6.9618659204e+01   6.1452492685e+01    0.4662685    0.2299215 -84.99  0.001924626    2.083    0.520
       307 -10.9068      4.8171     79.8184   7.2137018682e+01   6.1421225192e+01    0.1965115      0.15115  69.04  0.001072249    1.356    0.262
       308 -11.9307    112.1365     78.6281   2.6038536318e+01   4.5002350850e+01    0.3928793    0.2959934 -84.87  0.001048714    1.694    0.410
       309 -10.7787    230.2307     78.6444   4.9213492833e+00   1.9227892650e+01    0.1461851    0.1148452  50.55 0.0004565633    1.592    0.372
       310 -11.0748    163.5112     78.4328   1.4186959096e+01   3.2958995098e+01    0.1456835    0.1347994 -62.43 0.0001535572    1.010    0.010
       311 -11.2542     74.9603     77.7192   3.8320943226e+01   5.3254462465e+01    0.2130284    0.1986111  43.09 0.0002241942    1.069    0.065
       312 -12.6203     94.9629     83.5655   3.2928457530e+01   4.7787736459e+01    0.3087918     0.292669  74.19 0.0003710005    1.053    0.050
       313 -11.6677     65.4495     82.0659   4.3537513872e+01   5.3966418316e+01    0.2975828    0.2263315  13.28  0.001206182    1.588    0.370
       314 -11.2964    105.9977     73.3251   2.6112465093e+01   4.7524652717e+01    0.2819726    0.2192924 -75.48  0.001043122    1.527    0.345
       315 -12.1100      1.7061     73.3715   7.2925319919e+01   6.3273505543e+01    0.2983504    0.1654055 -54.59  0.001445851    1.593    0.372
       316 -10.9386     45.2600     73.2548   5.0029649977e+01   5.9376086440e+01    0.2020433    0.1712439  70.06 0.0009018961    1.338    0.253
       317 -11.5086     52.4153     71.5184   4.6058309150e+01   5.8738144589e+01    0.2942629    0.2219877 -43.02 0.0006706742    1.331    0.248
       318 -11.8326     55.0420     69.0288   4.4015159391e+01   5.8917513373e+01    0.2557618    0.2111494  29.07 0.0003750756    1.233    0.189
       319 -11.3184     71.8064     68.8692   3.6609198602e+01   5.5913487775e+01    0.5021185    0.3074436 -13.94  0.001672631    3.482    0.713
       320 -12.3639     60.1973     67.5157   4.1131698918e+01   5.8394518960e+01    0.5931746    0.3813862 -85.21  0.001880233    2.743    0.635
       321 -11.7509     79.0956     70.0135   3.4123191152e+01   5.4186354861e+01    0.4124769    0.1857648  42.95  0.001510402    2.196    0.545
       322 -12.0102      7.8265     68.0918   6.8768571777e+01   6.4380591763e+01    0.3505595     0.223653 -79.50 0.0007178988    1.511    0.338
       323 -10.4075    154.4709     68.4453   1.3006798226e+01   3.6792693141e+01    0.1472095    0.1367866 -68.83  7.69866e-05    1.007    0.007
       324 -10.8568    121.1259     68.2057   2.0218045601e+01   4.4928718436e+01    0.2118988    0.1752763 -72.54 0.0005426208    1.293    0.226
       325 -11.7401     48.8287     66.6822   4.6220049761e+01   6.0472732739e+01    0.3064898    0.2520474 -20.84 0.0008685087    1.336    0.251
       326 -10.5798    124.5453     66.5815   1.8828050087e+01   4.4398040490e+01    0.1525017    0.1441473 -89.84 7.768055e-05    1.013    0.013
       327 -11.2271     45.7722     62.5723   4.6373389530e+01   6.1923076691e+01    0.2687308     0.144739  28.09  0.001121407    1.951    0.487
       328 -11.4323     21.1271     61.0802   5.9555671108e+01   6.5249495661e+01    0.2034351     0.187801 -54.07  0.000416199    1.034    0.032
       329 -12.0508     13.8346     60.0868   6.3651651544e+01   6.6082181494e+01    0.3838896     0.259348   9.49  0.001988633    1.585    0.369
       330 -10.6493    183.6850     60.2818   6.0746921292e+00   3.1297993028e+01    0.1426028   0.09467395 -65.35 0.0002625922    1.576    0.365
       331 -11.0128     27.3221     60.3461   5.5738625655e+01   6.4831163603e+01    0.1853544      0.15877  66.59  0.001016385    1.344    0.256
       332 -11.5563     41.8621     58.6230   4.7052539541e+01   6.3434682473e+01    0.3671055    0.2395611 -34.93  0.001705382    1.656    0.396
       333 -12.9247     36.5710     55.2325   4.8771409737e+01   6.4968149983e+01    0.7238093    0.5090916 -35.63  0.003162404    1.456    0.313
       334 -11.3194    197.1382     58.1761   3.8307720444e+00   2.8652792940e+01     0.183489    0.1755386 -31.72  0.000350631    1.216    0.178
       335 -13.2291    153.3765     57.1233   9.8289006170e+00   3.8914890162e+01    0.3239618    0.2869862 -61.97  0.000626532    1.047    0.045
       336 -10.4410    179.6771     56.2657   5.5379521122e+00   3.2802836914e+01    0.1422366   0.09531274 -67.40 0.0002186077    1.562    0.360
       337 -10.3915     54.4571     56.5851   3.9836383853e+01   6.1896127753e+01    0.1440455    0.1408281  45.01 0.0001977813    1.063    0.059
       338 -12.2331    106.4073     51.1013   1.8106595728e+01   5.1638653149e+01    0.3077747     0.230056  55.38  0.000511554    1.287    0.223
       339 -11.0210    173.9913     50.7894   4.7992923723e+00   3.4920136244e+01    0.2394229     0.141872 -72.51  0.001072496    2.005    0.501
       340 -11.2775    150.9766     51.0189   8.3715364513e+00   4.0452557380e+01    0.2216877    0.2003157 -67.30 0.0003661725    1.022    0.021
       341 -12.3989    113.3940     50.9518   1.6199590221e+01   4.9922906264e+01    0.3599923    0.1928381  49.23  0.001475259    1.860    0.462
       342 -13.2281     29.6365     49.7658   5.0899729279e+01   6.7129196465e+01    0.3840375    0.3338667 -67.52  0.001591598    1.236    0.191
       343 -10.9468     16.3028     49.9777   5.9448978793e+01   6.8420054556e+01    0.1894821    0.1581361 -57.03 0.0003361459    1.130    0.115
       344 -12.0178     99.3303     49.1890   1.9396237361e+01   5.3709782253e+01     0.297187     0.198354  86.51  0.001230555    2.120    0.528
       345 -10.8571    130.4441     47.4933   1.1062781975e+01   4.6163035672e+01    0.1470602    0.1393132  88.71 0.0008076146    1.042    0.041
       346 -12.1906     89.3268     45.0954   2.0863029686e+01   5.6833408903e+01    0.2684914    0.2250035  52.77 0.0003484279    1.140    0.123
       347 -11.9275     43.6864     54.0079   4.4380678407e+01   6.4236551743e+01    0.3440387    0.2217406  27.05 0.0004489396    1.603    0.376
       348 -11.2223    194.1994     44.0903   5.6739306943e-01   3.1238064888e+01    0.1816704     0.166036 -47.19 0.0002606185    1.158    0.137
       349 -12.0767     49.6682     44.0159   3.7054475858e+01   6.5421848956e+01     0.255845     0.203294  34.18 0.0003576384    1.233    0.189
       350 -12.7025    155.1118     41.1924   4.6653437679e+00   4.0852621429e+01    0.3349569    0.2465196  69.26 0.0005254294    1.333    0.250
       351 -12.5340    120.3972     39.6013   1.0371036310e+01   4.9924993142e+01    0.3650744    0.3050465  29.13 0.0006257578    1.439    0.305
       352 -13.3114     33.4625     40.1623   4.4679045650e+01   6.8794583361e+01    0.4659757    0.2874393  41.11  0.001544676    1.722    0.419
       353 -10.7405      1.4469     40.4414   6.7219757581e+01   7.1661194423e+01    0.1261233    0.1173181 -52.34 -6.055824e-06    1.078    0.072
       354 -11.9681     79.9663     36.3890   2.0262648746e+01   6.0502230592e+01    0.3898224    0.2093378 -41.60  0.001105683    1.957    0.489
       355 -12.1015      9.7496     36.9120   5.9950607033e+01   7.2033863692e+01     0.219878    0.1843678  13.91 0.0002844394    1.238    0.192
       356 -11.7484    140.4639     35.2701   5.0525428360e+00   4.5364032687e+01    0.2654521    0.1466235 -24.46  0.001138841    2.119    0.528
       357 -12.1718     85.4500     33.9926   1.7321853707e+01   5.9570191027e+01    0.2357761    0.1906667  57.19 0.0006912879    1.164    0.141
       358 -11.9036     42.3668     33.7131   3.6216330026e+01   6.8730676075e+01    0.2623928    0.2249513   4.35 0.0007224389    1.171    0.146
       359 -12.6616     30.0985     31.4920   4.2825194574e+01   7.1075438413e+01    0.4170994    0.2323061  44.41  0.001932027    2.052    0.513
       360 -10.7188    127.4660     32.5354   6.3698943924e+00   4.9082981647e+01    0.1446759    0.1332179  84.60 8.844608e-05    1.033    0.032
       361 -11.3089    136.9532     31.0264   4.1857827902e+00   4.6824382995e+01     0.234442    0.1678064  36.40  0.001143458    1.767    0.434
       362 -11.6076     96.7339     29.9532   1.2207154285e+01   5.7358257576e+01    0.1836681    0.1294678 -30.12 0.0008921027    1.540    0.351
       363 -11.1871      3.4790     30.4737   6.2775925333e+01   7.3914751437e+01    0.2642924    0.1226295  10.55  0.001227784    2.233    0.552
       364 -10.7097    116.5347     26.4252   6.1757735726e+00   5.2716624449e+01    0.1446116    0.1304441  84.03 8.268847e-05    1.012    0.012
       365 -12.1507     67.0846     24.1385   1.9088657147e+01   6.5355190030e+01     0.417433    0.2550713 -72.25  0.001573925    3.345    0.701
       366 -11.6830     45.2859     25.4409   3.0133471723e+01   6.9708256704e+01    0.2280162    0.1732843 -62.02 0.0008641314    1.773    0.436
       367 -11.6620      1.6377     25.5571   6.2669841903e+01   7.5130524690e+01    0.2173346    0.1545632 -63.19 0.0006894687    1.354    0.261
       368 -11.5849    125.0875     24.8239   3.9736060387e+00   5.0680700661e+01    0.2323386    0.1816198 -69.38 0.0005950019    1.270    0.213
       369 -11.7011    190.1113    249.0590   4.2726981062e+01  -2.4697752949e-01    0.1593107    0.1174697   4.57  0.000302085    1.025    0.024
       370 -10.8527     19.0497     23.4944   4.6865423666e+01   7.4107347186e+01    0.1810089    0.1222325  22.89 0.0003353776    1.451    0.311
       371 -11.4713    178.0210    247.4916   4.4732350962e+01   1.2716241731e+00    0.1846389    0.1263928  -9.24 0.0003417144    1.350    0.260
       372 -10.7239    141.3053     18.7026   3.5932908505e+02   4.7172703944e+01    0.1963293    0.1573034 -65.82 0.0004816908    1.156    0.135
       373 -10.5552     35.2478     20.6340   3.3393814630e+01   7.2317230506e+01    0.1231803    0.1070578 -77.27 0.0006947234    1.618    0.382
       374 -11.5348     73.7013     24.9590   1.7016695026e+01   6.3704602127e+01    0.1904837    0.1849177  31.63 0.0004369443    1.055    0.052
       375 -10.5026    127.4781     15.5192   1.4084631011e-01   5.1109250566e+01    0.1412744    0.1244314 -87.17 3.986446e-05    1.010    0.010
       376 -11.2513    138.1943     19.6290   6.7223618019e-02   4.7873187930e+01    0.2692327    0.1565636  68.12 0.0002452754    1.583    0.368
       377 -11.3901     72.4988     13.4876   1.1425306187e+01   6.5457145047e+01    0.1391505    0.1256615  51.92 -7.554251e-05    1.004    0.004
       378 -11.5402     68.7465    247.3182   6.7438335448e+01   1.4124857397e+01    0.3185008    0.1567083  58.99  0.001635066    2.320    0.569
       379 -11.5497     99.2938    246.9086   6.0705465173e+01   1.0644637872e+01    0.2224735    0.1455696  24.06 0.0004961299    1.270    0.213
       380 -10.5813     64.4557    247.5095   6.8397047963e+01   1.4570036589e+01    0.1189766   0.09523146  33.03 0.0008075772    1.083    0.077
       381 -10.9672    246.3367    245.2232   3.2954862330e+01  -5.2964471566e+00    0.1184664   0.07480299 -28.14 0.0002167901    1.546    0.353
       382 -10.6451    132.2731    245.3626   5.3512718192e+01   6.9176400957e+00    0.1174368   0.08016871  -6.70 0.0007002454    1.659    0.397
       383 -11.1443    205.9715    244.3238   3.9302655612e+01  -1.3314118009e+00    0.1553607    0.1074955  10.45 0.0005239054    1.110    0.099
       384 -10.6515     94.4760    243.4652   6.1439264285e+01   1.1805332410e+01    0.1822746    0.1180687 -88.45  0.001030102    2.332    0.571
