#   1 NUMBER                 Running object number                                     
#   2 MAG_AUTO               Kron-like elliptical aperture magnitude                    [mag]
#   3 X_IMAGE                Object position along x                                    [pixel]
#   4 Y_IMAGE                Object position along y                                    [pixel]
#   5 X_WORLD                Barycenter position along world x axis                     [deg]
#   6 Y_WORLD                Barycenter position along world y axis                     [deg]
#   7 A_WORLD                Profile RMS along major axis (world units)                 [deg]
#   8 B_WORLD                Profile RMS along minor axis (world units)                 [deg]
#   9 THETA_WORLD            Position angle (CCW/world-x)                               [deg]
#  10 FWHM_WORLD             FWHM assuming a gaussian core                              [deg]
#  11 ELONGATION             A_IMAGE/B_IMAGE                                           
#  12 ELLIPTICITY            1 - B_IMAGE/A_IMAGE                                       
         1 -12.8686    221.9845     14.3107   3.5506175156e+01   2.8158118581e+01     1.315487    0.7815621 -68.39  0.003501418    1.631    0.387
         2 -14.6564    218.4065     35.1146   4.0691018895e+01   2.6515782058e+01     2.882214      1.43624 -56.52   0.01317148    2.099    0.523
         3 -14.7001    238.1152     45.3453   4.0915691341e+01   2.0771093860e+01    0.9713517    0.7496691 -82.19  0.002239191    1.253    0.202
         4 -13.4031    161.0633     52.1558   5.3852186373e+01   3.8228658901e+01    0.8099679     0.592443  84.73  0.003885793    1.607    0.378
         5 -13.0704    191.9293     38.5206   4.4851344532e+01   3.2401615678e+01    0.7134089    0.6032144 -78.86  0.002736374    1.138    0.121
         6 -15.0467    245.7312     20.3149   3.4807984943e+01   2.2286566781e+01     2.233207    0.9411056 -57.69   0.01052459    2.314    0.568
         7 -10.0926    155.4262     13.1740   4.2972804938e+01   4.4411029842e+01    0.3444689    0.1809794 -13.54  0.001540267    2.538    0.606
         8 -16.8632    245.0661     57.8324   4.2938269216e+01   1.7572322252e+01     6.626483     4.507936 -29.12   0.01537707    1.554    0.357
         9 -10.1359    180.8792      5.4406   3.7433998164e+01   3.8817883249e+01      0.20517    0.1750388  41.15 0.0009504387    1.356    0.263
        10 -10.3326    249.5824      4.1261   3.1239717991e+01   2.3288329448e+01    0.3437721    0.1720283 -78.94   0.00185271    1.964    0.491
        11  -9.0216    216.7410      1.3788   3.3036267560e+01   3.0695206830e+01    0.1650553   0.09846499  68.00 0.0004335781    1.554    0.357
        12  -9.5881    210.4522      1.5438   3.3590576703e+01   3.2122048309e+01    0.2902467    0.1104064  80.98  0.001233354    2.588    0.614
        13  -9.4809    241.2177    219.2589   7.7587358385e+01  -6.9605475562e+00    0.1511461    0.1343181  12.56 0.0004251176    1.349    0.258
        14  -9.8693    233.6446    217.1705   7.8589023141e+01  -5.5886602783e+00    0.1943287    0.1507079  28.19 0.0005102275    1.303    0.233
        15 -12.7470    240.3808     51.9650   4.2150131827e+01   1.9382135176e+01    0.3130306    0.2460224 -48.28 0.0004570991    1.132    0.116
        16 -11.0383    133.9453    146.4839   8.6212255793e+01   2.5758805296e+01    0.9322405    0.2228379 -54.27  0.001980139    6.898    0.855
        17 -12.4662     68.2287    143.8306   1.0386831398e+02   3.7651896969e+01     1.472447    0.9445904 -72.00  0.006494709    1.576    0.365
        18 -11.3818     42.7922    148.2273   1.1167828094e+02   3.9633853225e+01    0.3345994    0.2936089  24.72  0.000908373    1.334    0.251
        19 -12.7650     50.5886    144.7687   1.0902619560e+02   3.9624955453e+01    0.8767807    0.7886229 -60.26  0.003631617    1.110    0.099
        20 -12.0246     58.0003    142.3285   1.0654611292e+02   3.9347249415e+01     0.606949    0.3658102 -71.93  0.001434029    1.620    0.383
        21 -10.9076    184.5144    147.6617   7.4370013718e+01   1.5020947547e+01    0.3129986    0.2400647 -76.12 0.0006484629    1.943    0.485
        22 -10.4649    230.4403    212.3871   7.8317239696e+01  -4.4355032210e+00    0.2170992    0.1922298   5.30 0.0001894054    1.225    0.184
        23 -10.1230    222.7698    145.0289   6.6113459800e+01   7.8364498435e+00     0.225675    0.2015489  27.12 0.0004445592    1.164    0.141
        24 -10.0462    191.7342    144.0206   7.1987768924e+01   1.4237620139e+01    0.2143902    0.1888981 -27.13 0.0004405305    1.097    0.088
        25 -10.4097    194.0529    130.1417   6.8241083090e+01   1.6441732956e+01    0.2450215    0.2115344 -32.25 0.0003186202    1.117    0.105
        26 -11.1658    137.0266    129.5125   8.1453368183e+01   2.8981302529e+01    0.4259451    0.2937569 -62.49  0.001436274    1.750    0.428
        27 -11.2036    160.7276    128.3432   7.5204687370e+01   2.4113030980e+01    0.3796514    0.3098854 -76.95  0.001770469    1.566    0.362
        28 -10.2616    208.2188    126.5529   6.4589400168e+01   1.4101903673e+01    0.2654344    0.1478276  52.48 0.0006062353    1.989    0.497
        29 -11.1240    184.6188    124.3141   6.8797090140e+01   1.9640508968e+01    0.3452726    0.2395663 -10.38  0.001458276    1.952    0.488
        30 -12.1964    222.6793    173.2163   7.2174744613e+01   2.9726314846e+00    0.4706682    0.3514224  59.21 0.0009680206    1.942    0.485
        31  -8.5843     54.0140    173.2533   1.1191715332e+02   3.2313717757e+01    0.1505199    0.1106535  37.33   0.00023671    1.415    0.293
        32 -11.7550    230.1490    166.7262   6.9437796322e+01   2.7576551339e+00    0.3373598    0.2686015 -54.00  0.001482985    1.634    0.388
        33 -12.8406    134.2065    101.4423   7.4852909833e+01   3.5759137051e+01     1.127711    0.3697095 -47.84  0.003337438    3.350    0.701
        34 -10.6924    192.5242    110.9904   6.3840122199e+01   2.0444002652e+01    0.3496305    0.2634158   0.01  0.001597731    1.735    0.424
        35 -10.3377    189.4914    108.5109   6.3819211115e+01   2.1601931312e+01    0.2300032    0.1850456 -70.73 0.0009677558    1.506    0.336
        36 -10.0009    249.8414    110.0659   5.3901395760e+01   8.6048253844e+00    0.2108849    0.2018539  68.11 0.0008822155    1.213    0.176
        37 -10.5474    206.1202    109.6186   6.0897846469e+01   1.7659070365e+01    0.3241183    0.2607975  45.50  0.001086511    1.305    0.233
        38 -11.3134    223.0464    105.0409   5.6855112445e+01   1.4806555995e+01     0.485326    0.3835906 -26.84  0.001648134    1.252    0.202
        39 -12.1341    123.4495    102.9621   7.8246208819e+01   3.7773787577e+01    0.4967403    0.2671351  36.54  0.001921909    1.974    0.493
        40 -12.2938     11.1005    159.4236   1.2109065107e+02   3.9821353955e+01    0.8159754    0.4557617 -84.48  0.004571576    1.521    0.343
        41 -10.2447    147.4755    104.8506   7.2342501710e+01   3.2048805830e+01    0.3069672    0.2482558  13.07 0.0008533355    1.455    0.313
        42  -8.6614     84.3711    103.2345   9.0268921299e+01   4.5139787249e+01    0.1478593    0.1128037  -5.31 0.0004217091    1.606    0.377
        43 -11.0484    156.9922    100.8028   6.8898552584e+01   3.0672278946e+01    0.3942928    0.2759805  33.00   0.00168051    1.576    0.365
        44 -10.7521    171.3050     96.6949   6.4515074856e+01   2.8095860247e+01    0.4651257    0.3273312  73.83  0.001181943    1.849    0.459
        45 -10.9899    173.2470     94.2055   6.3420247651e+01   2.8104648437e+01    0.6380411    0.3222595  61.69  0.001456473    2.452    0.592
        46 -10.8979    140.8405     95.3148   7.1367774666e+01   3.5530676730e+01    0.3498093     0.312429  85.41 0.0007620823    1.299    0.230
        47 -10.7981    111.2287     92.4106   7.8805376208e+01   4.2602614627e+01     0.245894    0.1983508 -87.07 0.0007956029    1.715    0.417
        48 -11.2980    154.8805     92.3423   6.7038642406e+01   3.2839401108e+01    0.3456373    0.2964962 -29.05 0.0004918081    1.198    0.165
        49 -10.4845    179.1648     91.4633   6.1442010703e+01   2.7200445986e+01    0.3150401    0.2731504 -72.46 0.0004249818    1.277    0.217
        50 -12.1292    118.7964     90.5697   7.6027971551e+01   4.1409419196e+01    0.4117965    0.3479168 -17.13  0.002047523    1.259    0.206
        51 -11.4209    129.9870     87.9958   7.2114586845e+01   3.9479473023e+01    0.3840503    0.2235352  38.39  0.001115177    1.779    0.438
        52 -10.4415    101.2046     83.4123   7.9210001402e+01   4.6507414192e+01    0.2656174    0.2433132 -25.50 0.0002945511    1.057    0.054
        53 -10.5641    151.0201     71.4171   6.1813773989e+01   3.7628192307e+01    0.2875586    0.2285698 -35.03  0.000501193    1.294    0.227
        54 -11.3603    172.2501     64.6025   5.5336913260e+01   3.3520098870e+01    0.4470832    0.2929352 -83.05  0.001844531    2.247    0.555
        55 -13.0929    132.7945     39.3338   5.5736017498e+01   4.7043165748e+01    0.8084928    0.4207527 -32.24  0.003519179    2.039    0.510
        56 -12.7676    141.2960     41.4590   5.4554788275e+01   4.4673033479e+01    0.5993873    0.3211742  58.20  0.002605438    1.737    0.424
        57 -12.6161    168.7010     57.0504   5.3832294856e+01   3.5583225011e+01    0.6198707    0.5034894  -1.80  0.003152963    1.513    0.339
        58  -8.6646    198.7107    213.3118   8.4633550386e+01   4.2165409089e-01      0.11779    0.1062982  63.23 0.0001953803    1.584    0.369
        59 -12.7136    192.6171     53.3755   4.8708178746e+01   3.0192958741e+01    0.6414188    0.5384448 -64.07 0.0006961781    1.182    0.154
        60 -11.1391    187.9443     53.5123   4.9480432718e+01   3.1320957887e+01    0.3003573     0.230346  68.79 0.0008042485    1.271    0.213
        61 -12.0348    192.7156     46.2951   4.6805831848e+01   3.1169098480e+01    0.4982618    0.3308547 -47.52  0.001753718    1.496    0.332
        62  -9.1150    199.8773    208.8243   8.3595906745e+01   9.5158325024e-01    0.1648532    0.1534092  29.15 0.0003666116    1.266    0.210
        63 -11.7719    187.1858     37.1807   4.5163718880e+01   3.3744382265e+01    0.4866833    0.2744451 -24.79 0.0004913709    2.070    0.517
        64 -11.6276    181.8719     47.3647   4.8767075670e+01   3.3702101864e+01    0.3682536    0.2481135 -10.05  0.001695117    2.055    0.513
        65 -10.3411    125.7298     62.9600   6.5420351586e+01   4.5123259648e+01    0.2098145    0.1943731 -22.95 0.0004511556    1.106    0.096
        66 -10.7651    122.0135     37.7141   5.7749166988e+01   4.9843564426e+01    0.2108676    0.1826703  46.39  0.001055363    1.062    0.059
        67 -10.6311    159.2849     34.9899   4.8987290620e+01   4.1016975412e+01    0.1931598    0.1888276 -57.68 0.0004254796    1.100    0.091
        68 -11.0871    154.8861     36.6566   5.0298416844e+01   4.1913147780e+01    0.2401586     0.202523  -2.96 0.0007235124    1.386    0.278
        69 -10.0395    167.8764     31.1617   4.6396714564e+01   3.9323007341e+01    0.1955037    0.1615486  37.43 0.0007500885    1.323    0.244
        70  -9.9450    185.9860     58.4046   5.1135504687e+01   3.1079108081e+01      0.26419    0.2115085 -38.02 0.0003183246    1.268    0.211
        71 -12.0984    179.6369     24.0734   4.2640355594e+01   3.7203724256e+01    0.6647512    0.3865278  67.43  0.002700141    1.553    0.356
        72 -10.6135    128.8787     25.0560   5.1701618930e+01   4.9753597563e+01    0.2044525    0.1855378 -88.54 0.0003592216    1.236    0.191
        73  -9.4261    126.2985     22.3114   5.1298134972e+01   5.0681590371e+01    0.1441905   0.09488462  32.15 0.0002477352    1.601    0.375
        74  -9.4761    200.6059    204.1740   8.2600313479e+01   1.5900472262e+00    0.1818088    0.1194192 -23.83 0.0002986943    1.599    0.375
        75 -11.5157     16.8996    158.9577   1.1963119797e+02   3.9470446717e+01    0.6839266    0.2694143 -79.43  0.003086772    2.282    0.562
        76 -10.1072    126.1212     15.3017   4.8861840864e+01   5.1448041078e+01     0.224978     0.179458   6.98  0.000746045    1.409    0.290
        77 -10.0909    168.0390    199.0096   8.8539792721e+01   8.1863309167e+00    0.2271057    0.1982717 -35.20 0.0003947334    1.240    0.193
        78 -10.5775    191.6918    192.6951   8.2279924139e+01   5.0966363328e+00     0.381865     0.223633 -64.92  0.001342986    4.215    0.763
        79  -9.9559    211.0868    163.0575   7.2276356040e+01   6.8414656184e+00    0.2126964    0.1961311  -5.85 0.0003595028    1.057    0.054
        80  -8.7777     52.5524    189.0080   1.1404305279e+02   2.8829081284e+01    0.1760324    0.1150802 -71.53 0.0002980982    1.443    0.307
        81 -10.3047    189.8433    183.8516   8.0944544083e+01   7.0232598164e+00    0.2142312    0.1779487   7.13 0.0003533769    1.163    0.140
        82 -14.6966    170.2622     82.5387   6.0827331736e+01   3.0965692460e+01     2.533149     1.259839  39.32 0.0009636288    2.391    0.582
