#   1 NUMBER                 Running object number                                     
#   2 MAG_AUTO               Kron-like elliptical aperture magnitude                    [mag]
#   3 X_IMAGE                Object position along x                                    [pixel]
#   4 Y_IMAGE                Object position along y                                    [pixel]
#   5 X_WORLD                Barycenter position along world x axis                     [deg]
#   6 Y_WORLD                Barycenter position along world y axis                     [deg]
#   7 A_WORLD                Profile RMS along major axis (world units)                 [deg]
#   8 B_WORLD                Profile RMS along minor axis (world units)                 [deg]
#   9 THETA_WORLD            Position angle (CCW/world-x)                               [deg]
#  10 FWHM_WORLD             FWHM assuming a gaussian core                              [deg]
#  11 ELONGATION             A_IMAGE/B_IMAGE                                           
#  12 ELLIPTICITY            1 - B_IMAGE/A_IMAGE                                       
         1 -14.8737      8.4196    152.7505   1.4500195048e+02   4.2529596787e+01     8.695677     3.580168  68.12   0.04172373    2.618    0.618
         2 -13.4189    194.3763     29.4432   6.8362737817e+01   3.2978501628e+01     1.417192     1.346895 -31.92  0.007352847    1.164    0.141
         3 -13.5511    210.0251      9.9190   6.1292058337e+01   3.1208862502e+01     1.295327    0.9976475  33.99  0.007249794    1.673    0.402
         4 -11.8525      2.2376     13.2820   1.2178691946e+02   7.2773339017e+01    0.6224521    0.1686195 -53.36   0.00287622    2.911    0.656
         5 -12.1327      2.9016      4.0656   1.1732657240e+02   7.4252156036e+01    0.4350738    0.3932818 -25.60  0.003603051    1.387    0.279
         6 -10.8320    198.8581    246.1183   1.1659985484e+02  -2.9865165754e+00     0.193323    0.1566506  -8.73  0.001107868    1.379    0.275
         7 -12.3238    248.6253    248.5094   1.0845875302e+02  -1.0572957499e+01    0.7171432    0.4039977  48.17   0.00416797    2.447    0.591
         8 -11.0072    123.5984    249.9224   1.3070401074e+02   8.4104719533e+00    0.4324395    0.1169117  40.46  0.001764947    2.965    0.663
         9 -10.6953     97.8585    248.1673   1.3517676879e+02   1.2562855952e+01    0.2397416    0.2297714  31.20  0.001250492    1.472    0.321
        10 -10.4951    101.0151    245.9787   1.3440513037e+02   1.2457489646e+01    0.1825367    0.1500012  72.47 0.0004137049    1.171    0.146
        11 -10.2570     29.2566    248.9545   1.4700096514e+02   2.1306354739e+01    0.2948462     0.188316 -64.26  0.002010069    2.026    0.506
        12 -10.6728     33.8903    249.0502   1.4625291006e+02   2.0768788266e+01    0.3454167    0.1838186  56.46  0.002383985    1.345    0.256
        13 -10.8421     35.4014    243.7825   1.4572009138e+02   2.1504437859e+01    0.3236611    0.2238318  38.87  0.002362698    1.644    0.392
        14 -10.8797     13.7422    249.8074   1.4950580584e+02   2.2821838463e+01    0.4289979   0.07438188  44.73  0.002135741    3.098    0.677
        15 -10.5152      2.7610    248.6651   1.5115844437e+02   2.4111830813e+01    0.3193481    0.1881994  66.78  0.002510616    1.128    0.114
        16 -10.2429    111.9575    250.3006   1.3284484206e+02   1.0126997690e+01    0.2827162    0.1325878  34.75  0.001081234    2.194    0.544
        17 -10.2566     21.6981    244.2086   1.4799451334e+02   2.2946875718e+01    0.3056529    0.1090825  61.34  0.001254708    2.185    0.542
        18 -11.2805    139.9511    250.0000   1.2774382959e+02   5.8463131774e+00    0.4827419    0.1384678  41.46  0.002036539    2.688    0.628
        19 -10.0825      5.9518    240.7612   1.5036795888e+02   2.5156648936e+01    0.1488533    0.1160639 -81.90 0.0003818934    1.500    0.333
        20  -9.7365      1.6294    239.9324   1.5101814276e+02   2.5717887835e+01    0.2164152   0.07478189 -82.22  0.001259267    2.505    0.601
        21 -10.5265     12.6443    240.0432   1.4926961043e+02   2.4615992119e+01    0.2021029    0.1184063  51.75 0.0008165476    1.351    0.260
        22 -11.0718    119.6898    238.0769   1.3015025767e+02   1.0907131242e+01    0.3250707     0.169732 -77.41  0.001554341    3.140    0.681
        23  -9.6289    183.4265    238.4963   1.1829549994e+02   4.6900368147e-01    0.1222966    0.0971458  31.48 0.0008058025    1.034    0.033
        24 -11.0254    233.1381    236.0234   1.0909034697e+02  -7.0247400385e+00    0.2779573    0.1675563 -49.01  0.001523889    2.922    0.658
        25 -10.6069    229.7991    230.6022   1.0879378460e+02  -5.8892708233e+00     0.334759    0.2004496 -53.03   0.00167792    3.422    0.708
        26 -10.7548    139.4923    246.4933   1.2742503354e+02   6.4419890476e+00    0.1910377    0.1804517  85.89  0.001435626    1.283    0.221
        27  -8.6257    152.4789    212.9407   1.2050857645e+02   9.6584112536e+00    0.1613333    0.1321806 -54.96  0.000404593    1.444    0.307
        28  -8.8965     91.6132    213.8462   1.3294109878e+02   1.9591555695e+01     0.312728    0.1358369  63.09  0.001283387    3.001    0.667
        29 -11.5257     61.7259    198.3664   1.3743895778e+02   2.6933463143e+01     0.278136    0.2365025 -51.28 0.0007071402    1.587    0.370
        30 -10.9369     17.5390    198.4346   1.4626746211e+02   3.1986810711e+01    0.2514005     0.154238  61.52 0.0002782492    1.310    0.236
        31  -8.7817     50.1047    196.4746   1.3965791707e+02   2.8803794643e+01     0.158027    0.1060175  45.00 0.0002992802    1.429    0.300
        32  -9.4183    191.7510    192.7739   1.0930416799e+02   5.8775591537e+00    0.4247253    0.2308257 -66.24  0.001191927    7.188    0.861
        33 -12.6831     35.1927    232.3693   1.4510221858e+02   2.3562324353e+01     0.281319    0.2378577 -85.32 0.0007438075    1.404    0.288
        34 -11.8261     67.7739    190.1999   1.3532030647e+02   2.7833651611e+01    0.2719379    0.2259007 -66.28 0.0004496243    1.342    0.255
        35 -13.0763     64.5586    175.5858   1.3437263284e+02   3.1441674078e+01    0.4670582    0.2707689 -47.64  0.001550272    2.227    0.551
        36 -10.5638     77.7704    177.4460   1.3158706043e+02   2.9179171768e+01    0.2254577    0.1955561  88.78 0.0003152016    1.076    0.071
        37 -14.3624     40.8359    224.6924   1.4361973233e+02   2.4329824297e+01     2.289248     1.504853  28.09  0.007131096    2.125    0.529
        38  -9.8563     98.1224    174.8698   1.2653738390e+02   2.6587473327e+01    0.2491771    0.1811784 -71.31 0.0004570829    1.390    0.281
        39 -11.6326     85.2900    168.1724   1.2856086352e+02   3.0113192168e+01    0.5893967    0.5652674 -82.02  0.003734641    1.193    0.162
        40  -9.4839      3.4790    223.5110   1.5006967725e+02   2.8486165939e+01    0.1070392   0.07120296  71.34 3.888942e-05    1.031    0.030
        41  -9.9030     97.8451    152.2036   1.2291771082e+02   3.1718152239e+01    0.2718039    0.2627316 -48.71  0.000814997    1.196    0.164
        42 -11.9048     86.4555    151.4379   1.2566261983e+02   3.3752949715e+01    0.2887698    0.2494008 -48.71 0.0005579176    1.301    0.231
        43 -12.3031     67.3369    143.8725   1.2936000291e+02   3.8337327782e+01    0.7251462    0.4699687  71.42  0.003493267    1.727    0.421
        44  -9.0991    100.9221    148.0350   1.2138565598e+02   3.2149814717e+01    0.2073079    0.1746013 -20.70 0.0003612263    1.585    0.369
        45  -8.4497    191.8135    144.0077   9.9313319508e+01   1.4447270098e+01    0.1892781    0.1136481 -39.14 0.0003923154    1.690    0.408
        46 -10.4982    173.2854    222.3026   1.1782637862e+02   4.5110134145e+00    0.3041857     0.154041  38.09  0.001517028    1.675    0.403
        47  -9.8966     54.5086    229.4032   1.4147039834e+02   2.1788290084e+01    0.2393925    0.1434014  64.71 0.0008092794    1.340    0.254
        48  -9.5209    109.5071    137.3530   1.1707847777e+02   3.3072482199e+01    0.3885594    0.2472758 -26.31  0.001554851    2.594    0.614
        49 -10.3832     96.7266    134.4416   1.1985825282e+02   3.6026259663e+01    0.2572111    0.2256672 -34.15 0.0006495353    1.322    0.244
        50 -11.0945     57.3458    132.1735   1.3017467823e+02   4.2411190725e+01    0.5965248    0.2303957 -76.41  0.001994831    3.794    0.736
        51  -9.1841     90.3199    130.9159   1.2088164723e+02   3.7931411638e+01    0.2241811     0.182221  64.89 0.0004096738    1.266    0.210
        52  -8.9026     79.2534    131.4259   1.2401447743e+02   3.9563201615e+01    0.1857586    0.1253828  53.09 0.0003232379    1.547    0.353
        53 -12.9725      8.8813    207.0573   1.4836209082e+02   3.1103268968e+01    0.7517006    0.6263587  43.76  0.004447668    1.509    0.337
        54  -8.7557    106.6730    123.8918   1.1491523023e+02   3.6698257456e+01    0.1941276      0.17686 -68.49 0.0003249712    1.062    0.059
        55 -10.3636     33.3397    132.5706   1.3674824341e+02   4.4972294372e+01     0.283433    0.1590935  63.60  0.001457115    1.982    0.495
        56 -10.1280    167.6396    112.8006   9.6882027940e+01   2.5980678759e+01     0.339353    0.2664999 -67.66 0.0008551045    1.506    0.336
        57  -9.4519    203.1677    111.7627   8.9337340354e+01   1.7820751243e+01    0.2092558    0.1776898   9.09 0.0005714167    1.338    0.253
        58 -10.4619    155.2552    228.4267   1.2217573984e+02   6.6404723462e+00    0.2586994    0.1039092  38.26  0.001148069    2.160    0.537
        59 -10.1661    242.5135     92.5017   7.8128726288e+01   1.2181336258e+01    0.1401956    0.1279166 -37.24 -5.411597e-05    1.013    0.013
        60  -9.4923    157.3952     76.8013   8.9080029115e+01   3.5384319214e+01    0.2184913    0.1514504 -23.52 0.0007622346    1.662    0.398
        61  -8.9682     43.9572     68.0026   1.2092397295e+02   5.8757724465e+01    0.1853494    0.1505897  71.36 0.0005458295    1.650    0.394
        62 -10.0959     34.3224     63.1763   1.2329823079e+02   6.0761067125e+01    0.3335665    0.1941696  46.79  0.001289761    2.319    0.569
        63  -9.9961      2.3870     56.7822   1.3450995810e+02   6.4351744574e+01    0.1759627   0.07430165 -56.50 0.0009506897    1.684    0.406
        64 -10.3913     16.1817     55.9003   1.2867590054e+02   6.3752408729e+01     0.221383    0.1713746  19.52 0.0005708425    1.550    0.355
        65  -9.9145    162.1897    249.6222   1.2365995608e+02   2.3682177801e+00    0.1800084   0.09009308  34.85 0.0009557575    1.734    0.423
        66  -9.9068     46.5865    248.8926   1.4414635218e+02   1.9307347529e+01     0.236706    0.1045542  62.51 0.0006769622    1.859    0.462
        67 -11.1027      2.7655     38.1446   1.2986881634e+02   6.8141592664e+01    0.3180776    0.1543797 -70.47  0.001699045    2.231    0.552
        68 -10.4467    107.2637    248.0488   1.3347204793e+02   1.1190781419e+01    0.2259496    0.1132299  52.01 0.0008352249    1.596    0.373
