#   1 NUMBER                 Running object number                                     
#   2 MAG_AUTO               Kron-like elliptical aperture magnitude                    [mag]
#   3 X_IMAGE                Object position along x                                    [pixel]
#   4 Y_IMAGE                Object position along y                                    [pixel]
#   5 X_WORLD                Barycenter position along world x axis                     [deg]
#   6 Y_WORLD                Barycenter position along world y axis                     [deg]
#   7 A_WORLD                Profile RMS along major axis (world units)                 [deg]
#   8 B_WORLD                Profile RMS along minor axis (world units)                 [deg]
#   9 THETA_WORLD            Position angle (CCW/world-x)                               [deg]
#  10 FWHM_WORLD             FWHM assuming a gaussian core                              [deg]
#  11 ELONGATION             A_IMAGE/B_IMAGE                                           
#  12 ELLIPTICITY            1 - B_IMAGE/A_IMAGE                                       
         1 -13.0741    197.4234     34.6862   5.1083383961e+01   3.1336267515e+01     1.025371    0.8612083  44.31  0.003823396    1.302    0.232
         2 -13.2805    209.1043     21.8058   4.6028405752e+01   2.9959502431e+01    0.9528273     0.753202  23.50  0.005120145    1.649    0.393
         3 -10.2747     60.5783      2.0233   6.9446048735e+01   6.7008559851e+01    0.2963902    0.1267809  20.96  0.001088976    3.985    0.749
         4  -9.2331     70.0216    247.2552   1.2164115416e+02   1.5872427821e+01    0.1466089    0.1031369  63.67 0.0002686355    1.047    0.045
         5  -9.9071     62.0468    250.6784   1.2321176995e+02   1.6339916013e+01    0.1461408   0.07711961  46.97 0.0009338319    1.501    0.334
         6 -14.3277    132.1349    233.9521   1.0928657984e+02   8.9011803070e+00     1.191993      1.16869 -78.00  0.005873557    1.280    0.219
         7 -16.4789     85.3369     87.4352   9.3914924593e+01   4.8124603999e+01     4.423613     1.992817 -46.98  0.009453434    2.025    0.506
         8 -10.7440    111.0771    242.0138   1.1402431077e+02   1.0890467204e+01    0.3902027     0.305079  30.15  0.001762877    1.547    0.354
         9 -15.6565      9.1076    248.4468   1.3142095394e+02   2.2773184927e+01    0.9823816    0.4259203  53.85  0.006204212    1.614    0.380
        10 -10.5269    183.9826    215.9720   9.6963393213e+01   2.9639080202e+00     0.197174    0.1512336  65.70  0.001105007    1.710    0.415
        11 -10.8125    127.0402    207.6743   1.0690798824e+02   1.4302117365e+01    0.4705143    0.2822713  69.60  0.002000318    2.161    0.537
        12 -10.3530    192.7936    191.7585   9.1106439256e+01   5.1911023056e+00    0.3996041    0.3871735 -74.63   0.00253163    1.273    0.214
        13 -11.8069     70.4666    179.1170   1.1511790427e+02   2.9026738496e+01    0.4246539    0.2985376 -36.78  0.002267565    2.236    0.553
        14 -11.5905     74.6630    173.8078   1.1352885293e+02   2.9607890041e+01     0.324006    0.2682627 -54.57 0.0008550723    1.408    0.290
        15 -15.6888     63.2505    207.3759   1.1957402819e+02   2.4089796852e+01     2.306166     1.120615  71.40  0.009543481    2.272    0.560
        16 -11.1424     47.0568    172.0175   1.1944355237e+02   3.3595793783e+01    0.2866314    0.1892902 -79.26  0.001279441    1.303    0.233
        17  -9.4642    194.5085    167.4467   8.6017454827e+01   9.0016028535e+00    0.2565822    0.2358098  27.62  0.001164163    1.036    0.034
        18 -12.3330     86.4379    145.4281   1.0645719929e+02   3.4356073878e+01     1.198524    0.3889904  55.03  0.003034874    6.422    0.844
        19 -12.6447     90.9544    141.7484   1.0465251370e+02   3.4501848158e+01    0.8582509     0.484028  78.66  0.000591061    3.077    0.675
        20 -17.4078     95.6326    207.0280   1.1315058115e+02   1.9524330750e+01     4.178827     2.336176  44.19   0.01958162    1.585    0.369
        21 -11.0371     41.5032    147.4808   1.1795812843e+02   3.9813119825e+01    0.2610804    0.1780338  75.88 0.0009246487    1.401    0.286
        22 -11.4111     46.6670    145.4722   1.1644153150e+02   3.9708798478e+01    0.3900753    0.1775287  49.92  0.001833692    2.287    0.563
        23 -13.6132    196.7510    130.9646   7.7389091173e+01   1.5218685789e+01     1.354649     1.084155 -47.90  0.003689626    1.301    0.231
        24 -11.9247    102.7510    142.0036   1.0169733477e+02   3.2459476042e+01    0.5263534    0.3756647 -26.87  0.002438265    2.041    0.510
        25 -16.3300     30.9242    246.3214   1.2797124929e+02   2.0815846593e+01     1.888756    0.7186664  58.89  0.006570563    1.981    0.495
        26 -10.7796    112.5357    131.2170   9.6969449400e+01   3.3196226114e+01    0.3283349    0.2532239  46.24   0.00115551    1.321    0.243
        27 -10.8415    106.0893    130.7995   9.8556618573e+01   3.4479542976e+01    0.3426096    0.3007028  86.13  0.001144029    1.155    0.135
        28 -13.0796     31.8693    128.3565   1.1796793590e+02   4.5272199909e+01    0.6932011    0.3305741 -76.88  0.003380791    1.874    0.466
        29 -17.0009     15.0826     36.0214   1.0467138059e+02   6.7183787428e+01     10.68157     1.137188 -55.41   0.03298099    5.359    0.813
        30 -11.0018    117.5210    126.9673   9.4730466144e+01   3.3226136116e+01    0.4136828    0.1454049 -50.87  0.001374341    2.777    0.640
        31 -11.0205     99.0571    127.9301   9.9803303081e+01   3.6398348549e+01    0.3546285    0.2862727 -11.18 0.0005554683    1.726    0.421
        32 -15.1440     76.5387    156.8702   1.1074468733e+02   3.3180026839e+01     3.361238     1.702591  63.68   0.00946081    2.518    0.603
        33 -10.4504    174.0008    121.3772   7.9775082439e+01   2.2242048884e+01    0.4757417     0.354284  22.42  0.002139103    1.642    0.391
        34 -10.9378    179.1826    115.7643   7.7225157786e+01   2.2159770250e+01    0.6049571    0.4061244 -16.81  0.002205244    1.983    0.496
        35 -11.7355    187.0367    112.3590   7.4702518590e+01   2.0982539813e+01    0.9478635     0.631487 -51.21  0.003433638    1.612    0.380
        36 -11.6150    178.2957    108.7569   7.5582696208e+01   2.3747031522e+01    0.7947019    0.7097446 -43.77  0.004047246    1.106    0.096
        37  -9.3828    108.4326    119.9666   9.5515404649e+01   3.6572751902e+01     0.215006    0.1997871  52.56 0.0002810243    1.116    0.104
        38  -8.7557    167.6774    112.3350   7.8843605729e+01   2.5536181304e+01    0.1632432    0.1257132 -79.31 0.0007050541    1.709    0.415
        39 -13.0093    158.6551    227.0570   1.0342139061e+02   5.6100892935e+00    0.9161335    0.3005563  34.74  0.003300535    3.612    0.723
        40  -8.8451    205.5394    110.4355   7.0582653914e+01   1.7019648081e+01    0.1509156    0.1451831 -24.40 0.0001914911    1.005    0.005
        41 -11.1654     41.8799    109.1598   1.1225168409e+02   4.8833109188e+01    0.3129156    0.1559485 -60.85  0.001533983    1.635    0.388
        42  -9.0737     65.1181    239.3029   1.2188310706e+02   1.7879120202e+01     0.238458    0.1230226  31.07  0.001264477    2.714    0.632
        43 -16.2040      6.0561    213.9765   1.3040916757e+02   2.9236889565e+01     4.605371     1.161082 -67.35   0.02214773    3.540    0.717
        44  -9.7773     49.7937    233.9548   1.2413068481e+02   2.0770045272e+01    0.1913767    0.1109194  75.23 0.0004007411    1.467    0.319
        45 -11.4534     34.1693     70.2196   1.0664230466e+02   5.8553759600e+01    0.3384148    0.2776527 -17.23   0.00218699    1.349    0.259
        46  -9.0257    151.6684     54.9408   6.5433575150e+01   4.0224734337e+01    0.2076096    0.1889111 -45.30 0.0004332287    1.121    0.108
        47  -9.3232    153.3667     48.3737   6.2903950824e+01   4.0827356383e+01     0.296557    0.2029501 -70.49  0.001152299    1.997    0.499
        48 -12.7973    166.8836    222.2429   1.0117402116e+02   4.9580393327e+00    0.7165322    0.4727775  54.75   0.00404796    1.550    0.355
        49 -11.9315    188.3234     41.3620   5.4363468931e+01   3.2791707990e+01    0.4258392    0.3530447  35.70 0.0009519425    1.353    0.261
        50  -9.1533     85.9681    249.3269   1.1909713724e+02   1.3357988074e+01    0.1538085    0.1095588  54.39 0.0004557299    1.091    0.084
        51  -8.6048     53.4672    238.4349   1.2381028680e+02   1.9519631181e+01    0.1111016   0.08033221  66.52 0.0001260855    1.011    0.011
        52  -8.8900     53.6457    231.1484   1.2327010111e+02   2.0799757478e+01    0.1354226   0.09059009 -72.75 0.0004371595    1.571    0.363
