#   1 NUMBER                 Running object number                                     
#   2 MAG_AUTO               Kron-like elliptical aperture magnitude                    [mag]
#   3 X_IMAGE                Object position along x                                    [pixel]
#   4 Y_IMAGE                Object position along y                                    [pixel]
#   5 X_WORLD                Barycenter position along world x axis                     [deg]
#   6 Y_WORLD                Barycenter position along world y axis                     [deg]
#   7 A_WORLD                Profile RMS along major axis (world units)                 [deg]
#   8 B_WORLD                Profile RMS along minor axis (world units)                 [deg]
#   9 THETA_WORLD            Position angle (CCW/world-x)                               [deg]
#  10 FWHM_WORLD             FWHM assuming a gaussian core                              [deg]
#  11 ELONGATION             A_IMAGE/B_IMAGE                                           
#  12 ELLIPTICITY            1 - B_IMAGE/A_IMAGE                                       
         1 -13.7299    231.5004     27.7010   3.5243953199e+02   2.6469784776e+01     1.123699    0.6422007 -21.04  0.005408368    2.209    0.547
         2 -13.0309    225.7031     28.1823   3.5291138809e+02   2.7498720350e+01    0.8333902    0.3348057 -32.79  0.003826955    2.120    0.528
         3 -13.3855     34.5271     15.5151   2.6965460749e+01   7.2754605498e+01    0.7704878    0.4226183  34.86  0.003786944    1.819    0.450
         4 -12.2774     40.4262      3.7405   1.5789361835e+01   7.3175263145e+01    0.5066779    0.3600199 -53.58   0.00282213    1.871    0.466
         5 -11.5174    234.4386      3.5734   3.4716167755e+02   2.8537945590e+01    0.2859914    0.2401936  85.56  0.002218063    1.417    0.294
         6 -11.1878     54.3482      3.7721   9.8218528201e+00   7.0176701292e+01    0.3077524    0.1950217 -83.08  0.001433647    2.519    0.603
         7 -10.4111     60.2070      2.3867   6.9399403713e+00   6.8975017972e+01    0.1881545    0.1177057  75.20 0.0009540967    1.721    0.419
         8  -9.4469     37.2947    224.3119   7.0677551636e+01   2.1608532246e+01    0.1123793   0.09376207 -26.31 0.0005091814    1.594    0.373
         9 -13.8821    121.0096    234.5373   5.2416799732e+01   9.9106117813e+00     4.603192     4.065471 -72.77   0.03185856    1.475    0.322
        10  -9.5872     45.9692    189.9001   6.5930708819e+01   2.8408224562e+01    0.2634759    0.1395787  66.63 0.0009331247    2.096    0.523
        11 -11.7258    143.4625    181.4373   3.9837792339e+01   1.6719688142e+01    0.4822453    0.2899985 -17.73  0.002114506    2.423    0.587
        12 -10.6051     97.3697    181.9388   5.1128632765e+01   2.3575527057e+01    0.2985443    0.1362337 -60.28  0.001218778    2.355    0.575
        13  -8.8130     39.3631    182.3851   6.7092763739e+01   3.0961466394e+01      0.13165    0.1199464  64.41 0.0002214812    1.047    0.045
        14 -18.8026     12.6511    192.5186   7.5075672726e+01   3.1073833078e+01     13.90709     3.326336 -82.01   0.04666249    4.236    0.764
        15 -10.1940    174.8166    179.6624   3.2946653334e+01   1.2368412597e+01    0.2357631    0.2120216  -6.44 0.0006657094    1.049    0.047
        16 -11.4603    179.7731    168.3908   2.9926283689e+01   1.3630815222e+01     0.729006    0.4695329 -29.23  0.003913314    1.506    0.336
        17 -11.1859    171.7357    175.5055   3.2806519119e+01   1.3563897786e+01    0.3538888    0.3062928 -46.47  0.000739974    1.274    0.215
        18 -10.7342    173.5800    171.7723   3.1757653990e+01   1.3960881655e+01    0.3271329    0.2405096 -58.79  0.001497535    1.732    0.423
        19 -12.1391    110.6249    167.2908   4.5325399593e+01   2.4883949578e+01     1.249287    0.7061958  88.22  0.003704507    5.168    0.807
        20 -10.5628     88.8810    221.5139   5.8187846085e+01   1.6294405127e+01    0.3239977    0.2280045  15.13  0.001153265    1.464    0.317
        21  -9.8804    191.3089    191.9744   3.1977111990e+01   8.0192630639e+00    0.2706169    0.1673261 -61.31   0.00127964    3.106    0.678
        22 -11.4720    105.5107    172.4109   4.7520900845e+01   2.4520098743e+01    0.3187666    0.3000541   2.45 0.0009772534    1.098    0.089
        23  -9.3493     71.5471    222.6781   6.2400414953e+01   1.8163238421e+01    0.1977379    0.1147004 -56.09  0.001045868    1.968    0.492
        24  -9.8896    235.3464    158.6780   1.8941976091e+01   7.4000423446e+00    0.1084805   0.08565114 -56.45 0.0001354901    1.737    0.424
        25 -11.9848    132.9174    145.1343   3.5430017966e+01   2.6069267241e+01     1.133637    0.4267378 -55.96  0.001101477    3.247    0.692
        26 -12.1608     91.0610    144.3904   4.6603637460e+01   3.3561515715e+01    0.7157493    0.5781519 -41.64  0.003584864    1.322    0.243
        27  -9.7512    112.4939    150.9220   4.1828168603e+01   2.8355757498e+01    0.2251876    0.1454142 -53.89 0.0009938193    1.558    0.358
        28  -9.7055    167.9134    136.1059   2.5729699407e+01   2.1602009039e+01    0.3667106      0.20358 -61.39  0.001458385    2.712    0.631
        29 -11.4082    104.2776    132.9205   4.0406568426e+01   3.4099072350e+01    0.5696326    0.3839531 -19.83  0.002324362    2.254    0.556
        30 -11.8152     92.0830    131.7499   4.3763613830e+01   3.6558127736e+01    0.4064905     0.323222  75.53 0.0005128246    1.440    0.305
        31 -10.3081    136.1219    130.6540   3.1492965121e+01   2.8644152583e+01    0.4705729   0.09531491 -49.44  0.001158198    5.164    0.806
        32  -9.7416    161.2805    127.2214   2.5098769979e+01   2.4560363963e+01    0.2696024    0.1720032 -39.15  0.001285197    1.480    0.324
        33 -11.0911    112.6544    125.7567   3.6436518201e+01   3.4253578785e+01    0.3945904    0.3397959  21.94  0.001568807    1.291    0.226
        34 -10.3628    134.9888    120.6318   2.9423113089e+01   3.1044850017e+01    0.3694666    0.1403882 -46.82  0.001281869    2.528    0.604
        35 -10.6363    117.6435    121.8832   3.4161611368e+01   3.4193886550e+01    0.2644783    0.2150458  27.47  0.000751679    1.368    0.269
        36 -10.4433     99.9969    120.9843   3.8969888821e+01   3.7795425981e+01    0.3140684    0.2549799  11.38 0.0008129742    1.522    0.343
        37 -10.5575     76.4097    120.7888   4.6437891214e+01   4.2037984552e+01    0.3004946    0.2297594  64.01 0.0005573386    1.434    0.303
        38 -10.1115    108.4797    115.9967   3.5283304762e+01   3.7365507592e+01     0.280426    0.2298829  44.13 0.0006428247    1.242    0.195
        39  -9.1809    194.1526    221.3269   3.6135526345e+01   3.2181844848e+00    0.1871033     0.126486 -23.36 0.0006053816    1.321    0.243
        40 -11.5930    115.6288    108.7514   3.1444233368e+01   3.7611817873e+01    0.3809407    0.2978984  61.04   0.00122705    1.384    0.277
        41 -11.0347     66.4507    104.9328   4.6341088109e+01   4.7812308744e+01    0.3024094    0.2083665  52.47  0.001015655    1.548    0.354
        42  -9.8879     91.7483     99.5290   3.6112509974e+01   4.4592255867e+01    0.2710815    0.2307998 -79.31 0.0006170336    1.254    0.202
        43  -8.6644     66.3085     96.6868   4.4331711159e+01   4.9963084437e+01    0.1578309    0.1521494 -51.05 0.0004382777    1.055    0.052
        44  -9.4354     67.9284     93.8768   4.2967685964e+01   5.0401123975e+01    0.2415789    0.1996211  69.94 0.0005726781    1.333    0.250
        45 -10.2573    134.4339    105.1505   2.5676065677e+01   3.4479293842e+01     0.375126    0.1325536 -52.23  0.001151231    3.272    0.694
        46 -11.2471     35.9644     88.9640   5.5124696986e+01   5.6357363987e+01    0.5861698    0.2129178 -61.57  0.001646716    2.456    0.593
        47 -11.3724     44.1329     90.2672   5.1791253853e+01   5.4985681868e+01    0.6773288     0.156285  41.77  0.001838807    4.564    0.781
        48 -15.5925     66.3744    145.4184   5.4400557980e+01   3.7114867893e+01     4.336702     3.071974  81.97   0.02017588    1.611    0.379
        49  -9.4414     75.1400    250.3253   6.3915409756e+01   1.2512972756e+01    0.1402468   0.08187144 -83.51 0.0005785456    2.341    0.573
        50  -9.9734    210.7746    198.8818   2.9744032162e+01   4.5342352833e+00    0.2059418    0.1532904  -4.67 0.0004937068    1.165    0.142
        51  -8.9549     64.2657     91.6399   4.3779741294e+01   5.1588074875e+01    0.1948256    0.1475174  25.52 0.0004259535    1.455    0.313
        52  -9.2651     86.6571     80.0489   3.2071039375e+01   5.0158380516e+01    0.2706656    0.2073868  74.47 0.0008950314    1.576    0.365
        53  99.0000     36.6303    198.7968   6.9146994231e+01   2.7315168150e+01    0.3161921    0.1692815  86.15  0.001463688    2.037    0.509
        54  -9.8505    184.4951     77.0379   8.7949024974e+00   2.9025436827e+01     0.213219    0.1208768 -38.90 0.0005079547    1.558    0.358
        55 -12.5338    182.7987     65.1047   5.9881910198e+00   3.1271131126e+01    0.4725365    0.4143989 -52.41 0.0008052708    1.052    0.049
        56 -13.8525    199.5848     53.2643   9.7729288499e-01   2.9472012732e+01     1.061484     0.924329  41.94   0.00390799    1.518    0.341
        57 -12.5870    205.5515     48.0720   3.5911195530e+02   2.8963239526e+01    0.4865516     0.422751 -55.49  0.001326963    1.100    0.091
        58 -10.2646     66.7771     55.5690   3.0866540759e+01   5.9471316258e+01    0.2772403    0.2344069 -88.17 0.0004466969    1.418    0.295
        59  -9.5126     60.5301     44.2736   2.8815547730e+01   6.2934201641e+01    0.2552153    0.1676777  55.32 0.0005711374    1.662    0.398
        60 -10.0125     51.6424    245.4261   6.8706643009e+01   1.5939092063e+01    0.1131892   0.09641898  38.34 0.0002187291    1.092    0.085
        61 -11.5599     39.6134    193.6524   6.7964096880e+01   2.8209246807e+01    0.5337327    0.3255626  40.92  0.001792976    1.415    0.293
        62 -11.2767     61.1315     22.2064   1.7837184396e+01   6.6456332804e+01    0.3675779    0.3118476 -67.01  0.001457262    1.406    0.289
        63 -11.6066     47.3159     19.3645   2.2358498708e+01   6.9756845811e+01    0.5676227    0.2483702  58.92  0.002168466    3.059    0.673
        64 -10.8279    152.5112    237.2346   4.6228799645e+01   5.6857880012e+00    0.2201186    0.1406323  23.29 0.0006999758    1.321    0.243
        65  -9.0293    189.3728     14.8382   3.5222808862e+02   3.6439398611e+01    0.1601266    0.1133658 -22.91 0.0006787205    1.640    0.390
        66 -10.2676     55.6834    235.3052   6.7122741657e+01   1.7442935100e+01    0.3719378    0.1373159  46.47  0.001693958    2.297    0.565
        67  99.0000     46.4309    236.5775   6.9315810145e+01   1.8179271584e+01     0.116583     0.102165  31.27 0.0003674936    1.161    0.138
        68 -11.4742     45.4786    229.2519   6.9065689379e+01   1.9741781219e+01    0.3690239    0.1843612  29.97   0.00192586    1.672    0.402
        69  -9.2069    234.2872    191.0193   2.4733973628e+01   2.9361280659e+00    0.1577206    0.1159452 -21.70  0.000492319    1.061    0.057
