#   1 NUMBER                 Running object number                                     
#   2 MAG_AUTO               Kron-like elliptical aperture magnitude                    [mag]
#   3 X_IMAGE                Object position along x                                    [pixel]
#   4 Y_IMAGE                Object position along y                                    [pixel]
#   5 X_WORLD                Barycenter position along world x axis                     [deg]
#   6 Y_WORLD                Barycenter position along world y axis                     [deg]
#   7 A_WORLD                Profile RMS along major axis (world units)                 [deg]
#   8 B_WORLD                Profile RMS along minor axis (world units)                 [deg]
#   9 THETA_WORLD            Position angle (CCW/world-x)                               [deg]
#  10 FWHM_WORLD             FWHM assuming a gaussian core                              [deg]
#  11 ELONGATION             A_IMAGE/B_IMAGE                                           
#  12 ELLIPTICITY            1 - B_IMAGE/A_IMAGE                                       
         1  -9.5181     41.3418     12.1218   9.4058921381e+01   3.9259694501e+01 0.0006450545 0.0004542904 -23.55  0.000964005    1.394    0.283
         2  -9.4573     85.0021     11.4987   9.4097293454e+01   3.9259076886e+01 0.0008027122 0.0003133607  10.98  0.001201712    2.637    0.621
         3  -9.9718     57.1918      9.8589   9.4072914022e+01   3.9258068423e+01 0.0009445936 0.0004957715   1.38  0.001654851    1.935    0.483
         4  -8.8231    103.5156      9.4879   9.4113617157e+01   3.9257607747e+01 0.0003549533 0.0003282648  50.25 0.0008073868    1.125    0.111
         5  -9.3165     48.6023     10.7117   9.4065342646e+01   3.9258692518e+01 0.0006443119 0.0003748551  29.79  0.001106025    1.796    0.443
         6  -9.6039     35.2029      6.4606   9.4053703145e+01   3.9255819324e+01 0.0008955662 0.0003829404  64.59  0.001391206    2.462    0.594
         7  -9.6722     72.1248      6.8506   9.4086123254e+01   3.9255931090e+01 0.0007865875 0.0005325645   1.09  0.001563991    1.500    0.334
         8 -10.7785    186.8153      4.8197   9.4186926390e+01   3.9253986686e+01 0.0005211404 0.0003949993  44.52  0.001084078    1.377    0.274
         9  -8.6122     24.6799      5.3355   9.4044494459e+01   3.9255087208e+01 0.0003853599 0.0002368968  47.01  0.000704967    1.704    0.413
        10  -9.2721    144.3396      4.3219   9.4149631872e+01   3.9253855627e+01 0.0004003311 0.0002221033 -44.59 0.0007050532    1.719    0.418
        11  -9.6116    117.4841      3.5289   9.4126066637e+01   3.9253437096e+01 0.0003470873 0.0003368186 -56.18 0.0001252135    1.013    0.013
        12  -9.8027     65.1931      1.9453   9.4080184294e+01   3.9252581283e+01  0.001174387 0.0003003065  31.28  0.001394553    4.256    0.765
        13  -9.1154     47.0153      4.0000   9.4064154623e+01   3.9254074644e+01  0.000571101 0.0001988356  -0.68 0.0007974856    2.908    0.656
        14 -11.1843    170.7073      2.2045   9.4172855096e+01   3.9252266434e+01  0.001319237 0.0002605541  -4.50   0.00142026    5.071    0.803
        15  -9.5645     79.9018      2.1169   9.4093098596e+01   3.9252635141e+01 0.0007463146 0.0004514307   3.95  0.001399309    1.685    0.407
        16  -9.8205    148.9627      2.0000   9.4153761877e+01   3.9252233255e+01 0.0005750147 0.0001988362  -0.73  0.000660729    2.928    0.658
        17  -8.5008    148.6562    220.3114   9.4146966959e+01   3.9402662065e+01 0.0003849128 0.0002368477  44.58 0.0007045926    1.703    0.413
        18  -9.3518     74.8471    219.8289   9.4082011845e+01   3.9402667976e+01 0.0004985605  0.000395631  41.71 0.0004761807    1.316    0.240
        19  -9.1548    143.6217    216.7688   9.4142641654e+01   3.9400245291e+01 0.0005019716 0.0003144232  76.19 0.0008520792    1.623    0.384
        20 -10.0164    131.1917    214.7767   9.4131760666e+01   3.9398931740e+01   0.00078209 0.0005190719 -67.49  0.001076814    1.445    0.308
        21  -9.5846    112.0249    214.7136   9.4114892111e+01   3.9398977414e+01 0.0008391474 0.0002813651 -56.46  0.001194511    2.749    0.636
        22  -9.6872    202.1897    208.9800   9.4194423253e+01   3.9394586050e+01  0.000665607 0.0003054278 -52.65  0.001093527    2.054    0.513
        23  -9.2838    123.9921    206.0184   9.4125687801e+01   3.9392930739e+01  0.000482077 0.0004790169  79.93            0    1.045    0.043
        24 -10.1752    126.8122    197.4405   9.4128428331e+01   3.9387006964e+01  0.000804626 0.0005349423 -73.08  0.001590186    1.451    0.311
        25  -9.0980     88.8978    199.3181   9.4095004784e+01   3.9388473781e+01 0.0006409468 0.0002515559  45.95 0.0008660883    2.726    0.633
        26  -8.8264    112.9903    198.2997   9.4116238475e+01   3.9387663177e+01 0.0005924097 0.0001573903  28.43 0.0007011426    4.054    0.753
        27 -10.9652    172.9917    195.9364   9.4169112880e+01   3.9385746910e+01 0.0008168446 0.0006742373  66.74 0.0008820493    1.244    0.196
        28  -9.6456    174.2303    191.9690   9.4170320762e+01   3.9383006953e+01 0.0006270931 0.0004788901  80.99 0.0004464134    1.318    0.241
        29  -9.0197     67.3245    195.6504   9.4076131289e+01   3.9386040802e+01 0.0003907067 0.0002338301  47.31 0.0007048903    1.752    0.429
        30  -9.1138     44.7546    194.5754   9.4056302116e+01   3.9385395383e+01 0.0005073179 0.0003138038  19.20 0.0009492906    1.675    0.403
        31  -8.9518    139.4742    189.9938   9.4139794998e+01   3.9381815956e+01 0.0005456572 0.0002220096  59.92 0.0008097997    2.610    0.617
        32  -9.3942    204.8251    188.5994   9.4197343064e+01   3.9380528866e+01 0.0005201986 0.0003031045  20.37 0.0009438639    1.781    0.439
        33  -9.1047    156.4939    188.0041   9.4154831329e+01   3.9380362672e+01 0.0005374233 0.0003398392 -87.25 0.0007894374    1.559    0.359
        34  -8.9514    121.0000    187.4631   9.4123614441e+01   3.9380159250e+01 0.0007541656 0.0001961772 -87.89 0.0009165181    3.789    0.736
        35  -9.3571     55.9782    188.1474   9.4066376812e+01   3.9380919351e+01 0.0006379769 0.0003268572  37.36  0.001085754    2.053    0.513
        36  -9.3613     35.0426    188.1976   9.4047952608e+01   3.9381040919e+01 0.0006305354 0.0003284353  37.59  0.001082173    2.018    0.505
        37  -9.2329    109.9702    186.7836   9.4113929223e+01   3.9379741981e+01 0.0006239187 0.0003229451  36.20  0.001067101    2.031    0.508
        38 -10.0900     94.5914    186.7733   9.4100396976e+01   3.9379804536e+01 0.0008656625 0.0003074297  51.59  0.001211344    3.042    0.671
        39 -10.7513    210.8581    183.6222   9.4202798140e+01   3.9377067711e+01  0.001303048   0.00055202 -43.61  0.002082806    2.230    0.552
        40  -9.0319     75.0240    184.5122   9.4083247674e+01   3.9378332961e+01  0.000538004  0.000222376  32.28 0.0008102872    2.554    0.608
        41  -9.6644    197.5030    182.0144   9.4191094247e+01   3.9376029374e+01  0.000539844 0.0003390183 -85.35   0.00061451    1.565    0.361
        42  -9.1031    148.2258    181.4391   9.4147752285e+01   3.9375879290e+01 0.0005056516 0.0003111354  20.63 0.0009431383    1.686    0.407
        43 -10.1009    204.5556    176.3056   9.4197467960e+01   3.9372059121e+01  0.000736788 0.0005319025 -56.95  0.001227259    1.323    0.244
        44 -10.1110     77.2017    176.2018   9.4085417805e+01   3.9372597329e+01  0.001095303 0.0003936456  27.83  0.001568526    2.938    0.660
        45  -9.3850     61.4583    177.7466   9.4071518373e+01   3.9373729659e+01 0.0007789724  0.000187498  17.83 0.0008975758    4.378    0.772
        46  -9.8259    106.4953    175.9983   9.4111198327e+01   3.9372326369e+01 0.0007964848 0.0002458901  39.98  0.001032411    3.521    0.716
        47  -8.8278     45.3198    172.6605   9.4057475222e+01   3.9370293119e+01 0.0003864213 0.0002363047  47.19 0.0007049869    1.713    0.416
        48  -9.4053    207.0995    170.4979   9.4199877117e+01   3.9368043959e+01  0.000534498 0.0003431332  -4.49  0.001025208    1.571    0.363
        49  -9.1248    121.8036    170.1712   9.4124843136e+01   3.9368240659e+01 0.0006727452 0.0002470467  46.10 0.0009531034    2.929    0.659
        50  -9.7035     55.5562    170.0485   9.4066561791e+01   3.9368450530e+01 0.0007768219 0.0002492678  40.86  0.001027916    3.378    0.704
        51  -9.3215    140.2351    165.9485   9.4141185952e+01   3.9365243971e+01 0.0008080591 0.0003071532  34.34  0.001180558    2.795    0.642
        52  -9.9310     80.7075    164.6943   9.4088853584e+01   3.9364652971e+01  0.001356149 0.0003950792  47.87  0.001710536    3.796    0.737
        53  -9.8809     38.6794    164.9738   9.4051870089e+01   3.9365024277e+01  0.000792248 0.0003096971  33.46  0.001175283    2.710    0.631
        54  -9.7449      9.5277    161.3212   9.4026337047e+01   3.9362624712e+01  0.001058038 0.0003521592  53.56  0.001432191    3.271    0.694
        55  -9.7221     93.9756    161.1362   9.4100634516e+01   3.9362142413e+01 0.0008924567 0.0003094396  30.33  0.001246743    3.062    0.673
        56  -9.0573     70.3435    163.7026   9.4079766073e+01   3.9364014785e+01 0.0003804246 0.0002387209  43.73 0.0007034178    1.669    0.401
        57  -9.5212    106.9480    158.8757   9.4112115139e+01   3.9360526182e+01  0.001055751 0.0003761438  30.64  0.001501391    2.977    0.664
        58 -10.1939     50.3331    155.8906   9.4062402134e+01   3.9358717328e+01  0.001221374 0.0004075537  33.63  0.001677564    3.204    0.688
        59  -9.7174    212.9914    155.6986   9.4205495350e+01   3.9357815383e+01 0.0005028085 0.0004504249  -4.74 0.0004549481    1.131    0.116
        60  -9.9685     83.1472    155.8161   9.4091270637e+01   3.9358524831e+01  0.001111886 0.0004176135  32.55  0.001626197    2.824    0.646
        61  -9.8650     69.1782    154.6510   9.4079017951e+01   3.9357783045e+01  0.001027329 0.0004754975  28.19  0.001678474    2.264    0.558
        62  -9.4132    134.1661    153.7724   9.4136212498e+01   3.9356883043e+01 0.0006679752 0.0002494437  44.73 0.0009555864    2.874    0.652
        63  -9.0187     92.3341    152.6544   9.4099448305e+01   3.9356305518e+01 0.0003923969 0.0002329061  46.67 0.0007049503    1.767    0.434
        64  -9.7516     29.6393    151.1349   9.4044345229e+01   3.9355525912e+01  0.001038635 0.0003819969  43.42  0.001492165    2.919    0.657
        65  -9.1337     22.7973    151.6035   9.4038312128e+01   3.9355876416e+01 0.0005118271 0.0003077543  19.45 0.0009438731    1.723    0.420
        66 -10.3676     40.4669    148.3886   9.4053954441e+01   3.9353589311e+01  0.001365707 0.0005024702  35.15  0.001977859    2.894    0.654
        67 -10.5655    108.7884    146.3249   9.4114113988e+01   3.9351869776e+01  0.001871777 0.0004582836  34.31  0.002171989    4.511    0.778
        68 -10.9145     56.9541    146.3512   9.4068519535e+01   3.9352116509e+01  0.001697593 0.0005820281  41.51  0.002361947    3.144    0.682
        69 -10.1263    149.6950    145.8852   9.4150108586e+01   3.9351373823e+01  0.001168477 0.0004726162  46.18  0.001769514    2.639    0.621
        70  -9.5671     13.3855    146.5660   9.4030189577e+01   3.9352442946e+01 0.0006523878 0.0004585476  31.07 0.0007919801    1.484    0.326
        71  -9.9585    126.6827    144.2987   9.4129914868e+01   3.9350390572e+01  0.001434804 0.0004720805  33.65  0.001958864    3.254    0.693
        72 -10.0150     88.8680    144.6450   9.4096643138e+01   3.9350802207e+01  0.000998691 0.0004191761  35.92  0.001487156    2.522    0.604
        73  -8.4002    206.2872    142.6940   9.4199980368e+01   3.9348889571e+01 0.0003664821  0.000244287  47.72 0.0002462704    1.568    0.362
        74  -9.3449      3.4171    142.4048   9.4021551019e+01   3.9349614822e+01 0.0008313826 0.0002916797  36.84  0.001162269    3.050    0.672
        75 -10.4414     24.2762    138.8387   9.4040008616e+01   3.9347075231e+01  0.001658973 0.0005343601  40.15  0.002231851    3.360    0.702
        76 -10.0947     39.3521    136.5076   9.4053340470e+01   3.9345407615e+01 0.0008139032  0.000439417  41.14   0.00109199    1.948    0.487
        77  -9.5098    113.9887    134.1581   9.4119055723e+01   3.9343462434e+01 0.0008923452 0.0003042993  30.16  0.001235449    3.116    0.679
        78 -10.9689     84.7568    132.6878   9.4093391138e+01   3.9342581521e+01  0.001506335 0.0006117999  26.28  0.002240447    2.584    0.613
        79  -9.5715    144.4722    132.7425   9.4145908169e+01   3.9342343072e+01 0.0009396749 0.0003250813  40.11   0.00130462    3.110    0.678
        80 -10.3880    133.2524    132.8013   9.4136038845e+01   3.9342437286e+01  0.001071118 0.0004201466  36.15  0.001599501    2.709    0.631
        81 -10.6548    100.6458    129.3042   9.4107467912e+01   3.9340178965e+01  0.001520937 0.0006398689  35.85  0.002366417    2.516    0.603
        82 -10.8245     73.8334    129.9574   9.4083867641e+01   3.9340748149e+01 0.0009821369 0.0005180571  37.70  0.001212841    1.993    0.498
        83 -10.0679     13.6061    130.1314   9.4030894355e+01   3.9341118312e+01   0.00123994 0.0004832844  44.78   0.00184239    2.745    0.636
        84  -8.8712    169.3543    130.6745   9.4167852932e+01   3.9340796127e+01 0.0003921771 0.0002327924  44.91 0.0007046605    1.767    0.434
        85  -9.4348    153.6829    130.3354   9.4154080666e+01   3.9340639812e+01 0.0006085773 0.0003552561  45.89  0.001107418    1.798    0.444
        86  -9.1376      2.9669    130.4852   9.4021526538e+01   3.9341403815e+01 0.0005582818 0.0002143805  31.35 0.0008095599    2.753    0.637
        87 -10.1680    119.8818    126.8290   9.4124459655e+01   3.9338385044e+01  0.001307983 0.0004530675  27.70  0.001841008    3.054    0.673
        88 -11.2757     60.8465    125.3291   9.4072588058e+01   3.9337615128e+01  0.002009378 0.0007342915  38.66  0.002901564    2.927    0.658
        89 -11.1211     45.3746    124.1512   9.4059017911e+01   3.9336868831e+01  0.002321632 0.0007791112  44.65  0.003191881    3.229    0.690
        90 -10.8210     29.9679    124.2000   9.4045467534e+01   3.9336965878e+01  0.001595901 0.0005311369  39.43  0.002186437    3.239    0.691
        91  -9.1427    180.7261    125.7283   9.4178000493e+01   3.9337330736e+01 0.0005732686 0.0002470266  20.32 0.0008900015    2.417    0.586
        92 -10.1331    142.8898    120.2619   9.4144890309e+01   3.9333750983e+01  0.001031544 0.0006353827  37.27  0.001684362    1.700    0.412
        93 -10.1239     72.0242    120.8538   9.4082554723e+01   3.9334483343e+01  0.001045741 0.0005264246  27.13  0.001785661    2.076    0.518
        94  -9.8553    132.5372    119.9318   9.4135796455e+01   3.9333572986e+01  0.001106625 0.0003386759  29.82   0.00145162    3.494    0.714
        95 -10.3659      4.3147    118.5209   9.4023084547e+01   3.9333154994e+01  0.001326534 0.0005208317  38.19  0.001985703    2.710    0.631
        96 -10.4752    110.2704    115.4499   9.4116351125e+01   3.9330588857e+01  0.001232984 0.0004835234  46.86  0.001836837    2.729    0.634
        97 -10.9370     80.5378    113.9457   9.4090252084e+01   3.9329686256e+01  0.001687852 0.0006955449  38.77  0.002493032    2.577    0.612
        98 -11.1943     94.6097    113.9685   9.4102625114e+01   3.9329639334e+01  0.001729447 0.0007404981  11.82  0.002740799    2.405    0.584
        99 -10.0945    124.2410    113.4039   9.4128697507e+01   3.9329114167e+01  0.001217267 0.0004140159   5.58  0.001714371    3.007    0.667
       100 -11.1799     68.2071    111.8560   9.4079473295e+01   3.9328300135e+01  0.001423441 0.0006157661  25.91  0.002125224    2.421    0.587
       101 -10.7537     14.8082    110.9352   9.4032547741e+01   3.9327887084e+01  0.001457381 0.0006833336  50.29  0.002004724    2.257    0.557
       102  -9.0075    175.3384    112.6546   9.4173650258e+01   3.9328349422e+01 0.0003936031 0.0002321541  46.44 0.0007048222    1.778    0.438
       103  -9.3055    159.7856    112.6226   9.4159975651e+01   3.9328404810e+01 0.0005165965 0.0003073511  18.14 0.0009060461    1.740    0.425
       104  -9.6191    134.2550    110.3052   9.4137595976e+01   3.9326931702e+01 0.0007520009 0.0003181652  30.08  0.001163671    2.488    0.598
       105 -10.3482     60.0017    110.0263   9.4072314299e+01   3.9327074643e+01 0.0005978982 0.0003734389  45.58 0.0008828721    1.677    0.404
       106 -11.3924     47.1862    103.7618   9.4061238484e+01   3.9322812397e+01  0.002701989 0.0007290074  40.05  0.003298954    4.095    0.756
       107 -11.3530     23.9437    103.4957   9.4040811036e+01   3.9322724581e+01  0.002459894 0.0007443945  45.29  0.003190869    3.626    0.724
       108 -10.0332    141.0692    105.6772   9.4143726261e+01   3.9323710191e+01  0.001085999 0.0004358871  30.97  0.001645773    2.631    0.620
       109 -10.3003    151.3912    104.6178   9.4152833457e+01   3.9322930216e+01 0.0008928819 0.0005283371  33.89  0.001652274    1.769    0.435
       110 -10.8656    130.7408    103.3139   9.4134716044e+01   3.9322131013e+01  0.001392691 0.0005300398  17.91  0.002070469    2.733    0.634
       111 -10.1576      7.7002    103.7379   9.4026521575e+01   3.9322956014e+01 0.0009020952 0.0005385567  28.89  0.001290735    1.748    0.428
       112 -11.3259    112.0296    100.7526   9.4118341991e+01   3.9320453683e+01   0.00230627 0.0006940367  25.92  0.003029006    3.529    0.717
       113 -10.2739     83.3641    101.2265   9.4093124610e+01   3.9320909783e+01  0.001206423 0.0004972213  37.35  0.001851891    2.574    0.611
       114 -11.2311     65.7830     97.4330   9.4077783145e+01   3.9318372690e+01  0.002044388 0.0008186257  26.05  0.003117336    2.621    0.618
       115 -10.3569     96.8370     97.8871   9.4105071506e+01   3.9318548569e+01  0.001369362 0.0005531613  12.34  0.002103137    2.553    0.608
       116 -10.1332    140.5690     93.5307   9.4143650323e+01   3.9315343066e+01   0.00123232 0.0004688694  24.37  0.001824178    2.758    0.637
       117 -10.7379    127.5623     92.3464   9.4132251145e+01   3.9314588942e+01   0.00190644 0.0006737968  12.63  0.002740671    2.924    0.658
       118 -10.3675      7.7480     93.0366   9.4026896481e+01   3.9315582480e+01  0.001874882 0.0005458342  10.49  0.002444565    3.543    0.718
       119 -10.8977     35.8143     90.7591   9.4051641181e+01   3.9313900432e+01  0.001380456 0.0006262974  49.02  0.001814147    2.337    0.572
       120 -11.0611     88.8928     88.1489   9.4098383060e+01   3.9311874282e+01  0.001973744 0.0006769265  21.65  0.002782612    3.056    0.673
       121 -10.9897     50.6384     86.3464   9.4064809013e+01   3.9310798277e+01  0.002129846 0.0006430002  36.18  0.002777565    3.585    0.721
       122  -9.1717     20.6460     88.3278   9.4038381657e+01   3.9312286857e+01 0.0003928022 0.0002324456  45.08 0.0007046474    1.773    0.436
       123 -10.8075    107.4373     84.8171   9.4114786233e+01   3.9309494626e+01  0.002062225 0.0007496455  20.96  0.002997721    2.876    0.652
       124  -9.4494    142.6727     84.4147   9.4145772590e+01   3.9309051594e+01 0.0006941342 0.0003273676   8.23  0.001142268    2.173    0.540
       125 -10.6364     26.1208     81.8190   9.4043395943e+01   3.9307780051e+01  0.001739418 0.0006177264  30.32  0.002483804    2.984    0.665
       126 -10.4108     11.6368     82.0410   9.4030656892e+01   3.9307991036e+01  0.001842301 0.0004508493  18.41  0.002182348    4.305    0.768
       127  -9.5235    120.9627     81.8722   9.4126764678e+01   3.9307402753e+01  0.000798159 0.0003956329  24.09  0.001347091    2.104    0.525
       128 -10.4089     75.8339     81.6355   9.4087101756e+01   3.9307444066e+01  0.001015948 0.0004229588  35.16  0.001565693    2.542    0.607
       129  -9.2398    151.7456     81.5941   9.4153832389e+01   3.9307064022e+01  0.000507237 0.0003130839  18.54 0.0009480791    1.678    0.404
       130  -9.8544     62.3384     77.4654   9.4075366217e+01   3.9304629257e+01 0.0008293962  0.000361016  52.82  0.001298006    2.440    0.590
       131 -10.4624    130.1039     76.8425   9.4134951239e+01   3.9303894086e+01  0.001514341 0.0005343947  18.44   0.00216625    2.954    0.661
       132  -9.3549    142.8901     76.5700   9.4146198418e+01   3.9303645175e+01  0.001010373 0.0003411032  -0.18  0.001416484    3.002    0.667
       133 -10.6207     84.6331     74.5399   9.4095052533e+01   3.9302516132e+01  0.001700368 0.0006519447  33.09  0.002523863    2.765    0.638
       134  -9.4198    117.2727     73.8264   9.4123763526e+01   3.9301876107e+01 0.0007276126 0.0003523142  21.52  0.001211322    2.149    0.535
       135  -9.7072     44.0646     73.8455   9.4059414802e+01   3.9302212367e+01 0.0009121168 0.0004284851  31.44   0.00149768    2.236    0.553
       136  -9.4800      8.7566     73.8167   9.4028380672e+01   3.9302335659e+01 0.0007657487 0.0004600803  19.28  0.001428188    1.724    0.420
       137  -9.7122    107.6001     73.0499   9.4115285078e+01   3.9301385798e+01      0.00108   0.00039828  17.72  0.001575129    2.821    0.645
       138 -10.1292     97.0157     72.9067   9.4105986105e+01   3.9301335333e+01  0.001124446 0.0005286311  23.21  0.001856816    2.218    0.549
       139 -10.4105     53.1183     71.2604   9.4067452206e+01   3.9300393127e+01  0.001506782 0.0007258822  32.11  0.002519674    2.180    0.541
       140  -9.8833     24.3398     71.8412   9.4042139112e+01   3.9300912383e+01 0.0007332566 0.0006587057  15.41  0.001301265    1.151    0.132
       141  -9.8904     17.7358     71.0725   9.4036358244e+01   3.9300409290e+01   0.00127716  0.000545942  19.20    0.0020137    2.430    0.589
       142  -9.2555    148.4407     69.2347   9.4151296463e+01   3.9298563887e+01 0.0007950852 0.0003699856  20.66  0.001299525    2.235    0.553
       143  -9.3494    122.8481     67.1761   9.4128864285e+01   3.9297267717e+01 0.0009513776 0.0002776023  32.31  0.001208982    3.695    0.729
       144  -9.8796    112.2957     65.3512   9.4119644704e+01   3.9296059448e+01  0.001040377  0.000556446  17.76  0.001836531    1.936    0.483
       145 -10.1401     39.9781     65.8468   9.4056069260e+01   3.9296718033e+01  0.001431178 0.0005061741  17.63  0.002050181    2.941    0.660
       146  -9.8040    101.8768     61.8423   9.4110593784e+01   3.9293689505e+01  0.001112586 0.0003726836  41.30   0.00152125    3.225    0.690
       147 -10.6585     75.9666     60.9288   9.4087849880e+01   3.9293175891e+01  0.001739451  0.000632073  15.84  0.002532038    2.855    0.650
       148  -9.8560     27.1418     60.5784   9.4044950186e+01   3.9293140679e+01  0.001196804 0.0004778503  22.34  0.001818314    2.615    0.618
       149  -9.3471     90.5365     60.5539   9.4100666253e+01   3.9292852967e+01 0.0006434699 0.0002882159  18.57  0.001010881    2.317    0.568
       150  -9.3520    132.4203     58.9823   9.4137523270e+01   3.9291576553e+01 0.0008250024 0.0003483624  25.12  0.001280785    2.480    0.597
       151 -10.5206     10.2789     58.9124   9.4030181668e+01   3.9292060336e+01  0.001713965 0.0005080992  13.30  0.002250677    3.495    0.714
       152  -9.9346    121.1479     57.4716   9.4127662109e+01   3.9290588827e+01  0.001017734 0.0005040248  22.04  0.001724752    2.101    0.524
       153  -9.2363    141.1712     57.3813   9.4145261846e+01   3.9290431451e+01 0.0005249793 0.0003060673  18.29 0.0009536042    1.776    0.437
       154 -10.1368     55.3009     55.6371   9.4069849771e+01   3.9289618999e+01     0.001309 0.0004982645  49.21   0.00191843    2.820    0.645
       155 -10.1549     45.5017     56.5397   9.4061210265e+01   3.9290282206e+01  0.001311563 0.0005410713  31.47  0.002021011    2.557    0.609
       156  -9.6062     66.4943     56.5100   9.4079660082e+01   3.9290172444e+01 0.0007303008   0.00034448  -0.96 0.0009636134    2.146    0.534
       157  -9.6486     63.1827     55.2049   9.4076789701e+01   3.9289287476e+01 0.0006811527 0.0005765373  75.73 0.0009380116    1.200    0.167
       158  -9.4872    107.6726     54.5380   9.4115908215e+01   3.9288630022e+01 0.0009473796 0.0003572113  27.62  0.001388072    2.795    0.642
       159  -9.1115    100.4392     54.1773   9.4109562334e+01   3.9288414513e+01 0.0005099506 0.0003424692 -88.15 0.0009987749    1.471    0.320
       160 -10.2440     94.5146     52.3063   9.4104412562e+01   3.9287152202e+01  0.001526741 0.0007319192   2.57  0.002565906    2.122    0.529
       161 -10.3721     33.3679     52.9541   9.4050657362e+01   3.9287861970e+01  0.001491078 0.0006262382  21.44  0.002330806    2.481    0.597
       162  -9.5196     24.9934     54.0000   9.4043265506e+01   3.9288616756e+01  0.000776116 0.0005088538  12.06  0.001410499    1.569    0.363
       163  -9.3891     20.9756     53.4731   9.4039750924e+01   3.9288269957e+01 0.0006180436 0.0004117462  34.84  0.001207929    1.569    0.363
       164  -9.3025    114.2483     48.1199   9.4121880541e+01   3.9284177312e+01  0.000710771 0.0003800997  16.77  0.001246699    1.934    0.483
       165  -9.9027     83.3581     47.7986   9.4094745446e+01   3.9284096089e+01  0.001115383 0.0004446509  20.21  0.001692925    2.614    0.617
       166  -9.4758    123.9342     46.8640   9.4130429714e+01   3.9283266627e+01 0.0008030702  0.000397222  25.20  0.001353647    2.110    0.526
       167 -10.1751     46.9175     45.5529   9.4062792186e+01   3.9282706125e+01  0.001337281 0.0005354871  10.86  0.002045476    2.569    0.611
       168 -10.2055     19.4104     45.8469   9.4038611680e+01   3.9283021649e+01  0.001443872 0.0005431262   5.08  0.002144864    2.714    0.632
       169 -10.3917      6.9215     43.3994   9.4027713248e+01   3.9281384895e+01   0.00151675 0.0006921798  32.82  0.002465663    2.306    0.566
       170 -10.2308     71.3148     42.9179   9.4084311397e+01   3.9280786135e+01  0.001464009 0.0005433423  23.53  0.002144244    2.825    0.646
       171 -10.0084     59.1172     43.4757   9.4073576100e+01   3.9281223127e+01  0.001078455 0.0005125481  40.83  0.001781292    2.222    0.550
       172  -8.3750    134.0181     44.0000   9.4139376727e+01   3.9281245431e+01 0.0005769619 0.0001988365  -0.72 0.0008018073    2.938    0.660
       173  -9.5933    107.7948     42.9021   9.4116367091e+01   3.9280611860e+01 0.0008614788  0.000404748  16.53  0.001419182    2.203    0.546
       174  -9.9604     38.3064     41.7344   9.4055342955e+01   3.9280110965e+01  0.001093536 0.0004563172  27.43  0.001694547    2.515    0.602
       175  -9.9040     97.2528     39.3864   9.4107210288e+01   3.9278237501e+01  0.001040789 0.0004445026  19.85  0.001635631    2.436    0.589
       176  -9.7350     82.6504     38.2862   9.4094412972e+01   3.9277544865e+01 0.0009817056 0.0004863791  33.16  0.001658516    2.120    0.528
       177  -9.9623     27.9209     37.1466   9.4046358954e+01   3.9276992525e+01  0.001186766  0.000452383   4.98   0.00177135    2.678    0.627
       178  -9.6583    113.5815     36.1572   9.4121655261e+01   3.9275937597e+01 0.0008905854 0.0003875437  24.89   0.00140707    2.404    0.584
       179  -8.9650    105.4939     35.5052   9.4114568796e+01   3.9275525609e+01 0.0003467742 0.0003374936  59.70 1.725093e-05    1.067    0.063
       180  -9.3532    121.2953     34.2884   9.4128489219e+01   3.9274613930e+01 0.0007810856 0.0004194823  11.84    0.0013773    1.916    0.478
       181 -10.1671     62.4010     33.7028   9.4076760685e+01   3.9274475227e+01  0.001098215 0.0005387829  22.78  0.001853643    2.122    0.529
       182  -9.9860     51.8358     34.0400   9.4067467348e+01   3.9274752657e+01  0.001085198 0.0004423364  14.31  0.001669206    2.535    0.606
       183  -9.9739    221.8726     31.6920   9.4216934687e+01   3.9272319574e+01 0.0009462277 0.0003639805  68.42  0.001391221    2.736    0.634
       184 -10.1271     75.0106     32.5501   9.4087874985e+01   3.9273626247e+01  0.001267423 0.0005052953  12.75  0.001931962    2.588    0.614
       185 -10.3790     14.3397     31.8361   9.4034590346e+01   3.9273388188e+01  0.001014982 0.0004478932  29.06  0.001616905    2.379    0.580
       186  -9.5560    103.2979     30.2266   9.4112798992e+01   3.9271898508e+01 0.0007353758  0.000453455  16.55  0.001320153    1.676    0.403
       187 -10.1096     83.4036     28.9765   9.4095357870e+01   3.9271126841e+01  0.001210679 0.0004420627  35.50  0.001743329    2.919    0.657
       188  -9.3540     43.9068     30.5245   9.4060608757e+01   3.9272363763e+01 0.0009469782 0.0003440681  -0.29  0.001376612    2.789    0.641
       189 -10.0386     93.4916     27.8124   9.4104256379e+01   3.9270279599e+01  0.001158096 0.0005094249  32.86  0.001842198    2.396    0.583
       190 -10.0820      5.4470     28.7554   9.4026872765e+01   3.9271300726e+01  0.001084271 0.0005041484  24.93   0.00177894    2.245    0.555
       191  -8.8823     40.1862     25.4170   9.4057497100e+01   3.9268860076e+01 0.0005132226 0.0003086745  20.06 0.0009465728    1.724    0.420
       192  -9.4719    106.8531     23.6452   9.4116121332e+01   3.9267347401e+01  0.001074101 0.0002937196   8.13  0.001347977    3.763    0.734
       193 -10.4560     51.3164     22.4904   9.4067365424e+01   3.9266796869e+01  0.001461148 0.0005753916   8.46  0.002219325    2.605    0.616
       194  -9.1106     34.9368     23.1320   9.4052955626e+01   3.9267307367e+01 0.0006328861 0.0003237434  35.51   0.00107638    2.054    0.513
       195 -10.1406     64.7806     21.5447   9.4079223042e+01   3.9266087682e+01  0.001119646 0.0005761764  20.46  0.001938288    2.018    0.504
       196  -9.3184     20.9576     22.1785   9.4040703819e+01   3.9266707394e+01 0.0006288573 0.0003264355  37.43  0.001077256    2.025    0.506
       197 -10.2359     76.0507     20.6155   9.4089152427e+01   3.9265398291e+01  0.001309376 0.0005700659  15.04  0.002086895    2.375    0.579
       198  -9.4097     12.9208     21.2185   9.4033672970e+01   3.9266078162e+01 0.0008778599 0.0004540447 -29.83  0.001534294    1.874    0.466
       199  -9.4619     41.0330     19.2711   9.4058430178e+01   3.9264621835e+01 0.0007915124 0.0004145453  12.03  0.001378232    1.964    0.491
       200  -9.9114     90.0043     18.0991   9.4101487231e+01   3.9263602463e+01 0.0009327878 0.0005320067  -0.29  0.001704671    1.777    0.437
       201  -9.6011     32.1647     17.0515   9.4050707743e+01   3.9263129208e+01 0.0008830649 0.0003842977  26.53  0.001394454    2.407    0.585
       202  -9.0542      3.1906     17.3751   9.4025244188e+01   3.9263468394e+01 0.0005064795 0.0003136114  16.43 0.0009486005    1.668    0.401
       203  -9.8974     98.8034     16.0848   9.4109278202e+01   3.9262174729e+01 0.0008788881 0.0004470798  18.03  0.001409134    2.037    0.509
       204  -9.1350     18.4479     14.6428   9.4038732272e+01   3.9261525246e+01 0.0007034634 0.0002305029  20.66 0.0009520833    3.195    0.687
       205 -11.3677    166.8019    248.1937   9.4162108475e+01   3.9421785679e+01  0.001012361 0.0007681363 -22.05  0.001124887    1.297    0.229
       206 -10.1664    245.3747    247.8455   9.4231299923e+01   3.9421136818e+01 0.0009434173 0.0005013748   1.67  0.001663074    1.912    0.477
       207  -8.8119      2.4940     11.4915   9.4024815261e+01   3.9259417197e+01 0.0003471882 0.0003373839 -57.90 0.0005070003    1.015    0.015
       208  -9.1894     77.9734     11.0000   9.4091134372e+01   3.9258764444e+01 0.0005820398 0.0001988367  -0.68 0.0008055343    2.964    0.663
       209  -8.7947    107.5509    248.5504   9.4109928131e+01   3.9422312701e+01 0.0003560253 0.0003249107 -48.72 0.0005204076    1.051    0.048
       210 -11.1164    173.5131    244.4800   9.4168127984e+01   3.9419193435e+01 0.0008147103 0.0005007471  57.43  0.001281134    1.695    0.410
       211 -10.3575    168.0830    242.8330   9.4163396159e+01   3.9418085538e+01 0.0005654965 0.0004659698  43.99  0.001144924    1.266    0.210
       212  -9.0310     29.4760     10.0000   9.4048563376e+01   3.9258281567e+01 0.0007626364 0.0001988463  -0.52 0.0009284088    3.884    0.743
       213  -9.8999    237.7093    239.9902   9.4224780141e+01   3.9415765750e+01 0.0006952501 0.0004923889 -21.64 0.0007332381    1.390    0.280
       214  -9.5093    170.2135    232.8108   9.4165570369e+01   3.9411169157e+01 0.0005267729 0.0003723468 -40.71  0.000645056    1.360    0.265
       215  -9.5267    236.6350    229.7536   9.4224133203e+01   3.9408717847e+01 0.0006142003 0.0005253055   7.54  0.001368892    1.200    0.167
       216  -9.1671    114.5371    228.9918   9.4116671301e+01   3.9408804139e+01 0.0005343859 0.0003387685 -86.71 0.0003916909    1.554    0.356
       217 -10.8226    164.2280    225.8991   9.4160507249e+01   3.9406436271e+01   0.00104102 0.0008664723  28.65  0.001914864    1.252    0.201
       218  -9.2885    160.6758    227.3139   9.4157338025e+01   3.9407428655e+01 0.0005635011 0.0003606501  44.46 0.0007479247    1.636    0.389
       219 -10.8732     98.4729    226.6657   9.4102600444e+01   3.9407274452e+01  0.001068638 0.0004299183 -21.36  0.001650108    2.432    0.589
       220 -10.7301    126.1900    220.8873   9.4127173992e+01   3.9403165739e+01 0.0007505536 0.0005398885  42.67 0.0008094601    1.453    0.312
       221  -9.7543    108.9830    222.5138   9.4111978244e+01   3.9404366007e+01 0.0005315594 0.0003420337  -5.82 0.0009299744    1.564    0.361
       222  -9.0507    157.7770    221.6134   9.4154956572e+01   3.9403514895e+01 0.0004841402 0.0003198283  15.99 0.0006153531    1.564    0.360
