#   1 NUMBER                 Running object number                                     
#   2 MAG_AUTO               Kron-like elliptical aperture magnitude                    [mag]
#   3 X_IMAGE                Object position along x                                    [pixel]
#   4 Y_IMAGE                Object position along y                                    [pixel]
#   5 X_WORLD                Barycenter position along world x axis                     [deg]
#   6 Y_WORLD                Barycenter position along world y axis                     [deg]
#   7 A_WORLD                Profile RMS along major axis (world units)                 [deg]
#   8 B_WORLD                Profile RMS along minor axis (world units)                 [deg]
#   9 THETA_WORLD            Position angle (CCW/world-x)                               [deg]
#  10 FWHM_WORLD             FWHM assuming a gaussian core                              [deg]
#  11 ELONGATION             A_IMAGE/B_IMAGE                                           
#  12 ELLIPTICITY            1 - B_IMAGE/A_IMAGE                                       
         1 -11.0372     76.7446     27.6080   1.4395428987e+01   6.2546397357e+01    0.3924373    0.2813421 -50.89  0.001028749    1.555    0.357
         2 -10.1388    214.1666    249.4720   3.5156109385e+01  -1.2778420661e+00    0.1615518    0.1170939  -8.45 0.0002977498    1.244    0.196
         3 -16.6041    166.5903    232.4363   4.1175401195e+01   6.2985601281e+00     1.781348     1.022844  36.74   0.01106843    1.533    0.348
         4 -20.2174    181.3603    183.3636   3.1019645385e+01   1.1334905354e+01     6.941074     5.675372  20.88    0.0450703    1.098    0.090
         5 -11.2424     97.1711    151.1349   4.4707954191e+01   3.1331781587e+01    0.6369866    0.2600806 -46.00  0.002352606    2.852    0.649
         6 -10.1032     98.5557    144.9766   4.3241300430e+01   3.2511415373e+01    0.2666339    0.2079328  17.56 0.0006880377    1.490    0.329
         7 -11.0851    104.5811    116.7085   3.5678681656e+01   3.7996036787e+01    0.3175321    0.2510467 -12.54  0.001078618    1.690    0.408
         8 -10.9692     90.7431    149.3422   4.6183953358e+01   3.2784679585e+01    0.4851007    0.2072861 -51.15  0.001897371    2.459    0.593
         9 -10.4958    106.5884    243.8825   5.4166009375e+01   1.2232351072e+01    0.2602724    0.1794136  64.08  0.001439845    1.808    0.447
        10 -11.2020     66.1804    143.6570   5.2449935226e+01   3.7846728614e+01    0.6110473    0.2888032  54.56  0.001701488    2.378    0.580
        11 -11.3190    108.4064    109.3055   3.2775050138e+01   3.8953352948e+01    0.3292406    0.2580557  -6.78  0.001515453    1.759    0.431
        12 -10.2982     70.1033    110.0087   4.5168480254e+01   4.5716527808e+01    0.2402779    0.2129154  46.40 0.0003627608    1.127    0.113
        13  -9.0344     94.5858    238.2757   5.6103476036e+01   1.4585365969e+01    0.1302739    0.1093683 -43.54 0.0006829659    1.541    0.351
        14 -12.6405    153.3367     99.1662   1.8739866490e+01   3.1493652138e+01    0.8162885    0.3184197  39.44  0.002658301    3.320    0.699
        15 -11.5523     96.9324    107.3623   3.5728997011e+01   4.1651881259e+01    0.4245073    0.3299929 -12.47  0.001494302    1.774    0.436
        16 -10.8866     92.7489    140.4362   4.4053428337e+01   3.4539964779e+01    0.2839666    0.2405782 -38.02  0.001095356    1.332    0.249
        17 -11.0977    119.6032    103.3049   2.8077558290e+01   3.7990050263e+01    0.3483185    0.2667518  25.90  0.001019493    1.539    0.350
        18 -11.7167    113.4523     99.4947   2.8768818266e+01   4.0125251500e+01    0.3625627    0.2644477  31.27  0.001660741    1.551    0.355
        19 -12.2957    114.0107     93.5774   2.6970849496e+01   4.1305736810e+01    0.6081622    0.4285003   9.55    0.0023628    2.314    0.568
        20 -11.1305    121.5050     96.9893   2.5853064872e+01   3.8946424570e+01    0.3274403    0.2810892 -31.30  0.001063509    1.248    0.198
        21  -9.5815    112.1837    246.7221   5.3314627519e+01   1.1120166790e+01    0.1625071    0.1430768  24.70 0.0002050671    1.168    0.144
        22 -10.3895    128.8932     96.3679   2.3739745646e+01   3.7459451821e+01    0.2818896    0.2228374 -34.57 0.0005440447    1.326    0.246
        23 -10.8318    135.0823     95.3924   2.1919287170e+01   3.6286686968e+01     0.316127    0.2784566  11.40 0.0007601489    1.320    0.242
        24 -11.1536    104.4781    130.8417   3.8828824075e+01   3.4738286638e+01    0.3923937    0.2897727 -18.17  0.001794642    1.897    0.473
        25 -17.4863    182.1453    157.8188   2.6189389919e+01   1.5290226085e+01     2.315751       1.2296  32.52   0.01110552    1.943    0.485
        26 -10.8156     84.1092    194.5978   5.4126122787e+01   2.3872434877e+01    0.3326425    0.2409913 -16.56  0.001100933    2.047    0.511
        27 -10.5371    131.9744     91.0176   2.1457020168e+01   3.7868782730e+01    0.3149217    0.2099936  48.36  0.000925675    1.516    0.340
        28  -9.8805     65.3542    129.2982   5.0435965937e+01   4.1544675935e+01    0.2475755    0.1814366  16.87 0.0008257805    1.640    0.390
        29 -10.1898     90.8066    157.7416   4.7527689037e+01   3.0844322963e+01    0.2396182    0.1915988 -46.38 0.0009088845    1.393    0.282
        30  -9.7541    117.9773     98.0000   2.7093746991e+01   3.9490384181e+01    0.2415114    0.1934191   4.87 0.0005775588    1.667    0.400
        31 -10.7828    122.8339    245.1201   5.1057556564e+01   1.0044294239e+01     0.205152    0.1694754 -50.03  0.001539055    1.574    0.365
        32 -11.0818    102.8753     82.3271   2.6943263270e+01   4.6168215124e+01    0.2687523    0.2144562 -59.47 0.0007835203    1.293    0.226
        33 -11.0540    108.4049     75.6113   2.3160113405e+01   4.6379728060e+01    0.3121244    0.2318095   7.84  0.001334716    2.030    0.507
