#   1 NUMBER                 Running object number                                     
#   2 MAG_AUTO               Kron-like elliptical aperture magnitude                    [mag]
#   3 X_IMAGE                Object position along x                                    [pixel]
#   4 Y_IMAGE                Object position along y                                    [pixel]
#   5 X_WORLD                Barycenter position along world x axis                     [deg]
#   6 Y_WORLD                Barycenter position along world y axis                     [deg]
#   7 A_WORLD                Profile RMS along major axis (world units)                 [deg]
#   8 B_WORLD                Profile RMS along minor axis (world units)                 [deg]
#   9 THETA_WORLD            Position angle (CCW/world-x)                               [deg]
#  10 FWHM_WORLD             FWHM assuming a gaussian core                              [deg]
#  11 ELONGATION             A_IMAGE/B_IMAGE                                           
#  12 ELLIPTICITY            1 - B_IMAGE/A_IMAGE                                       
         1 -10.9996    242.6586      3.3957   2.9055106560e+01   2.6101066090e+01    0.5800425    0.3417937 -74.29  0.003711198    1.490    0.329
         2 -10.3819    249.8950      7.7606   2.9425038437e+01   2.4255478115e+01    0.4343385     0.183639 -40.92  0.001619992    1.967    0.492
         3 -11.5480    238.6476     14.6808   3.1531329639e+01   2.5699261702e+01    0.8701522    0.3564359 -35.11  0.004106667    2.275    0.560
         4 -10.8384    233.8803      3.3809   2.9624044515e+01   2.7835387108e+01    0.5083507    0.3278957 -66.49  0.001789896    1.304    0.233
         5 -11.8446    248.9020     36.5727   3.5088182983e+01   2.1132814955e+01     1.223027    0.2066137 -42.28  0.004527074    3.790    0.736
         6 -12.0960    248.0765     21.2667   3.2134131318e+01   2.3118749709e+01    0.9894837    0.4815075 -35.63  0.003047236    1.934    0.483
         7 -10.4308    136.5143     17.5390   4.3868567349e+01   4.8258694862e+01     0.389972    0.2931833 -72.49  0.002216906    1.573    0.364
         8 -10.9698     87.8671     16.0299   5.4038186754e+01   5.9265809581e+01    0.3626663    0.3233592 -45.86  0.001829864    1.424    0.298
         9  -9.7436     91.8355     12.1784   5.1444128887e+01   5.8806351890e+01    0.2641982    0.1805771  38.62 0.0009958701    1.265    0.209
        10  -9.0355    156.8547     16.7176   4.0427829936e+01   4.3557416389e+01    0.3383399    0.1306278 -44.11  0.001416998    2.824    0.646
        11 -10.5364    121.8354     17.5616   4.6600075911e+01   5.1662047479e+01    0.2528743    0.2095148 -24.89 7.158096e-06    1.346    0.257
        12 -12.2818    113.1206     12.4956   4.6621773724e+01   5.4118562514e+01    0.3507886    0.2533149 -17.28  0.000278854    1.558    0.358
        13 -10.4006    112.4393      4.8015   4.4044296893e+01   5.4921717626e+01    0.4529537    0.2780406  69.38  0.002168684    1.576    0.366
        14 -10.9910    101.3559     13.6566   4.9655628943e+01   5.6624959829e+01    0.2661178    0.2469762  -7.39 0.0002892135    1.193    0.162
        15  -9.5331    100.2765      9.7068   4.8422236851e+01   5.7215245376e+01    0.1838272    0.1358017  58.14 0.0001865719    1.244    0.196
        16  -9.4461     42.0475     11.2965   6.8028465979e+01   6.8056672816e+01    0.2506522    0.1552477   7.18 0.0004578833    1.596    0.373
        17 -10.0654     67.0259     12.6751   5.9019867444e+01   6.3695744915e+01    0.3023149     0.187519  -6.80  0.001369759    1.721    0.419
        18  -9.1992     60.8931     12.6786   6.1168731686e+01   6.4807399283e+01    0.3030491    0.1971417  17.28  0.001764247    1.464    0.317
        19 -10.3544    204.5719     12.0707   3.3772627574e+01   3.3103327367e+01    0.3428355    0.2023204 -75.53 0.0007111669    1.707    0.414
        20  -9.3381     80.2025     11.8630   5.4517685316e+01   6.1231726640e+01    0.1742431    0.1586016  29.80 0.0003637851    1.143    0.125
        21  -9.3065    232.8792     11.0431   3.1226143370e+01   2.7245727604e+01    0.1929131    0.1549528  76.82 0.0007719399    1.274    0.215
        22  -9.4354    128.6862     10.8960   4.3107237672e+01   5.0697682823e+01    0.2666111    0.1231276 -49.90  0.001136351    2.963    0.662
        23  -8.4429     84.9319     10.5581   5.2636137022e+01   6.0393438997e+01    0.2270339    0.1542418 -42.72  0.001227108    1.904    0.475
        24 -11.1164     26.4789     10.7103   7.5075297832e+01   7.0268665780e+01    0.3452629    0.3110659  12.92 0.0007501943    1.479    0.324
        25  -9.9999     20.4978      6.4902   7.6046625983e+01   7.1527316657e+01    0.2049038    0.1578044  35.13  0.001185813    1.727    0.421
        26 -10.5068     13.3472     10.3102   8.1879706674e+01   7.1789290935e+01    0.2310341    0.1277013 -41.93  0.001382957    1.902    0.474
        27 -10.6692    141.0574     12.6498   4.1600010039e+01   4.7656185103e+01     0.304315    0.2519419   9.72  0.000451331    1.427    0.299
        28  -9.0627    182.9319      9.0149   3.5172793509e+01   3.8246394281e+01     0.185753    0.1584055 -89.12 0.0004384318    1.012    0.012
        29 -10.3181      6.5536      7.7576   8.4535311899e+01   7.2786577730e+01    0.3486129    0.1428629 -46.71  0.001787237    2.732    0.634
        30 -11.4608     65.4956      6.1932   5.6626341567e+01   6.4608276101e+01     0.468621    0.2363778  38.18 0.0009942615    1.678    0.404
        31  -9.8744     73.4597      4.7562   5.3477269436e+01   6.3210252290e+01    0.3374898    0.2516419 -44.41  0.002068766    1.840    0.456
        32 -10.0669    223.5774      6.0045   3.0883825691e+01   2.9669299066e+01    0.3802188    0.2255992 -48.96  0.002348607    1.489    0.328
        33  -9.7037    218.3654      3.2266   3.0693044848e+01   3.1030882195e+01    0.2511641     0.154595  89.71 0.0007340151    1.457    0.314
        34 -10.1133     94.8813      5.3414   4.8013171160e+01   5.8748877686e+01    0.3992162    0.2151434  64.53  0.001976604    1.853    0.460
        35 -10.1220     32.3069      6.2861   6.9979031678e+01   7.0042764858e+01    0.2505532    0.1617738  17.22 0.0007859913    1.319    0.242
        36 -10.0662    203.1607      3.2229   3.1898876468e+01   3.4282252815e+01    0.3383916    0.1409109  83.58   0.00157955    2.439    0.590
        37  -9.2564    148.9263      2.8867   3.7551099711e+01   4.6657931244e+01    0.1976864    0.1473227  47.80  0.001209275    1.323    0.244
        38  -9.0759     77.9252      2.8141   5.1345308473e+01   6.2484059854e+01    0.1857651    0.1353653  32.45 0.0003709832    1.154    0.134
        39  -8.7719    138.6474      6.1902   3.9994942327e+01   4.8783684126e+01    0.1558345    0.1183591   3.24 0.0002810687    1.620    0.383
        40  -8.3596     15.2645      2.6744   7.6907070009e+01   7.2601986453e+01   0.09358287   0.08346571 -15.87  0.000477028    1.565    0.361
        41 -10.6827    186.4348      3.5611   3.3483180982e+01   3.7959826267e+01     0.267959     0.210896 -37.76 0.0009219737    1.379    0.275
        42  -9.5178    230.5084    186.0060   6.8991518724e+01   7.6195196801e-01    0.2068557     0.114603 -35.52  0.001038205    1.606    0.377
        43  -8.7218    249.4452    250.4874   7.7172039422e+01  -1.1060463720e+01    0.1590526   0.08642535 -19.23 0.0006095843    1.640    0.390
        44  -9.0568    249.1187    246.3886   7.6559707800e+01  -1.0513346684e+01    0.2435582    0.1369981 -31.55 0.0009995266    1.674    0.403
        45  -9.3475    210.6587    249.9061   8.4043130609e+01  -6.2343913459e+00    0.2866446    0.1418415  19.30  0.001460394    2.038    0.509
        46 -10.3595    224.1262    183.1360   6.9584087064e+01   2.2253523546e+00    0.2968512    0.1746292 -38.45  0.001510381    1.569    0.363
        47 -10.1037    226.1813    179.0434   6.8394622036e+01   2.5979166644e+00    0.3211884    0.2090335 -20.63  0.001120289    1.496    0.331
        48  -9.5167    235.5185    180.9992   6.7120330755e+01   8.2978520815e-01     0.360488    0.1135044 -38.74  0.001382438    2.808    0.644
        49  -9.4712    219.1378    178.1276   6.9505656025e+01   3.8812185538e+00    0.2177989    0.1695682  -9.86  0.001104839    1.211    0.174
        50  -9.5455    233.3187    173.8568   6.6083356173e+01   2.3555022047e+00    0.3013054     0.140889 -35.24  0.001333482    1.887    0.470
        51  -9.8414    225.7448    172.9015   6.7236007687e+01   3.7192816699e+00    0.3748495    0.2154295 -34.27  0.001505475    1.547    0.353
        52  -8.8414    251.0000    172.0364   6.2748320680e+01  -1.5635880033e-02    0.2121415   0.06182119 -38.21  0.000796027    2.898    0.655
        53  -9.2647    237.3868    169.2056   6.4443551812e+01   2.5007085287e+00    0.2343003    0.1500164 -39.86  0.001110821    1.434    0.303
        54 -10.0276    244.0052    168.2801   6.3145317669e+01   1.6344463923e+00    0.2964022    0.1743991  33.28  0.001562218    1.902    0.474
        55  -8.9038    240.6111    163.2390   6.2691409541e+01   2.9937488961e+00    0.1881041    0.1076924 -29.28 0.0005742618    1.569    0.363
        56 -10.8250    246.0121    159.0011   6.0947012658e+01   2.8539605408e+00    0.5128857    0.1944742 -39.28  0.002182084    2.241    0.554
        57  -8.8904    250.6465    158.0107   6.0010324789e+01   2.3020861251e+00    0.2945611    0.1035909 -38.16  0.001213787    2.378    0.580
        58 -10.1734    250.0296    150.6312   5.8611337530e+01   3.6057198071e+00    0.5363058    0.1527165 -43.33  0.001923673    3.253    0.693
        59  -9.4749    226.9702    156.1528   6.3554175496e+01   6.4328608292e+00     0.255589     0.178248 -33.67 0.0009185107    1.254    0.202
        60  -8.5625     41.3395    157.3011   1.0888237507e+02   3.7478247057e+01    0.1374679   0.09518179 -37.85 0.0003700813    1.668    0.401
        61 -10.1054    242.4812    153.0448   6.0298444985e+01   4.4039681663e+00    0.2953567    0.2001673 -38.74  0.001582923    1.291    0.225
        62 -11.4313    244.2050    148.2642   5.9036364637e+01   4.9269130555e+00     0.627529    0.2700157 -35.71  0.002629628    2.001    0.500
        63  -9.0498    233.3997    152.3622   6.1654029527e+01   6.0099801872e+00    0.2733898    0.1147488 -34.62  0.001133115    2.165    0.538
        64  -9.1000    221.5696    152.7704   6.3791607125e+01   7.9604509245e+00    0.1975327    0.1200161 -45.98 0.0009469035    1.635    0.388
        65  -9.2250    229.5249    147.9838   6.1385358534e+01   7.4278945607e+00    0.2184964    0.1194354 -37.87  0.001033788    1.596    0.374
        66 -10.0729    224.1706    146.0511   6.1892193590e+01   8.7018884367e+00    0.3515384    0.1840366 -37.84  0.001614806    1.686    0.407
        67 -10.2125    248.8369    134.8738   5.5548829564e+01   6.3986877988e+00    0.3457088    0.2050766 -38.78  0.001274527    1.408    0.290
        68 -10.0342    248.4974    130.4909   5.4686194048e+01   7.1798941632e+00    0.2669326    0.1878171 -47.76  0.001305944    1.360    0.265
        69  -8.9365    230.3863    140.7080   5.9685488539e+01   8.5498579426e+00    0.2699342     0.114016 -42.09   0.00112063    2.103    0.524
        70  -9.6560    250.1627    140.1184   5.6436360240e+01   5.3157628404e+00    0.2988634    0.2024099 -15.52  0.001117711    1.645    0.392
        71 -10.9870    242.1628    134.3098   5.6438739146e+01   7.6122131801e+00    0.5533918    0.2725352 -29.51   0.00212984    2.038    0.509
        72  -8.4984    209.6631    137.6969   6.2647395727e+01   1.2875767654e+01     0.145612    0.1080461  -0.94 0.0007038125    1.667    0.400
        73  -9.8196    234.1277    134.6453   5.7771583270e+01   8.9451812246e+00    0.2582045    0.1636531 -42.91  0.001331681    1.414    0.293
        74  -8.2838     13.6856    133.2728   1.1356944962e+02   4.5858490529e+01    0.1248811    0.0882782  68.36  0.000367253    1.558    0.358
        75  -8.7684     65.3160    132.0349   9.7762188094e+01   4.0972721171e+01    0.2045728    0.1700351 -57.40 0.0003532468    1.106    0.096
        76 -10.6263    240.8802    124.4568   5.4540261969e+01   9.4928604938e+00    0.3780532     0.219241 -53.66  0.001819658    1.943    0.485
        77  -9.4229    228.5411    124.7303   5.6511513391e+01   1.1668372103e+01    0.2265806     0.207377 -25.66  0.001383705    1.065    0.061
        78  -9.9422     69.2847    122.8318   9.4625553778e+01   4.2709346016e+01    0.2319326    0.2204073 -10.96 0.0003150663    1.100    0.091
        79  -9.6898    236.0382    117.4687   5.3759192301e+01   1.1536990181e+01    0.2249587    0.1594275 -37.62 0.0006985044    1.214    0.176
        80  -9.8923    231.0480    116.4891   5.4302025567e+01   1.2623311876e+01    0.1900864     0.136533  48.33  0.001031533    1.595    0.373
        81 -12.1460    248.5622    106.5847   4.9653059349e+01   1.1074963319e+01     1.007177    0.3918656 -33.82  0.004181663    2.430    0.588
        82  -9.3100     15.4992    112.0504   1.1006323578e+02   5.0923707187e+01    0.1851944    0.1620389 -56.90 0.0005550857    1.066    0.062
        83  -8.6785    104.9948    111.5261   8.0879832296e+01   3.9559441135e+01    0.2236385    0.1516763  36.66 0.0005396093    1.522    0.343
        84  -8.8651     26.0978    111.8902   1.0654028001e+02   5.0171148920e+01    0.1857081     0.164583 -85.50            0    1.196    0.164
        85  -8.2627    218.2975    103.2955   5.3311585407e+01   1.7349922671e+01    0.1328003    0.1071363   0.37 0.0002944004    1.568    0.362
        86  -8.9454    119.9858    102.9914   7.4263113149e+01   3.8512288616e+01    0.2306764    0.1909696  88.18  0.001098083    1.609    0.378
        87  -8.4780     72.4463     95.5217   8.6939102543e+01   4.8717480155e+01    0.1469466    0.1314823 -28.08 0.0001983204    1.025    0.025
        88 -10.5437    242.4800     92.0137   4.7345747681e+01   1.4504690082e+01    0.3035329    0.2094926 -39.91  0.001119018    1.242    0.195
        89  -9.2220     19.2735     91.7955   1.0518078284e+02   5.5495303226e+01    0.2058697    0.1808254 -18.29 0.0007899722    1.207    0.171
        90  -9.7648    236.9137     90.6650   4.7779730040e+01   1.5773007761e+01    0.1981731    0.1678782  27.12  0.001194393    1.503    0.335
        91  -8.0108     99.3097     90.6987   7.6810773535e+01   4.5186703652e+01    0.1438444    0.1218363  87.64 0.0004357065    1.603    0.376
        92  -9.5263     38.5592     89.7658   9.7582324992e+01   5.4309194303e+01    0.3193267    0.2000439 -24.02  0.001594692    1.759    0.431
        93  -8.9500     28.0130     89.0624   1.0135793233e+02   5.5448501199e+01    0.1951524     0.155529  76.24 0.0006805087    1.671    0.402
        94 -10.3694    243.4202     76.2512   4.3854907333e+01   1.6746064471e+01     0.254923    0.1755442 -73.30  0.001286706    1.655    0.396
        95 -11.0062    247.9596     85.7565   4.5330990583e+01   1.4455541034e+01    0.4684805    0.2293496 -50.89  0.002255467    1.933    0.483
        96  -9.7840    248.5252     80.2747   4.4110520240e+01   1.5181281263e+01    0.2889898    0.2142699 -83.37  0.001727854    1.561    0.360
        97  -9.8669    189.0016     88.0312   5.4517563681e+01   2.6188311485e+01    0.2064377    0.1977751 -56.70  0.001191734    1.014    0.014
        98 -10.4422    237.8516     83.5044   4.6095635334e+01   1.6713796622e+01    0.3438953    0.2336146  84.69  0.001849744    1.882    0.469
        99  -9.6288    229.7644     84.3431   4.7333286683e+01   1.8169713442e+01    0.3551612    0.1819628  66.55  0.001160792    2.421    0.587
       100 -10.8965    195.6461     82.1689   5.1901829745e+01   2.5706770955e+01    0.3027546    0.2438527  64.35 0.0002186559    1.306    0.234
       101  -9.6677    189.3506     81.8766   5.2891740309e+01   2.7154340906e+01     0.331602    0.2172551  47.47 0.0006507887    1.625    0.385
       102  -8.2592    135.4548     83.5068   6.4583999298e+01   3.9105308875e+01    0.1473636    0.1461664 -35.81 0.0008084318    1.049    0.046
       103  -9.4250     87.9134     82.0042   7.7822853979e+01   4.9079806107e+01    0.2560393    0.2216298  50.90   0.00131736    1.336    0.251
       104  -8.6736     63.5358     82.0561   8.6277510468e+01   5.2993058894e+01    0.2113347     0.128598 -46.66 0.0003479243    1.519    0.342
       105  -9.3616    174.9399     78.9826   5.4730152797e+01   3.0903340083e+01    0.2192928    0.2095034 -62.85 0.0004405219    1.026    0.025
       106  -9.3604    199.4921     76.9461   4.9984244875e+01   2.5709189287e+01    0.1967746    0.1812623  82.41  0.001160421    1.109    0.098
       107  -8.7209    195.5190     77.4732   5.0748864502e+01   2.6503004615e+01     0.139743    0.1304219 -59.76 5.505096e-05    1.007    0.006
       108 -10.0249    234.7389     74.6702   4.4553507689e+01   1.8670949624e+01    0.3688866    0.1652854 -46.56  0.001323818    1.977    0.494
       109 -10.0665     21.1625     75.0588   1.0075899879e+02   5.9165277730e+01    0.3435106    0.1443162  34.93  0.001544083    2.857    0.650
       110 -10.5015    243.1719     70.4763   4.2654988877e+01   1.7646936803e+01    0.3653198    0.1728408 -51.35  0.001397889    1.984    0.496
       111 -10.8546    128.8283     71.0861   6.2505192567e+01   4.2814172119e+01     0.319073    0.2675046  10.19 0.0003189932    1.315    0.240
       112  -9.9605     28.7634     71.4115   9.6730579476e+01   5.9332009445e+01    0.2488887    0.2086502 -67.38  0.001096516    1.386    0.278
       113  -9.1596    250.0197     70.8121   4.1966849396e+01   1.6298643034e+01    0.1833618     0.140383  29.62  0.001080675    1.939    0.484
       114  -8.2741    152.3254     71.3011   5.7119179656e+01   3.7413467147e+01     0.148913    0.1130931  19.75 0.0007029478    1.636    0.389
       115  -9.5533    113.9151     70.2103   6.6181760826e+01   4.6220483403e+01    0.3764341      0.29772  75.16  0.001796873    1.698    0.411
       116  -8.3143     70.9811     70.9517   8.0154643943e+01   5.4160438525e+01    0.1697087     0.150175 -15.68 0.0004316857    1.011    0.011
       117  -9.3987     37.0737     71.0844   9.3253918387e+01   5.8600226525e+01    0.1943383    0.1677965 -30.59 0.0003765649    1.044    0.042
       118  -8.6402    157.4890     70.5330   5.5820471060e+01   3.6341591626e+01    0.1429368    0.1400961  36.40 0.0003113227    1.036    0.035
       119  -9.7481    138.2457     69.1994   5.9642179034e+01   4.1007653407e+01     0.346064     0.232557  43.81  0.001288458    1.472    0.321
       120  -8.9279    203.9615     68.7036   4.7286608760e+01   2.6015093066e+01    0.1873751    0.1694902 -83.58  0.000379494    1.087    0.080
       121  -8.6039    192.1234     69.6234   4.9315735191e+01   2.8508330991e+01    0.1986596     0.121939  47.75  0.000938718    1.761    0.432
       122  -9.0572    235.0252     67.2307   4.2893113473e+01   1.9716182043e+01    0.2240691    0.1713977  54.93  0.001349611    1.502    0.334
       123  -9.6135    238.4987     64.9411   4.1999513553e+01   1.9359435840e+01    0.2418122    0.1913923 -39.30   0.00140379    1.197    0.165
       124  -9.1967    227.6317     66.4033   4.3593162309e+01   2.1330418013e+01     0.260107    0.2002157 -21.07  0.001498227    1.549    0.354
       125  -9.0122    173.1971     66.8467   5.1783063003e+01   3.3277621487e+01    0.2105692     0.186087 -64.88 0.0003693233    1.147    0.128
       126 -10.3811    148.9516     66.9227   5.6564136089e+01   3.8914313667e+01    0.2818279    0.2276585  53.30 0.0004026413    1.213    0.176
       127  -9.4323    144.1663     64.1418   5.6776758918e+01   4.0471342976e+01    0.2816456    0.2542993 -71.20  0.001086021    1.217    0.178
       128  -9.7754    249.8883     65.6216   4.0905781148e+01   1.7068162254e+01     0.265312     0.123221 -49.68    0.0013065    1.894    0.472
       129  -8.9751     95.2849     66.3420   7.0426094090e+01   5.0711235480e+01     0.148393    0.1078677  -0.67 0.0006035033    1.638    0.390
       130  -8.4504     39.3049     66.3281   9.0941163601e+01   5.9358123412e+01    0.1411834   0.08649073 -24.96 0.0003390833    1.651    0.394
       131  -9.0577     28.7168     65.9409   9.5231316458e+01   6.0499398776e+01    0.1771572    0.1439403 -39.93  0.000384873    1.076    0.070
       132  -9.8436     15.2703     66.0335   1.0094872916e+02   6.1554728210e+01    0.2139521    0.1586805 -18.26 0.0003549142    1.297    0.229
       133  -9.9549    208.5713     64.6457   4.5655745483e+01   2.5617876016e+01    0.2349314    0.2019715 -66.29 0.0003001654    1.094    0.086
       134 -10.1465    100.8947     62.5577   6.7436767968e+01   5.0259038393e+01    0.4013304    0.3053048 -63.67  0.001400657    1.840    0.457
       135  -8.6608     36.6915     56.2997   8.8862156644e+01   6.1652088307e+01    0.1761589    0.1043685 -37.44 0.0002243664    1.457    0.314
       136 -10.5938     39.6617     60.4256   8.8946877794e+01   6.0512284265e+01    0.3064744    0.2718807  48.34 0.0007399582    1.530    0.346
       137 -10.0540     34.7041     59.8377   9.0856938526e+01   6.1166236745e+01    0.2695417    0.1997253 -16.88 0.0005758866    1.247    0.198
       138 -10.3632    135.0612     59.9946   5.7561569799e+01   4.3227089256e+01     0.596885    0.2585692 -49.50  0.002124111    3.059    0.673
       139  -9.0569     82.5015     61.5044   7.2950807931e+01   5.3975902422e+01    0.3154203    0.1974024   0.42  0.001192283    2.338    0.572
       140 -10.6417    239.6125     31.0034   3.4751796975e+01   2.3631505570e+01    0.3439323    0.2300317  71.02            0    1.526    0.345
       141  -9.5356    233.1756    246.9830   7.9448437135e+01  -8.6971352773e+00    0.2375288    0.2044631 -44.50  0.001544272    1.880    0.468
       142 -11.0202    239.9820     36.5601   3.5861616719e+01   2.2876637320e+01    0.5409966    0.2581795  56.90   0.00280892    2.351    0.575
       143 -11.5733    244.0309     50.7649   3.8422322669e+01   2.0242860130e+01    0.4383746    0.3424568 -48.14   0.00211749    1.121    0.108
       144 -11.0253    244.0027     42.0165   3.6620132279e+01   2.1394818195e+01    0.3883383    0.3285327 -53.37  0.001814305    1.107    0.097
       145  -9.7343    243.2285    245.9105   7.7499224756e+01  -9.7666896908e+00    0.2703415     0.195782 -27.38   0.00186803    1.416    0.294
       146  -9.9983    240.1859    239.9502   7.7045516176e+01  -8.6253202158e+00    0.2774445    0.2461403 -26.68  0.001430428    1.577    0.366
       147 -11.2572    238.8201    219.1469   7.3698712897e+01  -5.5629263311e+00    0.5608841    0.3127567 -39.97  0.002453602    1.868    0.465
       148 -11.3997    247.6259    215.5915   7.1528214100e+01  -6.1895650007e+00    0.9429094    0.2945774 -33.13  0.003947164    2.954    0.662
       149  -9.7291    235.2628     61.0456   4.1521971258e+01   2.0557924090e+01    0.2374976    0.1665619 -61.44  0.001385977    1.344    0.256
       150  -8.7836    184.9095     60.7269   4.8176179004e+01   3.1502633321e+01    0.3658389    0.1278508  47.32  0.001275384    3.287    0.696
       151 -10.3343     25.0668     59.1940   9.4823092439e+01   6.2219658378e+01    0.2616809    0.1922871 -17.48  0.001596685    1.257    0.204
       152  -9.2938    174.1455     59.0302   4.9497674900e+01   3.4246339733e+01    0.2418245     0.194825  43.43 0.0007670848    1.326    0.246
       153  -8.2786    106.3363     58.2977   6.4405373304e+01   4.9846352028e+01    0.1489264    0.1061234  15.29 0.0007032016    1.653    0.395
       154 -10.0787    192.5123     56.1267   4.5836659638e+01   3.0434622913e+01      0.31437    0.2073852 -53.85  0.001612005    1.524    0.344
       155  -8.8096    120.1312     56.8256   6.0181685909e+01   4.7096485513e+01    0.2035167    0.1920256 -88.76 0.0003597176    1.220    0.180
       156  -9.4367     63.1987     55.7631   7.7878385134e+01   5.8242818381e+01    0.4370878    0.3169756  77.85  0.001891061    3.332    0.700
       157  -9.3373     20.0073     57.0023   9.6403403166e+01   6.3088305584e+01    0.1699898     0.152844  85.41 0.0005691919    1.601    0.375
       158 -10.6923    208.4446     55.0280   4.3378762434e+01   2.7034346280e+01    0.2762035    0.2322637  72.68  0.000847059    1.199    0.166
       159 -10.3666    205.0051     51.6856   4.3023975078e+01   2.8255775694e+01     0.434421     0.286438 -15.21  0.001764182    2.124    0.529
       160 -10.0621    112.7348     54.5116   6.1353776936e+01   4.9079494205e+01    0.4650948    0.3567081  12.44  0.002410648    1.466    0.318
       161  -9.0250    174.4577     54.2436   4.8148551672e+01   3.4868575974e+01    0.3481133    0.1957242 -77.43  0.001312922    3.134    0.681
       162  -9.9442    246.8757    240.0431   7.5894701871e+01  -9.4405938601e+00    0.2926226    0.1800272 -17.55  0.001238281    1.384    0.277
       163  -8.6836    141.5448     54.4859   5.4419090128e+01   4.2561746057e+01    0.2829852    0.1111149  45.78   0.00103928    2.559    0.609
       164  -9.5283    125.2903     54.1375   5.8018809015e+01   4.6351623512e+01    0.2923781    0.2110314  64.33  0.001459322    1.525    0.344
       165  -8.8035     28.5136     53.9865   9.1680578519e+01   6.2942894861e+01    0.1967991   0.07618555 -34.87  0.000810465    2.574    0.611
       166  -9.9982      9.7908     52.5128   9.9730386226e+01   6.4730723028e+01    0.2440149    0.2060723  16.63 0.0009381714    1.405    0.288
       167  -9.4296    227.6939     51.5407   4.0284100326e+01   2.3417832828e+01     0.233593    0.1246251 -53.69 0.0006092512    1.778    0.437
       168  -8.5707    153.2863     52.6601   5.1483951209e+01   4.0072811627e+01    0.1434508    0.1059033 -67.97 0.0007018105    1.637    0.389
       169  -9.7369    120.2354     50.5575   5.8089336329e+01   4.8019639025e+01    0.2193151    0.2058711 -25.62 0.0002732744    1.120    0.107
       170  -9.4407     84.9026     50.8973   6.8387038733e+01   5.5324786990e+01    0.2681099     0.209859  50.75 0.0006671219    1.446    0.309
       171  -9.2683     79.8823     49.6547   6.9615539491e+01   5.6457129001e+01    0.3023587    0.2378454   9.72  0.001695801    1.242    0.195
       172 -10.4864    192.7036     49.0893   4.4034049230e+01   3.1372176190e+01    0.3412972    0.2382096  82.01   0.00119823    1.510    0.338
       173  -8.6144    172.3983     50.2288   4.7395930658e+01   3.5914366638e+01    0.1830107    0.1204752 -47.55 0.0002682648    1.545    0.353
       174  -9.1044     73.3665     49.3440   7.1775792333e+01   5.7669924285e+01    0.3405798    0.2077745  -3.51    0.0015204    2.273    0.560
       175  -8.4406    158.6420     49.3314   4.9513526376e+01   3.9277636410e+01    0.1482942    0.1038658 -72.46 0.0007042625    1.794    0.443
       176  -9.3239    213.1491     47.4746   4.1022394628e+01   2.7044690876e+01    0.2447178    0.2077119  87.88 0.0008615751    1.133    0.117
       177  -9.4240     20.0237     47.0948   9.3297879802e+01   6.5040656685e+01    0.1879363    0.1469822 -24.13 0.0004378561    1.034    0.033
       178  -9.8937    233.2530     45.4466   3.8372378297e+01   2.3092497964e+01    0.2246538    0.1558555 -40.64 0.0007589584    1.332    0.249
       179  -8.9051    172.2056     45.8365   4.6228927935e+01   3.6556010720e+01    0.1898716    0.1521769  41.32 0.0004697303    1.365    0.268
       180  -9.5020    163.8604     45.8902   4.7616043091e+01   3.8513523100e+01    0.2367879    0.1908718 -52.79 0.0002658834    1.280    0.219
       181  -9.8549    238.3235     44.2992   3.7627712470e+01   2.2221659520e+01    0.2163173    0.1434755 -27.62   0.00124408    1.717    0.418
       182  -8.8860    156.2572     44.7468   4.8616484991e+01   4.0462461410e+01      0.22295    0.1684715 -55.99 0.0004487415    1.438    0.304
       183  -9.3058    135.0127     44.9375   5.2843724271e+01   4.5431543756e+01    0.2118264    0.1644128 -71.86 0.0004439442    1.619    0.382
       184 -10.1707     96.5045     42.8316   6.1824730696e+01   5.4245949388e+01    0.3828459    0.2379276  -2.76  0.001735432    2.199    0.545
       185 -10.8645     32.1482     43.8513   8.6542936987e+01   6.4475289528e+01    0.5571274    0.2494662  29.81  0.002143811    2.315    0.568
       186  -8.8075    152.8274     41.4664   4.8272656121e+01   4.1702599588e+01    0.2180098    0.1710638 -20.79 0.0009742095    1.432    0.302
       187  -9.1733    223.6440     40.8173   3.8349767912e+01   2.5676933776e+01     0.231609    0.1433166 -47.73 0.0007444044    1.437    0.304
       188  -9.4821    185.5001     41.0364   4.2983026478e+01   3.4086637105e+01    0.1956789    0.1286029 -33.58  0.001027035    1.574    0.365
       189  -8.5700     55.2490     44.3841   7.6782699561e+01   6.1409995657e+01     0.167161    0.1178636  37.65 0.0005447106    1.534    0.348
       190  -9.9602      1.4822     39.5152   9.9872506298e+01   6.7778447491e+01    0.2684537    0.0842456 -53.78 0.0005206814    2.397    0.583
       191  -8.8289    119.7133     38.9603   5.4326916025e+01   4.9733114012e+01     0.176742    0.1726308  20.53  0.000414651    1.080    0.074
       192  -9.9793    113.0508     36.5962   5.5123967293e+01   5.1529034108e+01    0.4615376    0.3601851  57.32  0.002370264    1.265    0.209
       193  -8.3303    106.5082     39.5772   5.7852327130e+01   5.2577859182e+01    0.1382221    0.1220541  30.02 0.0001056864    1.027    0.027
       194  -9.6272     61.2982     38.1057   7.1924552756e+01   6.1465108420e+01    0.2502854    0.2078441 -40.33  0.001039247    1.443    0.307
       195  -9.7678     51.7220     38.3326   7.5847711978e+01   6.2909023768e+01    0.2535349    0.2330969  22.53  0.001669351    1.323    0.244
       196 -10.3857    213.1064     37.7330   3.8779584485e+01   2.8315672462e+01     0.469224    0.1936083  77.31  0.001932554    2.968    0.663
       197 -11.4009    243.3311     57.8812   3.9977977775e+01   1.9409638977e+01    0.4837562    0.2534506 -61.99   0.00104606    2.100    0.524
       198 -10.0425    192.1997     36.6389   4.0980938255e+01   3.3103740965e+01    0.2849027     0.182467  83.50 0.0008468829    1.632    0.387
       199  -8.9152    127.6730     40.9490   5.3163186597e+01   4.7659217767e+01     0.317048    0.1828716  33.59  0.001422991    2.007    0.502
       200 -10.3198    124.3363     35.1049   5.1973805413e+01   4.9164547214e+01    0.3949991    0.2517432 -35.88  0.001273503    1.684    0.406
       201 -10.7035      4.8974     33.7001   9.6225279052e+01   6.8663212780e+01      0.37287    0.1705748 -54.07  0.001713072    2.000    0.500
       202  -8.6186    217.3111     35.2883   3.7776122018e+01   2.7714484633e+01    0.1143093   0.09520893  37.64 0.0004299149    1.580    0.367
       203  -9.1166    153.4314     33.8598   4.5926594568e+01   4.2502622460e+01    0.2683391    0.1539652 -48.21  0.001279422    1.930    0.482
       204  -9.3741     19.6047     40.2402   9.1141628434e+01   6.6356652239e+01    0.2429488    0.1290686  23.14   0.00108491    1.966    0.491
       205 -10.0732    134.2546     32.2906   4.8972535217e+01   4.7205049970e+01    0.2231668    0.2103453  85.27 0.0003324709    1.117    0.105
       206  -8.9145     39.5006     32.9681   7.8941314054e+01   6.5439219341e+01     0.182853    0.1091749 -34.87 0.0008844594    1.543    0.352
       207  -8.5627     33.4386     33.4907   8.1939459596e+01   6.6104002633e+01    0.1266221   0.09854687 -11.99 0.0001313801    1.035    0.034
       208 -10.0592     24.2022     31.6157   8.5615732345e+01   6.7427436302e+01    0.3057619    0.1290972 -39.91 0.0006879165    2.031    0.508
       209  -9.9847    211.8760     31.8457   3.7563646801e+01   2.9305883176e+01    0.2191044    0.1855622  79.55  0.000525307    1.149    0.130
       210  -9.7818     20.1419     31.7191   8.7677071077e+01   6.7808145296e+01    0.2136996    0.1397896 -31.22 0.0003745042    1.250    0.200
       211  -9.4895     68.6842     31.7086   6.6570167370e+01   6.1129349364e+01    0.2087024    0.1192456  36.86 0.0004504213    1.613    0.380
       212  -9.1297     67.0447     28.9835   6.6036340198e+01   6.1783167432e+01    0.2790602    0.1736065   3.32  0.000928083    1.903    0.475
       213 -10.7360     14.2684     30.1248   9.0045129505e+01   6.8603624966e+01    0.3649895    0.1719203  19.57  0.001970948    2.164    0.538
       214 -10.4048      8.1446     26.4995   9.1860398767e+01   6.9710837249e+01    0.2512724    0.2001282  12.16  0.001474485    1.382    0.276
       215 -10.8164    224.6034     27.1695   3.5276090970e+01   2.7149035330e+01    0.3693146    0.2617337 -40.65  0.001679711    1.361    0.265
       216  -9.2479    223.7297     22.1918   3.4284903539e+01   2.7905451993e+01    0.2980141    0.1349101  81.42  0.001437682    2.363    0.577
       217  -8.9909    166.9851     28.6780   4.2317866620e+01   3.9903224047e+01    0.1837365    0.1583916  71.34 0.0006057366    1.064    0.060
       218  -8.8146     84.6582     28.9781   6.0136345740e+01   5.8475828905e+01    0.1812614    0.1596851  19.06 0.0005473778    1.036    0.035
       219  -8.7847    158.4498     28.4960   4.3552690560e+01   4.1937174099e+01    0.1315034    0.1198334  63.41 0.0003549461    1.050    0.048
       220  -9.2771    123.7436     26.5075   4.9224872815e+01   5.0298702865e+01    0.2625974    0.1854833 -15.12 0.0008722062    1.618    0.382
       221  -8.2058    202.3350     27.3262   3.7531341244e+01   3.1935719025e+01      0.12296   0.09325133  37.87 0.0007051522    1.718    0.418
       222  -9.4239     37.9354     26.0402   7.6703013457e+01   6.6696205765e+01     0.205416     0.152041 -20.30 0.0005882003    1.182    0.154
       223  -8.4152     30.6570     27.2676   8.0658212398e+01   6.7417780717e+01    0.1033207   0.09505428  34.76 0.0006985125    1.606    0.377
       224  -9.8520    218.8559     25.8568   3.5525271863e+01   2.8513055268e+01    0.1903549    0.1674861 -76.92 0.0003798085    1.067    0.063
       225  -9.7495    136.9082     25.6905   4.6366756902e+01   4.7328552320e+01    0.2187617    0.1848013 -35.49  0.000453476    1.296    0.228
       226  -8.7884    129.6150     25.4669   4.7686253351e+01   4.9055001387e+01    0.2589421   0.08835179 -41.53 0.0009547191    3.395    0.705
       227  -8.6386    105.4375     25.9629   5.3219022423e+01   5.4475369795e+01    0.1769008    0.1290099 -18.40 0.0003524879    1.484    0.326
       228  -9.5820    192.9920     24.7603   3.7951617758e+01   3.4324513506e+01    0.2448553    0.1615001  11.59  0.001196083    2.674    0.626
       229  -8.8258    174.1608     25.0946   4.0350903051e+01   3.8622328554e+01    0.1853747     0.140074 -63.37  0.001072288    1.350    0.259
       230  -9.8605    142.1160     23.6051   4.4785955596e+01   4.6328053303e+01    0.3729123    0.1759125 -36.58  0.001716041    2.236    0.553
       231  -9.4937     78.1121     23.4742   5.9976022555e+01   6.0417037006e+01    0.3824094    0.1756752 -31.49  0.001799706    2.277    0.561
       232  -9.7695     22.6412     23.9843   8.3209661187e+01   6.8817796240e+01    0.2697675    0.1820202 -59.18  0.001093984    2.659    0.624
       233  -9.1148     51.9881     24.0675   6.9728642346e+01   6.4941752289e+01    0.1692537     0.159333 -61.11  0.001121296    1.690    0.408
       234  -9.1559      1.3564     23.7801   9.4518559172e+01   7.0647013705e+01    0.1596193   0.07763324 -40.53  0.000235699    1.569    0.363
       235 -10.2639    157.3721     22.9604   4.2133539384e+01   4.2797054770e+01    0.2470222    0.1845444  75.50 0.0003121611    1.258    0.205
       236  -9.4694    161.7300     21.9243   4.1200748465e+01   4.1879409192e+01    0.2570983    0.1764303  64.51 0.0007480081    1.308    0.236
       237  -9.3164    232.4935     20.4652   3.3179999303e+01   2.6293855421e+01    0.2005042    0.1673565 -68.41 0.0006487518    1.041    0.039
       238  -8.9408    199.1242     20.7076   3.6308945760e+01   3.3394462128e+01    0.2246176    0.1511884 -59.20  0.001307822    1.419    0.295
       239  -9.3750    195.4543     16.9064   3.5786971410e+01   3.4622561403e+01    0.2317878    0.1501887 -82.31 0.0008040994    1.533    0.348
       240  -9.2092    103.2394     20.6598   5.1812381254e+01   5.5526233918e+01    0.2155527    0.1878621   0.45 0.0007489022    1.195    0.163
       241  -9.4085     71.0187     20.3020   6.0981500487e+01   6.2129009010e+01    0.2158495    0.1802064 -28.08 0.0007484975    1.369    0.270
       242  -9.3877     17.4965     21.5203   8.4803426965e+01   6.9720928209e+01    0.1193364    0.0907137 -13.63 0.0008103104    1.011    0.011
       243  -9.7586     51.4293     18.5744   6.7494606442e+01   6.5731620342e+01    0.2924271    0.2122826  41.82  0.001135933    1.498    0.332
       244  -9.1313    133.5167     19.0124   4.4864790042e+01   4.8814579351e+01    0.2394248    0.1634206   2.79  0.001029082    1.889    0.471
       245  -9.7200    243.6301    236.7411   7.5903257966e+01  -8.6172256069e+00    0.2178753    0.1565027 -24.31 0.0009182275    1.296    0.228
       246  -9.3277    128.1265     18.1775   4.5587344887e+01   5.0150829553e+01    0.2819194    0.2181765  -0.43  0.001647937    1.513    0.339
       247  -9.9061    245.0098    230.8321   7.4656594950e+01  -7.9903073797e+00    0.3211569    0.1838679 -33.36  0.001295725    1.636    0.389
       248 -10.2287    248.2622    227.2758   7.3480159026e+01  -7.9045242376e+00    0.4457183    0.2192317 -37.21  0.002446167    1.964    0.491
       249  -9.5612     62.6984     18.4967   6.3118565397e+01   6.3845008479e+01    0.3023348    0.2053559  19.19  0.001773042    1.361    0.265
       250  -8.7268     42.0137     19.4968   7.1920007253e+01   6.7044983606e+01    0.2282824    0.1030179  31.63  0.001129333    2.093    0.522
       251  -9.0162     45.4779     17.0389   6.9271784498e+01   6.6847898704e+01     0.210333    0.1401201  21.47 0.0003607099    1.317    0.241
       252  -9.2523    169.7397     17.9373   3.9018442414e+01   4.0413871632e+01    0.3561934    0.1340327  55.37  0.001531046    2.388    0.581
       253  -9.1149    191.3204    245.3383   8.7032843688e+01  -2.9560144604e+00    0.1301937    0.0835097  -0.30            0    1.712    0.416
       254 -10.2592    225.2676    241.9339   8.0051405911e+01  -7.0293021644e+00    0.3833921    0.1730576 -30.96  0.001785951    2.159    0.537
       255 -10.9943     23.7100     17.8882   7.9930871305e+01   6.9615573597e+01    0.4193022    0.1690195  30.07  0.002111308    2.422    0.587
       256  -8.9547    201.8301    241.2767   8.4348177691e+01  -3.8131128238e+00    0.2313932    0.1304394 -26.04  0.001245902    1.852    0.460
       257  -9.5907    214.7974    240.2922   8.1720764205e+01  -5.4307489999e+00    0.2422586    0.1477701 -22.70  0.001241044    1.587    0.370
       258  -8.2963     73.2732     16.3494   5.8549126764e+01   6.2138136974e+01    0.1317184   0.08348587  17.65 0.0004239402    1.631    0.387
       259  -8.4791     33.5454     16.5256   7.4425954138e+01   6.8604680919e+01    0.1215738   0.09391487  -0.59 0.0001206748    1.004    0.004
       260  -9.4336    230.9644    235.8227   7.7997174390e+01  -6.9145359121e+00    0.4083712    0.1853474 -31.36  0.002111698    2.083    0.520
       261 -10.7375    229.2023    227.0490   7.6815730050e+01  -5.4413503390e+00    0.5512856    0.2454547 -33.48  0.002434577    2.107    0.525
       262  -8.9952     40.1548     15.1844   7.0733794995e+01   6.7866246525e+01    0.1873179     0.146089   0.38 0.0005143739    1.039    0.037
       263 -10.7475    227.6884    218.7803   7.5638324762e+01  -4.0176194617e+00    0.4286793    0.2350514 -23.07  0.002076265    1.784    0.439
       264  -9.9480    236.9005    229.3551   7.5828553618e+01  -6.7708560990e+00     0.408073    0.2709923 -41.81  0.002463318    1.833    0.454
       265  -9.5199    216.3822    230.8176   7.9838948856e+01  -4.2665662267e+00    0.2559884    0.1597248  -6.55  0.001338573    1.673    0.402
       266 -10.0413    205.2979    235.2841   8.2701134644e+01  -3.4013359351e+00    0.3925713    0.2538027 -47.31  0.002207521    2.005    0.501
       267  -8.7187    193.1970     13.0257   3.5090671515e+01   3.5529287630e+01    0.2642024    0.1154838  48.91   0.00118864    2.723    0.633
       268  -9.9766     33.3714     12.6910   7.2668803178e+01   6.9125057594e+01    0.2171757    0.1242055  28.25 0.0006097752    1.583    0.368
       269 -10.4980    208.6067    222.8429   7.9948205500e+01  -1.9595651804e+00      0.32402     0.169214  12.11  0.001428964    2.567    0.610
       270  -9.1057    193.5153    219.4964   8.2340335148e+01   8.1037821487e-01    0.1330277    0.1119641   4.07 0.0004200743    1.006    0.006
       271  -8.5172     56.0168    216.6856   1.1208022951e+02   2.1845531552e+01    0.1991056    0.1205151 -72.70 0.0008712502    1.632    0.387
       272 -11.0435    214.1367    214.4276   7.7393928675e+01  -1.4298650800e+00    0.3577782    0.1788996 -43.87  0.001553858    2.186    0.543
       273 -10.0108    232.6832    212.5539   7.3609850957e+01  -3.7627738305e+00    0.3251131    0.2053623 -33.56  0.001447614    1.471    0.320
       274  -9.1485    186.5092    213.4977   8.2713270407e+01   2.9100152064e+00    0.2290412    0.1282799 -53.48  0.001037591    2.434    0.589
       275  -9.4880    249.0771    234.0898   7.4511310818e+01  -8.9205572265e+00    0.2440633    0.1451521 -30.86  0.001479427    1.536    0.349
       276  -8.3621    162.1937     10.6324   3.8004688536e+01   4.2887017309e+01    0.1722072    0.1007801  61.04 0.0002854173    1.499    0.333
       277  -8.4723    124.0236    205.9599   9.5188091498e+01   1.4475885375e+01    0.1599771    0.1478938  34.01            0    1.015    0.015
       278  -9.5955    235.6682    203.7688   7.1459561128e+01  -2.8313575228e+00    0.2691753    0.1730444 -41.73  0.001064549    1.671    0.401
       279  -8.6399    198.2320    202.7462   7.8369745649e+01   2.9351217862e+00    0.2174333   0.09716155 -31.79 0.0008903668    2.424    0.587
       280 -10.1854    250.0086    200.5031   6.8366906474e+01  -4.2905499219e+00    0.4934813    0.1531711 -34.82  0.002023548    2.843    0.648
       281 -10.4608    247.3150    193.6131   6.7529002593e+01  -2.8809624508e+00     0.404577    0.2747079 -46.55  0.002119326    1.797    0.443
       282  -8.5548    218.4818    201.9843   7.4277362393e+01  -5.9171022617e-02    0.1653062    0.1139882 -58.58 0.0008088738    2.429    0.588
       283 -10.1935    242.4867    199.7833   6.9517774052e+01  -3.1635177698e+00    0.3411161     0.183837 -36.81  0.001250476    1.678    0.404
       284 -10.6238    231.1921    194.5833   7.0528151644e+01  -7.4003851824e-01    0.4152383    0.2441273 -25.38  0.002180742    1.574    0.365
       285  -8.2083    132.7703    199.0555   9.2025186343e+01   1.4500899687e+01    0.1641637    0.1184312 -52.90 0.0008269934    1.474    0.321
       286  -9.6442    237.7615    192.0003   6.8866550320e+01  -1.2819217348e+00    0.2124464    0.1889854   2.97 0.0009736169    1.201    0.168
       287 -10.9078    237.3462    187.4203   6.8056354570e+01  -4.8814344648e-01    0.4259915    0.2234222 -34.07  0.002058558    1.666    0.400
       288  -8.8488    215.4589    191.9559   7.2935577121e+01   2.0814385457e+00    0.1778465    0.1152548 -58.54 0.0008091238    2.561    0.609
       289 -11.4810    242.9374    181.0250   6.5847809984e+01  -2.7811292706e-01    0.7624599    0.2993729 -40.85   0.00333692    2.318    0.569
       290 -10.0585    249.4615    184.4869   6.5425975745e+01  -1.7640752795e+00    0.2891271     0.226533 -43.71  0.001796347    1.490    0.329
