#   1 NUMBER                 Running object number                                     
#   2 MAG_AUTO               Kron-like elliptical aperture magnitude                    [mag]
#   3 X_IMAGE                Object position along x                                    [pixel]
#   4 Y_IMAGE                Object position along y                                    [pixel]
#   5 X_WORLD                Barycenter position along world x axis                     [deg]
#   6 Y_WORLD                Barycenter position along world y axis                     [deg]
#   7 A_WORLD                Profile RMS along major axis (world units)                 [deg]
#   8 B_WORLD                Profile RMS along minor axis (world units)                 [deg]
#   9 THETA_WORLD            Position angle (CCW/world-x)                               [deg]
#  10 FWHM_WORLD             FWHM assuming a gaussian core                              [deg]
#  11 ELONGATION             A_IMAGE/B_IMAGE                                           
#  12 ELLIPTICITY            1 - B_IMAGE/A_IMAGE                                       
         1 -11.5849    131.8761     19.0227   1.2944786251e+01   4.9535430195e+01    0.4683073    0.2298578 -49.26  0.001838403    2.265    0.559
         2 -11.1296     92.2259      8.0259   1.6584066844e+01   6.1222675985e+01    0.1833684    0.1186365 -21.11 0.0005195772    1.638    0.390
         3 -11.2230     33.3554      7.8821   4.1892952264e+01   7.3809344550e+01    0.1843375    0.1698617  17.40 0.0003657584    1.171    0.146
         4 -10.8652     81.1934      8.6126   2.0046026611e+01   6.3898091364e+01    0.1948615    0.1191205  48.47 0.0002042647    1.511    0.338
         5 -10.0056     49.2673      2.6547   2.8994494180e+01   7.1728616165e+01    0.1250361    0.1030142 -56.11 0.0002983435    1.610    0.379
         6 -10.8912     93.9974    243.5346   7.2799020373e+01   1.3743345306e+01    0.1762036   0.08466572  35.20 0.0003492193    1.540    0.351
         7 -11.6375    245.9578    250.1119   4.6469007055e+01  -5.5926344490e+00    0.1511427    0.1025412   9.92 0.0006085139    1.071    0.066
         8 -11.0793    237.5370    248.4821   4.7527076728e+01  -4.5626485935e+00    0.2379278   0.08651389 -34.20   0.00138582    3.131    0.681
         9 -11.9518    139.3997    247.5706   6.4380306900e+01   7.3795607864e+00    0.2556795    0.2265803 -48.86  0.001625611    1.554    0.356
        10 -11.7110    124.2401    250.4065   6.7541228978e+01   8.9355188822e+00    0.1816161    0.1105965  26.55  0.001180284    1.360    0.265
        11 -11.7282     83.7892    250.6322   7.5339241007e+01   1.3908608808e+01    0.2661161   0.08089899  32.61  0.001219755    2.494    0.599
        12 -15.4151     68.6073    242.8032   7.7769462117e+01   1.6918940880e+01     2.037176     1.247474  63.24   0.01355056    1.611    0.379
        13 -15.2404      8.0569    197.9475   8.8196449232e+01   3.1423624053e+01     1.043715    0.8476028  52.33  0.007750796    1.136    0.119
        14 -15.7512     17.6243    212.0226   8.6625089223e+01   2.7804987526e+01     1.867863     0.396006  41.75    0.0085799    2.648    0.622
        15 -15.8408      6.4722    216.7076   8.9095534951e+01   2.7921079561e+01     1.995423    0.7439997  28.99   0.01076958    2.332    0.571
        16 -15.8710     14.4534    224.9053   8.7723271440e+01   2.5702531013e+01    0.9842585    0.5232204  24.60  0.006060862    1.967    0.492
        17 -16.9095      5.2293    238.7185   8.9881085301e+01   2.4108013002e+01     1.660286    0.7404454  72.14   0.01058149    1.949    0.487
        18 -16.7835     11.6581    239.1030   8.8680131007e+01   2.3469772266e+01     1.553058    0.9862131   5.21  0.009743747    2.713    0.631
        19 -11.7310    198.9503    241.2048   5.2823335098e+01   5.9460648280e-01    0.2232386    0.1297638  30.55 0.0006934722    1.365    0.267
        20 -10.6786    159.3251    241.8510   6.0000730993e+01   5.5420698519e+00    0.1407439   0.09557639 -25.66  0.000948682    1.789    0.441
        21 -11.4982    143.1896    242.0414   6.3062093703e+01   7.6251488527e+00    0.2316512    0.1265222  23.95  0.001149244    1.631    0.387
        22 -12.3260    147.8546    239.0587   6.1834829771e+01   7.4121043611e+00    0.2481158    0.1493074  27.94 0.0005570268    1.302    0.232
        23 -10.2551    187.0090    241.2441   5.4905487025e+01   2.0702264347e+00    0.1363655   0.07146796  30.20            0    1.454    0.312
        24 -11.8055    107.1726    240.7975   6.9952869325e+01   1.2494584080e+01    0.1792981    0.1677594 -27.44 0.0008230492    1.400    0.286
        25 -12.9502    102.9743    237.6303   7.0500421866e+01   1.3516574002e+01    0.3819276     0.246871  21.92  0.002403152    1.556    0.357
        26 -11.0537     97.7773    238.0706   7.1583164461e+01   1.4112576779e+01    0.1613974    0.1393538 -89.87 0.0006544478    1.445    0.308
        27 -10.3754     89.5202    241.0463   7.3485503054e+01   1.4683770162e+01    0.1291843    0.1118028 -81.31 0.0004312488    1.459    0.315
        28 -11.9649     98.6743    248.6857   7.2306010315e+01   1.2389780821e+01    0.2325688    0.1672399  -9.79  0.001513825    2.166    0.538
        29 -11.0170    218.1771    237.8383   4.9139596879e+01  -1.3559099489e+00    0.1488634    0.1138931  14.85 0.0004961243    1.188    0.158
        30 -11.0830     80.1034    237.3087   7.5083042068e+01   1.6437181763e+01    0.2055944    0.1582279   1.92  0.001380298    1.817    0.450
        31 -10.2601    137.2155    235.9406   6.3533471870e+01   9.2572521243e+00    0.1158613   0.09657725 -48.57            0    1.581    0.368
        32 -10.9632    121.9174    236.2988   6.6586118459e+01   1.1243061358e+01    0.2425797   0.07144696  38.76 0.0008717403    2.489    0.598
        33 -10.6247    210.6530    235.3102   5.0035961453e+01  -1.8997959949e-01   0.09578729   0.07750826  37.86 0.0004947472    1.708    0.414
        34 -10.4518    176.9630    235.5262   5.5965481554e+01   4.0352076098e+00    0.1636253    0.0866496  30.67 0.0009846963    1.456    0.313
        35 -10.8272    158.4795    233.4871   5.9145237475e+01   6.7421833860e+00    0.1168116   0.08861756  25.39 0.0001504612    1.007    0.007
        36 -11.7399    182.0000    230.9917   5.4449908422e+01   3.9343873717e+00    0.2418727    0.1926219 -39.72  0.001763023    1.691    0.409
        37 -12.1959    178.1583    228.6638   5.4838266520e+01   4.7336088836e+00    0.2270082    0.1965138  36.57 0.0004019199    1.414    0.293
        38 -11.1938    193.9710    228.9049   5.2017524327e+01   2.6258367655e+00    0.1795262    0.1338163  17.29 0.0009404723    1.019    0.019
        39 -11.3955    149.9829    229.4770   6.0282842828e+01   8.4399141635e+00    0.1822165    0.0913894  34.54 0.0005642028    1.549    0.354
        40 -11.7186    231.8584    227.6702   4.5473687801e+01  -1.9125031473e+00    0.2517309    0.1480192  -2.19  0.001698551    1.543    0.352
        41 -11.6035    112.6190    227.2042   6.7522657963e+01   1.3881135082e+01    0.2038085    0.1512149 -14.34 0.0007310188    1.892    0.472
        42 -11.1690    116.2203    225.5779   6.6608583076e+01   1.3651441389e+01    0.1924123    0.0953505  35.12 0.0006110509    1.568    0.362
        43 -11.4976    128.7298    226.1879   6.4116993599e+01   1.1842148403e+01    0.2171088    0.1368041 -36.15 0.0009695028    2.075    0.518
        44 -12.1749    105.8226    226.2159   6.8827517284e+01   1.4952330449e+01    0.2433129    0.1792881  21.38 0.0009182735    1.361    0.265
        45 -11.4669    222.7300    225.2537   4.6589728593e+01  -5.7205948314e-01    0.2446722    0.1166836  -9.13  0.001254768    2.828    0.646
        46 -13.0959     78.3021    221.5587   7.4202585689e+01   1.9323125747e+01     0.564302    0.3279926  73.83  0.002002898    2.156    0.536
        47 -12.1317     91.8178    225.6173   7.1695396502e+01   1.6896674506e+01    0.2165003     0.176254 -75.78  0.001153256    1.513    0.339
        48 -11.8948     68.0420    224.7747   7.6632980917e+01   2.0019505507e+01    0.2062216    0.1622567  69.08            0    1.262    0.207
        49 -13.3821     65.2719    215.7471   7.6548339561e+01   2.1979195073e+01    0.6722886    0.2828037  35.52  0.001904052    1.852    0.460
        50 -12.4312     84.5813    215.0720   7.2276358651e+01   1.9672273570e+01    0.5639969    0.2705416  35.16  0.002970763    1.667    0.400
        51 -11.5846     79.4643    212.7138   7.3183503049e+01   2.0763541068e+01    0.3007819    0.1743314  46.79 0.0006797916    1.407    0.289
        52 -11.0886    212.2287    222.4767   4.7928373825e+01   1.0358539904e+00    0.2693562    0.1437102   7.70  0.001515343    2.092    0.522
        53 -11.8630    159.8875    222.3712   5.7447992096e+01   8.0658863340e+00    0.2830802     0.172371  35.58 0.0009308906    1.344    0.256
        54 -12.2758    124.4540    221.6594   6.4472111414e+01   1.3137485483e+01    0.3021699      0.16155  38.42  0.001493316    1.478    0.323
        55 -12.1279    246.2098    220.3898   4.2148351288e+01  -2.8289677285e+00     0.186206    0.1328773   0.33 0.0002695592    1.068    0.064
        56 -12.1325    237.6570    219.6653   4.3358016656e+01  -1.7655666781e+00    0.2689117    0.1879617 -29.55  0.001972794    1.687    0.407
        57 -12.4684    173.6138    219.7278   5.4456705176e+01   6.5170397618e+00    0.2655232    0.2175122 -26.87  0.001331041    1.410    0.291
        58 -11.8662     87.4615    220.5243   7.2154543927e+01   1.8333535699e+01    0.2054367    0.1559072  40.35 0.0003890755    1.046    0.044
        59 -12.5018    231.9903    218.9116   4.4138950924e+01  -1.0119610654e+00    0.3287542    0.1373687 -27.37  0.001856678    2.367    0.578
        60 -10.9486    222.5769    220.1381   4.5850798485e+01   3.4680850048e-03    0.1828969    0.1180153  28.64 0.0007581693    1.365    0.267
        61 -11.7802    193.0944    220.2094   5.0934203328e+01   3.7966270692e+00    0.1858787    0.1275865  11.91  0.001233349    1.244    0.196
        62 -11.3998     74.8617    212.2751   7.4160495036e+01   2.1432481971e+01    0.3016075    0.1651819  30.50  0.001114417    1.634    0.388
        63 -12.2656    145.3148    216.7037   5.9589876240e+01   1.0952255469e+01     0.327545    0.2769237  31.05  0.002276542    1.098    0.089
        64 -13.3700    140.0777    212.0876   6.0056166945e+01   1.2421063069e+01    0.5284982    0.3606069 -51.12  0.003226738    1.831    0.454
        65 -13.5483    145.4923    201.9884   5.7540628027e+01   1.3229351155e+01    0.4576399    0.4356059  59.76  0.003176765    1.297    0.229
        66 -11.5321    129.9982    216.9707   6.2766492323e+01   1.3099807939e+01    0.1425906    0.1262495  29.04 0.0006004696    1.110    0.099
        67 -12.8147    108.0573    215.0460   6.7183136382e+01   1.6508720712e+01    0.3608147    0.2510539  77.57   0.00177165    1.972    0.493
        68 -11.7344    208.0156    215.3562   4.7580818480e+01   2.4078623332e+00    0.1780959    0.1262699  -4.02 0.0003181083    1.260    0.206
        69 -11.7229    248.2653    213.8328   4.0822752684e+01  -2.4014961627e+00    0.2129541    0.1939327 -36.65  0.001669454    2.107    0.525
        70 -12.0259    119.1773    213.4737   6.4623074021e+01   1.5210180235e+01    0.3665729    0.1475748  46.39  0.001091166    2.375    0.579
        71 -11.3073    156.1582    212.7064   5.6869445667e+01   9.9877867110e+00    0.2645846    0.1842729 -60.26  0.001110715    2.173    0.540
        72 -13.1841    159.4938    206.4751   5.5315045087e+01   1.0430352390e+01    0.3970551    0.2608073  26.09  0.001349907    1.301    0.232
        73 -12.0903    124.8533    212.8237   6.3338581320e+01   1.4506381805e+01    0.2027918    0.1842642 -86.44 0.0004057133    1.398    0.285
        74 -11.6796    123.3135    209.6989   6.3281517840e+01   1.5248110610e+01    0.1633203    0.1358251   4.58 0.0003944362    1.344    0.256
        75 -10.9404    183.4896    212.5036   5.1557300873e+01   6.1054471256e+00    0.1206512   0.09400044  16.59 7.070353e-07    1.011    0.011
        76 -10.3738     64.7403    203.1519   7.5658147617e+01   2.4434432265e+01    0.2193096    0.1319138  24.32 0.0006917289    1.761    0.432
        77 -10.7406     63.3861    208.2904   7.6383873155e+01   2.3607380366e+01    0.2129349    0.1773384  35.97  0.001451423    1.186    0.157
        78 -12.7533     59.6590    207.2978   7.7142958631e+01   2.4247101835e+01    0.3897254    0.3327438  50.68  0.002567509    1.094    0.086
        79 -11.4905    113.3673    210.2633   6.5494125856e+01   1.6581887078e+01    0.2363656    0.1433488  34.50  0.000727105    1.350    0.259
        80 -10.8235     90.8528    210.1744   7.0424141648e+01   1.9725348138e+01    0.1745636    0.1363182  48.12 0.0002393234    1.083    0.077
        81 -12.3719    179.8421    208.0244   5.1570985841e+01   7.2321122566e+00    0.3083373    0.1733192  27.13  0.001188053    1.527    0.345
        82 -11.3530    242.1541    207.9950   4.0832878367e+01  -1.0701210548e+00    0.1638508     0.118049   1.62 0.0003245614    1.025    0.025
        83 -11.6930    205.0238    206.1798   4.6677656860e+01   3.9327129505e+00    0.1777033    0.1403138  -0.73 0.0002902574    1.109    0.098
        84 -11.6126    103.4614    206.5701   6.7242012575e+01   1.8636967409e+01    0.2828742    0.2052919  30.66  0.001141208    1.223    0.182
        85 -10.8077     68.0085    207.7682   7.5303836098e+01   2.3139007951e+01    0.2694202    0.1131657  26.68 0.0007459747    2.469    0.595
        86 -10.9063     71.6418    206.6758   7.4392040816e+01   2.2891646711e+01    0.2093055     0.149695 -82.34  0.001223363    1.581    0.367
        87 -11.2684    117.0545    205.4151   6.4106852143e+01   1.6890909756e+01    0.2319304    0.1676941  50.66  0.001038837    1.338    0.253
        88 -12.5608     89.6936    202.1573   6.9855700732e+01   2.1368349299e+01     0.448016    0.2828823 -42.44  0.001104304    2.125    0.529
        89 -13.0005     92.9860    192.6711   6.8037579028e+01   2.2732899046e+01    0.9026741    0.4102378  49.24  0.002852191    2.099    0.523
        90 -11.3692    212.0713    199.5516   4.4379064871e+01   3.7958039241e+00    0.1946409    0.1593245 -36.14  0.001081449    1.611    0.379
        91 -10.5016    137.2720    200.6774   5.9096947581e+01   1.4690693908e+01    0.1197486   0.09244112  59.79 0.0002712828    1.573    0.364
        92 -11.6812     84.3423    198.7494   7.0727015867e+01   2.2750811437e+01     0.301082    0.2008055  72.33  0.001106253    1.721    0.419
        93 -11.7883     81.8253    193.5593   7.0769720176e+01   2.4112235822e+01    0.6118656    0.2075525  41.25  0.001933792    2.331    0.571
        94 -10.6579     64.2597    183.6254   7.4006146165e+01   2.8475495564e+01     1.048785    0.5604112   7.25  0.003919851    4.177    0.761
        95 -12.4512     70.0092    187.1971   7.2948134239e+01   2.6983961844e+01    0.6917167    0.1963086  43.69  0.002670022    2.809    0.644
        96 -11.9465     75.3549    186.1523   7.1536067051e+01   2.6493104069e+01    0.7722138    0.2635188 -58.19  0.003195261    3.122    0.680
        97 -12.9891    228.3909    206.3609   4.2752225973e+01   8.1753166021e-01    0.3985798    0.3505681  42.75  0.001231589    1.851    0.460
        98 -12.4336    219.4423    198.1058   4.2883886130e+01   2.9677664254e+00     0.210464    0.1642275   1.07 0.0003277574    1.055    0.052
        99 -12.2218    122.3960    196.2419   6.1738505830e+01   1.7717654848e+01    0.3084626    0.2148381  52.28   0.00175069    1.469    0.319
       100 -10.6860    120.5218    191.4991   6.1510875076e+01   1.8863651493e+01    0.1669667    0.1295463 -75.48 0.0008384224    1.665    0.399
       101 -11.9675    202.0016    195.5270   4.5486190128e+01   5.7334894816e+00     0.185157    0.1431168 -16.20  0.001232488    1.244    0.196
       102 -13.5039    189.9626    194.0576   4.7448946904e+01   7.6978732264e+00    0.5148507    0.3046843  38.80  0.001610236    1.602    0.376
       103 -12.0886    173.0135    195.8395   5.0997692858e+01   9.9954517795e+00    0.1969297    0.1681324 -10.59 0.0004581884    1.189    0.159
       104 -11.1201    166.2162    196.2021   5.2408929661e+01   1.0979501588e+01    0.1943039    0.1674311  26.25 0.0006914714    1.111    0.100
       105 -12.6884    161.6613    191.6511   5.2613960122e+01   1.2396831194e+01    0.3968736    0.2642647  51.72  0.002070115    1.821    0.451
       106 -12.8074    151.8684    195.0142   5.5172203652e+01   1.3383923366e+01    0.3917118    0.2244817  39.86  0.001116447    1.539    0.350
       107 -10.5964     69.7656    193.8350   7.3655234193e+01   2.5653850675e+01    0.1580591    0.1172276  60.48 0.0002416751    1.225    0.184
       108 -12.5624    179.9758    197.5403   4.9912836893e+01   8.6937819614e+00    0.3217592    0.2365505  39.65  0.001098802    1.385    0.278
       109 -11.1646    212.3939    193.1841   4.3262198129e+01   4.5581673099e+00     0.152734    0.1052532 -37.53 0.0009486655    1.708    0.414
       110 -12.0824    134.1538    190.1814   5.8263454337e+01   1.6979217746e+01    0.3280975    0.1905745  17.95  0.001243285    2.164    0.538
       111 -12.2496     50.7862    190.0287   7.7859711309e+01   2.8764584529e+01    0.3142681    0.2118338  21.09 0.0008504954    1.688    0.408
       112 -10.6789    234.3161    189.6766   3.9023535386e+01   1.9871939510e+00   0.09597758   0.09131119 -21.73 0.0007042799    1.666    0.400
       113 -11.3857    174.0159    188.5140   4.9604683256e+01   1.0950331409e+01    0.2011253    0.1102386  35.63  0.001037514    1.605    0.377
       114 -11.5802    156.9116    186.2459   5.2729352331e+01   1.4027964765e+01    0.2765574    0.1754987 -40.12  0.001500065    1.752    0.429
       115 -11.1943    152.3071    188.3535   5.4042037849e+01   1.4414081810e+01    0.1333712   0.09423405   0.33 0.0007042407    1.716    0.417
       116 -11.3420    109.9972    187.9794   6.3454601212e+01   2.1135482471e+01    0.2122979    0.1437536  60.00 0.0007765421    1.658    0.397
       117 -12.0780     43.3444    186.7602   7.9407929954e+01   3.0298384730e+01    0.2474696    0.1921103  70.51 0.0007339462    1.144    0.126
       118 -11.6855    194.3733    186.7065   4.5385284192e+01   8.0724787502e+00    0.2234516    0.1359837  41.71 0.0008955674    1.691    0.409
       119 -12.5087    120.9163    186.3973   6.0700185760e+01   1.9748817358e+01    0.3527903    0.2041655  29.95  0.001075538    1.619    0.382
       120 -11.4466    247.5379    185.7414   3.6297719437e+01   7.2119748877e-01    0.2214516    0.1417462  14.31  0.001359733    1.376    0.273
       121 -11.8010    164.3181    185.2931   5.1030230744e+01   1.2995002300e+01    0.2309582    0.2023388  35.80 0.0006937307    1.187    0.157
       122 -11.7698    127.5158    185.9897   5.9130670324e+01   1.8784127450e+01    0.1818554    0.1337388 -52.50  0.001028192    1.578    0.366
       123 -10.9231     99.2405    185.7305   6.5703180318e+01   2.3193007651e+01    0.1885355    0.1511388  49.78 0.0003213668    1.119    0.107
       124 -10.5384    239.1486    185.1699   3.7482121125e+01   1.8794457323e+00    0.1393384     0.120531  -1.05 0.0002486576    1.302    0.232
       125 -12.3096     93.9103    183.2496   6.6672548514e+01   2.4478870587e+01    0.4403164    0.2659665 -64.60   0.00228346    1.891    0.471
       126 -12.4115     89.7140    182.9078   6.7652828317e+01   2.5159901210e+01    0.3564489    0.2728753 -73.87  0.001156793    1.468    0.319
       127 -12.7200     50.0639    183.2505   7.7486820809e+01   3.0285075328e+01    0.3887701    0.1964235  45.74  0.001214512    1.633    0.388
       128 -12.9940    201.2451    182.1472   4.3328209217e+01   7.6710335486e+00    0.4129392    0.2422711  43.55  0.001967498    1.854    0.461
       129 -11.1237    210.3850    182.7336   4.1804065763e+01   6.2206374737e+00    0.1629553    0.1016331 -19.61  0.000479938    1.565    0.361
       130 -12.1388    167.7566    182.2194   4.9805811586e+01   1.2936798809e+01    0.2168474    0.1573398 -39.60  0.001252691    1.527    0.345
       131 -11.2763    142.1365    181.1658   5.5096253204e+01   1.7300204306e+01    0.1975701    0.1645144  12.85  0.000335756    1.197    0.164
       132 -10.6125    246.4655    179.5211   3.5367545508e+01   1.5771332166e+00    0.1165065   0.08701716  -2.15  6.50081e-05    1.022    0.021
       133 -12.6066    118.2155    179.8294   6.0368293202e+01   2.1427625396e+01    0.4269702    0.2847289  61.18  0.001546851    1.816    0.449
       134 -13.1742    149.1279    175.4032   5.2593305966e+01   1.7166985254e+01    0.4238492    0.2906479  56.28 0.0006244808    1.804    0.446
       135 -11.7278    137.3073    176.9995   5.5501936877e+01   1.8851741691e+01    0.2346585    0.1751141  34.47 0.0005245363    1.184    0.156
       136 -13.5278    127.7711    174.7506   5.7334990178e+01   2.0854955979e+01    0.5588279     0.374499  79.25  0.002531683    2.600    0.615
       137 -11.5574     61.9053    177.1256   7.3952850710e+01   3.0173872808e+01    0.2869646    0.1770612  22.06  0.001262046    1.840    0.456
       138 -11.3313    247.9269    175.9818   3.4517259855e+01   1.7986340498e+00    0.1719878    0.1318106  -4.93 0.0002839031    1.034    0.033
       139 -11.8768    224.2416    174.7938   3.8018266267e+01   5.2367845803e+00    0.2296439    0.1991978 -34.43 0.0006929415    1.500    0.333
       140 -10.5913    212.4101    176.4702   4.0327281859e+01   6.7656504425e+00     0.123199    0.1005072   1.62 9.517125e-05    1.018    0.018
       141 -11.4777    106.0465    176.0394   6.2737145520e+01   2.4104876794e+01     0.250254    0.1802499  34.86  0.000901769    1.251    0.200
       142 -10.3576    242.5123    175.4368   3.5235367251e+01   2.5881019373e+00    0.1165375   0.09054764  -2.28 0.0001833305    1.026    0.026
       143 -15.9417     38.4475    244.3810   8.3748999405e+01   1.9980803717e+01     1.846469     1.323037 -71.11   0.01380871    1.764    0.433
       144 -12.4107     90.5155    172.3421   6.6094163020e+01   2.7254087126e+01    0.4107544    0.2380052 -50.73  0.001269222    1.962    0.490
       145 -11.3945    191.7448    171.9695   4.3247012682e+01   1.0642664865e+01    0.1612975    0.1046577 -31.90 0.0007020984    1.552    0.355
       146 -10.8818    235.1598    171.2410   3.5608114707e+01   4.1220407233e+00    0.2124366    0.1094429   4.96 0.0009611485    2.885    0.653
       147 -12.0228    197.1227    170.7104   4.2006941193e+01   9.9628387491e+00     0.251481    0.1708281 -22.74  0.001434736    1.446    0.308
       148 -11.0185    166.1585    170.8365   4.8132224526e+01   1.5079389485e+01    0.1799436    0.1405168  10.02  0.001020747    1.281    0.219
       149 -11.6404    160.2931    168.6938   4.8983290139e+01   1.6448806987e+01    0.2071283    0.1610367  32.88 0.0004492683    1.167    0.143
       150 -12.4832    156.9045    165.7773   4.9180378970e+01   1.7548681163e+01    0.2992291    0.2412355  32.19 0.0008028843    1.128    0.114
       151 -12.8007    153.0284    169.5629   5.0714992177e+01   1.7544697247e+01    0.3384632    0.2704274 -50.02    0.0011324    1.451    0.311
       152 -13.2170    151.4376    164.9895   5.0238074501e+01   1.8645517715e+01    0.4514861    0.3029041  23.12 0.0006517249    1.555    0.357
       153 -12.0871     62.0629    170.1965   7.3193254681e+01   3.1685802156e+01    0.3905016    0.2210439 -85.09  0.001898571    2.004    0.501
       154 -10.2649    231.3180    170.7073   3.6117849063e+01   4.7384704406e+00    0.1007575   0.09571064 -39.25 0.0002306861    1.603    0.376
       155 -12.7710    131.1067    169.2785   5.5650524933e+01   2.1350621636e+01    0.3490637    0.1994493  40.84  0.001161088    1.577    0.366
       156 -12.4974    126.4512    166.7819   5.6333915835e+01   2.2630108896e+01    0.2806507     0.222253 -18.45  0.001272666    1.534    0.348
       157 -11.5622     53.9815    168.0770   7.5103824549e+01   3.3171874495e+01    0.1624749     0.138687  63.36  0.001000652    1.016    0.015
       158 -16.2176     10.9963    184.8432   8.7049854838e+01   3.3880944699e+01     5.464634     1.004107  48.09   0.02184082    3.281    0.695
       159 -10.9682     72.2733    165.6581   6.9974447654e+01   3.1347001962e+01    0.3532372   0.09201043 -59.18  0.001221494    3.681    0.728
       160 -12.4624    199.3565    165.5364   4.0619135568e+01   1.0369176006e+01    0.2579756    0.2164314  73.91    0.0014945    2.010    0.503
       161 -11.7412     91.8312    166.1809   6.4902727658e+01   2.8382977971e+01    0.2058205    0.1675018  56.00 0.0002674806    1.152    0.132
       162 -11.8789     83.1994    165.6117   6.7078153447e+01   2.9801500873e+01    0.2810679    0.1876843 -54.49 0.0009777526    1.649    0.393
       163 -11.8770     87.8166    164.9308   6.5772255079e+01   2.9265531289e+01    0.2026747    0.1896555  -6.47  0.001219292    1.269    0.212
       164 -11.7832     57.0138    164.5090   7.3926919332e+01   3.3612719527e+01    0.2986846     0.153957  81.64  0.001288822    2.466    0.594
       165 -12.7111     47.6749    161.4052   7.6140720116e+01   3.5453728002e+01    0.4930563    0.2098132  54.31  0.002105261    2.318    0.569
       166 -11.8758    212.1440    163.9801   3.8040013995e+01   8.5400584695e+00    0.1930168    0.1597103  14.14 0.0002797392    1.095    0.086
       167 -11.6249     67.6879    163.6592   7.0957688556e+01   3.2424148959e+01     0.251606    0.1302639  15.13 0.0009763966    3.085    0.676
       168 -13.0632    170.0610    159.3092   4.5149132556e+01   1.6366300818e+01     0.354779    0.2760364  48.58  0.001973849    1.412    0.292
       169 -11.0125     95.5130    159.0293   6.2874780460e+01   2.9377673793e+01    0.2103426    0.1750484  42.35 0.0004089191    1.099    0.090
       170 -11.6277    187.9722    158.4863   4.1393367641e+01   1.3366714727e+01    0.1963074    0.1227415  37.96 0.0003771501    1.536    0.349
       171 -12.0780    190.4838    155.4741   4.0312926335e+01   1.3411572598e+01     0.325389    0.1246349 -37.54  0.001321816    2.611    0.617
       172 -10.6723    117.1886    158.0068   5.7104317608e+01   2.6003873685e+01     0.212416    0.1539524  17.70  0.001047144    1.610    0.379
       173 -10.7241    105.2690    158.4381   6.0225094878e+01   2.7924935839e+01    0.2019201    0.1211279  45.90 0.0008853967    1.557    0.358
       174 -12.4782     76.7406    154.8616   6.7340123580e+01   3.3180614452e+01    0.2692292    0.2064231  36.62 0.0003357095    1.246    0.197
       175 -12.4705     62.3206    153.1103   7.1144252116e+01   3.5589198242e+01    0.3292846    0.2372105 -75.29  0.001779355    1.400    0.286
       176 -11.5662     20.5227    154.3967   8.3035711026e+01   3.9881161768e+01    0.2150366    0.1939583  88.32 0.0005898989    1.157    0.136
       177 -11.1433    237.7764    153.8981   3.1914295039e+01   5.9575310317e+00    0.2348661    0.1476151  22.10  0.001145244    1.626    0.385
       178 -11.8903    211.9506    153.2933   3.5978165572e+01   1.0104211867e+01     0.211569    0.1656181 -33.94 0.0004173914    1.329    0.247
       179 -11.3948     88.8831    153.3699   6.3777060872e+01   3.1692168159e+01    0.2653032     0.218586  53.09  0.001468143    1.127    0.113
       180 -11.4059     51.0112    153.0544   7.4344007838e+01   3.7026687746e+01    0.2228908    0.1345655  59.84 0.0004521082    1.611    0.379
       181 -11.7929    249.1541    151.9460   2.9855956260e+01   4.5389974596e+00     0.177512    0.1446487   1.82 0.0002954833    1.104    0.094
       182 -13.1808    168.1833    150.6829   4.3825509920e+01   1.8209595352e+01    0.4877488    0.2663788  41.98  0.002247532    1.765    0.434
       183 -12.0928    108.7775    149.3463   5.7743709734e+01   2.9314083498e+01    0.3355278    0.2630264 -62.01 0.0009248878    1.380    0.275
       184 -11.9266    138.7089    149.4331   5.0212961374e+01   2.3908850468e+01    0.2343992    0.2339144 -14.66 0.0005739132    1.093    0.085
       185 -11.9811     84.3476    149.7369   6.4463827221e+01   3.3231040500e+01    0.2622466     0.237497  72.47  0.001069337    1.065    0.061
       186 -11.5402     82.8758    145.2467   6.4168591046e+01   3.4507078529e+01    0.2460363    0.1937179  85.11  0.001293332    1.365    0.267
       187 -15.0215     24.9636    170.7708   8.2906028047e+01   3.5698263715e+01     1.663316    0.8802759  56.19  0.006903286    1.612    0.380
       188 -11.3608      2.9767    142.4820   8.7283801268e+01   4.4084856991e+01    0.2996336    0.1126424  22.52  0.001361597    2.754    0.637
       189 -12.2455     14.8496    149.5822   8.4308651448e+01   4.1504912403e+01      0.49746    0.1411433  24.66  0.001959521    3.387    0.705
       190 -12.8914      9.1065    146.3996   8.5742768284e+01   4.2712977147e+01    0.4262131     0.282338  83.31  0.002064706    1.297    0.229
       191 -14.0462     14.8352    141.2242   8.3777981007e+01   4.3516749108e+01    0.7798359    0.3843721  46.63  0.002937671    1.797    0.444
       192 -13.5119     14.2688    136.3981   8.3617941302e+01   4.4740572269e+01    0.5354269    0.2273744  62.83  0.002365315    2.312    0.567
       193 -11.3733     96.0290    148.9613   6.1106745063e+01   3.1550077212e+01    0.2242984    0.1759061 -21.00  0.001129866    1.685    0.407
       194 -10.5636     76.6912    148.6964   6.6462357883e+01   3.4627731987e+01    0.1353913    0.1104935 -22.41 0.0002752065    1.606    0.377
       195 -11.6171    123.0551    143.4893   5.2915026487e+01   2.8031275346e+01    0.2664744    0.2002198 -30.64 0.0006298465    1.554    0.357
       196 -11.8224    121.1325    146.8785   5.4067924754e+01   2.7660079746e+01    0.2177483    0.2117008 -52.04   0.00125983    1.097    0.089
       197 -12.2546    118.7861    143.7864   5.4076056513e+01   2.8749495892e+01    0.2641199    0.2466534  56.96 0.0004599779    1.067    0.063
       198 -11.4347    151.4296    145.7975   4.6503931486e+01   2.2238022765e+01    0.2372892    0.1873488  37.86 0.0003298473    1.202    0.168
       199 -12.4436    101.9420    142.6814   5.8377038721e+01   3.1982747463e+01       0.6684    0.3386542  59.25  0.002431731    2.852    0.649
       200 -11.1879    146.9812    148.7504   4.8129223306e+01   2.2505229716e+01    0.2322041    0.2033895 -36.56 0.0004971198    1.197    0.165
       201 -11.8778     51.5867    143.4934   7.3066849346e+01   3.9265979957e+01    0.2940177    0.1302437  29.36  0.001236554    2.255    0.557
       202 -10.7857    223.0054    141.1187   3.1652220725e+01   1.0023288287e+01    0.2739907    0.1608388 -54.56  0.001122258    3.018    0.669
       203 -11.3790    178.4117    142.3432   3.9969805147e+01   1.7765485310e+01    0.2669537    0.1709292  46.02  0.001197861    1.613    0.380
       204 -12.0305    165.9849    141.5776   4.2392621161e+01   2.0255173596e+01    0.3110519    0.2031328 -79.28  0.001092324    4.069    0.754
       205 -12.4416     70.3997    142.9910   6.7430546204e+01   3.6899772029e+01    0.2863905    0.2475152 -61.32 0.0003079815    1.219    0.180
       206 -11.9226     38.7693    141.0029   7.6621724364e+01   4.1343110266e+01    0.2007925    0.1584941 -37.76 0.0002860051    1.591    0.372
       207 -12.2810     45.6648    136.8707   7.4053180554e+01   4.1601329744e+01    0.2830746     0.202824 -60.00 0.0008228917    1.428    0.300
       208 -11.0431     43.6620    133.3064   7.4241383502e+01   4.2719860291e+01    0.1956736    0.1310841  84.12 0.0004821371    1.494    0.331
       209 -10.8398    131.9540    140.0649   4.9968211866e+01   2.7086418110e+01    0.2296697    0.1783137  -0.60  0.000597689    1.637    0.389
       210 -11.8376     30.1643    139.7219   7.9089356746e+01   4.2535116844e+01     0.217387     0.139155  52.19 0.0007157716    1.430    0.300
       211 -12.0161     35.5867    138.5040   7.7325424759e+01   4.2294834843e+01    0.2434299    0.1298761  26.13 0.0007784424    1.971    0.493
       212 -10.4677    212.2937    137.3278   3.2619561438e+01   1.2402497473e+01    0.1356859   0.09344394   1.49 0.0003928395    1.626    0.385
       213 -11.9807    119.4958    135.1316   5.2146371615e+01   3.0501242171e+01    0.4254448    0.3343343 -61.85  0.002151773    1.393    0.282
       214 -11.6514      1.7345    136.9901   8.7381040716e+01   4.5485716100e+01    0.1888239    0.1481616 -68.44  0.001200904    1.319    0.242
       215 -11.4036    177.5728    137.8231   3.9163944344e+01   1.8706593041e+01    0.1870131    0.1308642 -47.76 0.0009317031    1.595    0.373
       216 -10.5074    209.6896    134.2973   3.2411317019e+01   1.3319547334e+01    0.1218235    0.1054856 -63.67  0.000349819    1.597    0.374
       217 -11.8550    101.7357    134.0794   5.6798350742e+01   3.3989664321e+01    0.4219985    0.2091774  23.91  0.001471395    2.992    0.666
       218 -11.9967     61.5487    133.3331   6.8655386619e+01   4.0494699663e+01    0.3138199    0.2015535 -21.14  0.001063851    2.619    0.618
       219 -11.5815    175.0279    132.9931   3.8615249852e+01   2.0046397759e+01    0.1742892    0.1579496 -17.21 0.0004269446    1.064    0.060
       220 -11.2516    128.3944    133.1494   4.9405531977e+01   2.9227423275e+01    0.2358459    0.1944576  30.72 0.0005411473    1.211    0.174
       221 -13.0513     36.1371    130.5413   7.6293878865e+01   4.4228528666e+01    0.4349125    0.3371324  78.20  0.001502453    1.187    0.158
       222 -11.4354     32.4066    126.1767   7.7003681275e+01   4.5708357409e+01    0.2296537    0.1743857  53.04 0.0005432002    1.248    0.198
       223 -11.7683     19.4733    131.7850   8.1672751474e+01   4.5464599704e+01    0.2294722    0.1816756  36.37  0.001385453    1.307    0.235
       224 -12.3581      2.6280    131.4360   8.6835086535e+01   4.6778313575e+01     0.225763    0.1883225  82.62 0.0003175329    1.041    0.040
       225 -10.8335    230.0981    130.6320   2.8344501710e+01   1.0316094286e+01    0.1680361    0.1454839   3.58 0.0004355323    1.100    0.091
       226 -12.9022     82.0831    128.5879   6.1521156537e+01   3.8622990516e+01    0.4872049    0.3694577 -70.32  0.002465015    1.356    0.262
       227 -12.1964      7.6039    131.2475   8.5307005546e+01   4.6496159059e+01      0.21829    0.1693164  33.54 0.0006609062    1.364    0.267
       228 -10.8406    101.8789    130.1331   5.5966835365e+01   3.4877971188e+01    0.1964095    0.1776672  -1.49 0.0003510925    1.277    0.217
       229 -12.8577     27.1652    125.3958   7.8628262561e+01   4.6402947182e+01    0.5012574    0.3206702  71.48  0.002573393    1.513    0.339
       230 -11.6313    187.8856    127.8797   3.4918551575e+01   1.8418454005e+01    0.2084173    0.1748581  -0.69 0.0002992478    1.190    0.160
       231 -10.4961    113.6450    133.6779   5.3414114679e+01   3.1918044190e+01    0.1532829    0.1182955  -5.23 0.0007046328    1.760    0.432
       232 -10.9724    121.4967    127.9136   5.0065621888e+01   3.1700844145e+01    0.2211069    0.1496193 -51.15  0.000561429    1.537    0.350
       233 -10.7399     64.5630    127.5476   6.6798428057e+01   4.1521818711e+01    0.2545412    0.1589892  55.74 3.534128e-05    1.660    0.398
       234 -12.9091     60.3724    124.9563   6.7718265843e+01   4.2750500133e+01    0.4582005    0.2715388  29.49  0.002110468    1.765    0.433
       235 -11.0083     45.5377    128.4436   7.3025897288e+01   4.3730345450e+01     0.139203    0.1241863  76.79 4.459062e-05    1.009    0.009
       236 -11.4099    169.3477    126.0416   3.8211383127e+01   2.2426769540e+01    0.2033905    0.1842771 -19.91 0.0004667685    1.074    0.069
       237 -12.5316      5.5253    121.8388   8.5368353137e+01   4.8967821080e+01    0.2238076    0.1950599 -88.12 0.0007099899    1.088    0.081
       238 -11.8032     74.9838    125.0081   6.3059345782e+01   4.0619812142e+01    0.2173063    0.2049175  77.12  0.000328236    1.010    0.010
       239 -12.5294     20.7784    122.8532   8.0470645093e+01   4.7602747528e+01    0.2603911    0.2402605  66.81 0.0002758655    1.109    0.098
       240 -12.6199     15.4880    123.4897   8.2258325274e+01   4.7860812547e+01    0.2345418    0.1679425  45.02 0.0006398411    1.354    0.262
       241 -11.5827     22.3262    117.7066   7.9448313434e+01   4.8785005087e+01    0.2487624    0.1620862  60.43 0.0002776257    1.479    0.324
       242 -11.4869     24.1373    115.1406   7.8554845029e+01   4.9289553807e+01    0.3295417    0.2011092  74.46  0.001245548    1.635    0.389
       243 -10.5014    125.8049    123.5823   4.7946120071e+01   3.1795975056e+01    0.2047446    0.1394945  52.59 0.0003034619    1.533    0.348
       244 -13.0206     18.7489    115.2394   8.0423706827e+01   4.9705810569e+01     0.473008    0.2959255  75.58  0.002359354    1.530    0.347
       245 -11.9383    104.3691    121.8857   5.3500169605e+01   3.6338741188e+01    0.3373167    0.2697358  56.06  0.001642515    1.274    0.215
       246 -12.0508    100.0416    118.6439   5.4053432894e+01   3.7902143855e+01    0.3939131    0.2693101  80.08  0.001322906    2.105    0.525
       247 -12.8484     64.4611    118.5359   6.5280392330e+01   4.3803210705e+01    0.4703738    0.2070332  32.76  0.001849719    2.274    0.560
       248 -11.2754    189.0420    121.4962   3.3230642884e+01   1.9264120281e+01     0.199042    0.1376968  44.92 0.0003449105    1.496    0.332
       249 -10.5219    224.2890    120.6671   2.7069103905e+01   1.2735353313e+01    0.1260136    0.0969736 -53.20  0.000562257    1.627    0.385
       250 -10.5922    179.1596    120.1020   3.4809450034e+01   2.1494195668e+01    0.1807196    0.1676018 -61.75 0.0003376963    1.251    0.200
       251 -12.2390     78.2191    119.4081   6.0964275963e+01   4.1497193278e+01    0.3033341    0.2109253  64.39 0.0009291348    1.623    0.384
       252 -12.5933     72.4098    118.9903   6.2755528091e+01   4.2512258342e+01    0.3025484    0.1884113  52.86  0.001359759    1.676    0.403
       253 -12.3083     64.8362    122.1422   6.5796110101e+01   4.2839772358e+01    0.3677585    0.2071149  32.65  0.001589588    1.795    0.443
       254 -11.5810    210.9298    117.0661   2.8367182624e+01   1.5721754976e+01    0.2016952    0.1826759 -12.03 0.0004315473    1.033    0.032
       255 -12.3859      9.1878    117.5543   8.3866170469e+01   4.9807141933e+01    0.2847692     0.132292  13.89  0.001302954    2.620    0.618
       256 -10.9457    196.9306    115.4875   3.0381678738e+01   1.8688009223e+01    0.1992047    0.1372851  46.17 0.0006476315    1.531    0.347
       257 -11.6920    120.3090    114.3088   4.7228246312e+01   3.4940945709e+01    0.2688976    0.2519684  67.60 0.0003528688    1.094    0.086
       258 -12.0215    103.8197    114.2781   5.1931284126e+01   3.8215061598e+01    0.4812945    0.2565333  38.49  0.001942574    1.872    0.466
       259 -12.5225     82.9838    111.0241   5.7669059919e+01   4.2779046807e+01     0.494709    0.2143643 -54.92 0.0007618607    2.257    0.557
       260 -13.0630     63.4001    113.1673   6.4645843463e+01   4.5315992992e+01    0.5071529    0.3113823  18.78  0.002217295    2.061    0.515
       261 -12.4355     62.1688    108.1455   6.4100440136e+01   4.6770699037e+01    0.5110452    0.2252852 -51.43   0.00163021    2.248    0.555
       262 -11.2840    116.0283    112.9757   4.8091708459e+01   3.6108030491e+01    0.2969637    0.2284665  55.86 0.0004848645    1.357    0.263
       263 -11.6645    109.5269    112.0218   4.9716982748e+01   3.7625861605e+01      0.28778    0.2247452  40.42 0.0003292914    1.267    0.211
       264 -11.4909    113.0298    110.3311   4.8291445030e+01   3.7310791980e+01    0.2778265    0.2191421 -40.89 0.0006361136    1.323    0.244
       265 -11.1554     90.0204    111.2684   5.5465008863e+01   4.1489814286e+01    0.2726166      0.20542 -89.92 0.0008466228    1.614    0.381
       266 -11.9378     53.6924    110.5479   6.7525405702e+01   4.7308557447e+01    0.4528653    0.2302587  31.79  0.001944621    2.002    0.501
       267 -12.2492    170.1868    109.2979   3.3985413209e+01   2.5306170365e+01    0.2541774    0.2302548 -36.13 0.0003155374    1.090    0.083
       268 -11.5713     73.3535    109.3037   6.0489581672e+01   4.4791597488e+01    0.3023012    0.1801148 -87.02 0.0009116611    2.453    0.592
       269 -11.5134    221.1838    109.5725   2.5040787715e+01   1.4915923755e+01    0.2970531     0.125649  48.31  0.001284176    2.570    0.611
       270 -10.7534    209.6060    107.7520   2.6413422430e+01   1.7405409504e+01    0.2005238    0.1149184 -41.14 0.0009484222    1.673    0.402
       271 -10.3183    155.4955    108.4870   3.6950659878e+01   2.8647779037e+01    0.2126507    0.1428068  37.18 5.027325e-05    1.559    0.358
       272 -11.3314    158.2549    106.4222   3.5802265506e+01   2.8439107877e+01    0.2799231     0.153515  52.95 0.0009323915    1.945    0.486
       273 -10.5754    121.9150    108.4651   4.5329758566e+01   3.5898270688e+01    0.2202457    0.1499624  45.25 0.0001486151    1.450    0.310
       274 -10.3452     92.2564    107.4077   5.3852864256e+01   4.2015859527e+01    0.1573143     0.116381 -26.75 0.0006951769    1.727    0.421
       275 -11.5511      1.9558    107.0342   8.5584545035e+01   5.2902977082e+01    0.2093386    0.1318789 -48.47  0.001138032    1.721    0.419
       276 -13.1526      9.9270    104.8553   8.2560734707e+01   5.2993521429e+01    0.4388029    0.3298198  58.38  0.002129681    1.288    0.223
       277 -11.4940    229.5173    103.1677   2.2367698530e+01   1.4292246507e+01    0.1925241    0.1812014  29.45 0.0003158058    1.205    0.170
       278 -11.9022    153.5704    101.4810   3.5555518919e+01   3.0426492161e+01    0.5144129    0.2448582 -53.44   0.00179497    2.747    0.636
       279 -12.0815     78.8069    101.5908   5.6898945223e+01   4.5818472786e+01    0.3433729    0.2713603 -84.62 0.0005852115    1.409    0.290
       280 -11.9091     76.8060     96.9576   5.6470576489e+01   4.7304395494e+01    0.2757316    0.2294215  23.73 0.0006233792    1.331    0.249
       281 -11.9410     32.1073     98.9265   7.3523604432e+01   5.2769477384e+01     0.490825    0.2949602 -34.84  0.002273057    2.086    0.521
       282 -10.7181    194.3285    100.3301   2.7152844025e+01   2.1689286745e+01    0.1478084    0.1080696   8.90 0.0007051403    1.711    0.416
       283 -12.9062    163.1212     99.1516   3.2837822638e+01   2.8722341674e+01    0.3906303    0.3038749  39.46  0.000533669    1.325    0.246
       284 -10.7485    208.5114     99.5364   2.4618105691e+01   1.8885023639e+01    0.1382572    0.1244273 -22.64 7.563554e-05    1.002    0.002
       285 -11.4331     94.0169     99.2967   5.1269412665e+01   4.3625795266e+01    0.2180256    0.2040098  51.13 0.0006790248    1.065    0.061
       286 -11.4659     58.6669     97.5957   6.3184942986e+01   4.9963302795e+01    0.4449431    0.2707413  43.72  0.002029573    1.675    0.403
       287 -11.5012    197.0954    103.8734   2.7554601313e+01   2.0537144405e+01    0.2069141     0.183793 -52.87 0.0003454452    1.231    0.188
       288 -11.3358     25.7259     97.2243   7.5735778948e+01   5.3795235879e+01    0.3718054    0.1705382 -53.50  0.001616745    2.068    0.516
       289 -12.1758      8.8981     97.9285   8.2297686055e+01   5.4836940403e+01    0.2710758     0.159362  73.80  0.001375334    1.663    0.399
       290 -10.2017     45.5291     97.4995   6.8126622115e+01   5.1695644539e+01    0.1428449    0.1316443 -71.43 0.0008096682    1.038    0.037
       291 -11.8153     65.8436     94.8211   5.9899145032e+01   4.9611434678e+01    0.2226322     0.203512 -35.32 0.0006632217    1.177    0.151
       292 -12.0014     78.7273     92.9564   5.4782299633e+01   4.7958844336e+01    0.2174557    0.1902132 -64.12 0.0004502597    1.124    0.111
       293 -10.6361    249.5094     91.9128   1.7280046791e+01   1.2238000588e+01    0.1835462    0.1033642 -30.07 0.0003296683    1.453    0.312
       294 -12.0997    189.2641     91.5040   2.5777749282e+01   2.4221255379e+01    0.3045512    0.2247393 -75.63  0.000790176    1.890    0.471
       295 -11.1025     41.1105     91.7684   6.8756936566e+01   5.3693706005e+01    0.2156072    0.1765058  66.39 0.0005231679    1.265    0.209
       296 -10.4395    138.9415     90.4533   3.5967522349e+01   3.5928008540e+01    0.2115611    0.1389321  76.71 0.0008056409    2.352    0.575
       297 -10.5509     28.3213     90.3124   7.3652864132e+01   5.5367669994e+01    0.1435835   0.09478907 -41.05 0.0003081996    1.652    0.395
       298 -11.1180      3.2653     88.4194   8.3600982222e+01   5.7587092194e+01     0.257318    0.1250068 -68.15  0.000844768    1.718    0.418
       299 -11.7641    149.1459     87.8931   3.2804323051e+01   3.4050904369e+01    0.2395266    0.2119045 -73.99 0.0009255002    1.253    0.202
       300 -12.3688      9.7494     86.7902   8.0788336856e+01   5.7659671647e+01     0.341465    0.2751833  -6.60 0.0009637557    1.499    0.333
       301 -11.5914    177.5775     86.5660   2.6560663283e+01   2.7667781321e+01    0.2610389    0.1957715 -68.56 0.0005980487    1.677    0.404
       302 -12.2120     54.5318     85.8827   6.2114899609e+01   5.3528185422e+01    0.4112884    0.3732783 -19.19  0.002268026    1.231    0.187
       303 -12.6568     61.1093     84.5925   5.9186325168e+01   5.2905088854e+01    0.5562195    0.3392168 -25.76 0.0008845878    2.485    0.598
       304 -11.8919    150.1604     83.0694   3.1173078020e+01   3.4721579004e+01    0.2835844    0.2500855   0.83 0.0009300343    1.275    0.216
       305 -10.3621    133.4291     84.3996   3.5576209467e+01   3.8421163785e+01    0.1538237    0.1490873 -89.24 3.696107e-05    1.053    0.051
       306 -10.4165    126.0098     84.7691   3.7629877749e+01   4.0068961308e+01    0.2081619    0.1300792  48.82 0.0008675486    1.601    0.375
       307 -11.5169    112.1426     83.1663   4.1060329614e+01   4.3546519701e+01    0.3790694    0.2243738  47.82  0.001171092    1.695    0.410
       308 -11.1675    159.6527     85.3127   2.9756841576e+01   3.2059314545e+01    0.1580418    0.1197883 -75.50 0.0007046473    1.715    0.417
       309 -12.3208    182.5119     80.9297   2.4129771864e+01   2.7473335796e+01    0.3244029    0.2521291 -51.75 0.0004163848    1.321    0.243
       310 -11.4479    206.1665     80.0000   2.0091476660e+01   2.2339105228e+01    0.2452182    0.1384405 -51.95  0.001082716    1.997    0.499
       311 -12.7942      7.9122     77.0608   8.0399271670e+01   6.0269941496e+01    0.7852013    0.1386354 -66.87  0.002599206    3.560    0.719
       312 -10.4077     11.5206     71.5309   7.7988223022e+01   6.1488223251e+01    0.1333578    0.1147854 -69.84 1.327388e-05    1.016    0.016
       313 -11.7909    153.6573     79.0918   2.9227039063e+01   3.4617136105e+01    0.2362139    0.2112723  75.56 0.0003067457    1.193    0.162
       314 -11.0969    112.5699     78.7649   3.9569172239e+01   4.4392110835e+01    0.3500999     0.252671 -79.82  0.001466789    1.970    0.492
       315 -11.5138     88.8392     78.9352   4.7245589569e+01   4.9410180961e+01    0.3014245     0.265594  35.75  0.001510923    1.170    0.145
       316 -11.9100     86.1796     74.4513   4.6772684674e+01   5.0963567121e+01    0.4344136    0.2475609 -45.25  0.001089839    1.739    0.425
       317 -10.4323     51.6991     79.2806   6.1643394182e+01   5.5587627015e+01    0.2319105    0.1405665 -64.94 0.0004574507    1.609    0.378
       318 -11.2103     55.1439     77.8701   5.9840622339e+01   5.5462626346e+01    0.2819822    0.2203249  15.54 0.0007878015    1.480    0.325
       319 -10.9266    227.7741     76.8033   1.6386532831e+01   1.8313828136e+01    0.1872677     0.162702 -17.23 0.0004257389    1.126    0.112
       320 -11.3881    161.6654     76.9327   2.6914553647e+01   3.3071787268e+01     0.222571    0.1938261 -39.81 0.0007957791    1.116    0.104
       321 -12.2656     75.4112     75.2092   5.0979284052e+01   5.2827550691e+01    0.3728335    0.2210543 -41.45  0.001425535    1.761    0.432
       322 -10.3676     48.5069     76.5149   6.2289391541e+01   5.6709886476e+01    0.1439825    0.1347713 -69.41 0.0001094916    1.022    0.021
       323 -10.9316    115.9589     74.9898   3.7377127114e+01   4.4406702033e+01    0.2552379     0.196833 -82.76  0.001133759    1.692    0.409
       324 -11.8939    150.5968     73.5413   2.8217498349e+01   3.6362389313e+01    0.2971083    0.2625291 -18.07  0.001034843    1.207    0.171
       325 -11.4523    105.8290     72.4757   3.9578689906e+01   4.7237928370e+01    0.2833906    0.2444481 -64.75  0.000510274    1.240    0.194
       326 -11.4701    203.8944     72.1662   1.8384644227e+01   2.3996396052e+01    0.1893988    0.1633521  12.51 0.0004918094    1.324    0.244
       327 -11.3204      2.7137     70.4269   8.1937842349e+01   6.2218061187e+01    0.3893298    0.1711189 -89.68  0.001700107    2.244    0.554
       328 -13.5783    241.5638     66.9775   1.2475293674e+01   1.6921513628e+01    0.3005481    0.2490545 -36.66 0.0008037202    1.020    0.020
       329 -10.6227    236.2872     69.3513   1.3603807403e+01   1.7633827848e+01    0.1279274   0.09526743   3.76 0.0003500397    1.664    0.399
       330 -10.6398    171.7965     69.4101   2.2769225716e+01   3.1889954900e+01    0.1959904    0.1391196  46.59 0.0003399246    1.489    0.328
       331 -10.9445     72.7725     68.8085   4.9968896435e+01   5.4802606216e+01     0.221732    0.2024572 -17.84 0.0005705658    1.168    0.144
       332 -12.1065     52.9606     68.3536   5.8103062563e+01   5.8128211901e+01    0.2631797    0.1998548 -77.80  0.000452416    1.479    0.324
       333 -12.1579    225.3300     67.2798   1.4354221289e+01   2.0105325727e+01    0.2352698    0.2084193 -28.09 0.0002943786    1.065    0.061
       334 -11.0140     64.7052     68.4351   5.3107670726e+01   5.6289341454e+01     0.197102    0.1462759  21.29 0.0009404247    1.548    0.354
       335 -11.0537     97.9930     66.9786   4.0222686408e+01   5.0136520246e+01    0.2308326    0.1856065 -83.91            0    1.563    0.360
       336 -11.5950     60.1065     66.9542   5.4573089753e+01   5.7388167210e+01    0.2244979    0.2064983 -39.32 0.0004602683    1.066    0.062
       337 -11.5226    199.0430     65.6724   1.7344116395e+01   2.6037547493e+01    0.1878628    0.1833034 -61.21 0.0004515878    1.073    0.068
       338 -10.6543    188.6490     64.2891   1.8495567366e+01   2.8653971964e+01    0.1510107    0.1062289 -65.95  0.000702572    1.668    0.400
       339 -11.0255    178.8462     64.1796   2.0023918359e+01   3.1013363329e+01    0.2152739    0.1896889 -56.17 0.0003142067    1.119    0.106
       340 -11.9976     10.3119     63.2940   7.7247954169e+01   6.3660275259e+01    0.3186578    0.1603421 -44.16 0.0009119125    1.925    0.481
       341 -11.5707     13.6430     61.6853   7.5283170559e+01   6.3870064576e+01    0.3424847    0.2092367 -52.58  0.001797766    1.446    0.308
       342 -10.5929    101.3413     62.6818   3.7625829192e+01   5.0279576972e+01    0.1603233    0.1242164 -85.67 0.0007049251    1.714    0.416
       343 -11.1827    109.2815     59.8457   3.4158856731e+01   4.9000759667e+01    0.2811464    0.2152048  64.36  0.001308488    1.420    0.296
       344 -11.2818     41.2649     60.1068   6.1047374149e+01   6.1702750935e+01    0.3212949    0.1942439  15.38  0.001466376    2.026    0.506
       345 -13.3586    192.6736     57.9166   1.6112979862e+01   2.8639790245e+01      0.34624    0.3006036 -34.20 0.0006632784    1.089    0.082
       346 -11.3469     18.3601     57.9119   7.2075246460e+01   6.4500143594e+01    0.2981795    0.1302953 -60.93  0.001321187    1.878    0.468
       347 -11.2806    159.9565     57.4883   2.1315356251e+01   3.6745884142e+01    0.2232454    0.1496902  62.17 0.0005507015    1.525    0.344
       348 -11.9897    116.3321     54.0313   3.0023496740e+01   4.8382195672e+01    0.2157294    0.2030589 -49.17 0.0004995747    1.071    0.066
       349 -12.0763    131.3170     51.7406   2.5385429798e+01   4.5008693558e+01    0.4874641     0.302169 -17.38   0.00195796    2.108    0.526
       350 -12.2697     24.2350     55.4350   6.8383819823e+01   6.4646318082e+01    0.3683369    0.2048454 -20.10  0.001380054    2.402    0.584
       351 -11.3285    175.9828     50.9608   1.6563315837e+01   3.3701956640e+01    0.1799241    0.1655737 -46.08 0.0004195124    1.035    0.034
       352 -13.3625     30.7461     49.7794   6.3268610309e+01   6.5401757014e+01    0.4094237    0.3025813  58.36   0.00116409    1.674    0.403
       353 -11.6264     99.8082     50.2113   3.3443718179e+01   5.3066170831e+01    0.2616205    0.1697817 -78.61 0.0009509675    2.817    0.645
       354 -11.7811     19.0563     48.3886   6.9360788033e+01   6.6805385386e+01    0.3360231    0.1425713 -58.42 0.0007910844    1.927    0.481
       355 -10.7508    191.4734     48.3974   1.3582479589e+01   3.0261737649e+01    0.1407832    0.1301214 -57.01  0.000145174    1.021    0.021
       356 -10.5964    219.5462     47.4654   1.0007840486e+01   2.3933470439e+01     0.134322    0.1169292 -43.04 0.0001021122    1.009    0.009
       357 -10.8871     95.3262     45.3002   3.2919301837e+01   5.5017607244e+01    0.1556442    0.1186526  15.57 0.0007029005    1.636    0.389
       358 -11.5553    143.5284     42.4972   1.9473093615e+01   4.3300418584e+01    0.2847437    0.1962655 -64.32 0.0008888121    1.691    0.409
       359 -10.6175     90.2860     43.6977   3.3945649269e+01   5.6470876093e+01    0.1476698    0.1197695 -76.50 0.0003371702    1.559    0.358
       360 -12.8735     23.4835     41.4958   6.4728381394e+01   6.8086087113e+01    0.3691087    0.2153936 -71.44  0.001191288    1.841    0.457
       361 -12.8410     27.0075     37.5702   6.1236090698e+01   6.8653959103e+01    0.4046032    0.1845501  33.52  0.001802661    2.333    0.571
       362 -12.8705     36.6617     40.1473   5.6591637522e+01   6.6960630840e+01    0.3885069    0.2774961  18.82 0.0009134921    1.526    0.345
       363 -10.3727    241.7007     40.2953   6.1680748795e+00   2.0175756549e+01    0.1310895   0.07806513 -53.52 0.0002454463    1.570    0.363
       364 -11.8090      8.5750     36.4639   7.2477361592e+01   7.0384680610e+01     0.214885    0.1940638 -42.49 0.0006143979    1.077    0.072
       365 -11.4244    225.5696     36.0750   6.5251642308e+00   2.4023985249e+01    0.2024562    0.1627961 -67.96 0.0004009369    1.224    0.183
       366 -12.8582     31.0582     32.1012   5.6571158612e+01   6.9425770699e+01     0.395722      0.31731 -29.43  0.001919341    1.172    0.146
       367 -11.1093    106.5619     32.2760   2.4062814315e+01   5.4443367192e+01    0.2837018    0.1399275 -36.51  0.001121238    2.027    0.507
       368 -11.9599     96.5102     30.5849   2.6210817400e+01   5.7204421819e+01    0.4056552    0.3185531  -5.13  0.001234979    1.471    0.320
       369 -11.6973     96.4967     27.5263   2.4827902918e+01   5.7667267859e+01    0.2699673    0.2351219 -86.33 0.0007066607    1.312    0.238
       370 -12.7445     78.4054     31.3817   3.2728539651e+01   6.1306578303e+01    0.3867742    0.2873561 -89.44  0.001312417    2.059    0.514
       371 -10.6470     67.5683     33.5781   3.8160117165e+01   6.3207300716e+01    0.1412923    0.1360489  -3.50 3.449377e-05    1.030    0.029
       372 -12.3921     43.8842     32.7899   4.9401304442e+01   6.7547633055e+01    0.4046228    0.2506008  21.37  0.001929287    1.869    0.465
       373 -10.5844    175.0313     31.4834   1.0707903853e+01   3.6577298234e+01    0.2155734   0.09943387  45.73 0.0008102775    2.621    0.618
       374 -11.3223     23.7900     31.1946   6.0778282567e+01   7.0422149417e+01    0.1862705     0.136692 -30.43  0.000477512    1.306    0.235
       375 -10.5515     19.6064     28.8636   6.2608525886e+01   7.1341832988e+01    0.1823993    0.1192838 -72.71 0.0009379292    1.774    0.436
       376 -11.4691     60.3620     28.1648   3.8730744147e+01   6.5604450584e+01    0.1961128    0.1280209 -47.84 0.0003209755    1.647    0.393
       377 -11.9706     45.7130     25.8868   4.5003659255e+01   6.8631471937e+01    0.3025029    0.2605678  88.56   0.00112559    1.642    0.391
       378 -13.5102     88.3440     24.3551   2.5864115764e+01   6.0117487478e+01    0.4448904    0.3269939  54.79 0.0006059534    1.328    0.247
       379 -12.5582      4.5517     24.1488   7.1615039712e+01   7.3478664055e+01    0.2462172    0.1932426 -56.00 0.0004006337    1.090    0.082
       380 -11.1738     67.5130     24.5045   3.3664727709e+01   6.4795767249e+01    0.1410053    0.1345839   5.58 7.338778e-05    1.033    0.032
       381 -10.7190    167.0119     23.5229   9.2150650050e+00   3.9619307018e+01    0.2065062      0.13805  74.45 -0.0001109807    1.478    0.323
       382 -12.2921    115.2720    247.2978   6.8967738706e+01   1.0508295884e+01    0.3410701     0.155368 -43.57  0.001864413    3.150    0.683
       383 -11.1021     81.4111     19.2158   2.5605395306e+01   6.2498975164e+01    0.2034899    0.1297715 -41.24 0.0009451694    1.669    0.401
       384 -10.7622     67.0000     16.0196   2.9283883131e+01   6.6213926061e+01    0.2247671   0.07847641 -32.19 0.0005398248    2.897    0.655
       385 -10.3064     31.3013     16.2675   4.8502237420e+01   7.2624035314e+01    0.1306685   0.09310602 -11.39 0.0001979272    1.524    0.344
       386 -10.8277     74.4845     13.5311   2.5008057352e+01   6.4881948506e+01    0.1409436    0.1313549  25.86 0.0001319579    1.005    0.005
       387 -10.3119    122.6923     11.7314   1.1648921596e+01   5.2818943589e+01    0.1485741    0.1027967  39.95  0.000219543    1.538    0.350
       388 -15.7342     29.5244    152.9478   8.0418702516e+01   3.9388732979e+01     2.388593     1.330219  32.60   0.01246697    1.712    0.416
       389 -11.4423    153.0374    246.0659   6.1658768646e+01   5.8191859304e+00    0.1636176    0.1215916  25.81 0.0003148371    1.017    0.016
       390 -10.8428    205.7977    244.1999   5.2058006923e+01  -5.5408934981e-01    0.1480288   0.09377776  10.89 0.0004221682    1.290    0.225
