#   1 NUMBER                 Running object number                                     
#   2 MAG_AUTO               Kron-like elliptical aperture magnitude                    [mag]
#   3 X_IMAGE                Object position along x                                    [pixel]
#   4 Y_IMAGE                Object position along y                                    [pixel]
#   5 X_WORLD                Barycenter position along world x axis                     [deg]
#   6 Y_WORLD                Barycenter position along world y axis                     [deg]
#   7 A_WORLD                Profile RMS along major axis (world units)                 [deg]
#   8 B_WORLD                Profile RMS along minor axis (world units)                 [deg]
#   9 THETA_WORLD            Position angle (CCW/world-x)                               [deg]
#  10 FWHM_WORLD             FWHM assuming a gaussian core                              [deg]
#  11 ELONGATION             A_IMAGE/B_IMAGE                                           
#  12 ELLIPTICITY            1 - B_IMAGE/A_IMAGE                                       
         1 -14.7082      7.9925    153.2653   1.4747505601e+02   4.2533387951e+01      9.70251     3.859601  70.95   0.04745889    2.653    0.623
         2 -12.1995      2.2249     40.5767   1.3393095919e+02   6.7308325457e+01     1.578901    0.1181759 -64.64  0.003589127   10.909    0.908
         3 -13.3773    193.3816     26.8787   7.1477628150e+01   3.3668684476e+01     1.538512     1.410912  47.87  0.007201986    1.161    0.139
         4 -13.3654    208.9562      6.9031   6.3991973503e+01   3.1818243458e+01     1.401305    0.9613916  49.82  0.006351303    1.583    0.368
         5 -12.6281      2.5474      5.8422   1.2219961136e+02   7.3708870266e+01    0.7923688    0.5756118 -51.81  0.005914043    1.397    0.284
         6 -12.7652      2.6718     18.3311   1.2708325094e+02   7.1535077887e+01      0.85627    0.4285947 -52.92  0.005350569    1.526    0.345
         7  -9.5598     82.6086    243.3328   1.4020571440e+02   1.6428315271e+01    0.1778027   0.09692974  65.65  0.001092583    1.623    0.384
         8 -11.1486    249.5827    244.0243   1.1158423123e+02  -9.5505590323e+00    0.3110992    0.1784015 -33.05  0.002021873    2.134    0.531
         9 -11.9429    138.3835    248.2618   1.3103343333e+02   7.3234109458e+00     0.451089    0.3048088  54.79  0.003017767    1.219    0.179
        10 -10.6554    123.0261    250.0000   1.3387081578e+02   9.4588083744e+00    0.2705877    0.1135361  41.62   0.00142966    1.911    0.477
        11  -8.0296     67.2820    250.6711   1.4329959570e+02   1.7300247162e+01    0.1117893   0.05831247  66.16 0.0003958851    1.605    0.377
        12 -10.2781     94.6333    239.9501   1.3784739511e+02   1.5273129177e+01    0.2235242    0.1034144 -65.62  0.001256556    2.505    0.601
        13  -8.5716     24.3349    237.6779   1.4945814819e+02   2.4570291191e+01    0.1129022   0.04983076  64.62 0.0007050317    1.707    0.414
        14  -9.9404    174.6949    249.5972   1.2489494264e+02   1.3480284965e+00    0.1749804    0.1407163  83.58  0.001203835    1.793    0.442
        15  -9.6986    155.8376    228.1682   1.2550303077e+02   7.4210450064e+00    0.1688586    0.1324933  28.52 0.0007920557    1.342    0.255
        16 -12.8300     50.8907    217.6599   1.4378178336e+02   2.5083115473e+01     1.076937    0.8687561  37.81  0.006872721    1.613    0.380
        17 -10.0560    172.5014    222.4795   1.2164798388e+02   5.4104628923e+00    0.2216078    0.1613101  13.99   0.00129707    1.740    0.425
        18 -12.3289      9.9004    207.0194   1.5034843210e+02   3.1530008985e+01    0.5663825    0.4171404  30.65  0.003096164    1.924    0.480
        19  -8.0153    221.5475    213.5280   1.1138674457e+02  -1.8117402044e+00    0.1235836    0.1008656  25.05 0.0002479786    1.024    0.023
        20  -8.9157    152.3984    212.9954   1.2407633543e+02   1.0392300168e+01    0.1611633    0.1480688  61.24 0.0005033258    1.131    0.116
        21 -12.6305     37.2050    235.8491   1.4729154834e+02   2.3457906799e+01    0.2725091     0.209667 -88.11 0.0007730179    1.349    0.259
        22 -11.4322     63.0189    200.9580   1.4015052264e+02   2.6728266002e+01    0.2394983    0.2075338 -77.83 0.0005111312    1.342    0.255
        23 -11.0082     20.6549    200.0647   1.4806776885e+02   3.1806799481e+01      0.21895    0.1504739  66.11 0.0003966625    1.125    0.111
        24 -10.7374     17.0219    198.0148   1.4860653389e+02   3.2564194065e+01    0.2085805    0.1461826  70.66 0.0004011135    1.068    0.064
        25  -9.1240      1.6840    201.1066   1.5148575640e+02   3.3395040078e+01    0.1739308   0.08944334  76.49 0.0008468714    1.459    0.315
        26  -9.2186    194.7256    198.3133   1.1366002381e+02   5.0317175984e+00    0.3222461    0.1594464 -57.82  0.001207234    4.204    0.762
        27 -11.7582     69.1327    192.4478   1.3811286298e+02   2.7606255889e+01     0.247752    0.2131595 -82.17 0.0004803269    1.245    0.197
        28 -12.9997     65.8841    177.4775   1.3719013280e+02   3.1144545284e+01    0.4557464    0.2605143 -49.07  0.001640865    2.311    0.567
        29 -10.6769     79.0438    179.2583   1.3456631428e+02   2.8932542261e+01     0.225791    0.1957279  68.21 0.0003257317    1.109    0.099
        30  -8.6685    102.5996    178.8597   1.2940584556e+02   2.5367071901e+01    0.1774872    0.1168361 -82.06 0.0004350123    1.684    0.406
        31 -11.5337     86.1703    169.8273   1.3177840097e+02   2.9879175324e+01    0.5670527    0.4937339 -62.62  0.003569545    1.291    0.225
        32  -9.7994     98.6375    153.5150   1.2640921193e+02   3.1458750628e+01    0.2886892    0.2524876 -76.15 0.0008182237    1.106    0.096
        33  -9.0304    101.2542    149.1651   1.2503490206e+02   3.1984013903e+01    0.1938207    0.1855166 -62.64 0.0004662585    1.187    0.158
        34 -11.7143     87.2653    152.7537   1.2901038837e+02   3.3460084885e+01    0.2632061    0.2389286 -54.15 0.0005019941    1.279    0.218
        35 -12.2117     67.1735    143.7165   1.3253488580e+02   3.8424070258e+01    0.6749554    0.4270846  67.50  0.002954494    1.684    0.406
        36  -7.9741    183.2819    146.6391   1.0581258126e+02   1.6070813197e+01    0.1471878    0.1174525 -80.87  0.000701636    1.675    0.403
        37 -13.8743     43.0321    228.4345   1.4588085858e+02   2.4076927113e+01    0.9036908    0.4981321  54.36  0.002904614    1.377    0.274
        38  -9.6756    110.0464    137.8049   1.2074841225e+02   3.2974731815e+01     0.383469    0.2611834 -20.16  0.001307362    2.674    0.626
        39 -10.2857     97.3039    135.3773   1.2349355747e+02   3.5758942420e+01    0.2462576    0.2266262 -46.19 0.0006012289    1.228    0.186
        40  -9.2439     83.7716    134.5869   1.2682564198e+02   3.8124654995e+01     0.249346    0.1725298  69.22  0.001220642    1.585    0.369
        41 -10.3381    198.0200    246.0306   1.2042316964e+02  -1.9417882928e+00    0.1706015    0.1300603  60.67 0.0008970429    1.693    0.409
        42 -10.1670     56.1873    130.0784   1.3327816550e+02   4.2967449597e+01    0.3777185    0.2284269 -49.56  0.001980821    1.753    0.430
        43  -8.8534    107.0250    124.3524   1.1872755944e+02   3.6552940513e+01    0.1921472      0.17114  52.37 0.0003641477    1.140    0.123
        44 -10.3593     99.0000    249.0029   1.3788878769e+02   1.3197025083e+01    0.1785074    0.1349967  58.43 0.0006932263    1.050    0.048
        45  -9.6476    167.8003    112.8000   1.0106298662e+02   2.6089595379e+01     0.311823    0.2597986  85.32  0.001191461    1.410    0.291
        46  -9.4259    203.4920    111.4943   9.3423348385e+01   1.7885379362e+01    0.2709824    0.1327122  41.80 0.0008698404    2.211    0.548
        47  -8.7802    184.5253     77.4653   8.7870056128e+01   2.8533123585e+01    0.1529077    0.1517203  55.33 -1.170353e-05    1.027    0.026
        48  -9.3760    156.9701     75.5295   9.3034718145e+01   3.5846577514e+01    0.2402442    0.1525899  54.04  0.000571086    1.562    0.360
        49  -9.4583     27.9941     60.4631   1.2849169865e+02   6.1548030272e+01    0.1571965     0.119529  22.81  0.001023087    1.582    0.368
        50  -9.1439     18.6731     57.2888   1.3128745804e+02   6.2922881826e+01     0.108172   0.08546969  79.12 0.0003557189    1.614    0.380
        51  -9.0001     47.0622    249.2206   1.4646041061e+02   2.0060948898e+01    0.1792682   0.07208814  59.04 0.0005918706    1.882    0.469
        52  -9.0935      2.4732    249.4703   1.5325113044e+02   2.4835105172e+01   0.09739399   0.06192025  68.83 5.648318e-05    1.013    0.013
        53 -11.4573    237.9860    247.1033   1.1391288184e+02  -8.1795015660e+00    0.3035863    0.1878264  27.77  0.001732837    1.235    0.191
        54 -10.8436    184.6594    237.7591   1.2160584615e+02   1.2465914286e+00    0.2292841    0.2000707  41.32 0.0008258768    1.154    0.133
