#   1 NUMBER                 Running object number                                     
#   2 MAG_AUTO               Kron-like elliptical aperture magnitude                    [mag]
#   3 X_IMAGE                Object position along x                                    [pixel]
#   4 Y_IMAGE                Object position along y                                    [pixel]
#   5 X_WORLD                Barycenter position along world x axis                     [deg]
#   6 Y_WORLD                Barycenter position along world y axis                     [deg]
#   7 A_WORLD                Profile RMS along major axis (world units)                 [deg]
#   8 B_WORLD                Profile RMS along minor axis (world units)                 [deg]
#   9 THETA_WORLD            Position angle (CCW/world-x)                               [deg]
#  10 FWHM_WORLD             FWHM assuming a gaussian core                              [deg]
#  11 ELONGATION             A_IMAGE/B_IMAGE                                           
#  12 ELLIPTICITY            1 - B_IMAGE/A_IMAGE                                       
         1 -15.1379      5.7892    139.0387   1.4334909934e+02   4.5923270954e+01     6.651451     1.558251 -80.00    0.0225648    4.582    0.782
         2 -13.3932    199.2758     27.8554   6.6366354490e+01   3.1310190764e+01     1.481545      1.33068  24.57  0.006722583    1.361    0.265
         3 -13.4133    215.1139      8.8293   5.9809749582e+01   2.9474142641e+01     0.994952    0.8137705  74.00  0.003414263    1.173    0.148
         4 -11.9607     83.3157    168.3148   1.2765924948e+02   3.0433612392e+01    0.6841596    0.6431842  18.99  0.004232666    1.329    0.248
         5 -12.0702    245.9459    248.2974   1.0720904979e+02  -1.0425019101e+01    0.5819686    0.2777717  38.65  0.003412039    1.825    0.452
         6 -11.8366     46.7845    248.3441   1.4310455144e+02   1.9477878204e+01     0.515803    0.3311789  40.33  0.003569818    1.554    0.357
         7 -13.1988      5.4469    247.1398   1.4986723219e+02   2.4260677621e+01     1.595569    0.7869466 -78.75    0.0111306    1.898    0.473
         8 -13.1655     16.1549    241.6789   1.4790134656e+02   2.4117674518e+01     1.720827    0.5309706  62.16  0.008752663    2.756    0.637
         9 -11.2370     28.7077    248.8260   1.4617926736e+02   2.1515501293e+01    0.5378695    0.2204766 -68.87   0.00322525    2.556    0.609
        10 -12.5014     35.0284    245.0088   1.4491174938e+02   2.1455946118e+01    0.6087416    0.4909544 -86.79  0.004888278    1.376    0.273
        11 -10.8793    150.5565    249.1227   1.2431660952e+02   4.1657302522e+00     0.262127    0.1371794  30.06  0.001347153    2.014    0.503
        12 -11.8238     99.3312    247.9325   1.3369647972e+02   1.2380660129e+01    0.3695873    0.2965145  38.24  0.002590155    1.337    0.252
        13 -10.5915    198.4938    246.9566   1.1522753296e+02  -3.2437538212e+00    0.1548365    0.1163325 -29.59  0.001038927    1.608    0.378
        14 -10.4953    162.0359    249.0502   1.2217932091e+02   2.3200915075e+00    0.1899837    0.1311448  60.97  0.001145817    1.714    0.416
        15 -11.6148    138.8447    247.9560   1.2635770951e+02   6.2253590136e+00    0.3951618    0.2728687 -64.05  0.002497052    1.916    0.478
        16 -10.9201     50.2324    235.5370   1.4164515907e+02   2.1312084577e+01    0.2247608    0.1471327 -72.82  0.001331693    1.626    0.385
        17 -13.2527     45.3667    215.3833   1.4106768534e+02   2.5704515676e+01      1.09919    0.7468542 -87.34  0.005896181    1.336    0.251
        18 -12.9891     29.9761    233.0414   1.4509358411e+02   2.4167026888e+01    0.2870819    0.2380321  85.65  0.000796029    1.290    0.225
        19 -14.0501     34.8194    226.9967   1.4385982110e+02   2.4732648358e+01    0.7870944    0.5066496  61.81   0.00239988    1.176    0.150
        20 -12.6604    122.4944    232.3797   1.2763599901e+02   1.1364550875e+01    0.7841693    0.2219278  40.53  0.003053058    2.896    0.655
        21 -12.4144     99.0297    229.4724   1.3189676717e+02   1.5592791202e+01    0.9806835    0.1168116  43.22  0.002900538    5.214    0.808
        22  -9.5758    173.4973    222.6816   1.1629802522e+02   4.2623204983e+00    0.2452238    0.1002297  41.35   0.00108669    2.020    0.505
        23 -10.9585     56.0412    206.0120   1.3816321527e+02   2.6228326574e+01    0.3509859    0.1554918  47.94  0.001809124    1.888    0.470
        24 -11.5081     58.0032    212.4793   1.3834772048e+02   2.4682681244e+01    0.6207752    0.2065793  56.00  0.002589437    3.032    0.670
        25  -8.8642    152.5194    213.0485   1.1901033713e+02   9.5255650248e+00     0.163101    0.1342502 -51.69 0.0003216555    1.445    0.308
        26 -12.5320      9.7699    207.2373   1.4727507655e+02   3.1159015392e+01    0.6151268    0.4116178  32.73  0.002975837    1.810    0.447
        27 -11.7641     57.6580    199.3015   1.3719945200e+02   2.7388325477e+01    0.2694601    0.2268145  86.15 0.0005199869    1.128    0.113
        28 -12.2607      3.4942    170.9592   1.4634102885e+02   3.9133414622e+01    0.6277596     0.254831 -79.53  0.003361834    2.009    0.502
        29 -11.1294    121.5540    249.9960   1.2980210294e+02   8.6532700595e+00    0.3805244    0.1298009  40.75  0.001730129    2.302    0.566
        30 -10.2335      8.4326    193.6499   1.4675610316e+02   3.3992348506e+01    0.2307736    0.1306701  63.38 0.0006804345    1.442    0.307
        31 -10.4169     95.9600    152.8388   1.2200873931e+02   3.1880002321e+01    0.3333422     0.293198 -31.79 0.0007625993    1.388    0.280
        32  -9.3122     99.0879    148.6352   1.2044456552e+02   3.2299741786e+01    0.2303145    0.1899296 -50.26 0.0004880263    1.285    0.222
        33 -11.9380     84.5079    151.6792   1.2474073109e+02   3.4021429559e+01    0.2962109    0.2455746 -48.27 0.0005625928    1.334    0.250
        34 -12.1322     67.3582    143.5724   1.2789128854e+02   3.8450737370e+01    0.6690504    0.4067492  61.55   0.00306939    1.841    0.457
        35 -11.9792     64.4113    190.6928   1.3486833555e+02   2.8290449744e+01    0.2536562    0.2342554  89.29 0.0004455056    1.218    0.179
        36 -10.0481    108.4423    137.6618   1.1584488829e+02   3.3111998038e+01    0.4767845    0.3211643 -15.90  0.001444466    2.720    0.632
        37 -10.5512     95.4303    134.8634   1.1874264523e+02   3.6094104765e+01    0.2443588    0.2388696 -49.26   0.00039431    1.119    0.106
        38 -11.1974     26.5918    129.1123   1.3683128263e+02   4.6497404217e+01    0.3334319    0.2051442  56.68  0.000995444    1.736    0.424
        39  -9.0144    106.0259    124.0189   1.1352256985e+02   3.6662648905e+01    0.2087886    0.2006769  73.08            0    1.020    0.019
        40 -10.0139    242.9852     92.4832   7.6710707414e+01   1.1741949808e+01    0.1895851    0.1194392 -86.47 0.0008103093    2.558    0.609
        41 -10.3117    158.9315     76.7251   8.7264836183e+01   3.4541117969e+01    0.2244045    0.2014608  60.68 0.0005522718    1.087    0.080
        42  -9.3387    191.9901    193.4678   1.0774125351e+02   5.5405972312e+00    0.2808983    0.1569369 -66.92 0.0008099152    6.655    0.850
        43 -11.3407      2.4334     50.0472   1.3142072427e+02   6.5612519998e+01    0.2746926    0.2098648 -76.72  0.001200976    1.423    0.297
        44 -13.1125     61.5515    175.8042   1.3381467451e+02   3.1898128992e+01    0.4902222    0.2765367 -46.77  0.001684122    2.324    0.570
        45  -9.6218     66.8495    250.4810   1.3976368514e+02   1.6547501762e+01    0.1657331    0.0864231  44.69  0.000721316    1.517    0.341
        46 -10.7416     75.2399    177.6064   1.3086267161e+02   2.9588828477e+01     0.235624    0.2004853  77.71 0.0003330348    1.028    0.027
        47 -11.4049    171.8447    248.5256   1.2030055859e+02   8.0693244931e-01    0.3301047    0.1971554  44.75  0.001956267    1.375    0.273
        48  -9.3067     95.3518    172.6754   1.2542898883e+02   2.7545337083e+01    0.2333664    0.1810868  70.66  0.001285743    1.261    0.207
