#   1 NUMBER                 Running object number                                     
#   2 MAG_AUTO               Kron-like elliptical aperture magnitude                    [mag]
#   3 X_IMAGE                Object position along x                                    [pixel]
#   4 Y_IMAGE                Object position along y                                    [pixel]
#   5 X_WORLD                Barycenter position along world x axis                     [deg]
#   6 Y_WORLD                Barycenter position along world y axis                     [deg]
#   7 A_WORLD                Profile RMS along major axis (world units)                 [deg]
#   8 B_WORLD                Profile RMS along minor axis (world units)                 [deg]
#   9 THETA_WORLD            Position angle (CCW/world-x)                               [deg]
#  10 FWHM_WORLD             FWHM assuming a gaussian core                              [deg]
#  11 ELONGATION             A_IMAGE/B_IMAGE                                           
#  12 ELLIPTICITY            1 - B_IMAGE/A_IMAGE                                       
         1 -14.9979      7.3475    153.2852   1.4778744215e+02   4.0906350313e+01     9.349511     3.441579  59.86  0.003839545    2.565    0.610
         2 -14.4747     41.2551    225.5339   1.4415805154e+02   2.3874199750e+01     2.116099     1.374965  16.29  0.006640038    1.948    0.487
         3 -13.5122    194.5146     28.7375   6.9517569769e+01   3.2867755604e+01     1.452048     1.264938 -26.38  0.007235122    1.104    0.094
         4 -13.5761    209.6820      9.3815   6.2440633952e+01   3.1218159989e+01     1.330159    0.9841868  28.04  0.007479529    1.633    0.388
         5 -12.0697      2.3120     12.1974   1.3011703733e+02   7.4534200763e+01    0.7501779    0.2577083 -65.77  0.003223882    2.689    0.628
         6 -11.7629      2.4814      3.9862   1.2643790875e+02   7.6255712698e+01    0.5478782    0.3860058 -17.87   0.00353286    1.332    0.249
         7 -11.3779      2.7148     37.5979   1.3729032054e+02   6.8755329067e+01    0.3995503    0.1654543 -76.48  0.001796665    2.315    0.568
         8 -11.2194    248.4865    248.8491   1.0882358488e+02  -4.0471491538e+00    0.3292667     0.173494  17.87  0.002356674    1.370    0.270
         9 -11.1651     98.9349    248.7046   1.3478773987e+02   1.3987582256e+01    0.3538361    0.2255999   1.33  0.002117575    2.658    0.624
        10 -10.2266     46.7464    249.0055   1.4431196399e+02   1.9586581464e+01     0.224654    0.1177659  56.32 0.0009541881    1.575    0.365
        11 -10.4875     29.5427    250.0133   1.4737770784e+02   2.1061998284e+01    0.2833636    0.1587092  45.00  0.001403812    1.254    0.203
        12 -11.4498     35.3659    244.5524   1.4613956374e+02   2.1360803264e+01     0.475044    0.3621387 -76.76  0.003997766    1.578    0.366
        13  -9.4766      2.0302    249.5169   1.5202901922e+02   2.3478989673e+01    0.1614351   0.09423541  64.42  0.001173973    1.322    0.244
        14 -10.5096      2.4915    245.9775   1.5187738134e+02   2.3983346734e+01    0.1998533    0.1033119  63.02  0.001521551    1.476    0.323
        15 -11.6010     13.0848    241.1869   1.4994727595e+02   2.3866494329e+01    0.2962821    0.1599442  76.37  0.001791609    1.697    0.411
        16 -11.7059    139.8976    250.0527   1.2738383290e+02   8.8481638281e+00    0.4499058    0.1645885  35.39  0.002428381    1.991    0.498
        17  -9.9291    183.0055    238.5282   1.1825794878e+02   4.7828569542e+00    0.1712838   0.08353468  31.90  0.000531516    1.559    0.359
        18  -9.9821    152.4538    248.4826   1.2493961280e+02   7.4777540246e+00    0.1098014   0.08033724  26.67  2.65509e-05    1.009    0.009
        19 -10.1214    161.9913    249.4991   1.2333887147e+02   6.1620282289e+00    0.1732338   0.08004557  33.34  0.001033749    1.594    0.373
        20  -8.8445    152.5017    212.9881   1.2060185283e+02   1.2216633055e+01    0.1429275    0.1182018 -36.31 0.0003205444    1.450    0.310
        21 -11.5643     62.1106    198.8969   1.3810921889e+02   2.6448089242e+01    0.2755199    0.2267037 -33.81 0.0005410687    1.631    0.387
        22 -11.3068     17.9313    198.7252   1.4752518455e+02   3.0803325005e+01    0.3682797    0.1402154  46.64  0.001565167    1.983    0.496
        23  -9.7722    191.9797    193.2545   1.0991406001e+02   9.2506657252e+00    0.3241561    0.2002505 -59.45  0.001412107    4.210    0.762
        24 -10.2569     82.1140    248.8966   1.3789992166e+02   1.5883071605e+01    0.1704827     0.109264  49.50  0.001239796    1.282    0.220
        25 -11.8463     68.1499    190.7319   1.3605066294e+02   2.7314643177e+01    0.2461798    0.2324734 -39.24 0.0004232349    1.300    0.231
        26 -11.5369      7.4730    188.5613   1.4930152159e+02   3.3588614674e+01    0.2695217    0.1753802 -77.58  0.001874872    1.527    0.345
        27 -12.6636     35.7339    233.1610   1.4557482882e+02   2.3138406593e+01    0.2580116    0.2310202  63.55 0.0007683989    1.237    0.192
        28 -10.8654     78.0679    177.8864   1.3241949933e+02   2.8648630136e+01    0.2142693    0.2094106  21.82 0.0003837933    1.158    0.137
        29 -13.0934     64.9088    176.0845   1.3537663383e+02   3.0618484069e+01    0.4466212    0.2627822 -43.47  0.001544708    2.209    0.547
        30  -8.8221    100.1150    176.8202   1.2703972678e+02   2.5908310413e+01    0.1931542    0.1501131  54.85 0.0005422567    1.282    0.220
        31 -11.7560     85.6721    168.5438   1.2943530868e+02   2.9565891839e+01     0.612964    0.5372593  23.41  0.003893279    1.188    0.159
        32 -12.9145      8.9149    207.3914   1.4967289292e+02   2.9934323623e+01    0.7461933    0.5646039  16.72  0.004401125    1.661    0.398
        33  -9.9441     98.1715    152.4860   1.2392808315e+02   3.1165911235e+01    0.2482595    0.2453019 -66.21 0.0007643176    1.070    0.065
        34 -12.0025     86.6674    151.7949   1.2683014089e+02   3.2986001590e+01     0.272949    0.2450247 -25.70 0.0005854226    1.269    0.212
        35 -12.3628     67.1900    143.9247   1.3095631258e+02   3.7331971937e+01    0.7323557    0.4792854  63.45  0.003783109    1.691    0.409
        36 -10.6535      5.7449    241.0422   1.5121246812e+02   2.4492097906e+01    0.1602648    0.1123845  37.63 0.0003619888    1.295    0.228
        37  -8.4885    192.0287    144.0179   1.0051976157e+02   1.6512790778e+01    0.1632597     0.139273  -3.13 0.0004145028    1.038    0.037
        38  -8.3364    181.4024    144.4790   1.0274379979e+02   1.8358397396e+01    0.1369861    0.1225534   1.55 0.0001425352    1.057    0.054
        39 -10.3758    173.8191    222.6838   1.1782232826e+02   7.9301544635e+00    0.3134631    0.1665133  39.78   0.00181432    1.704    0.413
        40  -9.6849    109.6214    137.6567   1.1828131090e+02   3.2537295385e+01    0.3967546    0.2365112 -26.91  0.001652482    2.456    0.593
        41 -10.4848     96.8539    134.7548   1.2120097834e+02   3.5232407865e+01    0.2506089    0.2132135 -22.78 0.0003570989    1.328    0.247
        42  -8.8885    100.9843    148.3268   1.2250488812e+02   3.1626957586e+01    0.1898479    0.1624381  30.61 0.0003178794    1.136    0.120
        43 -10.3393     34.0331    133.0149   1.3904548627e+02   4.3444916760e+01    0.3064757    0.1189656  48.04  0.001312765    2.596    0.615
        44  -8.3777     91.4282    131.5386   1.2212311239e+02   3.6794310149e+01    0.1367533     0.133599  68.73  0.000104708    1.016    0.016
        45  -9.1710    106.7512    124.0399   1.1629558671e+02   3.5988202764e+01     0.186993    0.1792462 -30.11 0.0003021442    1.052    0.049
        46  -8.9503     80.7922    132.7302   1.2537526583e+02   3.8089896709e+01    0.1878485    0.1493217  64.62 0.0004126522    1.353    0.261
        47  -9.9797    167.7373    112.8831   9.8299520084e+01   2.6442286550e+01    0.2993372    0.2635273 -65.48 0.0008054483    1.456    0.313
        48  -9.5938    203.3006    111.5851   9.0943383458e+01   1.9439648568e+01     0.243588    0.1592615  -8.23 0.0004533367    1.702    0.412
        49 -10.8102    243.1212     84.1477   7.8208892329e+01   1.5558181156e+01    0.2550214    0.1413631 -19.95  0.001267826    1.666    0.400
        50  -9.0497    157.2123     76.4035   9.0515191488e+01   3.5190616348e+01    0.2042065    0.1493193  63.59  0.000553534    1.608    0.378
        51  -9.8965     34.6920     63.3666   1.2742303094e+02   6.0456221874e+01    0.3223441    0.1989093  51.41  0.001118348    2.069    0.517
        52 -11.3636      2.0522     60.0225   1.4162279780e+02   6.3385491708e+01    0.5659632   0.09021904 -71.60  0.001825071    4.082    0.755
        53  -9.0741     27.6469     60.3076   1.2987140314e+02   6.1817978330e+01    0.1328664   0.09747303  65.87 0.0007042749    1.717    0.418
        54 -10.3185     16.4652     56.0047   1.3415706265e+02   6.3664737810e+01    0.2180511    0.1944155  11.52 0.0004809459    1.303    0.233
        55 -10.6919    125.9617    249.9950   1.2992338573e+02   1.0572610584e+01    0.2455779    0.1124339  33.87  0.001467924    1.612    0.380
        56 -10.9771    197.9526    244.9787   1.1648714401e+02   2.1925384967e+00    0.2263824    0.1642249 -42.51  0.001653061    2.134    0.531
        57 -10.9024     22.3284    244.7950   1.4844857575e+02   2.2507848447e+01      0.31826    0.1196224  50.62 0.0007855427    1.860    0.462
        58 -10.4383    112.0186    250.3779   1.3251757823e+02   1.2208539131e+01    0.2564293   0.07692879  34.09   0.00125006    2.450    0.592
