#   1 NUMBER                 Running object number                                     
#   2 MAG_AUTO               Kron-like elliptical aperture magnitude                    [mag]
#   3 X_IMAGE                Object position along x                                    [pixel]
#   4 Y_IMAGE                Object position along y                                    [pixel]
#   5 X_WORLD                Barycenter position along world x axis                     [deg]
#   6 Y_WORLD                Barycenter position along world y axis                     [deg]
#   7 A_WORLD                Profile RMS along major axis (world units)                 [deg]
#   8 B_WORLD                Profile RMS along minor axis (world units)                 [deg]
#   9 THETA_WORLD            Position angle (CCW/world-x)                               [deg]
#  10 FWHM_WORLD             FWHM assuming a gaussian core                              [deg]
#  11 ELONGATION             A_IMAGE/B_IMAGE                                           
#  12 ELLIPTICITY            1 - B_IMAGE/A_IMAGE                                       
         1 -12.6919     74.8267     50.5542   8.7867515085e+01   5.7912245560e+01     1.472612    0.9077885 -59.41  0.006565903    1.919    0.479
         2 -11.7754    120.0246     57.3023   7.6012620253e+01   4.7017319129e+01     2.290804     1.431901 -70.50  0.008487015    2.789    0.641
         3 -12.8096    119.9855     38.2439   6.8815359362e+01   5.0225490118e+01    0.9527828    0.6784937 -63.69  0.003054886    1.792    0.442
         4 -11.1424    138.3915     32.7466   6.2500950785e+01   4.6302952691e+01    0.8029502    0.5636419 -68.29  0.003584076    1.801    0.445
         5 -10.4046     59.6996     24.4042   8.2618387833e+01   6.5681571330e+01    0.7712212    0.2909147 -36.10   0.00292027    2.617    0.618
         6 -12.1068     60.3691     44.8433   9.1411788717e+01   6.1585854596e+01     1.147259     0.567733 -47.57  0.005025263    1.850    0.459
         7 -12.3976    104.5947     12.8775   6.1547772090e+01   5.7549538205e+01    0.6751306     0.490107 -35.36  0.003385314    1.402    0.287
         8 -12.6179    113.0832     25.0633   6.5025652924e+01   5.3871853150e+01    0.9617306    0.4781411  56.14  0.003237189    1.952    0.488
         9  -9.8761     22.1798      4.4411   9.1931585608e+01   7.4844965529e+01    0.4288055    0.1600353 -54.83  0.001069281    3.562    0.719
        10 -11.2185      5.1520      9.0084   1.0688715858e+02   7.5515930312e+01     1.121712    0.6289785 -71.07  0.006038078    1.965    0.491
        11 -11.7012     27.2764     27.8522   1.0068859157e+02   6.9625289692e+01    0.5356853    0.4840083  49.72  0.003512917    1.353    0.261
        12 -12.6153     16.7939     13.5075   1.0071048488e+02   7.3659749474e+01     0.665083    0.4139659 -37.81  0.002832818    1.403    0.287
        13 -11.7130     22.7827     11.1204   9.5466006205e+01   7.3525118908e+01    0.4718675    0.3628221   2.18  0.002426631    1.404    0.288
        14 -11.3955    155.1726     23.1568   5.5875309815e+01   4.3034374799e+01    0.9787007     0.642774  28.16  0.004347262    1.812    0.448
        15 -10.6101    145.1363     24.8581   5.8196774302e+01   4.5526553757e+01    0.6890439    0.4851303  52.92  0.003280143    1.390    0.281
        16 -11.3642    138.1179     21.7540   5.8262187725e+01   4.7774750544e+01     1.245384    0.3055932  51.26  0.003669552    3.630    0.724
        17 -10.5026    146.6761     15.9950   5.4534477425e+01   4.6122816280e+01    0.6255031    0.2878167  54.24  0.002472337    2.042    0.510
        18 -11.2303    165.2377     17.5455   5.2381659994e+01   4.0944342725e+01    0.4647662    0.3108734  32.35  0.001430737    1.715    0.417
        19 -11.9175    132.1655     14.8108   5.6542317085e+01   5.0157061702e+01     1.365624    0.7125351  76.26   0.00399647    2.204    0.546
        20 -12.4413    163.6886     27.9620   5.6268502498e+01   4.0190466617e+01    0.5807368    0.4090359  31.67 0.0005337016    1.612    0.380
        21 -11.0585    198.6816     28.5667   5.1839055988e+01   3.1003326460e+01    0.6622427    0.3920722  -8.59  0.002898756    1.954    0.488
        22 -10.5024    120.6690     18.6141   6.0451619784e+01   5.2757231000e+01    0.6500785     0.462227 -53.76  0.002344068    1.607    0.378
        23 -10.7590    189.3232     28.7286   5.2997243473e+01   3.3367302642e+01    0.6307734    0.3277496 -18.21  0.002408783    2.014    0.504
        24 -11.1627    178.5677     21.1978   5.1900053554e+01   3.7001685487e+01    0.6546506    0.3643363  41.17  0.002192936    2.043    0.511
        25 -11.5272     20.0268     22.5727   1.0275364411e+02   7.1469557080e+01    0.7474566    0.4297562 -54.76  0.003733218    1.466    0.318
        26 -10.0788     87.2021      7.4159   6.3439479491e+01   6.2421189425e+01    0.6150051    0.3727713  57.45  0.002616911    1.646    0.393
        27 -10.7172     90.9882     21.1765   6.9346854804e+01   5.9753607209e+01    0.6592861    0.4430963 -20.21  0.003167658    1.525    0.344
        28 -11.2674     85.1289     15.6463   6.8416733605e+01   6.1866948782e+01    0.8897433    0.5900602  -4.99  0.004187875    1.753    0.430
        29  -9.9403     50.2786      6.6876   7.6987698734e+01   7.0263377016e+01    0.2314981    0.1845469  30.57 0.0005274364    1.272    0.214
        30 -10.9807     41.0045      5.2844   8.0850697264e+01   7.2058807329e+01    0.4584818    0.2500984 -17.49  0.002069827    2.337    0.572
        31 -12.3207     48.8740     12.9717   8.1488430150e+01   6.9520209432e+01    0.7917778     0.385563  40.86  0.003663262    2.189    0.543
        32 -11.4844     35.6494     18.3241   9.1495873905e+01   7.0565633585e+01    0.6707976    0.4421252 -49.18   0.00313729    1.431    0.301
        33 -10.9754     32.7884     12.6187   9.0044937686e+01   7.2019360109e+01    0.2439648    0.2196707  79.77 0.0004699925    1.589    0.370
        34 -10.7219    242.9358     21.8253   4.5861898612e+01   2.1281725041e+01    0.9043168    0.3651402  36.04   0.00308487    4.747    0.789
        35 -11.6438    234.3653      7.1733   4.2665136208e+01   2.4561801572e+01    0.7601764      0.35237  68.68  0.003595601    2.265    0.558
        36 -12.1213    238.2167     15.5930   4.4599819671e+01   2.2920024117e+01    0.6069193    0.4662368  56.79  0.003304491    1.471    0.320
        37 -11.1758    244.5937     16.2418   4.4320708680e+01   2.1459570870e+01    0.3330807    0.2574603  11.55  0.001747914    1.538    0.350
        38 -11.8250    245.6877      7.6011   4.2069700472e+01   2.2018893726e+01    0.6748911    0.3474396 -25.70  0.003256914    1.668    0.400
        39 -10.7070    242.5022      3.5165   4.1227131571e+01   2.3073594450e+01    0.3900044    0.2188477  77.64   0.00206248    1.936    0.484
        40 -10.6105     63.9851     10.6803   7.3329381130e+01   6.7083121876e+01    0.6189241    0.3025247  36.41  0.002655802    2.283    0.562
        41 -10.0553     63.0349      6.3758   7.1156007702e+01   6.7869917732e+01    0.3541507    0.2498767   6.33  0.001318172    1.558    0.358
        42 -11.9036     68.4759     17.8734   7.5539279224e+01   6.5110472552e+01    0.5250418    0.4943019  18.72  0.002077277    1.094    0.086
        43 -11.0436      3.2634      1.7424   1.0477724919e+02   7.7133344533e+01    0.3981419    0.1976136   6.57  0.002090893    2.525    0.604
        44 -10.5470    186.4362     15.0109   4.8968761871e+01   3.5573048113e+01    0.3169686    0.2763187  52.83 0.0005131348    1.194    0.163
        45 -11.5789    192.6588      7.0621   4.5835134420e+01   3.4710293117e+01    0.8015528    0.4881401  13.03  0.003407087    2.155    0.536
        46  -9.8642    191.4966     17.0273   4.9069049319e+01   3.4057280303e+01    0.3129494    0.2743094  -8.84   0.00106927    1.192    0.161
        47 -10.2306    226.0029     15.6035   4.5513778126e+01   2.5699120155e+01    0.4140235    0.1610976 -28.53  0.001748104    2.144    0.534
        48  -9.6061    141.4709     12.3174   5.3928289796e+01   4.7916075958e+01    0.2506206    0.2127493 -22.46 0.0006514249    1.196    0.164
        49 -11.3246    211.9882      9.6510   4.4959241833e+01   2.9608901676e+01    0.5345127     0.321371   7.18  0.001474998    2.191    0.544
        50  -9.7357    169.0771      9.9385   4.9229381815e+01   4.0672491025e+01    0.3506341    0.2254345  40.58  0.001623912    1.697    0.411
        51  -9.0850    163.2354     10.0066   4.9962828684e+01   4.2241433417e+01    0.2507126    0.2192447 -89.50  0.001309924    1.147    0.128
        52  -9.1741    163.3087      5.1099   4.8200285830e+01   4.2672797988e+01    0.5701844     0.432289  85.48  0.002927217    1.333    0.250
        53  -9.8168    161.0788      1.0000   4.6973690878e+01   4.3630571156e+01    0.6539015     0.117996  61.56  0.001927128    3.877    0.742
        54 -10.1991    184.7498      6.1581   4.6288197308e+01   3.6851200938e+01    0.5222933    0.1807436 -30.09  0.001368879    2.498    0.600
        55  -9.9171    151.6715      7.4893   5.0540548339e+01   4.5617337731e+01    0.4751825    0.2321644  62.54  0.001052928    1.898    0.473
        56  -9.1540      6.6305     30.8472   1.1372127399e+02   7.0629261111e+01    0.8391518    0.3852172 -50.00   0.00433629    1.756    0.430
        57 -10.3412    175.5086      5.2314   4.6904376284e+01   3.9380795073e+01    0.4398197    0.3126009 -89.47  0.001973669    1.451    0.311
        58  -8.9322    169.9958      3.4878   4.6885711384e+01   4.1010355744e+01    0.2121191    0.1071271 -70.59 0.0008097297    2.481    0.597
        59  -9.1306     78.4999      7.4834   6.6170394692e+01   6.4418881249e+01    0.2403781    0.2019142  53.37 0.0007003669    1.243    0.195
        60 -10.6251     76.6392      3.4788   6.4489780157e+01   6.5309777584e+01    0.4627198    0.3299644  17.84  0.001961399    1.469    0.319
        61  -9.9620     72.6729      2.6919   6.5346967902e+01   6.6284691372e+01    0.4192511    0.2278856  14.61  0.001610884    2.596    0.615
        62 -11.1639    218.7936      3.2730   4.2650438263e+01   2.8533792475e+01    0.3433737    0.2925903 -18.02   0.00113879    1.190    0.160
        63 -11.4206    223.6885      1.8752   4.1940440589e+01   2.7492999919e+01    0.7825081    0.3511344 -77.31  0.003112993    2.729    0.634
        64 -11.2603    205.4689      2.7444   4.3461234428e+01   3.1838428533e+01     0.495515    0.3478452  85.43  0.001502967    1.455    0.313
        65  -9.4735    122.8582      1.3345   5.2393176839e+01   5.3970860394e+01    0.4046995    0.1254048  68.40  0.001335929    3.050    0.672
        66  -9.7671    116.9823      2.5263   5.3985748285e+01   5.5425714870e+01    0.3889313    0.3142406  18.15  0.002057857    1.279    0.218
        67 -10.1799    111.7507      2.2989   5.4889024211e+01   5.6819334557e+01    0.5437706     0.270883  79.13  0.002127616    2.454    0.592
        68 -10.7177    105.3206      1.7741   5.5963735538e+01   5.8531282641e+01    0.5577155    0.3457487 -77.67  0.001570686    2.296    0.564
        69 -10.9241    142.5603      2.8907   5.0004547538e+01   4.8511836753e+01    0.3842479    0.3229891  41.06  0.001136282    1.196    0.164
        70 -11.8142    133.4533      2.7288   5.1275227394e+01   5.0998865245e+01    0.4476263    0.3000514  61.75  0.001092649    1.405    0.288
        71  -9.9497     13.3291      1.7991   9.6726989114e+01   7.6286319154e+01    0.2625785    0.1852468   2.63  0.001209229    1.557    0.358
        72 -10.5585     82.2045      1.3289   6.1533438192e+01   6.4264037145e+01    0.2170964    0.1231136  57.24 0.0003185812    1.723    0.420
        73 -10.0585    133.2688    140.2345   9.4906005791e+01   2.8006957250e+01    0.3256667    0.2547644  38.93  0.001166961    1.198    0.165
        74  -9.5381     27.3654    140.2036   1.2205360406e+02   4.3316956555e+01    0.2153865    0.1144512  60.82 0.0007396532    1.737    0.424
        75 -11.9776     23.3230    135.7774   1.2276036766e+02   4.4671257548e+01    0.7799566    0.3310605  41.41  0.001272718    2.092    0.522
        76 -12.1620     29.9045    132.9134   1.2071959023e+02   4.4706915183e+01    0.4148536    0.2698556  88.12 0.0003108942    1.379    0.275
        77 -10.5857     80.2518    136.4370   1.0746277162e+02   3.7763729977e+01    0.4180575     0.329603  -5.20  0.001547095    1.881    0.468
        78 -11.0659     46.5263    135.1074   1.1639511924e+02   4.2475910581e+01    0.4972014    0.3136514  81.73  0.002731253    1.592    0.372
        79  -8.9660     40.6535    138.3096   1.1833952489e+02   4.2404640230e+01    0.1355819    0.0772512  63.01  0.000704482    1.705    0.414
        80  -8.9685    216.6151    135.2032   7.7249921044e+01   1.2859252742e+01    0.1783638    0.1134975 -15.13 0.0005751631    1.589    0.371
        81 -10.7776     92.9942    129.5325   1.0289518258e+02   3.7284296593e+01    0.3817131    0.2786315 -86.43  0.001985624    1.597    0.374
        82  -9.2750     87.2996    135.3331   1.0541937329e+02   3.6934462625e+01    0.1298155    0.1061876 -22.59 0.0005435158    1.650    0.394
        83 -10.3498    107.6675    145.9721   1.0205847166e+02   3.1414269253e+01    0.2537507    0.1853732  42.00 0.0005037331    1.269    0.212
        84 -10.3665     73.9799    132.7138   1.0856239178e+02   3.9496276678e+01    0.3050052    0.2271702  27.46  0.001693289    1.529    0.346
        85  -9.8638     62.7572    131.7073   1.1148865928e+02   4.1259745901e+01    0.3898639    0.2041279 -56.06   0.00189762    1.933    0.483
        86  -8.9785    103.6563    130.7174   1.0031438583e+02   3.5242939695e+01    0.1345519    0.1103909  -1.30  0.000218753    1.637    0.389
        87 -10.4788     82.6617    124.7233   1.0483597009e+02   3.9984685956e+01    0.5195273     0.375404  18.44  0.002242617    1.815    0.449
        88  -8.8216    223.7984    126.9628   7.4287703965e+01   1.2615060111e+01    0.1722013   0.09523643 -26.51 0.0003943057    1.699    0.411
        89 -10.5757     18.6713    124.1799   1.2307439577e+02   4.7694890559e+01     0.308762    0.1704862 -72.92  0.001648669    1.587    0.370
        90 -10.8145     55.9435    123.3393   1.1220395006e+02   4.4039604130e+01    0.5068818    0.3673859  11.96  0.002299628    1.905    0.475
        91 -10.6226     46.5114    121.0291   1.1463232352e+02   4.5700423277e+01    0.5720215    0.2533302  55.54  0.002467504    2.509    0.601
        92 -11.6304      9.7417     97.3677   1.2336798225e+02   5.4627695073e+01      1.19141    0.5024858  84.01  0.005356776    2.467    0.595
        93 -11.8398      7.0528     88.7801   1.2342398043e+02   5.6843901433e+01     1.039905    0.5681362   8.70  0.005578662    2.469    0.595
        94 -10.7765     17.4861    100.9519   1.2117823948e+02   5.3221740100e+01    0.4652715    0.2876632  26.48   0.00116144    1.842    0.457
        95 -11.3732     36.2378     92.4399   1.1363254879e+02   5.3603490932e+01     1.513147    0.8316793  76.02  0.002597651    2.303    0.566
        96 -11.8888      2.4273    112.0884   1.2688744235e+02   5.1650192363e+01     1.066828    0.3836018 -89.97  0.003545859    2.530    0.605
        97 -11.7769      3.8791    105.5245   1.2597076651e+02   5.3081902634e+01    0.5359494    0.3446529  70.86  0.001325737    1.382    0.277
        98 -12.1565     22.2609     95.0476   1.1886460571e+02   5.4255709045e+01    0.7278559    0.5027357  -7.92  0.002499331    2.080    0.519
        99 -12.2572     18.3708     90.2486   1.1959599052e+02   5.5717679683e+01    0.5108256    0.3491393 -38.05 0.0004571204    1.752    0.429
       100 -11.6333     28.3309    113.1373   1.1911105056e+02   4.9420341808e+01    0.8813432    0.2553782  28.87  0.003551591    3.417    0.707
       101 -10.9811     37.3447     85.8240   1.1207573863e+02   5.5087824278e+01    0.3586543    0.2509332  58.54  0.001761113    1.536    0.349
       102 -11.9605     43.0178     85.2086   1.0989522348e+02   5.4623434294e+01    0.5746383    0.4245926  18.26  0.001704481    1.658    0.397
       103 -13.0263     23.7364    110.2623   1.2020761473e+02   5.0506073695e+01     1.762276    0.8595951 -44.44  0.008296606    2.627    0.619
       104 -12.1627     18.7724    106.2150   1.2133202274e+02   5.1872276737e+01    0.2551056    0.2259897 -75.65 0.0002724026    1.144    0.126
       105 -11.7224    104.4838    121.8744   9.8342953317e+01   3.6977343638e+01    0.4448145    0.4218052 -82.96   0.00133608    1.054    0.051
       106  -9.3995     67.5687    124.0842   1.0897707357e+02   4.2340005850e+01     0.348764    0.2040958  13.94  0.001483542    2.914    0.657
       107  -9.1810    137.9806    122.9352   9.0159460823e+01   3.0402639400e+01    0.2273785    0.1738857   9.11  0.001115869    1.681    0.405
       108  -9.4242     22.7999    126.8264   1.2213533406e+02   4.6739458276e+01    0.2064009    0.1135559  52.58 0.0006774583    1.681    0.405
       109  -9.3860    148.1832    120.0366   8.7135359056e+01   2.8881918277e+01    0.2254867    0.1894901   1.29 0.0005707057    1.350    0.259
       110 -10.7152     33.4444    119.4929   1.1830236299e+02   4.7445097573e+01    0.2961631    0.2169616  67.12  0.001351005    1.265    0.209
       111  -9.5145     81.9846    102.8037   1.0065624585e+02   4.5055604937e+01    0.2100947    0.2007564 -63.87 0.0004722963    1.071    0.066
       112  -9.3108     81.5424    117.4643   1.0380772051e+02   4.1788647083e+01    0.1938572    0.1313544 -75.29  0.000521475    1.608    0.378
       113 -10.7371     90.4597    103.2997   9.8225015866e+01   4.3519821869e+01    0.4400302    0.3905683  68.27  0.001582045    1.137    0.120
       114 -11.3371     79.4954    108.4063   1.0260770268e+02   4.4171483888e+01    0.6333089    0.4294975  48.80  0.002425067    1.481    0.325
       115 -10.3104     85.7552    104.3374   9.9859782954e+01   4.4084787590e+01    0.3906963     0.256936 -38.85  0.001579965    1.777    0.437
       116  -9.8074    113.2963    115.9753   9.4741244679e+01   3.6614515015e+01     0.260246    0.2079075  33.98 0.0003719933    1.298    0.229
       117  -9.6255     67.4880    113.9981   1.0728474698e+02   4.4670458254e+01     0.365319    0.2417162  75.86   0.00180402    1.786    0.440
       118  -9.8975     66.8121    110.6163   1.0687354058e+02   4.5551249879e+01    0.3167278      0.19988  40.85   0.00160564    1.590    0.371
       119  -9.5010     94.0186    111.7447   9.9078012727e+01   4.1019294437e+01    0.4118568    0.2327611  41.73  0.001871625    1.748    0.428
       120 -10.8685    107.4535    111.5888   9.5310133160e+01   3.8640657219e+01    0.6874859     0.406859 -69.48  0.002441967    2.347    0.574
       121 -10.7163    101.7316    109.5477   9.6419450213e+01   4.0135116823e+01    0.4724199     0.347012  36.05  0.002018022    1.416    0.294
       122  -9.7356    103.1280    106.1161   9.5233387902e+01   4.0625720088e+01    0.2691198    0.2492867 -57.44 0.0003977349    1.082    0.076
       123  -8.8807    126.6681    113.6987   9.0780571838e+01   3.4482605317e+01    0.1463076     0.115526   4.78 0.0007033967    1.651    0.394
       124 -11.0800    170.7780    110.3475   7.9919935200e+01   2.5827589903e+01    0.4868694    0.3776094  25.55  0.001815786    1.349    0.259
       125  -9.7116     49.0613    112.1423   1.1258207270e+02   4.7486490281e+01    0.2705438    0.1741198  42.16  0.001117462    1.554    0.357
       126 -10.1031    130.2311    109.9934   8.9000768178e+01   3.4503998156e+01    0.2831455    0.1897535  31.60  0.001300407    1.662    0.398
       127  -9.8425    120.4736    108.9799   9.1234657907e+01   3.6680245989e+01    0.3608103    0.2604078  -8.56  0.001610159    2.113    0.527
       128  -9.4345     58.4868    108.2365   1.0901037490e+02   4.7238146893e+01    0.2387812    0.1264091 -70.90 0.0006314289    1.889    0.471
       129 -10.4524    157.6581    106.3361   8.1677399587e+01   2.9370526078e+01    0.3937244    0.2824211  -7.70  0.001421537    1.805    0.446
       130  -9.3586    150.2932    108.3241   8.3818842210e+01   3.0603848872e+01    0.1488053    0.1146976   6.07  0.000275756    1.617    0.382
       131 -10.7499    143.6231    106.1193   8.4797406578e+01   3.2447504359e+01    0.3228675    0.2954347  56.08  0.001125014    1.119    0.107
       132 -11.6085    145.6913    100.3314   8.2811991629e+01   3.3088859114e+01    0.5026788    0.4685873  -3.49  0.001066858    1.104    0.094
       133  -9.4911     48.0000     90.4709   1.0916284159e+02   5.2780618862e+01    0.3299122    0.1571961 -57.32  0.001496173    1.869    0.465
       134  -9.3723     52.0133     87.9692   1.0724600517e+02   5.2888770413e+01    0.2111778      0.18028 -67.72   0.00051026    1.063    0.059
       135 -10.3887     52.0276     98.3066   1.0928977774e+02   5.0415194737e+01    0.7523767    0.1972962 -54.95  0.002616344    3.278    0.695
       136  -9.5007     50.7822     91.9785   1.0849519695e+02   5.2082187818e+01    0.3275999    0.2014186 -59.57 0.0009852364    1.474    0.321
       137  -9.3078     45.6854    105.6980   1.1263544431e+02   4.9404520314e+01    0.2144454     0.167135 -62.84 0.0005568918    1.218    0.179
       138  -9.3834     47.7244    103.3054   1.1158654612e+02   4.9739399846e+01     0.176951    0.1683128  50.03 0.0002319032    1.169    0.145
       139 -10.0419     57.5189    102.5050   1.0827664293e+02   4.8718756745e+01    0.3519889    0.2213337 -63.49  0.001227709    1.471    0.320
       140 -10.3080     57.7925     97.4787   1.0722011878e+02   4.9875676674e+01    0.4089723    0.2513982  37.63  0.002058208    1.695    0.410
       141  -9.8503     60.7308    100.6656   1.0688796140e+02   4.8727511198e+01    0.2342357    0.1577053  73.97 0.0006271509    1.753    0.430
       142 -10.2901     64.3123     99.1970   1.0543468707e+02   4.8579990581e+01    0.2755388    0.2447395  10.03 0.0006012047    1.369    0.269
       143 -10.4694     68.6453     95.4449   1.0322759021e+02   4.8836487464e+01     0.396207    0.3581578  14.06  0.001852117    1.305    0.233
       144  -9.3859    120.8105    101.1988   8.9205682381e+01   3.8215131868e+01    0.2055701    0.1793007   0.99 0.0009287298    1.342    0.255
       145 -11.1226     90.0096     89.2901   9.4906588569e+01   4.6741316566e+01    0.7653361    0.4395963 -33.23  0.002875403    2.330    0.571
       146 -12.1710     77.9770     97.0648   1.0060045716e+02   4.7021122543e+01    0.3644745    0.3151697  86.66  0.000385284    1.188    0.158
       147 -11.1942     81.2221     93.1077   9.8635775377e+01   4.7400271408e+01    0.7456939    0.3946806  47.65  0.003234545    1.991    0.498
       148 -10.0453    210.6671     97.8479   6.9527080699e+01   1.9168836403e+01    0.2999057    0.2432419  32.70 0.0009645363    1.238    0.193
       149  -9.4933    140.9118     96.3474   8.2870257812e+01   3.4892249888e+01    0.4371221    0.2213192  40.78  0.001726819    2.064    0.516
       150  -9.5903    138.2267     93.2173   8.2658095075e+01   3.6082887875e+01    0.3737233    0.2364065  32.09  0.001377181    1.853    0.460
       151 -10.9519    120.3125     85.1947   8.4954096484e+01   4.1586467831e+01    0.3791117    0.3071565  49.30  0.001551238    1.244    0.196
       152 -10.2670    117.5982     93.1190   8.7922175506e+01   4.0542832062e+01    0.4527366    0.2974875  35.85   0.00127221    1.646    0.392
       153 -10.4736    121.1143     89.1987   8.5887800719e+01   4.0604891841e+01    0.4567353    0.2786096  38.77  0.001844863    1.735    0.424
       154 -10.3861    122.3018     93.9567   8.6893511042e+01   3.9386984724e+01    0.3077518    0.2820914  41.59 0.0009064151    1.092    0.085
       155 -10.1301    126.3387     93.1503   8.5617545978e+01   3.8691050748e+01    0.3676398    0.3189843  73.60 0.0009379685    1.283    0.221
       156 -12.9017    101.8704     90.1779   9.1559151793e+01   4.4326970996e+01    0.4606727    0.4008743 -27.96 0.0005381911    1.259    0.206
       157 -11.1586    113.5250     84.2089   8.6529474976e+01   4.3232873945e+01    0.6894564    0.3825112 -36.60   0.00214849    1.948    0.487
       158 -11.1033    109.0371     80.7754   8.6790639232e+01   4.4881760125e+01    0.4697323    0.3870577  24.14  0.001131622    1.378    0.274
       159 -10.3273    104.9912     76.5317   8.6686670882e+01   4.6602620907e+01    0.4288704    0.4109949   3.62  0.002376287    1.101    0.092
       160  -9.7369    158.8885     92.7762   7.7812292599e+01   3.1500642347e+01    0.6048405    0.3013478  70.40  0.001704037    4.893    0.796
       161 -10.2133    152.2842     91.5198   7.8911838817e+01   3.3232123656e+01    0.4477703    0.3045684 -58.08  0.001987163    1.827    0.453
       162  -8.9991    246.3893     90.2091   6.2584418104e+01   1.2946840939e+01    0.1829869     0.103608 -33.23 0.0003493135    1.572    0.364
       163  -9.7421     66.9841     88.3291   1.0215195910e+02   5.0750934760e+01    0.3137743    0.2174052 -32.63  0.001117934    1.803    0.445
       164 -10.1840     66.1849     74.1477   9.8791615671e+01   5.4173721903e+01    0.4244734    0.2858178   4.54    0.0018896    2.394    0.582
       165  -9.8810     60.4819     83.2931   1.0320181588e+02   5.2874447763e+01    0.2823833    0.2591486 -33.34 0.0007205437    1.199    0.166
       166 -10.4400     58.3046     78.0907   1.0270684032e+02   5.4405086212e+01     0.346987    0.2972688  72.65 0.0009424119    1.252    0.201
       167 -12.9540     52.6114     73.8147   1.0374894702e+02   5.6181993595e+01     0.568788    0.3129734 -65.38 0.0009530073    1.770    0.435
       168 -10.8628     46.9349     74.2706   1.0603476113e+02   5.6789819688e+01    0.3405595    0.2114188 -68.16            0    1.527    0.345
       169 -10.7211     66.9155     82.0082   1.0062347225e+02   5.2239365926e+01    0.4291048    0.3590797  24.07  0.002391994    1.370    0.270
       170 -10.9108     80.1874     83.8180   9.6593835878e+01   4.9693475787e+01    0.5624234    0.4931954  79.00   0.00312244    1.223    0.182
       171 -11.5273     73.3021     78.0022   9.7337900793e+01   5.2163950530e+01    0.6404689    0.6092659 -23.67  0.003762413    1.138    0.122
       172  -8.7547    211.4910     88.4642   6.7011874713e+01   2.0298119491e+01    0.1413374    0.1272842  -4.16 0.0001460834    1.030    0.029
       173  -8.9085    200.4768     88.4791   6.8772868300e+01   2.2716151630e+01    0.1428133    0.1329015 -12.28 0.0004102638    1.024    0.023
       174 -10.3492    183.6477     85.4005   7.0858407474e+01   2.7004200937e+01    0.7545566    0.2685368 -43.19  0.002515992    3.070    0.674
       175  -8.8910    135.2904     86.3536   8.1431009192e+01   3.8051811146e+01    0.2668882    0.1231494  39.42 0.0008476239    2.450    0.592
       176 -11.2091    143.0564     83.8584   7.8833018904e+01   3.6747575181e+01    0.4065739    0.3980986  61.80  0.001318109    1.053    0.051
       177 -10.3362    165.6871     83.4660   7.3768242170e+01   3.1518473373e+01    0.4057889    0.3538972 -62.94  0.001523853    1.302    0.232
       178 -10.7509    127.4122     82.8575   8.2393373650e+01   4.0493362249e+01    0.4141961    0.3220276 -46.23  0.001680508    1.293    0.227
       179 -10.2335    232.5234     77.4576   6.1230603056e+01   1.7266770454e+01    0.4796065    0.2323777 -33.94  0.002194204    1.819    0.450
       180 -11.8594     14.0152     74.7474   1.1907527650e+02   5.9772161484e+01    0.5249124    0.4075739 -60.09  0.001889053    1.181    0.153
       181 -10.1917     14.4321     67.3128   1.1773190153e+02   6.1538218934e+01    0.3108414    0.2849723  -6.84  0.001896524    1.326    0.246
       182  -9.4980    170.4809     77.7923   7.1172316878e+01   3.1310987468e+01    0.2687507    0.2122504  52.48  0.000735469    1.289    0.224
       183 -10.2018    142.9608    249.3403   1.0822283998e+02   9.7653215334e+00    0.1583615    0.1018157  37.02  0.001168844    1.106    0.095
       184 -10.1099     85.4633     67.5871   9.0039038433e+01   5.2352825043e+01    0.4867793    0.3441034 -82.45  0.001260368    2.096    0.523
       185 -10.2858     98.9672     61.7245   8.3670772372e+01   5.0886278290e+01    0.4732535    0.3074188 -21.23  0.001783747    2.048    0.512
       186 -10.4147     93.8935     76.4815   9.0067920818e+01   4.8832791454e+01    0.4958442    0.4037357  33.39  0.001734448    1.322    0.243
       187 -11.6532     85.5253     73.6127   9.1907842329e+01   5.1032428474e+01    0.7275966    0.5235777  48.87  0.003058695    1.468    0.319
       188 -10.7271     79.2378     67.4339   9.2128463507e+01   5.3523129942e+01    0.5221163    0.4303019  70.38  0.002298542    1.424    0.298
       189 -11.0093     91.3431     62.9007   8.6519753536e+01   5.2206429179e+01    0.3990561    0.3757857  78.09  0.001032852    1.147    0.128
       190 -11.6682     89.5147     57.5265   8.5240095974e+01   5.3672525699e+01    0.6892222    0.6203955  67.96  0.002768517    1.234    0.190
       191  -8.9443     33.1947     77.8117   1.1210776144e+02   5.7442934552e+01    0.1806749    0.1424588 -42.09  0.001062877    1.353    0.261
       192 -10.3314     53.3484     49.3085   9.6066888868e+01   6.1700125917e+01    0.7579133    0.4850096  84.93  0.003039871    3.194    0.687
       193  -9.8302     22.9364     36.9100   1.0642370556e+02   6.8051592349e+01    0.6119581    0.2740183  43.15  0.002753844    2.841    0.648
       194 -11.8183     22.6219     47.1816   1.0966127251e+02   6.5716823016e+01     1.402417    0.6871041  -2.22  0.004552148    3.620    0.724
       195 -11.7508      1.9842     71.5032   1.2342277777e+02   6.1259223582e+01    0.6726287    0.1670254 -73.84   0.00261657    3.004    0.667
       196 -11.1775     32.9436     58.7833   1.0793699622e+02   6.2028531195e+01    0.4260091    0.2751466 -25.65 0.0003419101    1.973    0.493
       197 -11.9741     25.6394     55.5166   1.1038938056e+02   6.3494320549e+01     1.408447    0.7308476  13.82   0.00672903    2.550    0.608
       198 -11.3923     40.2056     56.3402   1.0407393213e+02   6.1815053668e+01    0.6000095    0.3990659  59.80  0.003057036    1.941    0.485
       199 -11.0712     57.8285     62.1390   9.8451181606e+01   5.8176750505e+01    0.7646905    0.5611137  68.37   0.00389813    1.760    0.432
       200 -11.3878     46.6982     49.1075   9.8914693269e+01   6.2664091842e+01    0.4745063    0.3897058  -2.39  0.001620998    1.429    0.300
       201 -12.0684     41.9464     45.3608   9.9791040290e+01   6.4110232048e+01    0.5391932    0.4165908  25.76 0.0004723185    1.463    0.316
       202 -11.7280     50.8036     61.0614   1.0096158504e+02   5.9402089903e+01    0.4626279    0.3438104  88.72 0.0007883551    1.691    0.409
       203 -11.4794     46.1120     58.1955   1.0206905660e+02   6.0671631791e+01    0.6327525    0.3123892 -61.66  0.002420799    1.928    0.481
       204 -12.1476      5.1072     62.9511   1.2100670215e+02   6.3149499109e+01    0.5545485     0.323328 -61.14  0.002648265    1.418    0.295
       205 -11.0847     10.1018     62.7160   1.1881096722e+02   6.2922977720e+01    0.2805197    0.2370545 -38.71 0.0007231797    1.295    0.228
       206  -9.0790    242.6554     76.3169   5.9688872643e+01   1.5336109410e+01    0.1349282   0.09317923 -52.80 0.0007048561    1.719    0.418
       207 -11.9705    186.5771     70.5696   6.6145553564e+01   2.8557413946e+01    0.9162716    0.6217913 -32.86  0.003366298    1.403    0.287
       208  -9.8344    184.3365     61.5346   6.3856573519e+01   3.0411502734e+01    0.3339243     0.225733 -33.05 0.0007353002    1.406    0.289
       209 -11.7709     40.8350     70.7493   1.0758689045e+02   5.8341462565e+01    0.5538825    0.2792469 -54.77  0.002612801    1.728    0.421
       210 -11.3921     32.2924     71.9375   1.1127358688e+02   5.8948777890e+01    0.5671781      0.28379  28.80  0.002738787    2.229    0.551
       211  -8.9404    151.1790     73.5952   7.3893062115e+01   3.6658746931e+01    0.2246639    0.1368795  41.95 0.0006872168    1.716    0.417
       212  -8.7969    115.1651     69.1713   8.1408138336e+01   4.5902147756e+01    0.4762631    0.3408511  19.12  0.002106717    1.868    0.465
       213 -10.4372    123.5996     73.1288   8.0397238118e+01   4.3237479470e+01    0.4385943    0.3221752 -85.65  0.001362127    1.984    0.496
       214 -11.5026    123.9327     68.4909   7.8808252555e+01   4.4043054620e+01    0.4161533    0.3769585 -74.66  0.001161098    1.218    0.179
       215 -10.8931    120.2908     68.6694   7.9836471649e+01   4.4844437599e+01    0.3738546    0.2935616 -71.57   0.00121911    1.580    0.367
       216  -9.3016     61.1995     73.1163   1.0033601554e+02   5.5157819855e+01    0.1875561    0.1575271  73.91 0.0004184534    1.329    0.247
       217  -9.7406    162.2715     70.8854   7.0729062329e+01   3.4416697388e+01    0.2851828    0.2565424 -81.96  0.001232128    1.260    0.207
       218 -10.6050    171.7917     66.6849   6.7606876445e+01   3.2742175883e+01    0.6252671    0.3145551 -41.21  0.002493238    1.978    0.494
       219 -11.4653    219.8676     66.4574   6.0022292593e+01   2.1378107601e+01    0.6525673    0.3699013  52.46  0.002377531    1.857    0.461
       220  -9.0438    208.0688     68.4675   6.2191958945e+01   2.3789823754e+01    0.2105052    0.1400618  56.06  0.001027206    1.590    0.371
       221  -8.9460     69.9909     67.0029   9.5307407877e+01   5.5197651812e+01      0.17621     0.149566 -52.69 0.0004079923    1.099    0.090
       222 -10.3096     21.4445     65.5885   1.1446049786e+02   6.1437331857e+01    0.3299443    0.2094058  71.83  0.001093528    1.850    0.460
       223 -10.4793     25.9183     65.3513   1.1251422136e+02   6.1121586433e+01    0.2257106    0.1727922 -63.43 0.0003693809    1.113    0.102
       224  -9.8509    192.5630     65.6272   6.3733661530e+01   2.7829851443e+01    0.2738757    0.2420448 -64.05 0.0008213499    1.255    0.203
       225 -10.0717    106.3306     63.7325   8.2124071090e+01   4.8913472305e+01    0.3765461    0.2794744 -31.18  0.001804431    1.396    0.284
       226  -9.4390    198.1044     62.8152   6.2068929047e+01   2.6890734978e+01    0.2336183    0.1890612 -53.00 0.0007420943    1.322    0.244
       227 -10.6945    159.3905     61.6990   6.8426091641e+01   3.6602231992e+01    0.5980667      0.41359  13.11  0.002538928    1.937    0.484
       228 -11.0706    157.5738     55.4081   6.6736102674e+01   3.8038189378e+01    0.5415854    0.5127284 -80.38  0.002620957    1.123    0.110
       229 -10.8006    155.2447     49.4534   6.5192175362e+01   3.9531612066e+01    0.4750374    0.3185764 -13.57 0.0006596973    1.711    0.415
       230  -9.3954    174.8171    246.5964   1.0261386291e+02   5.8617884969e+00    0.1568734   0.07307466  42.53 0.0009624917    1.742    0.426
       231 -11.3879    113.5174     49.4761   7.4901044298e+01   4.9941346724e+01    0.5925093    0.3855288  25.47  0.002109621    2.031    0.508
       232 -12.5490    117.5886     43.1507   7.1368683018e+01   5.0036227764e+01     1.027141    0.6830432  86.16  0.003942046    2.330    0.571
       233  -9.6429    199.0432    244.5388   9.8451713470e+01   2.8836256643e+00    0.1641774    0.0752195  37.13  0.001032692    1.614    0.380
       234 -11.4183    114.1539     38.7252   7.0510050164e+01   5.1586368339e+01    0.5595608    0.2519964 -25.69  0.001607317    2.525    0.604
       235  -9.5265    147.2540     60.8690   7.0679978937e+01   3.9768777570e+01    0.3586306    0.2012007  54.74  0.001293284    1.788    0.441
       236 -10.7279    127.4856    241.5065   1.1012552816e+02   1.2755725632e+01    0.1588798    0.1329606  58.01  0.001298362    1.309    0.236
       237 -10.8362    136.4512     56.4314   7.1607569097e+01   4.3190085849e+01    0.8795127    0.6041215   8.99   0.00367657    2.069    0.517
       238 -10.8505    134.3353     50.3458   6.9947262175e+01   4.4719952152e+01    0.4324449    0.3203102 -65.88  0.001968126    1.681    0.405
       239  -9.2984    141.7892     40.6230   6.4763357949e+01   4.4309963706e+01    0.4871128    0.2962604  68.88   0.00155436    1.832    0.454
       240 -11.5654    146.0504     47.1753   6.6244008233e+01   4.2238997405e+01    0.9714043    0.4335013 -23.07  0.003393827    2.608    0.617
       241 -10.5640    146.2917     43.3159   6.4820212706e+01   4.2749853893e+01    0.3585197    0.2501887  43.49 0.0004147886    1.476    0.322
       242 -10.0075    105.1203     56.6057   7.9967169981e+01   5.0558289690e+01    0.6152015    0.3253401 -42.45  0.002521956    1.846    0.458
       243 -10.3162    244.7318     50.9956   5.3138368604e+01   1.7836224682e+01    0.2331626    0.2152582 -19.48 0.0009298067    1.071    0.066
       244 -11.1208    240.3318     50.3296   5.3411784537e+01   1.8837923430e+01    0.3148339    0.2847102 -23.29 0.0004672016    1.038    0.037
       245  -9.7192    188.0825     55.2080   6.1355651707e+01   3.0368622801e+01    0.2820343    0.1932247  54.45  0.001134289    1.492    0.330
       246  -9.6258      2.1384     56.3964   1.2134485019e+02   6.4864952730e+01    0.1855168    0.1628506 -43.30  0.000844302    1.240    0.194
       247  -9.9036     66.9653     54.4451   9.2303361968e+01   5.8463270681e+01    0.3185906    0.1946305 -63.25  0.001048488    1.945    0.486
       248 -10.2050     68.4388     32.8053   8.2967080506e+01   6.2567123580e+01    0.4735374    0.3373058  40.05  0.002449187    1.483    0.326
       249  -8.9973    163.5370    243.4967   1.0414099703e+02   7.6985102047e+00    0.1070307   0.07706988  33.62 0.0001347183    1.027    0.027
       250  -9.3329     68.2005    240.5813   1.2051526513e+02   2.0274718652e+01    0.1401829   0.08065225  31.55 0.0009401589    1.660    0.398
       251 -11.4763     48.0376     30.7493   9.1059779357e+01   6.6384582272e+01     0.704015    0.2964408  32.42     0.002716    2.802    0.643
       252 -11.4221     60.7067     35.7730   8.7521126800e+01   6.3374573798e+01    0.5215089    0.2442214 -40.56  0.002209734    2.002    0.501
       253 -11.5145     57.2254     31.4623   8.7114374220e+01   6.4798063434e+01    0.3725084    0.3238516 -28.68  0.001626598    1.049    0.047
       254  -8.9595      6.9553     54.9449   1.1889723998e+02   6.4965682427e+01      0.14107    0.1207173 -68.24            0    1.054    0.051
       255 -10.2578    210.9324     53.0534   5.7508884847e+01   2.5116184139e+01    0.3537413     0.216194  68.83  0.001088146    1.850    0.460
       256 -11.1505    201.4453     46.6030   5.6885917975e+01   2.8195408847e+01    0.6927894    0.4405271 -48.23  0.003264314    1.619    0.382
       257 -10.7721    174.0424     48.0373   6.1360589586e+01   3.4893508655e+01    0.5605747     0.429463 -87.42  0.002708808    1.556    0.357
       258  -9.6047    176.2980     43.5420   5.9549157404e+01   3.4918024240e+01    0.3106424    0.2326367 -87.97   0.00123416    1.581    0.368
       259 -10.1044     90.8096     47.6129   8.1070215288e+01   5.5353938090e+01    0.3167579    0.2451854 -41.47 0.0009682124    1.248    0.199
       260  -9.7587      2.5457     48.6701   1.1989047638e+02   6.6682357719e+01    0.2558453    0.2431309  33.45  0.001777428    1.284    0.221
       261  -8.8734      2.6889     44.6779   1.1908653977e+02   6.7618646217e+01    0.1793817    0.1129971 -10.96  0.001032908    1.992    0.498
       262  -9.3667      5.9936     43.2298   1.1709957411e+02   6.7793124343e+01    0.4565556    0.2186852 -87.98  0.002122018    2.392    0.582
       263  -9.6037    208.6386     46.8965   5.6051486669e+01   2.6419008841e+01    0.3165982    0.1975586 -62.39  0.001430012    1.987    0.497
       264  -9.6836    195.2614     46.8682   5.7796574342e+01   2.9684651982e+01    0.4736387    0.2372368 -86.57  0.001504967    4.117    0.757
       265 -10.0038     14.4730     46.0223   1.1341457886e+02   6.6616637440e+01    0.3334854    0.1654518 -32.92  0.001438342    2.398    0.583
       266  -9.8608     17.8609     41.7706   1.1057779920e+02   6.7361300608e+01    0.5528353    0.2335399 -36.84  0.002369317    2.766    0.638
       267  -8.9965    219.3102     45.6556   5.4431748548e+01   2.4051353377e+01    0.1496933   0.09451973 -52.79 0.0007045189    1.701    0.412
       268 -10.2819    162.7160     44.0404   6.1971404535e+01   3.8372660275e+01    0.2789548    0.2578292 -81.81 0.0008193344    1.146    0.127
       269 -10.5196    140.0456     43.7405   6.6273901100e+01   4.4300392357e+01    0.6445947    0.2759349  55.97  0.001561517    2.267    0.559
       270  -9.7056    101.3786     44.1672   7.6337460831e+01   5.3679270406e+01    0.3682939    0.2251511 -56.05  0.001527138    2.077    0.519
       271 -10.3531     97.5387     41.5343   7.6445051795e+01   5.5005649573e+01    0.4131683    0.3527843  25.59   0.00124223    1.234    0.189
       272 -10.7272     93.5022     41.0000   7.7503964009e+01   5.5992014514e+01    0.4810462    0.2908705  42.44  0.002036339    1.718    0.418
       273 -11.4823    156.0413     41.8401   6.2417372443e+01   4.0419918696e+01    0.4419307    0.3818337 -28.25  0.001151101    1.143    0.125
       274 -11.0038    153.0938     36.1050   6.0927960638e+01   4.1976810796e+01     0.334406    0.2876454 -46.24 0.0004385746    1.178    0.151
       275 -10.6773    189.0948     41.2341   5.6932639481e+01   3.1939581976e+01    0.6331103    0.2572016 -18.94 0.0009992729    2.823    0.646
       276  -9.5349    193.4541     39.1355   5.5698632361e+01   3.1095900258e+01    0.2354924    0.1887258  49.89 0.0003707098    1.303    0.232
       277  -9.7613     86.4745     30.9517   7.5435578550e+01   5.9250378829e+01    0.5738456    0.2458051 -25.57  0.001977549    3.006    0.667
       278 -10.4919     80.9163     39.8490   8.1316364506e+01   5.8844268610e+01    0.6265408     0.449294  47.54  0.003140797    1.475    0.322
       279 -10.7671     77.4973     34.2519   8.0118533548e+01   6.0553087218e+01    0.4558094    0.2980212  51.91  0.001082827    1.684    0.406
       280 -10.6332     82.1234     31.6811   7.7273912706e+01   6.0055345526e+01    0.4474153    0.3025246 -58.08  0.002057794    1.916    0.478
       281 -10.6838    231.0376     38.7827   5.1323682616e+01   2.2153590290e+01    0.5587868    0.2859674 -59.44  0.001954252    2.488    0.598
       282 -10.0609    172.0103     32.9993   5.6735668192e+01   3.7377020600e+01    0.6688958    0.3105032 -57.85  0.002252663    3.166    0.684
       283 -10.8605    176.9343     36.3962   5.7130555675e+01   3.5668694525e+01    0.4890898    0.3702509  17.09   0.00144675    1.545    0.353
       284  -9.7571    182.3896     32.2079   5.5000760975e+01   3.4757698192e+01    0.2312012    0.2045794  33.08 0.0006011984    1.201    0.167
       285  -9.5029    133.1028     36.9322   6.5225881345e+01   4.7093012763e+01    0.4313926    0.2472589 -59.75  0.001627528    2.483    0.597
       286  -9.8908    206.8673     36.9971   5.3404141326e+01   2.8020904157e+01    0.2289619    0.2121656  74.74 0.0007243844    1.147    0.128
       287  -9.9867    150.5835    237.2193   1.0566116658e+02   1.0177583573e+01    0.1819511    0.1289342  -2.56  0.001256814    1.943    0.485
       288 -12.1361    106.0184     20.1691   6.4616672784e+01   5.6289740225e+01    0.3605269    0.2749731 -31.66 0.0003846033    1.304    0.233
       289 -12.1744    105.6803     33.0149   7.0435928069e+01   5.4529955874e+01    0.6783233    0.3912638  19.42  0.002323397    2.882    0.653
       290  -9.4730    167.5034    237.5160   1.0279163470e+02   7.8297988948e+00    0.1089008   0.07926287  32.51 0.0008103698    1.022    0.021
       291  -9.0402     94.0601     36.0199   7.5208445365e+01   5.6732236073e+01    0.2223926    0.1791493 -76.08 0.0006138866    1.631    0.387
       292  -9.6809    143.5746    235.7728   1.0672717495e+02   1.1311854077e+01    0.1204537    0.1041839 -86.76 0.0009501868    1.665    0.399
       293 -10.9715    198.3223    232.8679   9.7088420067e+01   4.1244180918e+00    0.2621657    0.2263584  44.91  0.002114997    1.585    0.369
       294  -9.5642     23.3881    231.7783   1.2797368431e+02   2.6344937167e+01    0.1712655   0.09010007  47.59 0.0008352292    1.311    0.238
       295 -11.0099     13.9879     23.3997   1.0681917276e+02   7.1803962572e+01    0.5582739    0.3496864  35.07  0.003215593    1.907    0.476
       296  -9.9351    247.4743    231.1029   8.9254343009e+01  -2.0821639703e+00     0.135529   0.08391301 -13.23 0.0007473597    1.564    0.361
       297  -9.3379    108.2183    229.9927   1.1249701507e+02   1.6853108734e+01    0.1160609   0.08961566 -66.93 0.0005713346    1.678    0.404
       298 -10.9693    240.8077     31.7717   4.8588861677e+01   2.0742131705e+01    0.6475851    0.3470665 -25.49  0.003213085    1.620    0.383
       299  -9.8363    248.8757     33.3161   4.8308362273e+01   1.8859249060e+01    0.2508141     0.147022 -34.46  0.001332951    1.421    0.296
       300  -9.8815     15.0335    233.6270   1.2948278970e+02   2.6836156838e+01    0.1770265    0.1175559  75.89  0.001079855    1.319    0.242
       301  -9.7784    234.3508    222.9317   9.0031053496e+01   2.7440969380e-01    0.1478417    0.1047208  10.72 0.0005481328    1.098    0.089
       302  -9.6155      9.8449    217.8111   1.2991904108e+02   2.9848113979e+01    0.1448519   0.07911073  59.33 0.0005349447    1.303    0.233
       303 -10.1919    165.2974    212.4753   1.0005004545e+02   1.1153609603e+01    0.2644063    0.1478302  48.53  0.001036754    1.797    0.444
       304  -9.6175    153.0544    207.8388   1.0168102806e+02   1.3601174487e+01    0.1801975    0.1363181  47.75 0.0009698145    1.280    0.219
       305  -9.4719     61.0235    207.0103   1.1961520614e+02   2.6429299239e+01    0.1717006    0.1246422  55.91  0.000454131    1.066    0.062
       306 -10.5285      4.4288    204.5221   1.3052425631e+02   3.2581913973e+01     0.407976     0.114684 -70.17  0.002093069    3.659    0.727
       307  -9.3755    216.4376     32.4173   5.1044807247e+01   2.6228106368e+01    0.2508684    0.1555437  12.26 0.0009506129    2.186    0.543
       308 -12.3853      5.0772    185.3236   1.2978321809e+02   3.6011305854e+01    0.8008763    0.3946849  78.46  0.004950781    1.708    0.415
       309 -10.5340    245.4823    200.9527   8.4968316040e+01   8.1722441328e-01      0.17143    0.1161456  24.15 0.0006725583    1.174    0.148
       310  -8.7548    207.4759    201.4478   9.1074413346e+01   6.1758292473e+00    0.1169403   0.08821793  19.93 0.0005127153    1.025    0.024
       311  -9.9975    233.7337    197.4101   8.6184638049e+01   2.7892817793e+00    0.2267896    0.1604058 -12.72  0.001249225    1.348    0.258
       312 -10.2457    176.6933     29.8697   5.5018857294e+01   3.6520975664e+01    0.4212986    0.2569347  46.58  0.001355971    1.722    0.419
       313 -11.4797    183.2533     25.1006   5.2592994776e+01   3.5346137405e+01    0.6912748    0.3453525  50.79  0.002871034    2.054    0.513
       314 -11.8210    124.5155     27.8043   6.3494150075e+01   5.0586503676e+01     0.680187    0.4961635  43.44  0.001640519    1.376    0.273
       315  -9.5385    238.5229    204.4751   8.6585365559e+01   1.4298444083e+00    0.2021635   0.09614834 -25.32  0.001206311    2.154    0.536
       316  -9.5905    221.5417     29.4317   4.9703079656e+01   2.5343918144e+01    0.2371885     0.204205 -27.15 0.0005510859    1.075    0.070
       317  -9.5401     99.2496     30.2001   7.1054415623e+01   5.6488075262e+01     0.378858    0.2532431 -88.42   0.00154061    2.550    0.608
       318  -9.1677     97.5095     26.4963   6.9891729962e+01   5.7458635310e+01    0.2237383    0.1794869 -59.94 0.0007245908    1.487    0.328
       319 -10.1633    230.6782     27.4204   4.8318756338e+01   2.3444593579e+01    0.4102219     0.195469 -30.85  0.001492565    1.771    0.435
       320  -9.4052     41.1451     28.1837   9.3334000386e+01   6.7881388521e+01    0.3610196    0.1367237 -37.47  0.001340512    2.972    0.663
       321 -10.1060    250.5277     26.5063   4.6475982467e+01   1.9199599744e+01    0.3028687    0.1005897 -26.70 0.0006070237    2.399    0.583
       322  -9.7094    205.2161     17.3909   4.7808701553e+01   3.0539089243e+01    0.2850293     0.147855 -65.70 0.0008167636    2.351    0.575
       323 -10.7400    214.2561     23.5535   4.8744325459e+01   2.7694919302e+01    0.4690159    0.3390434  -2.37  0.002239218    1.549    0.354
       324 -10.5431    211.3456     18.8338   4.7660483173e+01   2.8882279286e+01    0.3552363    0.2193133  60.54 0.0003039123    1.686    0.407
       325  -9.7539    161.5799     23.2998   5.4941535083e+01   4.1297124916e+01    0.2621561    0.1953175 -26.61 0.0002657716    1.328    0.247
       326  -8.8597     83.5328    195.9790   1.1409433924e+02   2.5528215011e+01    0.1487477    0.1116156 -74.99 0.0005077639    1.500    0.333
       327  -9.1217    141.2292    194.9865   1.0221536005e+02   1.7269097465e+01    0.1349593    0.1026355 -48.12 0.0005095621    1.605    0.377
       328 -10.0072    169.7922    191.3949   9.6191791204e+01   1.3266698065e+01    0.3201775    0.1504591  30.27  0.001091151    2.113    0.527
       329  -9.4967    223.0433     22.4913   4.7646293250e+01   2.5711649696e+01    0.2260553    0.2120835 -33.33 0.0004575615    1.050    0.048
       330  -8.8433    220.7483     19.3297   4.6968987379e+01   2.6569632794e+01    0.1839015    0.1359121  85.80 0.0001571124    1.460    0.315
       331  -9.6393    239.8687    184.6584   8.3089176060e+01   3.2071518368e+00       0.1896    0.1285582  -2.24 0.0006342707    1.291    0.225
       332  -9.9453    213.6646    180.9576   8.6648487621e+01   7.5876775923e+00    0.2341151    0.1648671   4.88   0.00125367    1.339    0.253
       333 -10.5567     47.1449     19.0859   8.5767118646e+01   6.8744854382e+01    0.3331983    0.2778324  15.26  0.001335207    1.251    0.201
       334  -9.7637    249.9955    180.2829   8.0799601976e+01   2.1920460922e+00    0.2533214   0.09946507 -26.27  0.001313288    2.436    0.590
       335  -9.4198     27.9191    176.1509   1.2448286474e+02   3.5733194493e+01     0.192948    0.1549007 -84.85  0.001418396    1.268    0.212
       336  -8.9832    230.4537    175.5000   8.2939417277e+01   5.5954008034e+00    0.1196076   0.09363728  10.93 8.145376e-05    1.007    0.007
       337  -8.8993    224.6499    175.6789   8.3901991299e+01   6.4759381659e+00     0.128644    0.0764156  12.99 6.375246e-05    1.744    0.427
       338  -9.1004     57.2755    174.9819   1.1781222066e+02   3.2776668921e+01     0.161414    0.1329931  69.05 0.0004282404    1.050    0.048
       339  -9.7328    247.2945    174.0151   8.0080629399e+01   3.2189853221e+00    0.3452195     0.114163  29.11  0.001353324    3.880    0.742
       340  -9.6073     39.5066    173.4922   1.2171452754e+02   3.5080790715e+01    0.2021025    0.1008263 -72.75 0.0008295871    1.980    0.495
       341 -10.5034     35.5420    170.4100   1.2239171959e+02   3.6113069200e+01    0.4392073    0.1944263  74.65  0.002165868    2.465    0.594
       342  -9.8823     51.7146    172.9382   1.1889592600e+02   3.3836314114e+01    0.2152368    0.1381046  77.64  0.001208179    1.499    0.333
       343 -11.8017     10.0478    166.3876   1.2795024293e+02   3.9292290499e+01     0.513387    0.3302657 -74.98  0.002605371    1.537    0.349
       344 -10.9710     14.0141    158.6226   1.2664453138e+02   4.0550263546e+01    0.3665589    0.2103419  87.84  0.001713756    1.508    0.337
       345 -10.4538     74.1018     19.5526   7.4264229449e+01   6.3703149248e+01    0.2959131    0.2460575  36.16 0.0009881457    1.213    0.176
       346  -8.9244    197.9607    168.0303   8.7051874045e+01   1.1782983615e+01    0.1511554    0.1283541   8.91  0.000604852    1.059    0.056
       347  -9.0481     46.7437    166.1805   1.1946159208e+02   3.5766205292e+01    0.2121436   0.08618335  61.69 0.0009409804    2.700    0.630
       348  -9.7915     40.2477    163.2297   1.2074646722e+02   3.7084462424e+01    0.4154794    0.1481028 -79.06  0.001846131    2.955    0.662
       349 -10.0910     18.7593    165.0975   1.2589999933e+02   3.8805491645e+01    0.2353632    0.2313268  -3.97  0.001851581    1.439    0.305
       350  -9.4905    194.5417     18.4849   4.9202902258e+01   3.3126579856e+01    0.2424761    0.2188869 -24.23 0.0005483377    1.095    0.087
       351  -9.8302    188.9245    164.1630   8.7978781672e+01   1.3869821064e+01     0.261225    0.1781019 -13.89 0.0009246201    1.640    0.390
       352  -9.9511    205.0129    162.9980   8.4865311028e+01   1.1244407796e+01    0.2405438    0.1581808  30.52 0.0005427928    1.351    0.260
       353 -10.3946     28.3879    161.8368   1.2345017641e+02   3.8580596230e+01    0.3869896    0.1650794 -71.11  0.002038087    2.208    0.547
       354  -9.7708    219.7111     12.6794   4.5202092499e+01   2.7460379135e+01    0.3285293    0.1577125  70.48  0.001485627    2.158    0.537
       355  -9.4843     79.3587    160.2361   1.1105501662e+02   3.2868429363e+01    0.2191256    0.1562239 -85.72  0.001274381    1.497    0.332
       356  -8.6349     94.4516     12.4473   6.3994285022e+01   6.0095428665e+01    0.1425104    0.1347073  13.17 0.0001613518    1.011    0.011
       357  -9.6326    215.5650    158.0902   8.2113043911e+01   1.0074253678e+01    0.2442662    0.1445613 -13.10  0.001285632    1.845    0.458
       358  -9.0891    223.9882    156.9556   8.0499753882e+01   8.7935527984e+00    0.1543125     0.125598   3.04 0.0008017151    1.046    0.044
       359 -10.5266    104.8539    154.3671   1.0411152056e+02   3.0201275904e+01    0.3864417    0.3386599 -82.68  0.002403219    1.210    0.174
       360  -9.9968      8.7959    156.2466   1.2775234715e+02   4.1472615847e+01    0.2427768    0.1535695 -73.66  0.001593118    1.536    0.349
       361 -12.2724     22.7301    149.4110   1.2395440791e+02   4.1735016732e+01    0.5608376    0.3608279 -46.13  0.001479255    2.108    0.526
       362 -11.0636     10.5889    127.4354   1.2559767281e+02   4.7589948050e+01    0.4836964    0.2316459 -67.57  0.001455212    1.886    0.470
       363 -10.4220     15.3928    147.7244   1.2567387333e+02   4.2736784106e+01    0.3379976    0.1809792  48.66  0.001144447    1.604    0.376
       364 -11.8100     12.7010    139.5301   1.2584011596e+02   4.4735895485e+01    0.9065284    0.4255826  81.28  0.004791167    1.959    0.489
       365 -10.8952     31.2548    153.0069   1.2210385798e+02   4.0157920037e+01    0.4505612    0.2714407  85.14  0.002677412    1.521    0.343
       366 -11.3514     63.0285    149.9757   1.1381633485e+02   3.7207628419e+01    0.4787115    0.3492845  31.91  0.001866917    1.463    0.317
       367 -10.4711     70.7463    151.5875   1.1207030993e+02   3.5848447714e+01     0.344747    0.1688765  47.86  0.001098574    1.857    0.462
       368 -11.6455      3.7511    147.4729   1.2853928370e+02   4.3705255134e+01    0.6148515    0.3695335 -85.61  0.003228856    1.420    0.296
       369 -11.3681      4.0809    142.0190   1.2818898548e+02   4.4849159520e+01    0.4340905     0.258767  34.81  0.002338031    1.678    0.404
       370 -12.3904      3.9937    137.0475   1.2795240399e+02   4.5935321700e+01    0.2549667     0.190568 -86.92 0.0003879908    1.165    0.141
       371  -9.1288    141.0341    153.2628   9.5625926856e+01   2.4194744383e+01    0.1904394    0.1599617  40.71 0.0003783616    1.077    0.071
       372  -9.7070     47.7547    151.9436   1.1789071229e+02   3.8633826970e+01    0.2877064    0.2076568  43.99 0.0008776483    1.293    0.227
       373 -11.1590     47.0376    146.8381   1.1755184253e+02   3.9818818813e+01    0.4644653    0.3987918 -78.96   0.00312869    1.181    0.153
       374  -9.7854    214.6539    150.9848   8.0861609061e+01   1.1140179996e+01    0.2390869    0.1817283  41.99  0.001081802    1.366    0.268
       375  -9.0958     85.3070    150.3053   1.0825743867e+02   3.4056141153e+01    0.1210462    0.1031367 -16.58 0.0003660684    1.606    0.377
       376  -9.5309    239.8305    146.8058   7.5998156886e+01   7.3663424509e+00    0.1887148    0.1418236   8.58 0.0006594845    1.144    0.126
       377 -10.5359    249.4620    142.3091   7.3669040777e+01   6.3054719653e+00    0.4804579     0.205797 -25.22  0.002363831    2.117    0.528
       378 -10.7602     33.0709    144.2405   1.2091155210e+02   4.1875192351e+01    0.2754091    0.1975946  65.44 0.0007673511    1.204    0.170
