#   1 NUMBER                 Running object number                                     
#   2 MAG_AUTO               Kron-like elliptical aperture magnitude                    [mag]
#   3 X_IMAGE                Object position along x                                    [pixel]
#   4 Y_IMAGE                Object position along y                                    [pixel]
#   5 X_WORLD                Barycenter position along world x axis                     [deg]
#   6 Y_WORLD                Barycenter position along world y axis                     [deg]
#   7 A_WORLD                Profile RMS along major axis (world units)                 [deg]
#   8 B_WORLD                Profile RMS along minor axis (world units)                 [deg]
#   9 THETA_WORLD            Position angle (CCW/world-x)                               [deg]
#  10 FWHM_WORLD             FWHM assuming a gaussian core                              [deg]
#  11 ELONGATION             A_IMAGE/B_IMAGE                                           
#  12 ELLIPTICITY            1 - B_IMAGE/A_IMAGE                                       
         1 -13.3514    215.3067     40.7038   3.4173281676e+01   2.7129856038e+01    0.8751421    0.5861809 -66.06  0.003420718    1.383    0.277
         2 -14.0878    235.1602     23.8487   2.8896877129e+01   2.5170933318e+01     1.974647     1.349721  29.18  0.009310816    2.892    0.654
         3 -10.8894      2.3204      3.6026   8.0505584112e+01   7.5767814025e+01    0.3193363    0.1279498 -47.50  0.001586788    2.773    0.639
         4 -13.9015    207.7201     45.4685   3.6046181258e+01   2.8114332873e+01     1.387507     1.115759  41.01  0.004505218    1.636    0.389
         5  -9.9232     16.3331      2.6615   7.0216122863e+01   7.4334129170e+01   0.09832161   0.09511259  40.46   0.00070518    1.745    0.427
         6 -10.5636     73.8885    207.4732   1.0132568446e+02   2.1031385932e+01    0.4520586    0.2523663  82.34  0.001477046    2.629    0.620
         7 -12.8773     45.9219    219.4814   1.0919404232e+02   2.1837531555e+01      1.02752    0.5307104 -72.95  0.005229751    1.980    0.495
         8 -16.3919     29.1726    241.4348   1.1440515986e+02   1.9072418255e+01     8.426655     2.612605  22.03   0.02923152    5.181    0.807
         9  -9.2079    111.0589    203.9899   9.1725291818e+01   1.6420605980e+01    0.1652786    0.1540128  32.66 0.0003732703    1.008    0.008
        10 -10.9485    193.1018    195.2281   7.1758561798e+01   5.1537136674e+00    0.8984926    0.4816268 -63.23  0.002532939    7.335    0.864
        11  -9.1947    122.4729    199.8020   8.8301908099e+01   1.5535227093e+01     0.256212    0.1446189 -61.83   0.00112003    2.153    0.535
        12  -9.3452     99.3125    181.0184   9.1102879349e+01   2.3464126790e+01    0.1976935    0.1885479 -73.96 0.0004952897    1.082    0.076
        13  -9.9878    186.7106    175.0775   6.9168619780e+01   9.8424067407e+00    0.3198307     0.245714 -47.06  0.001540884    1.397    0.284
        14 -12.0876     55.2278    174.3407   1.0211337395e+02   3.1391890276e+01    0.4408714    0.3121606 -28.03  0.001411501    1.863    0.463
        15 -12.0465     61.0079    169.2323   9.9802404406e+01   3.1946602627e+01     0.359369    0.3085356 -16.78 0.0007401172    1.397    0.284
        16 -11.2837    230.9806    168.5062   5.9685162821e+01   3.9991981787e+00    0.5374566     0.196307 -49.35  0.001871637    4.082    0.755
        17 -13.2476     65.5249    127.0611   9.1164568095e+01   4.2218805473e+01     3.461161     1.942812  73.95  0.008039107    3.654    0.726
        18 -13.4965     58.5031    155.8727   9.8557456937e+01   3.5693703765e+01     0.631322    0.3869514 -47.64  0.001860196    1.684    0.406
        19 -13.0005     78.8472    154.4621   9.2260518226e+01   3.3201467620e+01     1.065853    0.8250684 -58.92  0.001456284    1.263    0.208
        20 -14.2402     68.3009    144.7631   9.3704361908e+01   3.7243511182e+01     3.941382     1.850725  63.26  0.002788782    4.763    0.790
        21 -10.2386    238.6640    172.6827   5.9241229626e+01   2.2235695709e+00    0.1307382   0.08495248  -8.42 0.0007048424    1.698    0.411
        22  -9.0525    110.8202    167.8040   8.5710225552e+01   2.4709722292e+01    0.2046814    0.1757252  75.05  0.000464674    1.339    0.253
        23 -12.3575     34.9820    159.1356   1.0597491326e+02   3.7571177726e+01    0.8257106    0.3913967  70.02  0.003090989    3.004    0.667
        24 -11.8661     71.6873    160.3034   9.5366689927e+01   3.2763287529e+01    0.3522824     0.332962 -60.77 0.0002927456    1.060    0.057
        25  -8.5769    124.5987    151.2561   7.8692108013e+01   2.6155852201e+01    0.1584699    0.1186838  66.00 0.0006773256    1.712    0.416
        26 -10.2596    133.8311    145.7572   7.5070948130e+01   2.5672101160e+01    0.9674739    0.2163594 -53.80  0.001876717    8.201    0.878
        27  -9.2011    174.8678    149.2960   6.6223986205e+01   1.6988711054e+01    0.2230769    0.1914544  65.56 0.0008137611    1.450    0.311
        28 -14.9653      8.7982    208.2542   1.1685839496e+02   2.8109759830e+01     2.100554     1.031197 -79.00  0.004480603    1.862    0.463
        29 -12.4144     82.7822    139.1781   8.8135789417e+01   3.6485066896e+01    0.3631521    0.2906718 -53.51 0.0004426155    1.213    0.176
        30 -10.8276     96.3300    139.6886   8.4137772429e+01   3.4087797358e+01    0.6457345    0.4087203 -17.63  0.002430913    2.566    0.610
        31  -9.6825    143.6619    139.5646   7.1176580809e+01   2.5135165695e+01    0.2531783    0.1859948 -66.52 0.0007628268    1.698    0.411
        32 -10.9574    106.6650    130.6562   7.9047044460e+01   3.4435161453e+01     0.420579    0.3459415  14.63  0.001263803    1.364    0.267
        33 -10.7257    242.4999    129.9950   5.0198452245e+01   8.5298682576e+00    0.2074088    0.1052043 -38.05  0.001038995    1.608    0.378
        34 -10.8496     14.5060    128.2576   1.0856290434e+02   4.7393994135e+01    0.2547334     0.226088  80.75 0.0002449959    1.130    0.115
        35  -9.3244    114.7703    124.4256   7.5202336559e+01   3.4359860901e+01    0.2241435    0.1510975  25.58  0.000943923    1.722    0.419
        36  -8.7802    162.4052    120.2288   6.2131562509e+01   2.5402922793e+01    0.2143761    0.1380301 -51.91 0.0007072071    1.619    0.382
        37  -9.7875    105.0801    118.9812   7.6667597648e+01   3.7533462519e+01    0.2241307    0.2151274 -19.04 0.0003009037    1.042    0.040
        38  -8.9634    168.3559    113.6699   5.9225916431e+01   2.5456457141e+01    0.1558743    0.1182067 -79.25 0.0007044668    1.785    0.440
        39 -10.2185    205.1942    110.6351   5.1659744508e+01   1.8441854348e+01    0.2994717    0.2418057  30.98  0.001173859    1.468    0.319
        40 -11.7599    248.4219    104.9782   4.4316876322e+01   1.1524358643e+01    0.4428419    0.1386512 -33.70  0.001669934    3.155    0.683
        41  -9.9123     69.4756    105.5170   8.4861304015e+01   4.7061637593e+01        0.316    0.2454701  77.56  0.001009856    1.713    0.416
        42  -9.0593     63.5998    100.8112   8.5777989059e+01   4.9107424186e+01    0.1978299    0.1409638 -66.03 0.0002910679    1.536    0.349
        43 -10.7486    242.7930     93.6000   4.2648412818e+01   1.4236942115e+01    0.1604962    0.1187605  82.24 0.0009597472    1.707    0.414
        44 -10.8477     52.6819     91.2318   8.7414858640e+01   5.2970511612e+01    0.2857065    0.2610982 -51.26 0.0009806451    1.088    0.081
        45 -10.3835     43.5984     90.1808   9.0757389591e+01   5.4376707160e+01    0.3680065    0.2549958 -83.88  0.001310427    1.970    0.492
        46  -9.6342    162.7828     84.4037   5.2739839996e+01   3.2213896568e+01    0.2038759    0.1354628  43.45  0.000531076    1.634    0.388
        47  -9.8749     63.1558     80.8637   8.0353785715e+01   5.3842085893e+01    0.4960462     0.320223  76.12  0.001791876    3.577    0.720
        48 -10.8979     56.4057     76.4077   8.1664277818e+01   5.5862413870e+01    0.6247004    0.3412492  53.22  0.002363683    2.820    0.645
        49  -8.7522    184.4828     77.4893   4.7022019827e+01   2.8482096994e+01    0.1386301    0.1318788 -52.69 0.0008094969    1.065    0.061
        50  -8.9282     41.3623     66.7325   8.5034235913e+01   6.0037662558e+01    0.1308849    0.1070632  58.47 0.0006992262    1.647    0.393
        51 -11.3479     13.3401     60.3350   9.6461123450e+01   6.4217094434e+01    0.3040003    0.2177739 -61.20 0.0004532238    1.362    0.266
        52 -11.1603     95.1253    241.3499   1.0021315777e+02   1.1104140757e+01    0.2745813    0.1863401 -73.41 0.0007085445    1.815    0.449
        53 -12.6791    223.5769     33.6339   3.1855406367e+01   2.6310942445e+01    0.5352238     0.400952  49.78  0.001168965    1.745    0.427
        54 -13.4949     24.6821    199.4488   1.1258472196e+02   2.8650733528e+01    0.6604295    0.4951122  64.61  0.001582918    1.175    0.149
        55  -9.2631     27.0449     51.9783   8.6945910964e+01   6.4795836204e+01    0.1912825     0.164431 -19.15 0.0003489837    1.029    0.028
        56 -11.2643      2.0000     49.5504   9.9416001962e+01   6.7288612113e+01    0.5455876   0.06126372 -63.91  0.001336692    7.875    0.873
        57  -9.6979    129.0359     29.0162   4.2706069693e+01   4.8598329716e+01    0.1982097    0.1809938  71.02  0.001199401    1.015    0.015
        58 -10.8460      8.3252     26.3079   8.7682256977e+01   7.1500398917e+01    0.2265448    0.1239987  39.12  0.001179392    2.512    0.602
        59 -10.3461    198.0024     23.7933   3.1939626551e+01   3.2902306817e+01    0.2736636    0.1824564 -29.75  0.001015076    1.646    0.392
        60  -9.6554    189.2402     15.2339   3.0705176096e+01   3.5791872276e+01    0.1770261      0.12151 -66.24 0.0006741151    1.319    0.242
        61 -10.6265     25.4499    213.7839   1.1344197110e+02   2.5304106045e+01     0.273899    0.1423327 -81.22  0.001423632    1.866    0.464
        62 -16.0675     32.1407    186.0659   1.0960055069e+02   3.1095456047e+01     8.727435     3.454573  80.37   0.02879123    4.188    0.761
