#   1 NUMBER                 Running object number                                     
#   2 MAG_AUTO               Kron-like elliptical aperture magnitude                    [mag]
#   3 X_IMAGE                Object position along x                                    [pixel]
#   4 Y_IMAGE                Object position along y                                    [pixel]
#   5 X_WORLD                Barycenter position along world x axis                     [deg]
#   6 Y_WORLD                Barycenter position along world y axis                     [deg]
#   7 A_WORLD                Profile RMS along major axis (world units)                 [deg]
#   8 B_WORLD                Profile RMS along minor axis (world units)                 [deg]
#   9 THETA_WORLD            Position angle (CCW/world-x)                               [deg]
#  10 FWHM_WORLD             FWHM assuming a gaussian core                              [deg]
#  11 ELONGATION             A_IMAGE/B_IMAGE                                           
#  12 ELLIPTICITY            1 - B_IMAGE/A_IMAGE                                       
         1 -12.7661    197.0606     55.3858   3.3353343836e+01   3.0177671754e+01     2.165522     1.863015 -43.64   0.01384615    1.215    0.177
         2 -14.6673    181.7873     86.3127   4.2986688907e+01   2.8503062445e+01     7.722914     3.800731 -60.08   0.02962932    2.748    0.636
         3 -13.6891    238.1655     55.6845   2.8528221151e+01   2.1779148085e+01     1.364583    0.9678608  42.71  0.007171482    2.151    0.535
         4 -13.8578    238.2077     45.4977   2.6527426172e+01   2.3221877272e+01      1.21122    0.9549086  77.34  0.003949007    1.293    0.227
         5 -14.5336    243.8671     71.4263   3.1035772866e+01   1.8275617376e+01     3.377458    0.8743543  53.13   0.01204294    4.774    0.791
         6 -13.2667    249.6377     30.0172   2.2592560349e+01   2.3102522225e+01     3.877776    0.5211421 -36.57  0.009724203   10.251    0.902
         7 -12.7991    242.0137     19.4078   2.1299918977e+01   2.5837922373e+01     1.212992    0.8424439 -15.06  0.001965551    2.784    0.641
         8 -11.8809    217.2782     22.7105   2.4083512382e+01   3.0251167464e+01     1.283309    0.6173827 -19.25  0.005072724    5.161    0.806
         9 -14.5427    230.4627     95.0313   3.7574179243e+01   1.6913911229e+01     5.637159     1.330698 -51.60   0.01483573    5.640    0.823
        10 -13.9359    249.2240     85.5530   3.3241791483e+01   1.4955673292e+01     3.398694     1.117936 -37.83  0.002340049    3.154    0.683
        11 -10.4128    188.3359     37.3704   3.0389082927e+01   3.4419595684e+01    0.4380152    0.3970619  57.59  0.002600199    1.240    0.193
        12 -11.3877    140.3291     29.8219   3.5458852355e+01   4.5307286173e+01    0.5965713    0.3856137  -6.76  0.001928298    2.127    0.530
        13  -9.7409    205.2233     27.6964   2.6313350243e+01   3.2096934742e+01     0.560419    0.3512353 -13.93  0.002930086    2.833    0.647
        14 -11.1491    202.9912     22.2720   2.5411327419e+01   3.3176551657e+01    0.3689674    0.2897615  -3.34 0.0004279363    2.017    0.504
        15  -9.7727    203.7251      9.6662   2.2748135720e+01   3.4378604520e+01    0.1730363    0.1549683  51.91 0.0003793285    1.414    0.293
        16  -9.9094     91.9090     33.3610   4.6113894024e+01   5.4277874111e+01    0.2416525    0.1755205 -22.55 0.0006787969    1.385    0.278
        17 -10.7467    127.2242     25.9345   3.6626317635e+01   4.8356616500e+01    0.3905489    0.2370159 -16.90  0.001341588    1.965    0.491
        18 -11.3365    202.2038     14.3602   2.3850224606e+01   3.4197839242e+01    0.3426147    0.3086661 -36.27  0.001217623    1.369    0.270
        19 -10.6002    133.4251     21.7035   3.4391264086e+01   4.7533380067e+01    0.5350044    0.2219716 -19.28  0.002392156    3.312    0.698
        20 -12.9856    220.0791     29.4833   2.5161276492e+01   2.8884751759e+01     1.980905    0.6591155 -32.12  0.008186178    3.757    0.734
        21 -10.3515    156.5749     11.0567   2.8245394437e+01   4.3825784527e+01    0.3421121    0.2502661  -6.42  0.001459365    1.810    0.448
        22  -9.5325    135.7555      9.8275   3.0820051637e+01   4.8137363011e+01    0.3179946    0.1721005 -11.80  0.001743179    2.505    0.601
        23  -9.2195    220.4137     10.2405   2.1378298311e+01   3.1020798374e+01    0.1921985     0.143428  81.21  0.001377905    1.193    0.162
        24 -10.0680    120.2289      9.2631   3.3107052135e+01   5.1241785964e+01    0.2861718     0.242537 -37.50  0.001037179    1.342    0.255
        25  -9.2596    118.3332      3.3030   3.1729668865e+01   5.2067904843e+01    0.2536908    0.1396155  59.66  0.001119507    1.557    0.358
        26  -9.7763    232.0730      7.9760   2.0014793513e+01   2.9014966605e+01    0.2280238    0.1821193  56.53 0.0003869561    1.626    0.385
        27  -9.9926    228.4423      5.0578   1.9764947814e+01   3.0017069519e+01    0.2804673    0.1877453 -39.79  0.001054902    1.610    0.379
        28  -8.2248    193.7093      9.3039   2.3637381180e+01   3.6426792995e+01    0.1635455    0.1306771 -55.36 0.0005156181    1.237    0.191
        29  -8.9214    190.3010      8.0321   2.3709550545e+01   3.7239125969e+01    0.2033439    0.1421128  68.69 0.0006168645    1.287    0.223
        30  -9.2118    209.8916      4.6135   2.1193125942e+01   3.3663132771e+01    0.1900222    0.1559989  -6.48  0.001012954    1.893    0.472
        31  -9.1515    239.4874      2.2680   1.8453263113e+01   2.8225566335e+01    0.2529029    0.1401592  63.87 0.0009947155    1.868    0.465
        32  -8.9704    182.7227      2.9901   2.3397063409e+01   3.9238446547e+01    0.1484229    0.1354549 -69.17  0.001154662    1.164    0.141
        33  -8.1226    171.7755      2.5722   2.4452931036e+01   4.1484779543e+01    0.1568552   0.09225886  84.70 0.0009387886    1.662    0.398
        34  -7.8796    127.2069      1.5835   2.9879517268e+01   5.0474008233e+01    0.1509881   0.08451068  53.71 0.0003932438    1.504    0.335
        35  -8.7837    150.9911    245.0319   8.2981413248e+01   8.0260210122e-01    0.1870725    0.1836095 -56.72 0.0003784259    1.033    0.032
        36  -9.0332    149.8892    249.3408   8.3862384851e+01   1.5739204059e-01    0.2152492    0.1780007 -46.09 0.0003042101    1.244    0.196
        37  -9.3082    249.1354    243.4469   6.4637417769e+01  -1.3493679367e+01     0.284198    0.1120136 -29.32  0.001230782    2.754    0.637
        38  -8.1682     95.9363    163.2772   8.0245699629e+01   2.8623952142e+01    0.1878329    0.1724293 -58.23 0.0001918626    1.072    0.067
        39  -9.1558    221.4650    161.2645   5.3288474409e+01   5.7543529702e+00     0.257739    0.2166318 -73.20 0.0002762785    1.373    0.272
        40  -8.1007    179.0196    243.9682   7.7427367508e+01  -3.4658155977e+00    0.1515934     0.142696 -18.29  0.000362464    1.029    0.028
        41  -9.9645    195.5587    158.5201   5.7399678915e+01   1.1143781170e+01    0.5538344    0.3126031  60.64  0.002245149    2.501    0.600
        42 -10.4726    192.5886    153.7951   5.6916038162e+01   1.2734180215e+01      0.58359    0.4101634 -71.44  0.002660401    1.809    0.447
        43  -9.3034     23.5023    159.4749   9.6941743821e+01   3.8993675342e+01    0.1966544    0.1528399 -67.79  0.001214708    1.015    0.015
        44 -10.5290      2.1000    155.6881   1.0135944242e+02   4.1757010080e+01    0.6197867    0.2062026 -69.09   0.00267424    2.295    0.564
        45  -9.5929    204.5207    152.9564   5.4500273926e+01   1.0615030110e+01    0.4535913    0.3003162 -66.66  0.002036168    1.876    0.467
        46  -7.9629    183.7489    153.5207   5.8570611172e+01   1.4521040471e+01    0.1879272    0.1482762  68.13 0.0009194456    1.534    0.348
        47  -9.3410    166.9245    152.6177   6.1778715565e+01   1.8043413412e+01     0.307883    0.2061418 -55.19  0.001006726    1.428    0.300
        48 -10.0044    133.9480    145.6048   6.7385759394e+01   2.6117824411e+01     1.241477    0.3035426 -53.68   0.00288557    5.405    0.815
        49  -8.7487    173.0191    149.6990   5.9853963237e+01   1.7487379082e+01    0.2120825    0.2051045 -58.77  0.001165163    1.089    0.082
        50 -11.6629     62.8896    137.8707   8.3236368107e+01   3.9732080873e+01       2.4364      1.39905  50.70   0.01125958    2.245    0.555
        51  -9.0701     48.4533    126.0013   8.4543242673e+01   4.4331763112e+01     0.187627    0.1677931 -48.13 8.915329e-05    1.100    0.091
        52 -12.1893     31.2218    144.2912   9.2614600908e+01   4.1889666829e+01     0.737685    0.5671151  84.37  0.001306909    1.483    0.326
        53 -12.0801     38.8517    141.8192   9.0235441614e+01   4.1683545120e+01    0.8512863    0.5960137 -68.78  0.003129086    1.265    0.209
        54 -11.6228     45.6684    140.6095   8.8256515809e+01   4.1212031011e+01    0.6908312    0.4118299 -68.14  0.001958937    1.577    0.366
        55 -12.1501     13.0579    142.0364   9.6774635231e+01   4.4098099492e+01    0.6572068    0.5335458  71.01  0.004288134    1.461    0.315
        56  -9.4748    186.4533    144.5723   5.6009244792e+01   1.5933837813e+01    0.3103612     0.198553 -69.61  0.001040472    2.121    0.528
        57  -9.2348    148.5140    144.7742   6.3911783140e+01   2.3474102104e+01    0.2911198    0.2013777  89.68  0.001190303    2.243    0.554
        58  -9.2642    204.5557    144.8608   5.2695958648e+01   1.2308467601e+01    0.3572248    0.1921034 -49.76 0.0009173699    1.666    0.400
        59  -9.4345    201.2132    141.2442   5.2488121708e+01   1.3718136806e+01    0.3797896    0.2495107 -25.94  0.001048329    1.897    0.473
        60  -8.7800    158.0059    141.7093   6.1130356758e+01   2.2278797153e+01    0.1864484    0.1420531  47.69 0.0005976396    1.458    0.314
        61 -10.2630    140.4147    137.1740   6.3915824276e+01   2.6804713981e+01    0.5192477     0.353909  51.48  0.002085914    1.649    0.393
        62  -8.4775    155.6822    135.0245   6.0036236072e+01   2.4239056584e+01    0.2231159    0.1805803 -49.47 0.0003679577    1.113    0.101
        63 -10.0092    192.8860    143.8158   5.4609421879e+01   1.4817883495e+01    0.3866532    0.2820489  30.50  0.001048596    1.771    0.435
        64  -9.1243    191.5106    133.5062   5.2502157846e+01   1.7276276633e+01    0.2350037    0.2034659 -89.22 0.0006272349    1.288    0.223
        65  -9.6084    189.3401    130.6738   5.2249011099e+01   1.8309886024e+01    0.2746503    0.2203728 -65.98  0.001134616    1.272    0.214
        66 -13.3999    200.1160     89.3128   4.0717428367e+01   2.4096717119e+01     2.683823    0.8805736  49.49  0.009559411    3.503    0.715
        67  -9.4324    171.3291    130.8393   5.5779622659e+01   2.1961163931e+01    0.2784648    0.2373542 -56.00 0.0002765261    1.081    0.075
        68  -9.1198    136.0243    128.7083   6.2852864990e+01   2.9572877101e+01    0.3608433    0.1911658 -52.21   0.00145398    1.809    0.447
        69 -10.1343    117.7452    236.0656   8.8112494314e+01   7.9659080218e+00    0.2642566    0.2113129 -61.04 0.0004925541    1.219    0.180
        70  -9.8683    195.5627    126.8491   5.0219715483e+01   1.7837188980e+01    0.5088237    0.2170845 -54.94  0.001040309    2.686    0.628
        71 -10.0568    161.8634    127.2654   5.6853377955e+01   2.4674070326e+01    0.4515015    0.3798678  -4.99  0.002202491    1.518    0.341
        72  -9.9334    201.6351    125.9150   4.8927037881e+01   1.6798991243e+01    0.2820225    0.2274458 -59.20 0.0004730349    1.154    0.133
        73  -7.5322     91.6581    124.6740   7.2707311458e+01   3.8551355163e+01    0.1514172    0.1088417 -21.14 0.0007051156    1.735    0.424
        74  -8.3579    205.5356    122.0128   4.7363218924e+01   1.6798737273e+01    0.2516798    0.1977069  88.56 0.0004434836    1.505    0.336
        75  -7.9992    100.8883    229.1019   9.0444598047e+01   1.2131133764e+01    0.1697426    0.1507683 -49.82            0    1.263    0.208
        76  -8.0178    218.8167    228.6147   6.7266832938e+01  -6.8504114639e+00    0.1697754    0.1204743  47.54 0.0004380528    1.730    0.422
        77  -8.6795     69.0538    226.9644   9.6451971640e+01   1.7321394603e+01    0.1971155     0.163058 -81.64  0.000406311    1.042    0.040
        78 -12.0173    124.6509    104.3388   5.9241748675e+01   3.6989505296e+01     1.499071     1.084162 -61.86  0.007318162    1.566    0.361
        79 -10.7637    115.9050    106.6022   6.1938904286e+01   3.8202446808e+01     1.156741    0.4644741  32.09  0.003529881    4.421    0.774
        80 -12.1624    135.8500    103.9600   5.6568696612e+01   3.4846147653e+01     1.319541    0.9073165 -41.91  0.006433852    1.352    0.261
        81  -9.1800    223.0067    111.7824   4.2270056901e+01   1.5309557201e+01     0.344294    0.1826597 -40.64  0.001564884    1.687    0.407
        82  -9.8342    217.9652    111.6772   4.3017986584e+01   1.6325663654e+01    0.2845973    0.2081653 -69.23 0.0004001847    1.432    0.302
        83 -10.2111     68.5779    110.0686   7.5265673356e+01   4.5314060902e+01    0.2196643    0.2080891 -15.66 0.0002178014    1.144    0.126
        84  -9.6348    152.5341    171.8223   6.9101520654e+01   1.6426710131e+01    0.2782495    0.2447283 -44.85  0.000379082    1.071    0.066
        85  -9.5182    150.1752    105.0836   5.3745752591e+01   3.1691428007e+01    0.4294281    0.2461578 -45.27  0.001295385    1.614    0.380
        86  -8.2779    144.8246    172.1842   7.0858634236e+01   1.7795131075e+01    0.2069623    0.1716022 -31.16 0.0003324917    1.301    0.231
        87  -9.0871    108.3879     99.2369   6.1807268162e+01   4.1084545358e+01    0.2895917    0.2397994 -65.17 0.0009391542    1.374    0.272
        88  -8.4696    107.3286     95.6622   6.1089409268e+01   4.1979393695e+01    0.2536307    0.1786547 -51.50  0.001024782    1.430    0.301
        89  -8.1354     88.5005    100.0120   6.7169427812e+01   4.4384721588e+01    0.2193598     0.126339 -47.25  0.001022022    1.584    0.369
        90 -13.1982    234.5210     78.8783   3.3649233255e+01   1.8879667458e+01     0.833165    0.7342164 -77.44  0.002868231    1.127    0.113
        91 -10.5591    144.1844     96.5039   5.2777976069e+01   3.4596738132e+01    0.3876413    0.3455866 -63.93 0.0005331862    1.138    0.121
        92  -9.1051    153.8164     85.2116   4.7829583837e+01   3.4649380493e+01    0.2497528     0.175442 -51.02 0.0007553907    1.400    0.286
        93 -10.5334    156.9696     80.5529   4.6001029869e+01   3.4788221121e+01    0.5124303    0.2297194 -47.71  0.001119476    2.252    0.556
        94  -9.4536    156.2120     75.0584   4.4708900323e+01   3.5865096219e+01    0.2095776     0.174688 -65.02 0.0003516826    1.242    0.195
        95  -8.2025    133.3358     81.4749   5.1058304970e+01   3.9545479314e+01    0.2432415     0.123935 -39.50  0.000624283    1.880    0.468
        96 -10.0635    141.3117     78.3995   4.8530886597e+01   3.8434964700e+01    0.2884013     0.262838  40.66 0.0005407105    1.151    0.131
        97  -9.1279     84.8156     76.3377   6.1404609221e+01   4.9433295559e+01    0.3383351    0.1647771 -43.98   0.00135898    1.968    0.492
        98  -9.6776    164.2013     73.2834   4.2790077666e+01   3.4454366993e+01    0.3965532    0.2092248 -42.76   0.00120332    1.806    0.446
        99  -9.4295    136.0650     71.0796   4.7609004378e+01   4.0713338638e+01     0.301595    0.1897937 -33.82 0.0007645677    1.596    0.373
       100  -9.4262    131.0408     70.3288   4.8453873781e+01   4.1855621602e+01    0.2678802    0.1815278 -38.77  0.000128257    1.440    0.306
       101  -8.6376    144.4901     70.5047   4.5749753428e+01   3.9062661801e+01    0.2349026    0.1166077 -47.25  0.001020938    2.091    0.522
       102  -8.7534    151.2036     71.4102   4.4692848677e+01   3.7511887880e+01    0.2456386     0.177572 -39.46 0.0005207846    1.351    0.260
       103  -8.5965    126.1725     66.9555   4.8544277449e+01   4.3361391411e+01     0.219912    0.1429464 -59.30 0.0008417694    2.003    0.501
       104  -7.4360    189.6923    171.3236   6.1327887062e+01   9.4877442729e+00    0.1496202    0.1147018 -75.87 0.0007035561    1.647    0.393
       105  -9.5554    144.4549     59.4973   4.2773283721e+01   4.0733170134e+01    0.2474899    0.2123483 -67.89  0.000607662    1.256    0.204
       106  -8.7245    124.9427     59.9380   4.6802069315e+01   4.4654861158e+01    0.2008508    0.1561746 -69.77  0.000957972    1.654    0.395
       107  -8.9593    107.2147     57.8645   5.0145061903e+01   4.8386349080e+01    0.2062773    0.1759718  36.62 0.0004500121    1.156    0.135
       108  -7.9336     72.6425     58.2421   5.9182212584e+01   5.4286034577e+01    0.1699792    0.1043987 -26.34 0.0003685596    1.565    0.361
       109  -8.4299     50.6707    227.6575   1.0006885216e+02   1.9628667900e+01    0.1227014   0.09194549 -45.52 0.0007051167    1.746    0.427
       110 -10.9052    181.0065     51.9530   3.4787544734e+01   3.4056569667e+01    0.5191675    0.4123228 -25.71  0.002633829    1.475    0.322
       111 -10.2226    188.6389     45.9111   3.2308048620e+01   3.3259862046e+01    0.6746951     0.289197 -46.28  0.002768927    2.237    0.553
       112 -10.5137    192.5753     38.5673   3.0129291832e+01   3.3383623890e+01    0.3641977    0.3033159  89.50  0.001311563    1.086    0.079
       113  -8.9637    141.8830    223.8421   8.1331426983e+01   6.5970778560e+00    0.2230536    0.1883287 -56.74 0.0004346524    1.147    0.128
       114  -9.1181    163.7818     44.5597   3.5549875214e+01   3.8692669060e+01    0.2282841    0.1700274 -37.72  0.001184185    1.380    0.275
       115  -8.0867    158.0466    169.0227   6.7312890905e+01   1.6025927081e+01    0.1796218    0.1728921 -58.09 0.0004007235    1.069    0.065
       116 -11.2485    132.9590     38.7591   3.9197835644e+01   4.5807330157e+01    0.5116891    0.3337031 -36.93  0.002199543    1.593    0.372
       117 -10.5030    139.6213     37.0904   3.7549516401e+01   4.4642653530e+01    0.2831001    0.2292333  73.08 0.0009852782    1.263    0.208
       118  -9.0655    246.3850    222.1900   6.1211907490e+01  -9.7085877028e+00    0.1739946    0.1046487 -45.71 0.0002749943    1.626    0.385
       119 -10.9829    205.3715     35.6749   2.7985592099e+01   3.1095767481e+01    0.3887225     0.254755 -29.00  0.001454812    1.851    0.460
       120  -8.5833    224.1441    218.3818   6.4384943263e+01  -5.8268050568e+00    0.2333225    0.1639799  53.84  0.001193226    1.954    0.488
       121  -9.2773     33.4739    218.5184   1.0231884338e+02   2.3816690041e+01    0.1814861    0.1296186  18.92  0.001033775    2.281    0.562
       122  -7.9863    171.7984    216.9612   7.4078886862e+01   2.9529936382e+00    0.1884248    0.1048432 -46.87 0.0003743249    1.704    0.413
       123  -9.4774    164.2841     39.3361   3.4164126882e+01   3.9238340617e+01    0.2583826    0.1986995  61.74 0.0008442037    1.235    0.190
       124  -8.1335    171.8723     34.8926   3.1983750501e+01   3.8175385394e+01    0.1696765    0.1321989 -80.90  0.001058392    1.301    0.231
       125  -8.6753    159.2789     34.9286   3.3806711585e+01   4.0813259748e+01    0.1623663    0.1539955 -58.95 0.0005408858    1.095    0.087
       126  -8.5313    190.4890    211.5071   6.9368903193e+01   8.8737331145e-01    0.1384199    0.1283632 -40.12 9.842923e-05    1.058    0.055
       127 -10.1880    133.2841     31.9195   3.7233694000e+01   4.6513616314e+01     0.294531    0.2147284 -35.66  0.001254705    1.451    0.311
       128  -8.6243    154.8953     31.5639   3.3612354947e+01   4.2110775590e+01    0.1704719    0.1572632 -43.91 0.0003961849    1.151    0.131
       129  -9.3056    207.7632    206.7193   6.5141558456e+01  -1.0454538551e+00    0.4115134     0.273117  75.83  0.001677954    3.319    0.699
       130  -8.0301    228.9666    207.4652   6.1420543568e+01  -4.5668193965e+00    0.1723884    0.1193066  67.74 0.0008096361    2.638    0.621
       131  -7.6631    167.3377     31.3084   3.1743574787e+01   3.9541683243e+01    0.1206653   0.08784728  36.04 0.0007043019    1.681    0.405
       132  -9.8753    179.0719     23.8400   2.8445608416e+01   3.7923210911e+01    0.4590184    0.2781058  64.66  0.002720897    1.505    0.335
       133  -8.6962     78.9466     25.0478   4.6509893920e+01   5.7392965580e+01    0.1748145    0.1418565   9.57 0.0004744939    1.107    0.096
       134  -9.0198      1.7448    205.5282   1.0696747204e+02   3.0108608160e+01    0.2005831    0.1218595 -72.72 0.0008218572    1.239    0.193
       135  -7.7590    163.7309     21.6961   2.9896497074e+01   4.1331098502e+01    0.1102889   0.08517719  35.79 0.0002156009    1.532    0.347
       136  -8.2331     68.8693    203.3433   9.3305851325e+01   2.2863955839e+01    0.2309833    0.1595915 -75.10 0.0006010426    1.290    0.225
       137  -7.7791    103.7098     42.3214   4.6213199666e+01   5.1094384596e+01    0.1147542   0.09542795 -66.70 0.0002007756    1.605    0.377
       138  -8.2256    190.4281     15.0689   2.5199527094e+01   3.6511759562e+01    0.1571187    0.1076971 -37.46 0.0008686784    1.564    0.361
       139  -8.7505    247.4899    203.3240   5.7419671075e+01  -6.5855453048e+00    0.2040392    0.1219295  37.58  0.001076246    1.972    0.493
       140 -10.1084    193.0111    195.1306   6.5652031478e+01   3.8053409942e+00     1.039814    0.4704079 -62.53  0.002849593    5.432    0.816
       141  -8.6456      5.3452    190.1040   1.0474425450e+02   3.3355224112e+01    0.1709134    0.1458025 -70.74  0.001195781    1.253    0.202
       142  -9.6629    172.6356    187.3210   6.8126412843e+01   9.1483753334e+00     0.270797    0.2427201 -74.54 0.0006311837    1.207    0.171
       143  -7.8657    250.7941    186.0056   5.3467275975e+01  -3.9212639387e+00    0.1802005    0.0890019 -41.78            0    1.643    0.392
       144  -9.4350    241.9974    182.7465   5.4258562926e+01  -1.9515842753e+00    0.3284181    0.2209428 -22.26 0.0009142519    1.631    0.387
       145 -10.0486    214.2513    176.5134   5.7799679234e+01   3.9183767883e+00    0.3585791    0.2666649  60.48  0.001431813    1.739    0.425
       146 -10.0928    206.7584    179.9018   5.9889560434e+01   4.5450773937e+00    0.4077503    0.2188689 -53.03  0.001236488    1.884    0.469
       147  -9.0708    198.6635    178.8722   6.1201804694e+01   6.2142198674e+00    0.3176307     0.245845 -79.63  0.001564922    1.734    0.423
       148 -13.7206    226.3274    173.3109   5.4985273985e+01   2.4690040875e+00     5.492535     3.404938 -38.64   0.02711164    1.396    0.284
       149 -12.2581    160.3619     93.7690   4.8764253053e+01   3.1723360011e+01     1.163017    0.8542368 -64.16  0.005852784    1.493    0.330
       150  -8.8978    134.6532    248.9510   8.6723199517e+01   2.6532321946e+00    0.2371161    0.1694227  67.80  0.001078843    1.636    0.389
       151  -7.6807    146.4647     10.4684   2.9450736412e+01   4.5930862694e+01    0.1116955   0.09848443  67.68 0.0004323492    1.001    0.001
       152  -8.5316     43.6712    247.0078   1.0336249139e+02   1.6283193599e+01    0.2047981   0.08209178 -89.31 0.0004554852    4.375    0.771
