#   1 NUMBER                 Running object number                                     
#   2 MAG_AUTO               Kron-like elliptical aperture magnitude                    [mag]
#   3 X_IMAGE                Object position along x                                    [pixel]
#   4 Y_IMAGE                Object position along y                                    [pixel]
#   5 X_WORLD                Barycenter position along world x axis                     [deg]
#   6 Y_WORLD                Barycenter position along world y axis                     [deg]
#   7 A_WORLD                Profile RMS along major axis (world units)                 [deg]
#   8 B_WORLD                Profile RMS along minor axis (world units)                 [deg]
#   9 THETA_WORLD            Position angle (CCW/world-x)                               [deg]
#  10 FWHM_WORLD             FWHM assuming a gaussian core                              [deg]
#  11 ELONGATION             A_IMAGE/B_IMAGE                                           
#  12 ELLIPTICITY            1 - B_IMAGE/A_IMAGE                                       
         1 -12.3477     56.6095     35.4933   4.4904684404e+01   6.6226742542e+01     1.074085    0.5714433 -37.18  0.003728451    1.996    0.499
         2 -12.3457     83.5424     36.0732   3.5038955617e+01   5.9739985092e+01    0.7953802    0.5671523  15.74  0.001614133    2.088    0.521
         3 -12.3024    128.3170     23.7357   2.0444389225e+01   4.9761176389e+01    0.4473152    0.2502716 -34.28 0.0004456853    1.735    0.424
         4 -12.1488    133.0414     18.9074   1.8083068754e+01   4.9085967948e+01    0.2823997    0.2360443 -75.75 0.0003203872    1.044    0.042
         5 -11.5600    137.8912     16.4347   1.6656754282e+01   4.8108306480e+01    0.6005987    0.2216778 -41.65   0.00156459    2.312    0.567
         6 -10.2403    138.3171     10.8425   1.4672615346e+01   4.8567722551e+01    0.2793837    0.1668146 -54.38  0.001039143    1.502    0.334
         7  -9.5967     36.8018      7.7903   3.7005150766e+01   7.4729640334e+01    0.4111556    0.2819367  20.91  0.002138125    1.715    0.417
         8 -10.7027     22.1925     18.6612   5.5755063180e+01   7.5881537821e+01    0.8096711    0.4692535  62.54  0.003186092    3.462    0.711
         9 -11.5183     34.7923     14.6097   4.3528724262e+01   7.4235403112e+01    0.5611694    0.2720559  44.96 0.0009611491    1.929    0.482
        10 -11.2313     13.2660     15.7469   6.1809896815e+01   7.7747222121e+01     0.538574    0.4178361  72.08  0.002920151    1.976    0.494
        11 -10.7573      9.5565      9.3171   6.0702566127e+01   7.9444506127e+01    0.4103375     0.266577  44.22  0.001671341    1.740    0.425
        12 -11.4633      3.8992     18.6817   7.3724909069e+01   7.8186907644e+01    0.3789348    0.2939241   3.28 0.0008190399    1.259    0.206
        13 -12.1951      3.3713     13.1183   7.0889522563e+01   7.9411295807e+01    0.5037529     0.271431 -38.16  0.002521171    1.815    0.449
        14 -11.8629    161.9091     18.6214   1.5051785850e+01   4.1917979285e+01    0.4029659    0.3702255 -80.42  0.002587804    1.168    0.144
        15 -12.1609    238.3200     17.5810   1.0211096317e+01   2.6097442160e+01    0.3485569    0.2544331   0.24  0.001448718    2.236    0.553
        16 -11.0138    169.2435     16.9064   1.3948891821e+01   4.0363395612e+01    0.2902969    0.1868439 -45.41  0.001266839    1.306    0.234
        17 -11.1853     82.1648      7.0443   2.0896335161e+01   6.3651493826e+01    0.2290372    0.1922327  63.18 0.0003178358    1.116    0.104
        18 -12.1219     76.0102     10.3013   2.4036022580e+01   6.4951459024e+01    0.9366961    0.5044504  37.66  0.004074311    2.232    0.552
        19 -11.4483     74.1197      2.9285   2.0330327628e+01   6.6102891039e+01     0.473259    0.2950108 -29.28  0.001781451    1.711    0.415
        20 -11.6968    242.3552      3.1664   7.0501946185e+00   2.6840861190e+01    0.2993711    0.1655727  88.37  0.001991457    1.949    0.487
        21 -11.4865    233.1015     14.3129   9.7255850973e+00   2.7368215781e+01    0.3238457    0.1551329 -41.73  0.001535348    1.446    0.308
        22 -12.3390    235.6330      9.6516   8.6276706901e+00   2.7387818620e+01     0.373145    0.1902055 -52.60  0.001662423    1.403    0.287
        23 -10.6610     60.4699     13.4989   3.0518089271e+01   6.8544315443e+01    0.5179476    0.3122805 -27.64  0.002515448    1.791    0.442
        24  -8.7051     64.9957     12.0000   2.8086555658e+01   6.7587685302e+01    0.3732859    0.1755588  59.95  0.001013507    1.870    0.465
        25 -12.2590     54.3239     13.8167   3.3046679114e+01   6.9994207437e+01     0.354707     0.283302 -62.52 0.0002415647    1.455    0.313
        26 -10.8030    155.8406     13.3141   1.3930347311e+01   4.3947808227e+01     0.346806    0.2540403   8.09  0.001051394    2.024    0.506
        27 -11.3395    160.0642      9.0820   1.2300390030e+01   4.3346917750e+01    0.3353767    0.2139147 -36.60 0.0004134253    1.438    0.305
        28 -11.3080    154.2856      8.5492   1.2558298262e+01   4.4801158966e+01    0.3350598    0.2589737 -89.67   0.00107042    1.195    0.163
        29 -10.0639     99.6384     13.7798   2.0873132800e+01   5.8395978720e+01    0.2462649    0.1684607 -30.17 0.0003755357    1.545    0.353
        30 -10.9887    102.0951      9.3070   1.8462244743e+01   5.8178785588e+01    0.4651201    0.2601143 -22.29  0.001545096    1.982    0.496
        31 -11.5190    175.9676      9.8624   1.1476587902e+01   3.9534297261e+01     0.858387    0.1935985 -48.01  0.003205445    3.119    0.679
        32 -11.5875    179.2754      3.6186   9.5632192035e+00   3.9387953762e+01    0.3755839    0.2032214  62.28 8.263637e-05    2.128    0.530
        33 -11.4090    164.6451      4.8870   1.0737424300e+01   4.2653314759e+01    0.2778053    0.1871611 -49.27 0.0003907002    1.236    0.191
        34 -10.5805    168.4866      1.9692   9.6626200907e+00   4.2018117911e+01    0.2291423    0.1591654 -79.75 0.0003641985    1.259    0.206
        35 -10.5074    119.4780     11.3596   1.6920304736e+01   5.3393429753e+01    0.2980297    0.2374563   6.61  0.001411907    1.647    0.393
        36 -11.1330    132.4417     10.0761   1.4981476829e+01   5.0145791338e+01     0.335837    0.2827128  89.89  0.001292197    1.093    0.085
        37 -12.0955    145.5251      8.8019   1.3334710720e+01   4.6945212106e+01    0.5277162    0.2886564 -22.58  0.001002738    1.998    0.500
        38 -10.6653    248.2366      7.9767   7.8581051391e+00   2.5364484507e+01    0.1967671    0.1250283 -84.85  0.001412388    1.657    0.396
        39  -9.5440     90.8235      7.7814   1.9615775338e+01   6.1304040751e+01    0.2558381     0.118851  37.19 0.0009709324    2.969    0.663
        40  -9.8237     10.5313      2.9857   5.3679279911e+01   8.0385795542e+01    0.1785422    0.1561312 -50.49 0.0006251394    1.387    0.279
        41 -11.0008     26.7115      2.5818   3.8755148521e+01   7.7494274852e+01    0.2564224    0.2115689  53.74 0.0005414485    1.202    0.168
        42 -10.1167     22.2219      1.6022   4.1122195725e+01   7.8515836016e+01    0.3162124    0.1534666  40.42  0.001303189    1.962    0.490
        43 -10.5513     19.8039      7.4241   4.8727648752e+01   7.8163222110e+01    0.3769954    0.2580002 -33.41  0.001022923    1.513    0.339
        44 -11.0705     16.0770      2.8088   4.7706028134e+01   7.9498477490e+01    0.4086109    0.3314014  57.81  0.002486166    1.479    0.324
        45 -10.0332    215.4560      7.2405   8.8532157877e+00   3.1407409633e+01    0.2057685    0.1411146 -81.16 0.0008374644    1.398    0.285
        46 -11.1615    223.0400      5.4276   8.1547289315e+00   3.0125818761e+01    0.2223365    0.1321228 -35.26  0.001414241    1.388    0.280
        47 -10.0573     60.3640      5.8582   2.5686095188e+01   6.9366561555e+01    0.2274814    0.1783662  85.20   0.00103179    1.301    0.231
        48  -9.6321     68.5367      5.5008   2.3156282023e+01   6.7327239782e+01    0.1371828    0.1237315  68.82 0.0007466266    1.009    0.009
        49 -10.6342    125.9520      3.2063   1.3090323318e+01   5.2442072240e+01    0.2697421    0.2516337  29.01 0.0008857322    1.334    0.250
        50  -9.9648     98.0077      3.3999   1.6385750056e+01   5.9774556975e+01    0.1924179     0.177972 -56.92 0.0004368114    1.128    0.114
        51 -11.7216     90.9604      2.6531   1.7081711166e+01   6.1700397308e+01    0.4188757    0.2437761  79.71 0.0007428143    1.559    0.358
        52  -9.9255    114.0349      2.7162   1.4096907824e+01   5.5594829427e+01    0.2003397    0.1610576  89.64 0.0005528523    1.093    0.085
        53 -11.2447    102.6966      1.5608   1.4926171274e+01   5.8678585975e+01    0.2399127    0.1565095  85.21 0.0004068578    1.376    0.273
        54 -10.0676    230.0345      1.4311   7.0454607665e+00   2.9208020596e+01     0.146341   0.09473773 -82.65 0.0004032706    1.521    0.343
        55 -10.3874     26.9726     11.8133   4.6702764153e+01   7.6188215312e+01    0.3607684    0.1889194 -30.84  0.001244901    2.114    0.527
        56  -9.4677     34.5410      1.5420   3.2979644332e+01   7.5930256208e+01    0.2464367    0.1257954  72.62   0.00103811    2.609    0.617
        57 -10.2868    244.9486    188.2822   4.3073118140e+01   3.1507483123e+00    0.1471846    0.1093932  -9.25 0.0004640939    1.106    0.096
        58 -11.8312    248.0113    248.0930   5.1499633876e+01  -3.8798864757e+00    0.4422647    0.2145875 -17.61  0.003216037    1.631    0.387
        59 -12.4476    226.9264    245.3744   5.4187227582e+01  -1.8829905969e+00    0.5462338      0.33086 -11.48  0.004220247    1.252    0.202
        60  -9.3280    155.6712    250.3187   6.6980909510e+01   4.3166016573e+00    0.1025765   0.07736637  40.64 0.0007047202    1.685    0.406
        61  -9.7968    109.8803    250.1208   7.6165097567e+01   9.2778807112e+00    0.1785937    0.1306588  35.78 0.0006321612    1.245    0.197
        62 -10.4383     91.0632    249.4608   8.0138569594e+01   1.1443009505e+01    0.1901727    0.1814899  88.64 0.0007016709    1.346    0.257
        63  -9.1200     72.2828    250.3342   8.4331114188e+01   1.3311611296e+01    0.1101932   0.08338463 -10.24 0.0007008914    1.617    0.382
        64 -12.0180     21.4058    248.5256   9.5573595112e+01   1.8642029254e+01    0.5317403    0.1814296  37.92  0.002704246    1.915    0.478
        65 -10.8408      5.3996    244.4417   9.9008679749e+01   2.0781315815e+01    0.2801495    0.1555952  52.75  0.001019474    1.394    0.283
        66 -11.0882     10.4376    248.4996   9.7995111005e+01   1.9599531035e+01    0.4334068    0.1099893  39.24  0.001645335    2.268    0.559
        67 -10.1522    226.1931    188.5502   4.5769921903e+01   5.1070800382e+00    0.1427422   0.09077773  11.09 0.0005173149    1.607    0.378
        68  -9.7523     61.9832    184.5603   8.0986713128e+01   2.8008877449e+01    0.2126289    0.1869658 -83.05  0.001225844    1.208    0.172
        69 -11.2097     23.1759    180.2237   9.1908097064e+01   3.3361185336e+01    0.4679039    0.1627524  52.61  0.001607575    2.630    0.620
        70 -10.5971      5.5673    168.2731   9.6591148656e+01   3.7897728251e+01    0.2891861    0.1447645  73.15  0.001307408    1.869    0.465
        71 -11.9755      8.3286    172.8787   9.5951275257e+01   3.6502104046e+01    0.3538712    0.2166415 -71.55  0.001387729    1.674    0.403
        72 -10.5551      1.4082    180.6663   9.8300231173e+01   3.5067271066e+01    0.2261819    0.1539923 -73.45 0.0004403292    1.547    0.353
        73 -10.3641    249.5133    180.0737   4.1120514365e+01   3.7052796051e+00    0.1692954   0.07944366 -33.11  0.001044068    1.625    0.385
        74 -11.0859    186.8283    191.6980   5.2736939273e+01   9.3334778921e+00    0.4278932    0.1713718 -30.20  0.001883748    2.771    0.639
        75 -10.3894     54.2435    175.8701   8.2280538305e+01   3.1088852396e+01    0.2558877     0.231099  62.29  0.000703902    1.046    0.044
        76  -9.6278    171.6994    175.3210   5.2718050587e+01   1.4051090331e+01    0.1147737    0.1041425 -85.49 0.0005415197    1.626    0.385
        77  -9.2365      1.4959    175.5016   9.8102140267e+01   3.6351235482e+01    0.1367957    0.1133779  58.78 -0.000199645    1.001    0.001
        78 -10.7727     17.7147    172.7923   9.3090679345e+01   3.5742435712e+01    0.3310386    0.1575371  60.05  0.001436791    1.974    0.493
        79  -9.1018    116.6457    170.6812   6.4140761884e+01   2.3360041249e+01    0.1486851    0.1076277 -10.75 0.0007046452    1.749    0.428
        80  -9.8933     25.1738    169.6034   9.0577079810e+01   3.5880145192e+01    0.1844156    0.1330047   6.01 0.0004755753    1.643    0.391
        81 -10.0126     67.9332    165.9554   7.6953963802e+01   3.1792732160e+01     0.331444    0.1888632  77.64  0.001147629    2.477    0.596
        82 -10.5687      1.5434    165.2352   9.7716754533e+01   3.8976504284e+01    0.3859415    0.1149891  85.90  0.001306953    3.425    0.708
        83  -9.1045     93.3216    166.7372   6.9681204474e+01   2.7887773893e+01    0.1481231     0.105849  58.13 0.0002280889    1.555    0.357
        84 -10.2523    186.7625    165.6225   4.8130244507e+01   1.3519214388e+01    0.1647234    0.1171633  43.17 0.0009571266    1.671    0.402
        85  -9.6440     36.2584    165.5813   8.6756348482e+01   3.5801503119e+01    0.1937941    0.1382879  11.54 0.0009496358    1.596    0.373
        86 -10.8979     51.2743    161.4810   8.1542704534e+01   3.5131715849e+01    0.5306772    0.2787721 -85.70  0.001943826    2.247    0.555
        87  -9.2511    132.6008    161.2268   5.8507363985e+01   2.2799635826e+01    0.2035795     0.126039 -37.87 0.0009218372    1.678    0.404
        88 -10.7015      8.1917    163.5581   9.5549973188e+01   3.8928054152e+01    0.3351146    0.2273816 -21.10  0.001500179    1.979    0.495
        89 -10.8027     19.8992    156.7369   9.1322388558e+01   3.9772117078e+01     0.422509      0.27886  83.84  0.001232082    1.451    0.311
        90 -10.7947    248.0358    156.4711   3.7266322809e+01   6.8917183831e+00    0.2121215    0.1640946 -19.42  0.001180707    1.082    0.076
        91  -9.2401     67.2458    157.6481   7.5985944342e+01   3.4003190054e+01    0.1531854     0.107464  69.21 0.0003119116    1.586    0.369
        92 -10.4242      2.6100    157.0779   9.7044834626e+01   4.1048380319e+01    0.2637207    0.1815046 -57.71  0.001369565    1.605    0.377
        93  -9.5164    213.4805    154.4411   4.1626244050e+01   1.1529850805e+01    0.1206867   0.09746464 -23.91 8.819233e-05    1.020    0.019
        94 -10.3235    158.8268    153.8618   5.1218170382e+01   1.9925590555e+01    0.3216738    0.2013141  31.92  0.001136011    1.695    0.410
        95 -10.1752     11.1436    153.1755   9.4010859820e+01   4.1468342589e+01    0.4390732    0.1506451  41.66   0.00167519    2.410    0.585
        96 -10.0737     40.8552    152.7245   8.3918844116e+01   3.8712718745e+01    0.2445036     0.185586 -66.35 0.0005858128    1.338    0.253
        97  -9.7194    143.8977    148.3937   5.3335267462e+01   2.3533915957e+01     0.233835    0.1583959 -38.99 0.0005578385    1.440    0.306
        98 -11.5441     13.9567    147.8320   9.2697379544e+01   4.2699925815e+01    0.2760512    0.2231968  78.70            0    1.122    0.109
        99 -10.9564    217.5973    145.3030   3.9270783644e+01   1.2334881650e+01    0.3014907    0.1832221  30.80  0.001527862    1.980    0.495
       100 -10.6093      7.0900    145.6334   9.4952572208e+01   4.3827265885e+01    0.3442664    0.1959633  31.70   0.00155146    1.648    0.393
       101  -9.1516    182.2740    145.3188   4.4953315496e+01   1.7649313723e+01    0.1314171   0.09408788 -12.37 0.0001937496    1.569    0.363
       102  -9.4879    156.1989    144.8070   4.9905740573e+01   2.2110134923e+01    0.2259552     0.157845 -87.83 0.0009515713    2.848    0.649
       103 -12.1042     17.4488    143.6231   9.1149208396e+01   4.3569994317e+01     1.002431    0.3037385  66.87  0.002659123    5.043    0.802
       104  -9.3931    126.4855    142.4754   5.6238614048e+01   2.7882847824e+01    0.1464283    0.1404369 -14.90 8.487145e-05    1.042    0.040
       105 -10.7518     33.3468    141.5901   8.5248785597e+01   4.2603708378e+01    0.2899772    0.1279587  30.09  0.001128422    2.097    0.523
       106  -9.8530    188.5029    139.5165   4.2668161046e+01   1.7642129231e+01    0.1309263    0.1132092 -30.65 5.610909e-05    1.035    0.034
       107  -9.9388     65.3152    139.0181   7.3645900271e+01   3.9184752583e+01    0.2172337    0.1917522 -73.96   0.00045515    1.130    0.115
       108  -9.9998    236.2731    138.0380   3.5361001763e+01   1.0847527997e+01    0.1624253    0.1209921 -30.62 0.0006276644    1.037    0.036
       109 -10.3937     43.9799    136.9370   8.0812183409e+01   4.2671404382e+01    0.3059472    0.2177089  61.54  0.001150454    1.408    0.290
       110 -10.7814     47.0914    124.4501   7.7716004819e+01   4.5759419885e+01    0.5983119    0.1790131  31.11  0.001472104    3.022    0.669
       111 -13.2617     37.4746    135.3156   8.2971778380e+01   4.3896589521e+01    0.4868366    0.3768591  87.49 0.0005978624    1.263    0.208
       112 -11.2810     37.7177    126.5744   8.1667035150e+01   4.6327496666e+01     0.581233    0.3379543   5.88  0.001790544    2.320    0.569
       113 -10.6134      2.8679    136.2282   9.5932806134e+01   4.6709997841e+01     0.360797    0.1847087 -77.31 0.0008553127    1.800    0.445
       114 -11.0432     20.8082    135.1199   8.9166824186e+01   4.5651763394e+01    0.3293161    0.2062646 -83.41  0.001313915    1.522    0.343
       115  -9.2836      9.4273    136.4292   9.3522337498e+01   4.6207520718e+01    0.1447425    0.1270985  71.35  6.86106e-05    1.008    0.008
       116  -9.8834    144.3342    136.7771   5.0754592128e+01   2.5834066166e+01     0.251069    0.1757641 -33.91 0.0006690072    1.451    0.311
       117 -11.2164     53.3184    132.3986   7.6727785304e+01   4.2709688116e+01    0.3869305    0.3235184  41.54 0.0005802183    1.165    0.141
       118 -10.9735     59.3351    131.4283   7.4396841602e+01   4.2121941773e+01    0.2953754    0.2584114 -39.28  0.000915114    1.272    0.214
       119 -11.6129     24.6543    126.8452   8.6810420595e+01   4.7637472776e+01    0.4068048     0.340569  81.70  0.001409396    1.114    0.102
       120 -10.8713     73.6687    129.0308   6.8935357655e+01   4.0537756628e+01    0.3623013    0.2853911  56.39 0.0008717889    1.284    0.221
       121  -9.3810    225.7145    129.3603   3.5028689123e+01   1.3547240702e+01    0.1191708   0.08019812 -52.43 0.0007021269    1.682    0.405
       122 -11.0183     56.5079    127.0776   7.4640946775e+01   4.3726140675e+01    0.2912247     0.229715  15.97 0.0007317982    1.440    0.305
       123  -9.0919     17.3573    126.2250   8.9624858408e+01   4.8467555080e+01    0.1418311    0.1078037 -30.32 0.0002260378    1.566    0.361
       124 -10.2749    229.5415    125.0570   3.3684562908e+01   1.3622587376e+01    0.1916316   0.09313109 -36.18  0.001030723    1.595    0.373
       125 -11.3049      4.5618    130.1767   9.4936386556e+01   4.8292718004e+01    0.2647677    0.2434542 -78.75 0.0002718271    1.115    0.103
       126 -11.1283     21.6965    120.6173   8.7268844452e+01   4.9688377140e+01     0.636076    0.3377663 -33.64  0.002477521    2.511    0.602
       127 -11.7412     10.2509    121.1405   9.2008314817e+01   5.0465104279e+01    0.5727314    0.3423484  74.23  0.001707259    1.634    0.388
       128  -9.2836    243.4832    122.4706   3.1517938801e+01   1.2039472434e+01    0.1165541   0.08693206 -31.19 0.0003569839    1.014    0.014
       129 -11.2134     69.5944    121.4041   6.8776957905e+01   4.3241720198e+01    0.7872648    0.3007591  40.30  0.002669197    2.488    0.598
       130 -11.1236     72.3177    115.6921   6.6544918851e+01   4.4305542279e+01    0.6613305     0.440321 -36.57  0.002779974    1.827    0.453
       131 -10.4633     56.6473    121.1426   7.3477971452e+01   4.5341400002e+01    0.2632016    0.2045302  49.93 0.0004449917    1.266    0.210
       132 -10.4067      1.4040    118.5334   9.5438466765e+01   5.1767160527e+01    0.2585467    0.1271114 -82.00 0.0001189514    1.843    0.458
       133  -9.4346     32.5364    104.4404   8.0248386083e+01   5.3210208651e+01    0.2383953     0.145152 -72.04 -1.033479e-05    1.576    0.365
       134 -12.3059     27.4646    106.4267   8.2846561242e+01   5.3192151150e+01    0.9956833    0.6225212  51.59  0.004437136    1.633    0.388
       135 -11.8778     16.3440    115.7486   8.8941486533e+01   5.1541684532e+01    0.4640039    0.3119684  62.83  0.001071259    1.467    0.318
       136 -11.8874     12.8622    110.1373   8.9828311452e+01   5.3419894359e+01    0.5698647     0.542617 -11.53  0.002594911    1.182    0.154
       137 -10.4405    249.6037    117.2584   2.9843689522e+01   1.1920256662e+01    0.1636398    0.0840451 -28.99 0.0007015177    1.594    0.373
       138 -10.8194    181.5362    114.9110   3.8461933457e+01   2.3092677209e+01    0.4576743    0.2523252  35.92  0.001598828    2.364    0.577
       139  -9.7972     85.9204    116.1378   6.1953924211e+01   4.1744623954e+01    0.2380411    0.2083323  81.10  0.000291925    1.194    0.163
       140 -11.1823     54.9912    109.6237   7.1761384413e+01   4.8765543355e+01    0.3867337    0.3167949  58.16  0.001112142    1.229    0.186
       141 -10.9470     51.9547    104.3958   7.1845100662e+01   5.0662771968e+01    0.4808958    0.2628074  50.01  0.001188569    1.961    0.490
       142  -9.7793     52.5052    116.0271   7.4072735762e+01   4.7362244706e+01    0.2423091    0.2185049 -22.81 0.0007653922    1.273    0.215
       143  -9.8333     51.5687    112.5136   7.3739999067e+01   4.8473283430e+01    0.2886349    0.1519764 -71.57 0.0005841476    2.001    0.500
       144 -10.7390     19.2876    109.0741   8.6864087194e+01   5.3207885455e+01    0.4032088    0.2723208  -7.87  0.001526488    1.846    0.458
       145 -10.2217    100.3093    117.3404   5.7690692076e+01   3.8688210450e+01    0.1597141    0.1252632 -16.32 0.0004864797    1.690    0.408
       146  -9.2924     70.2784    108.0023   6.5474468548e+01   4.6697854325e+01    0.2004004    0.1384081 -59.98 0.0005152064    1.428    0.300
       147  -9.1928     42.3009    108.3468   7.6729839607e+01   5.0914218338e+01    0.1628957    0.1133898 -36.57 0.0003774638    1.685    0.407
       148  -9.7665      3.3018    107.9007   9.3848346929e+01   5.4682703373e+01    0.2419596    0.1812312  40.47 0.0005165068    1.336    0.252
       149 -10.4865     62.1123    106.7242   6.8283829322e+01   4.8429187077e+01    0.2793889    0.2210496 -56.31 0.0003015871    1.251    0.201
       150  -9.3244      7.5217    107.4606   9.1925531862e+01   5.4555163814e+01    0.1456559    0.1330108 -85.18 6.031305e-05    1.033    0.032
       151  -9.4434    109.2062    105.8053   5.2093153036e+01   3.9613529910e+01    0.2044067    0.1855631  -6.45 0.0003049411    1.300    0.231
       152 -10.9951     38.9243    102.6258   7.7064552768e+01   5.2957740341e+01    0.5237136    0.2360985 -41.85  0.001795067    2.784    0.641
       153 -10.2607    118.4974    101.9690   4.8489006549e+01   3.8495498704e+01    0.2862121    0.2745057  15.99  0.001122116    1.164    0.141
       154 -10.6777     75.8230    102.0576   6.1912672398e+01   4.7244451245e+01    0.3485095    0.2621012 -86.95  0.001302841    1.572    0.364
       155 -10.2361     76.8758     97.6176   6.0320527418e+01   4.8179311880e+01     0.322186    0.2093586 -43.56 0.0005044133    1.642    0.391
       156 -11.8388     62.1455     98.3320   6.6191387108e+01   5.0672169353e+01    0.6919198    0.2988316 -48.18  0.002409484    2.399    0.583
       157 -11.4926     15.8912     97.5843   8.6871187588e+01   5.6779398189e+01    0.5575824    0.2836705 -60.02  0.002214905    1.802    0.445
       158 -10.6361     32.1152     96.4200   7.8932995907e+01   5.5528004758e+01    0.4404326    0.2533962  76.77 0.0003586321    2.212    0.548
       159  -8.8627    144.7153     99.3487   4.1540195435e+01   3.3357900240e+01    0.1539014    0.1116727 -70.50 0.0005055267    1.653    0.395
       160  -9.7290      9.6656     99.0577   9.0045231551e+01   5.6816275093e+01    0.2017538    0.1655306 -83.86 0.0003157241    1.121    0.108
       161 -10.1813    225.7921     97.9949   2.8562239880e+01   1.8104432423e+01    0.1762044    0.1607525 -48.00 0.0003364652    1.187    0.158
       162  -9.5989     81.5599     97.8859   5.8707209995e+01   4.7199561502e+01    0.2330552    0.1525817 -50.64  0.000820046    1.515    0.340
       163  -9.9262     87.3884     97.3834   5.6544335080e+01   4.6154779006e+01    0.2976883     0.149627  27.62 0.0009527962    3.083    0.676
       164 -10.7084    102.4123     95.7520   5.1267443566e+01   4.3380368823e+01    0.3532266    0.2345553  75.27  0.001394863    2.135    0.532
       165  -9.7273     66.6849     97.7037   6.4216707073e+01   5.0045964481e+01    0.2252821    0.1333714  37.32 0.0001906388    1.701    0.412
       166  -9.5971    112.8948     94.1039   4.7770449853e+01   4.1453053764e+01     0.197689     0.185297  -6.70  0.001016212    1.240    0.193
       167 -10.0941     52.2763     93.5481   6.9097740181e+01   5.3572470686e+01    0.2760392    0.2160501  35.99 0.0002126993    1.296    0.229
       168 -11.2993     57.5212     90.1602   6.5921225068e+01   5.3620768968e+01    0.5496244    0.3734747   6.35  0.001158741    2.172    0.540
       169 -10.3273    226.3559     93.1220   2.7461005850e+01   1.8709362455e+01    0.1962733    0.1687928 -75.22 0.0005405148    1.374    0.272
       170 -10.2814     31.5502     92.5540   7.8418296654e+01   5.6679434086e+01    0.3518476    0.2081743  80.54  0.001224205    2.115    0.527
       171 -10.0190    231.6219     91.7510   2.6609643915e+01   1.8052528498e+01     0.179588   0.08395006 -41.61 0.0008089061    1.632    0.387
       172  -9.3930    249.7116     91.3086   2.4755626730e+01   1.5350668967e+01    0.1145634   0.06727622 -50.93  0.000353041    1.576    0.365
       173 -10.9398    160.3387     89.5978   3.5871649706e+01   3.1823556976e+01    0.4050004    0.3199706 -43.14  0.001898384    1.149    0.129
       174 -10.6710     49.1543     89.9831   6.9557328579e+01   5.5017812900e+01      0.23895    0.2199231  43.39  0.000273933    1.102    0.093
       175 -11.4763     21.5169     84.1091   8.1764135491e+01   6.0100261242e+01    0.4643074    0.2234517 -76.15  0.001101802    2.095    0.523
       176 -11.6658     94.6835     88.5626   5.1516239097e+01   4.6714004426e+01    0.3883114    0.2788944  53.77  0.001751018    1.417    0.294
       177 -10.3944     83.9646     88.5136   5.5103443132e+01   4.9009312160e+01    0.4283999    0.2131178  42.33  0.001432865    2.035    0.509
       178  -9.3353     73.9906     89.0532   5.8923560695e+01   5.0892652409e+01    0.1847294    0.1754304 -77.07 0.0009448342    1.024    0.023
       179  -9.8386    177.6891     89.0397   3.2832786256e+01   2.8282142202e+01    0.1941424    0.1568547 -41.69 0.0003414513    1.090    0.082
       180 -12.3096    107.5090     84.8976   4.6497759284e+01   4.4670403428e+01    0.4159592    0.3083622  79.32 0.0004775491    1.633    0.388
       181 -10.3803    117.0123     84.1260   4.3673666847e+01   4.2651687427e+01     0.473866    0.2068689 -45.02   0.00171516    2.213    0.548
       182 -10.6580     65.1857     86.0259   6.1499172942e+01   5.3332082944e+01    0.3337112    0.2435956  24.89  0.001080074    1.588    0.370
       183 -10.5730     68.9323     82.6542   5.8930065610e+01   5.3465881110e+01    0.3465574    0.2230979 -64.42 0.0006129851    1.692    0.409
       184  -9.4957     38.8744     86.3904   7.3457115803e+01   5.7473410544e+01    0.2059125    0.1478281   5.05 0.0003886565    1.726    0.421
       185 -10.0181     30.0126     85.4997   7.7655982845e+01   5.8822176721e+01    0.2851149    0.2003296  72.91  0.001250108    1.617    0.381
       186 -10.6023     30.1937     81.5005   7.6633787401e+01   5.9903451263e+01    0.3631214    0.2765822 -48.53 0.0009699292    1.305    0.234
       187 -11.3992     10.5560     90.7708   8.8563587904e+01   5.9115177171e+01    0.2569988    0.2343012 -49.15 0.0003099803    1.124    0.110
       188 -10.7425    152.9557     89.0975   3.7103778259e+01   3.3518683023e+01    0.2310664    0.1908425 -51.51            0    1.109    0.098
       189 -10.6362     76.1903     81.9912   5.5883478386e+01   5.2179859581e+01    0.4889024    0.2139044  49.22  0.001573164    2.421    0.587
       190 -10.2590      7.5996     81.2234   8.8785543005e+01   6.1999778293e+01    0.3519959    0.2020876 -55.44  0.001265968    1.615    0.381
       191 -10.0407     62.6473     80.1785   6.0745273075e+01   5.5275224349e+01    0.3019709    0.1964631 -76.58  0.001112369    1.996    0.499
       192  -9.9678     50.4997     78.5197   6.5675238224e+01   5.7829941653e+01    0.3444401    0.2378065 -64.82  0.001245075    1.474    0.322
       193  -9.9864     47.5006     77.5078   6.6797051888e+01   5.8577053897e+01    0.2993185    0.1951529 -55.42 0.0007463625    1.487    0.328
       194  -9.4940     44.7761     74.6184   6.7245307673e+01   5.9753308526e+01    0.2574928    0.1962249  65.08 0.0006555325    1.497    0.332
       195  -9.8451    165.0472     78.4839   3.2070557680e+01   3.2736470638e+01     0.186769    0.1409985  65.24 0.0002688483    1.444    0.307
       196 -11.3862     88.3224     77.3338   4.9987590828e+01   5.0665615970e+01    0.3096129    0.2727774  66.31 0.0001807233    1.135    0.119
       197 -10.0249     18.5180     77.9861   8.2153413877e+01   6.2078725203e+01    0.3704816    0.1518614 -50.75  0.001389868    2.306    0.566
       198 -10.0820     21.7037     75.1333   7.9743356965e+01   6.2563611616e+01    0.2477717    0.2035232  44.64  0.001294923    1.262    0.208
       199  -9.5527      2.9512     78.0410   9.0943398708e+01   6.3149007474e+01    0.1783703    0.1371233 -78.17 0.0003588728    1.194    0.162
       200  -9.2553    155.0205     77.2408   3.3424475785e+01   3.5183010653e+01    0.1678604    0.1227689  61.91 0.0002744086    1.462    0.316
       201  -9.2214    149.0214     77.7595   3.4664069081e+01   3.6457296208e+01    0.1801933    0.1244165  61.57 0.0004539895    1.538    0.350
       202 -11.0573     99.6049     75.7319   4.5838628798e+01   4.8450112937e+01    0.3869235    0.2638667 -64.35  0.001668185    1.669    0.401
       203 -10.7493     38.0992     75.7037   7.0976902655e+01   6.0453987968e+01      0.39437     0.268749 -23.54  0.001180865    1.904    0.475
       204 -11.6239    167.8035     73.4671   3.0267849482e+01   3.2964394784e+01     0.279738    0.2080104 -47.30 0.0003104395    1.180    0.152
       205  -9.2909    167.7442     69.6586   2.9232140448e+01   3.3594328578e+01    0.1994636    0.1730046  43.88 0.0003351412    1.398    0.285
       206 -10.8819     55.2127     74.9248   6.2331193797e+01   5.7938119151e+01    0.3570776    0.2599104  33.74   0.00118197    1.422    0.297
       207 -10.6806      6.9778     73.4608   8.7942754841e+01   6.4197033156e+01    0.3451567    0.2110824   0.30  0.001074813    1.861    0.463
       208 -10.7190    103.1675     72.1593   4.3573138611e+01   4.8359518876e+01    0.3380603    0.2206994 -30.78  0.001422675    1.841    0.457
       209  -9.3572     61.5024     73.4888   5.9021535290e+01   5.7137341232e+01    0.1546917     0.150078  88.89 -0.0001286985    1.005    0.005
       210  -9.0010     68.2411     72.3497   5.5761847268e+01   5.6087785634e+01    0.1532016    0.1213245 -23.53 0.0006918783    1.574    0.365
       211 -10.3817     25.8340     71.9779   7.6625104945e+01   6.2986114393e+01    0.2460221    0.1901076 -35.31  0.001229082    1.368    0.269
       212 -10.5492    142.0774     71.0399   3.3995598720e+01   3.9263783353e+01    0.2403179    0.1671976 -71.92 0.0005712446    1.641    0.391
       213  -9.7003     39.0790     71.1011   6.9079334171e+01   6.1519071705e+01     0.230859    0.2028588 -25.76 0.0009531808    1.231    0.188
       214 -13.7466     16.6696     67.2810   8.0859506063e+01   6.5165149307e+01    0.5040221    0.4128414 -44.15 0.0008138168    1.195    0.163
       215 -10.5296      6.6698     68.2829   8.7243545529e+01   6.5637200917e+01    0.3135736    0.2230631  79.01 0.0009616187    1.488    0.328
       216 -11.7947     46.1967     60.9806   6.1810805120e+01   6.2918751953e+01    0.6827488     0.464821 -24.56 0.0002898307    1.964    0.491
       217 -11.9758     50.8615     66.6897   6.1560512465e+01   6.0735377849e+01    0.8872413     0.353111 -42.65  0.002348878    2.944    0.660
       218 -11.3734     44.9525     38.2392   5.2288264503e+01   6.8128472284e+01    0.3420341    0.2703872 -52.36            0    1.337    0.252
       219 -10.7514     58.7474     58.4499   5.4625761628e+01   6.1174515664e+01    0.4685218    0.3408545   3.68   0.00167032    2.090    0.521
       220  -9.6689    244.6890     69.0043   2.0655395166e+01   1.9002295205e+01    0.1636236    0.1129442 -39.30 0.0003819018    1.073    0.068
       221 -12.6275    147.1396     65.7023   3.1442137358e+01   3.8981876054e+01      0.35347    0.2772208 -60.54 0.0004947375    1.201    0.167
       222 -11.7113    122.6799     67.3973   3.6925593717e+01   4.4583505723e+01    0.2864312    0.2529171 -60.49 0.0002334451    1.068    0.063
       223  -9.7861    199.6627     67.9788   2.4666418697e+01   2.7143443266e+01    0.1854892    0.1354356 -40.72  0.000355537    1.141    0.123
       224 -10.9035    105.5322     65.0869   4.0438053403e+01   4.9197280746e+01    0.4222865    0.2877576 -24.56 0.0009119877    1.903    0.475
       225 -10.4643    110.5179     64.5856   3.8934072948e+01   4.8077703679e+01    0.4134115    0.2815835 -83.60  0.001422256    1.925    0.481
       226 -10.1954     93.6487     66.7865   4.4539380798e+01   5.1705187094e+01    0.2291077     0.190278 -30.98 0.0004242351    1.353    0.261
       227 -12.6245     30.2294     63.2844   7.1544005205e+01   6.4745824026e+01    0.5642308    0.5047065 -55.98   0.00114423    1.080    0.074
       228 -12.5522     38.9948     50.3088   6.1477162058e+01   6.6621521330e+01     0.906725    0.6972038  23.59  0.004609201    1.381    0.276
       229 -11.2319      2.5199     63.3591   8.9023420673e+01   6.7202480610e+01    0.4954126    0.2998949  88.87  0.002339919    1.708    0.415
       230  -9.3017    131.2186     64.9840   3.4269459266e+01   4.2936743427e+01    0.1946373    0.1174327 -39.94 0.0003858673    1.592    0.372
       231 -10.7083     73.9904     49.3597   4.4340405025e+01   5.9754718551e+01    0.3381971     0.258733  66.50  0.001321255    1.374    0.272
       232 -10.8677     81.4977     64.8708   4.7904107278e+01   5.4912145361e+01    0.4460154    0.3238088  25.97 0.0008542405    1.807    0.447
       233 -10.8137     80.1616     51.4053   4.2978431555e+01   5.7923509863e+01    0.3985107    0.2026417  52.72  0.001583235    1.920    0.479
       234 -10.2599     78.1186     62.1544   4.8091104619e+01   5.6247132553e+01    0.9713936    0.2486708  40.58  0.002210833    6.023    0.834
       235 -11.3221     80.0850     57.0247   4.5335890070e+01   5.6849429896e+01    0.4863022    0.3542321 -40.95  0.001774404    1.417    0.294
       236  -9.6297     61.8732     64.2219   5.5493116548e+01   5.9250458524e+01    0.2929531    0.2007622 -23.06 0.0009777943    2.080    0.519
       237 -10.8385    154.9459     62.9459   2.9300658043e+01   3.7594474456e+01    0.3254638    0.2573731 -38.72  0.001580272    1.221    0.181
       238 -10.6435    150.8463     60.9792   2.9380181205e+01   3.8877108041e+01    0.2553398    0.2091449  75.17   0.00041027    1.250    0.200
       239 -10.4003    210.0016     63.0738   2.2405966038e+01   2.5830861600e+01    0.1886342    0.1492847 -46.17 0.0003488916    1.019    0.019
       240 -10.9738    202.0459     62.3603   2.3039031207e+01   2.7472087659e+01    0.2614963     0.159513 -34.06  0.001419666    1.435    0.303
       241  -9.6478    193.7213     62.6009   2.3997617627e+01   2.9111531247e+01    0.1661405    0.1198029 -87.60 0.0008636724    1.545    0.353
       242 -10.1141     18.6780     43.8915   7.2255537833e+01   7.0956078712e+01    0.3852254    0.2736081 -89.98  0.001356959    1.832    0.454
       243 -12.2196     10.8515     56.1133   8.1867951266e+01   6.8610007496e+01    0.9265086     0.744157 -71.28  0.003294018    1.204    0.169
       244 -13.3836     12.4287     47.5601   7.8250619684e+01   7.0674833009e+01    0.6414163    0.4211921  64.40 0.0009015894    1.951    0.487
       245 -11.4245      2.9252     48.1230   8.5648310051e+01   7.1206406214e+01    0.4995211    0.4166553 -27.81  0.002905736    1.179    0.152
       246 -10.1628    119.6331     61.0848   3.5494174338e+01   4.6473208767e+01     0.256566    0.2012389  82.41  0.000796804    1.327    0.246
       247 -10.1753     90.0660     61.0708   4.3545380147e+01   5.3702910649e+01    0.2325704    0.2162527 -87.09 0.0003694584    1.044    0.042
       248 -10.7116    169.1061     59.0084   2.6075129904e+01   3.4945859852e+01    0.3308542    0.2614698  32.69  0.001319149    1.735    0.424
       249 -10.6946    135.8002     58.7332   3.1333822642e+01   4.2881439291e+01    0.4438659    0.2615131 -88.27  0.001775523    2.353    0.575
       250 -10.0498    114.8936     59.9608   3.6214815181e+01   4.7848552188e+01    0.2252589    0.2027889  31.92 0.0005933727    1.322    0.244
       251 -10.6087    127.1730     58.5031   3.2967661269e+01   4.5051108765e+01    0.2742754    0.2399349 -56.14 0.0005102805    1.078    0.072
       252  -9.4584     70.1195     58.8317   4.9864849711e+01   5.8718099033e+01    0.2032904    0.1830679  -9.05 0.0003885572    1.303    0.232
       253  -9.4819    163.2189     57.9949   2.6604115595e+01   3.6444408461e+01    0.2226453    0.1672547   6.89  0.001080444    2.095    0.523
       254 -11.0077     44.4560     43.6414   5.5288896329e+01   6.7125757020e+01    0.4820096    0.3351609 -84.57   0.00207286    2.346    0.574
       255 -11.5063     88.6835     54.7180   4.1495938752e+01   5.5262199688e+01    0.7313879    0.4150197 -30.48  0.002917195    2.154    0.536
       256 -10.2625    115.8438     55.6158   3.4444331377e+01   4.8373198428e+01    0.2548115    0.2150502  83.44 0.0006929786    1.165    0.142
       257 -11.5885    106.9968     54.6743   3.6247567221e+01   5.0754697878e+01    0.8051341    0.2594687  54.55  0.002613554    2.965    0.663
       258 -10.7915    104.2331     51.9654   3.5930846360e+01   5.1919587822e+01    0.3142997    0.2480628 -28.97  0.001547117    1.422    0.297
       259  -9.7804     27.7862     54.1567   6.9904566525e+01   6.7357706545e+01    0.2460524    0.2362682 -29.36  0.001418044    1.021    0.021
       260 -10.0828    144.3071     53.8937   2.8270369185e+01   4.1572775995e+01    0.3819188    0.1912594  86.57  0.001366471    3.053    0.672
       261 -11.1027      2.6427     52.8484   8.6934724308e+01   6.9994170146e+01    0.3969106    0.2660882 -48.71  0.001849689    1.371    0.271
       262 -10.2147     61.9922     52.7748   5.0763234921e+01   6.1731473706e+01    0.2424655    0.2088918 -48.37 0.0003661021    1.177    0.150
       263  -9.1688    148.8568     51.1575   2.6680503868e+01   4.0883079710e+01    0.1844216     0.173313   5.22 0.0009561242    1.341    0.254
       264 -11.8066    129.8713     49.7424   2.9450218496e+01   4.5803161103e+01    0.6155634    0.2920725  59.50  0.001170785    2.075    0.518
       265 -10.0369     61.7978     40.5525   4.5169892050e+01   6.4169604396e+01    0.2908641    0.2102311  54.38  0.001418484    1.360    0.264
       266 -11.7077     64.9612     36.7326   4.1923432113e+01   6.4127944955e+01    0.4741954    0.3218705  64.74 0.0002301208    1.581    0.368
       267 -10.5240     52.6867     48.9763   5.3452559026e+01   6.4428171647e+01    0.4648535    0.3388686  -1.63  0.002070981    2.041    0.510
       268 -10.4610     50.6664     44.1395   5.2204837677e+01   6.5828881269e+01    0.4400574    0.2456364 -57.32  0.001516005    2.162    0.538
       269 -11.3333    140.9278     45.9943   2.6273279893e+01   4.3600131705e+01    0.4535535    0.3999075  74.46  0.002565219    1.163    0.140
       270  -9.7034    164.0121     48.3444   2.3694176014e+01   3.7679229390e+01    0.1931209    0.1652171 -78.80 0.0004150245    1.108    0.098
       271 -10.0253    105.0452     46.9841   3.3791410527e+01   5.2552340626e+01    0.2807646    0.2183927  88.71  0.001303605    1.345    0.256
       272 -10.2978     82.5553     46.8251   4.0192486518e+01   5.8191378600e+01    0.2492642      0.18516  65.31  0.001140388    1.354    0.262
       273  -9.5135     62.4906     47.4557   4.8162402253e+01   6.2704200210e+01    0.1486688    0.1427846  72.96 -4.833539e-06    1.035    0.034
       274  -9.2371    191.7228     45.9894   1.9965231857e+01   3.1817773720e+01    0.1654258   0.09926414 -36.52 0.0004773232    1.432    0.302
       275  -9.4680    148.6504    248.3187   6.8092168415e+01   5.3343974956e+00    0.1071946   0.07752551  42.94 0.0007048137    1.736    0.424
       276 -10.4985    112.6218     45.2825   3.1357870576e+01   5.0890037858e+01    0.2577724    0.2402541  44.30 0.0007439422    1.219    0.180
       277 -10.3513    152.2864     45.4043   2.4382541278e+01   4.0892016147e+01    0.3597232    0.1113473  60.74  0.001274209    3.107    0.678
       278  -9.3316     34.0508     33.6890   5.6431232723e+01   7.1029237633e+01    0.2470721    0.1691383  46.32 0.0006450772    1.509    0.337
       279 -10.0186     30.1297     32.1860   5.8254592867e+01   7.1990591639e+01    0.3077054    0.1995697 -31.95  0.001023806    1.720    0.419
       280 -10.4633     23.7706     41.9746   6.7719269755e+01   7.0792170512e+01    0.4429066    0.2138698 -55.87  0.001225316    2.007    0.502
       281 -12.8129     27.6324     37.6561   6.2921093423e+01   7.1226278615e+01    0.2996455    0.2813315 -40.59 0.0003877441    1.068    0.063
       282 -11.5060     24.3797     34.8279   6.3855205314e+01   7.2312915178e+01    0.2725573    0.2294172 -26.51 0.0004015252    1.193    0.162
       283 -10.8021    163.1851     43.3109   2.2318419762e+01   3.8575219177e+01    0.4508047    0.1228337 -44.75  0.001555277    3.032    0.670
       284 -10.0443    100.2683     43.9836   3.3797831818e+01   5.4255294285e+01    0.2652228    0.2361628 -71.07 0.0007533609    1.088    0.081
       285 -10.9192     96.3022     42.3198   3.4150997593e+01   5.5531380659e+01    0.3678623    0.2967929  22.71  0.000778455    1.604    0.377
       286 -10.0689    130.9867     42.1292   2.6613919692e+01   4.6665664792e+01    0.2545217    0.1993454 -44.13  0.000706905    1.226    0.185
       287 -10.5210     73.0173     42.9541   4.1807804847e+01   6.1161381383e+01     0.283639    0.2274902 -80.87 0.0008056011    1.453    0.312
       288  -9.6242     34.2809     43.5885   6.1334661516e+01   6.8898178300e+01     0.193275     0.136582  21.26 0.0008117061    1.552    0.356
       289 -11.1487    226.3338     39.9232   1.5734593178e+01   2.5748748201e+01     0.408426    0.1362301 -38.64  0.001958904    2.055    0.513
       290 -11.1428     95.1530     36.0185   3.1762660036e+01   5.6796563736e+01    0.6990451    0.2638094  61.15  0.002321202    2.494    0.599
       291 -11.2844     89.1310     41.3807   3.5758321204e+01   5.7494926834e+01    0.3621932    0.3087747 -51.85 0.0009981026    1.183    0.154
       292  -9.9897     83.3436    248.5302   8.1748961227e+01   1.2437493750e+01     0.238002   0.08470003  31.17 0.0007298002    2.050    0.512
       293 -11.5558     75.4033     34.8642   3.7089772688e+01   6.1946749860e+01    0.5561792      0.38113  47.90  0.002672581    1.442    0.307
       294 -10.2523     73.4994     31.9168   3.6278501762e+01   6.2870745273e+01    0.3220548    0.2681673 -19.37 0.0009204812    1.374    0.272
       295 -10.6226    236.3397     39.9558   1.5104309163e+01   2.3959513882e+01     0.200066     0.158231 -32.63  0.000421866    1.277    0.217
       296  -9.9764    186.9989     41.0486   1.9122411569e+01   3.3475585644e+01    0.1805604    0.1697475 -43.99 0.0003222686    1.233    0.189
       297  -9.4992    189.2596     38.6394   1.8279163839e+01   3.3293715901e+01    0.1820228    0.1529224 -75.77 0.0005006606    1.150    0.130
       298  -9.4905    110.1942     41.4261   3.0408962195e+01   5.2108399716e+01    0.2717499    0.1642868 -78.63 0.0007413651    2.163    0.538
       299 -10.5979    110.6198     34.9302   2.7753837056e+01   5.2943352501e+01    0.3828621    0.3211138   1.22  0.002002478    1.546    0.353
       300  -9.2805     37.4260     40.5142   5.7874093823e+01   6.9041652524e+01    0.1387478    0.1377156   6.86 0.0001655971    1.041    0.039
       301  -9.2291    155.2123     38.0774   2.1721360234e+01   4.1189262286e+01    0.1813575    0.1062797 -32.31 0.0008552703    1.664    0.399
       302 -11.0001    247.9534     36.3698   1.3684090592e+01   2.2401894002e+01    0.2060601    0.1272591 -42.60 0.0002553182    1.135    0.119
       303 -10.2721    202.0264     37.0974   1.6816836050e+01   3.0800840215e+01    0.1940438    0.1507955 -53.61 0.0004366219    1.011    0.011
       304  -9.5152      1.3013     37.2551   8.4067251848e+01   7.4037398342e+01     0.181935    0.1172073 -78.43 0.0009221365    1.612    0.379
       305 -12.6124    240.2244     34.4835   1.3708368149e+01   2.3918716594e+01    0.2260251    0.1794866 -53.24 0.0003264603    1.124    0.111
       306 -10.3583    193.7935     34.8692   1.6910883702e+01   3.2791629586e+01    0.3934405    0.1177627 -42.99   0.00131048    2.415    0.586
       307  -9.7834    135.2722     35.2966   2.3548548358e+01   4.6524389474e+01    0.3200606    0.1692249 -64.54  0.001324598    2.140    0.533
       308  -9.6485    129.1581     35.8438   2.4701824202e+01   4.8014181109e+01     0.188024    0.1667467  48.62 0.0003800053    1.305    0.234
       309 -10.8248      9.7246     34.8586   7.5795018842e+01   7.4009365929e+01    0.3770406    0.2661512  39.37  0.001731755    1.537    0.349
       310  -9.0860    141.2209     33.6321   2.2123636277e+01   4.5236554936e+01    0.1494242   0.08895423 -54.79  0.000324702    1.581    0.368
       311 -11.2116    123.0872     33.1215   2.4723141103e+01   4.9946622813e+01    0.3798728    0.2585313 -42.94  0.001886677    1.407    0.289
       312  -9.4874    118.2536     33.0059   2.5529242879e+01   5.1218012701e+01    0.3664992    0.1568477  51.18   0.00139072    2.521    0.603
       313 -10.2926     15.7810     31.9772   6.9267635110e+01   7.4050454029e+01    0.2465271     0.169942 -47.15 0.0006335239    1.384    0.277
       314 -10.2382     19.0549     30.9724   6.6016335631e+01   7.3870583452e+01    0.2881812    0.2423622  17.57 0.0009577365    1.174    0.148
       315 -10.6291    162.9484     28.9678   1.8071258939e+01   4.0480394671e+01    0.3890663    0.1910026 -28.55  0.001163525    2.035    0.509
       316 -11.2295     60.1943     26.5817   3.8433198553e+01   6.6871378700e+01    0.5209081    0.3971789  61.22  0.001633879    1.279    0.218
       317 -10.3411     59.6118     21.4137   3.5666455568e+01   6.7753158837e+01    0.5626208    0.2396651  67.05  0.001779012    2.962    0.662
       318 -11.0184     69.4528     21.6093   3.2200633939e+01   6.5329347663e+01    0.3544364    0.2356852  81.43  0.001666545    1.732    0.423
       319 -10.8532     64.9804     19.5027   3.2535353713e+01   6.6706946553e+01     0.304557    0.2559297  70.73  0.001125656    1.151    0.131
       320 -10.9689    234.3436     27.7604   1.2580905956e+01   2.5703697152e+01    0.2652242   0.08265273 -40.09 0.0009700177    2.054    0.513
       321 -11.6425    197.7144     28.1338   1.4891392914e+01   3.2766411159e+01    0.4957978    0.2232242  88.76  0.002288576    2.527    0.604
       322 -10.6045    156.3104     28.3352   1.8570973968e+01   4.2157259465e+01    0.3046649     0.183504  62.53  0.001243755    1.742    0.426
       323  -9.7681    145.2508     27.4072   1.9531391791e+01   4.5002864432e+01     0.345211    0.2226183 -29.47   0.00170772    1.598    0.374
       324 -10.6485    121.9805     20.7081   2.0207840186e+01   5.1758749417e+01    0.4657226    0.2746739  42.52  0.002097213    2.150    0.535
       325 -11.4696    112.1112     27.4024   2.4445412192e+01   5.3551599285e+01    0.4760053    0.3432233 -85.25  0.001387534    1.383    0.277
       326 -11.5075    118.0768     27.4100   2.3401867623e+01   5.1986985057e+01    0.4895937    0.3275293  86.21  0.002024444    1.477    0.323
       327 -10.3979    101.5163     28.4587   2.6987402123e+01   5.6196489877e+01    0.3484599    0.2133709 -78.05  0.000951609    1.968    0.492
       328 -10.1206     87.2014     20.1145   2.6410919590e+01   6.0978571121e+01    0.4980059    0.2664236  86.80  0.002008397    2.316    0.568
       329 -10.8851     80.4585     25.0387   3.0619100730e+01   6.2105385368e+01    0.4802078    0.2620964 -24.96  0.001265545    2.113    0.527
       330 -10.3824     82.8002     21.6180   2.8258951813e+01   6.1940055798e+01    0.3613301    0.2431393 -64.65   0.00110838    1.696    0.410
       331  -9.3373     11.9333     29.4356   7.1373249051e+01   7.5044323980e+01    0.1808567    0.1275983  16.34 0.0003322662    1.431    0.301
       332  -9.4402      6.4883     29.5331   7.6472144471e+01   7.5533670141e+01    0.1360702    0.1170223 -29.77 4.097122e-05    1.077    0.071
       333 -11.0551    176.5411     26.9476   1.6222672878e+01   3.7546635689e+01    0.2463906    0.2019128 -60.46 0.0006233142    1.014    0.013
       334 -11.6465    216.0128     25.5836   1.3095799083e+01   2.9358859738e+01    0.2803131    0.2248414  82.58  0.001079378    1.425    0.298
       335 -10.8232    239.7417     26.3268   1.2002923059e+01   2.4911932982e+01    0.2931316    0.1133989 -44.42  0.001075807    1.726    0.420
       336 -10.1814    152.0792     24.6255   1.7856569845e+01   4.3634466816e+01    0.3384607    0.1435841 -40.10  0.001466467    2.002    0.501
       337 -10.9188     72.9856    244.5108   8.3733509573e+01   1.4254538699e+01    0.2855842    0.2131432  26.90  0.001126809    1.091    0.083
       338 -12.3643     74.8039    239.7798   8.2945198362e+01   1.4904599852e+01    0.5331758    0.4701641 -32.97  0.003350057    1.385    0.278
       339  -9.5004    102.4784    243.4889   7.7098407004e+01   1.1173706871e+01    0.1207336   0.09551155  25.43 0.0002431557    1.020    0.020
       340 -10.5276     88.8801    240.9029   7.9857003017e+01   1.3141650898e+01    0.1807636    0.1478104   0.84  0.001213878    1.292    0.226
       341 -10.1493     71.0326     25.7172   3.3903349340e+01   6.4383647730e+01    0.2151619    0.1771131  56.64  0.001154698    1.142    0.124
       342  -9.2233     51.4611     26.4970   4.2286019537e+01   6.8872970691e+01    0.1402139    0.1334001  42.59 0.0003608667    1.003    0.003
       343  -9.6847     90.1253     25.5383   2.8296825787e+01   5.9548957214e+01    0.2170333    0.1353717  68.93 0.0007028131    1.519    0.342
       344 -10.7103     54.5466     24.1732   3.9458717954e+01   6.8539214510e+01     0.340361    0.2265163 -58.66 0.0009088902    1.913    0.477
       345 -10.1528      8.8600     24.8531   7.1918270366e+01   7.6376356921e+01    0.5780841     0.371676  26.01  0.002357748    1.546    0.353
       346  -9.5697    114.6266    240.0167   7.4112204315e+01   1.0370685985e+01    0.3098665   0.07516379  36.95  0.001195561    3.313    0.698
       347 -12.1007     34.3146     22.6111   4.9506729123e+01   7.3050501781e+01    0.2840088    0.2509112  12.93 0.0001512896    1.137    0.120
       348 -10.6255     21.9944     23.8488   5.9428907168e+01   7.4931887877e+01    0.3071849    0.2555903  22.35  0.001073038    1.165    0.141
       349 -10.3229    195.6810    238.4763   5.8248690609e+01   1.7952707827e+00    0.2076257    0.1538255  -8.13  0.000922308    1.083    0.077
       350 -12.0616     28.7972     19.7364   5.1360747396e+01   7.4564689522e+01    0.3309561     0.226269  27.35 0.0003751362    1.531    0.347
       351 -10.6977     35.1136    237.8613   9.2008550425e+01   1.9389258467e+01    0.2012006    0.1273573  47.71  0.001228661    1.279    0.218
       352 -11.2368     30.9518    234.8340   9.2835856470e+01   2.0379322004e+01    0.4224613    0.2396632  57.33  0.002436735    1.588    0.370
       353 -10.2004     32.0323    230.4527   9.2368154525e+01   2.1148402667e+01    0.2160075    0.1571167  12.77 0.0009347355    1.480    0.324
       354 -10.5941      6.8484    249.2057   9.8797880325e+01   1.9768573867e+01    0.2256162    0.1695237  60.14 0.0007597426    1.205    0.170
       355 -11.0469    182.9800    234.0370   5.9850637286e+01   3.6611355477e+00      0.28269    0.1546055  26.29  0.001485341    1.614    0.380
       356  -9.6048      1.2664     23.7365   7.9157913572e+01   7.7262611692e+01    0.2877556   0.09833162 -62.97  0.001041885    2.624    0.619
       357 -10.2617    189.8346     24.2122   1.4441955644e+01   3.4900944283e+01     0.191894    0.1343492 -58.03 0.0003544232    1.157    0.136
       358 -10.2474    159.8143     23.7949   1.6814942940e+01   4.1842949186e+01     0.266012    0.1927273 -50.69  0.000979519    1.186    0.157
       359 -11.7109    185.1333    228.0931   5.8640924252e+01   4.2349913792e+00    0.4653323    0.2205014 -18.53  0.002357499    2.654    0.623
       360 -10.0050    224.7948     21.6097   1.1710921049e+01   2.8122971134e+01    0.1798121    0.1340987 -34.87 0.0005904178    1.270    0.212
       361  -9.6449    155.9258     21.8414   1.6587367923e+01   4.3009622529e+01    0.1874934    0.1781194  78.89 0.0005051084    1.236    0.191
       362 -11.4575    248.9705     20.7324   1.0427229560e+01   2.3939933714e+01    0.2365198    0.1499687 -53.73 0.0003880117    1.168    0.144
       363 -10.5737    193.2176     20.9045   1.3349162806e+01   3.4541185679e+01     0.213823    0.2076444 -35.29 0.0002938136    1.338    0.253
       364 -10.3492    194.0080     16.7115   1.2219590675e+01   3.4827466449e+01    0.2664619    0.1572444 -72.31  0.001504324    1.545    0.353
       365 -10.9487    160.4348    235.0814   6.4165569538e+01   5.9452746835e+00    0.2276634    0.1325941  10.37 0.0009103661    1.625    0.385
       366  -9.4096     99.0407     20.0413   2.3802156071e+01   5.7878292056e+01    0.1637974    0.1516014 -57.32  0.000305209    1.108    0.097
       367  -9.7111     45.0589     19.2409   4.0926261126e+01   7.1389163911e+01     0.227461    0.1635639  88.87   0.00108065    2.075    0.518
       368  -9.7213     41.4339     19.1521   4.2827585145e+01   7.2180324819e+01     0.195296     0.134791 -32.63  0.001002806    1.532    0.347
       369 -10.0123     91.6647    235.6929   7.8741790438e+01   1.3744534154e+01    0.1218206   0.08635038  -6.39  0.000260882    1.673    0.402
       370  -9.4435     48.2671     22.9402   4.1682078469e+01   7.0132198887e+01    0.1780185    0.1711113 -32.97 0.0002915824    1.100    0.091
       371 -10.0995    108.7051     16.4580   2.0519919281e+01   5.5717603129e+01    0.2152578    0.2075339  85.22 0.0001930105    1.127    0.113
       372 -10.2165     94.3006     17.2019   2.3453406864e+01   5.9446347734e+01     0.225685    0.1698764  62.87  0.000287408    1.246    0.198
       373 -10.1222     67.5520    236.0958   8.4323595517e+01   1.6377161089e+01    0.2555301     0.157928  20.40   0.00145754    1.468    0.319
       374  -9.7214     76.6815     15.8736   2.6900745914e+01   6.4191968600e+01    0.2570528    0.1976335  57.53 0.0002304698    1.213    0.175
       375 -10.1394     59.8829    240.9144   8.6451829204e+01   1.6303244895e+01    0.1833196    0.1475399  14.58  0.001221643    1.258    0.205
       376 -10.7982     39.6749    229.3891   9.0477682487e+01   2.0612142129e+01    0.2948265    0.1656922  56.98  0.001418284    1.661    0.398
       377  -9.9988     50.4951     17.1091   3.6857989055e+01   7.0470788170e+01     0.276889    0.2142711 -85.48 0.0006692692    1.648    0.393
       378  -9.8940     58.6579    229.0881   8.5891759831e+01   1.8690354889e+01    0.3214474    0.1134992  39.05   0.00143934    2.131    0.531
       379  -9.4181    169.3116    228.6975   6.1620062201e+01   5.8793135514e+00    0.1010158    0.0855575  39.89 0.0003075188    1.610    0.379
       380  -9.7528     45.7066    244.5411   8.9923041816e+01   1.7084637096e+01    0.1779574   0.08105803  36.20 0.0009444753    1.596    0.373
       381  -9.6145    215.8772     16.3158   1.0941907134e+01   3.0394871016e+01     0.267318   0.06794805  66.32  0.001098771    4.191    0.761
       382  -9.2739    150.3140     16.6332   1.5470316553e+01   4.4961353380e+01    0.1543281    0.0799339 -57.93 0.0007038219    1.770    0.435
       383 -10.2778      4.0867    225.6671   9.8869354625e+01   2.4611393885e+01    0.2096179    0.1744311 -22.23  0.001400796    1.655    0.396
       384  -9.2255     80.2987    222.6654   8.0137601215e+01   1.7497718372e+01    0.1321526   0.08331075  52.95 0.0007032351    1.652    0.395
       385  -9.8217     16.3164    222.0716   9.5806669391e+01   2.4327852445e+01    0.1726128    0.1365193  59.14 0.0005984066    1.121    0.108
       386  -8.8792    126.3328     15.2963   1.7580295473e+01   5.1207199759e+01    0.1381733    0.1000627  45.37 0.0003072966    1.643    0.391
       387  -9.3517    126.3551    220.6520   6.9282628242e+01   1.2240235011e+01    0.1256299   0.08857542  53.20 0.0007034335    1.835    0.455
       388 -11.5436     48.1451    218.6054   8.7710741469e+01   2.1953520725e+01    0.5438375    0.2393982  19.10  0.002396801    2.334    0.571
       389 -10.4228     69.8676    218.3060   8.2271364686e+01   1.9589404367e+01    0.2191298    0.1531603 -42.94  0.001238664    1.749    0.428
       390  -9.1326    114.0000     13.9573   1.8685462669e+01   5.4577759656e+01    0.2177591   0.07913125 -24.38 0.0008013806    2.935    0.659
       391  -9.5610    176.3401    218.7249   5.8891356757e+01   6.5298286788e+00    0.1024725   0.08669773  39.85 0.0002943277    1.615    0.381
       392  -9.7160    136.0670    216.8347   6.6674030974e+01   1.1686090184e+01    0.1876777    0.1562974  36.80  0.001223526    1.288    0.223
       393  -9.5582    211.6234    218.8025   5.2801988136e+01   2.6914797907e+00    0.1379684   0.08911033 -37.01 0.0008895256    1.621    0.383
       394 -10.2271     14.2747    215.3791   9.6062824339e+01   2.5938055913e+01    0.2426902    0.1308621  26.83  0.001001185    1.597    0.374
       395 -11.7981     11.8133    210.1710   9.6495117578e+01   2.7293698269e+01    0.4818499    0.2359805  59.78  0.001293359    1.777    0.437
       396 -11.3917      7.8041    215.5957   9.7688077146e+01   2.6440421576e+01    0.3100096    0.2452385  51.38  0.002035941    1.028    0.027
       397 -11.6932      5.3777    210.6222   9.8149221130e+01   2.7728009106e+01    0.3955584    0.2454181 -83.55  0.001940795    1.698    0.411
       398 -11.6892      3.8854    205.6257   9.8386450363e+01   2.8964206579e+01    0.4173747     0.288783  41.41  0.002521717    1.164    0.141
       399 -10.8421     29.3358    215.3600   9.2258406318e+01   2.4559637763e+01    0.2567993    0.2177898  17.55  0.001169711    1.273    0.215
       400  -9.7912     23.8544    216.1477   9.3684372212e+01   2.4908869944e+01    0.1517708      0.14614  13.07 0.0004225193    1.269    0.212
       401  -9.9958    110.2811    211.9818   7.1812534643e+01   1.5846146793e+01     0.173771    0.1605089  -1.32 0.0006563417    1.113    0.102
       402  -9.9832    216.9903    209.2517   5.0497876890e+01   3.3689011422e+00    0.1546739     0.114866 -10.33 0.0007444792    1.005    0.005
       403 -11.3984     20.2394    201.0003   9.3896532230e+01   2.8629007352e+01    0.5720946     0.210887 -61.32  0.002348629    3.019    0.669
       404  -9.9956    147.9284    205.7983   6.2581442542e+01   1.2057481210e+01    0.2509703    0.1635581   3.12   0.00137318    1.682    0.405
       405 -10.4808     27.9956    205.2903   9.2056127870e+01   2.6919029943e+01    0.1880597    0.1448194  41.09 0.0004990707    1.082    0.075
       406 -10.2174    205.5864    203.6795   5.1458823181e+01   5.3469200863e+00    0.2189291   0.08987077 -34.35  0.001145561    2.162    0.537
       407  -9.1087    188.3055    204.7096   5.4584515848e+01   7.1905351930e+00   0.09711681    0.0931545  36.21 0.0003216974    1.573    0.364
       408 -10.5670    175.2983    202.1188   5.6558945981e+01   9.1640434601e+00    0.2140516    0.1664457   9.77 0.0004128501    1.132    0.117
       409 -10.3942     67.3757    202.8434   8.1433077350e+01   2.3154461318e+01    0.2590891    0.2115667  48.16 0.0007015291    1.115    0.103
       410  -9.5862    120.2494    200.0609   6.7875555397e+01   1.6805641054e+01     0.163287    0.1116308 -49.08 0.0008867126    1.590    0.371
       411  -9.7698     41.1912    197.8487   8.8017514777e+01   2.7284948333e+01    0.2816456    0.1048897 -85.10  0.001033121    3.459    0.711
       412  -9.9234    134.9608    196.4755   6.3978587440e+01   1.5461842013e+01    0.1876185    0.1639167 -29.38 0.0005028081    1.176    0.150
       413  -9.7628     56.6828    197.2899   8.3748797512e+01   2.5675802247e+01    0.2049424    0.1436276 -24.17  0.001030114    1.940    0.485
       414  -8.8782    215.3315    194.3220   4.8379763987e+01   5.5391973036e+00    0.1186477   0.07103977  -8.35 0.0006567885    1.699    0.411
       415 -12.1425     15.7312    191.9002   9.4688932695e+01   3.1173247043e+01    0.4452274    0.4041179 -32.34  0.002154719    1.390    0.281
       416 -12.1263     16.1355    182.2594   9.4092590860e+01   3.3490089815e+01    0.4906073    0.2686813  56.33  0.001768291    1.603    0.376
       417 -10.0784    145.1097    190.0391   6.0724910011e+01   1.5232036337e+01    0.1989952    0.1722557  -1.61 0.0005620353    1.052    0.050
