#   1 NUMBER                 Running object number                                     
#   2 MAG_AUTO               Kron-like elliptical aperture magnitude                    [mag]
#   3 X_IMAGE                Object position along x                                    [pixel]
#   4 Y_IMAGE                Object position along y                                    [pixel]
#   5 X_WORLD                Barycenter position along world x axis                     [deg]
#   6 Y_WORLD                Barycenter position along world y axis                     [deg]
#   7 A_WORLD                Profile RMS along major axis (world units)                 [deg]
#   8 B_WORLD                Profile RMS along minor axis (world units)                 [deg]
#   9 THETA_WORLD            Position angle (CCW/world-x)                               [deg]
#  10 FWHM_WORLD             FWHM assuming a gaussian core                              [deg]
#  11 ELONGATION             A_IMAGE/B_IMAGE                                           
#  12 ELLIPTICITY            1 - B_IMAGE/A_IMAGE                                       
         1 -10.8705    114.7702     59.4832   7.5920375303e+01   4.8194066105e+01     1.050297    0.1480779 -39.35  0.002282276    6.328    0.842
         2 -12.3012    210.0913     20.8556   4.5394739272e+01   2.9600007522e+01     1.054407    0.7745928  25.13  0.005353492    1.748    0.428
         3 -12.1109    198.4335     34.2244   5.0673464694e+01   3.0960064180e+01     1.087436     0.878601  27.75  0.004151727    1.456    0.313
         4 -10.1117     33.0000      7.4695   8.3067834644e+01   7.1598503997e+01    0.7721941   0.05476161 -39.81  0.001548134   12.118    0.917
         5  -9.4127    114.9936      3.7173   5.3080330713e+01   5.5982923645e+01    0.6110362    0.1178704 -19.24  0.001635098    5.579    0.821
         6 -10.2158    167.9106    224.6164   1.0083636840e+02   5.9592414892e+00     0.278632    0.1665469 -53.96  0.001331675    2.282    0.562
         7 -14.2496     89.0097    245.5875   1.1714119278e+02   1.4518320484e+01     8.095508     1.622407  39.54    0.0320701    3.923    0.745
         8  -9.6386    114.5045    201.5057   1.0793314522e+02   1.8238487347e+01    0.3209017     0.126006 -62.14  0.001379822    3.138    0.681
         9  -8.5084    193.2278    193.3410   9.1311896944e+01   6.2561629785e+00    0.2575638    0.1713917  21.30  0.001411138    1.554    0.357
        10  -8.6544     29.3066    193.3095   1.2415235819e+02   3.1161269260e+01   0.09803206   0.08172355 -59.58 0.0003214403    1.614    0.380
        11 -10.2823     69.5278    179.9914   1.1472616873e+02   2.9116666276e+01    0.4012846    0.2605866 -42.21  0.002149431    2.298    0.565
        12 -10.1459     73.9847    174.5517   1.1312805071e+02   2.9659648696e+01    0.2744094      0.22839 -55.72 0.0007266772    1.419    0.295
        13 -10.1323    114.2759    172.8874   1.0396049239e+02   2.3799352356e+01    0.4141061    0.1927091 -57.03  0.001834694    2.273    0.560
        14  -8.9166    128.3050    172.6655   1.0084809803e+02   2.1424286962e+01     0.139198    0.1012418  76.06 0.0003062795    1.666    0.400
        15 -14.7254      7.2027    245.4702   1.3042507979e+02   2.3948115314e+01     1.568505     1.370101  48.26   0.00391368    1.626    0.385
        16  -8.9576    195.1116    168.3074   8.6285055487e+01   9.7792043769e+00    0.2407878    0.2160893  -2.15 0.0008208519    1.071    0.066
        17 -10.4002     82.9883    164.4488   1.0979037192e+02   3.0556657479e+01    0.3438782    0.2783963 -66.02 0.0006652036    1.247    0.198
        18  -9.4353     32.6155    165.0629   1.2132988587e+02   3.6743786900e+01    0.2635287   0.09824584 -75.74  0.001225861    2.353    0.575
        19  -8.1364    161.4260    165.5200   9.2472766409e+01   1.6678975362e+01     0.136937     0.129603  37.39 0.0001856296    1.020    0.020
        20 -11.8594     70.9165    160.1864   1.1202584688e+02   3.3222751068e+01    0.6480939     0.449177 -43.69  0.002306035    1.878    0.468
        21 -11.5123     68.4245    144.3417   1.1041860735e+02   3.7180392856e+01    0.7803769    0.4742991  71.95  0.003193397    1.877    0.467
        22 -10.3300     32.8823    156.5081   1.2049689715e+02   3.8614774610e+01    0.4439553    0.1889929 -74.69  0.002195484    2.010    0.502
        23  -9.7082     28.9663    156.1723   1.2136806440e+02   3.9084167255e+01    0.2706572    0.1228762 -54.63  0.001334926    2.464    0.594
        24  -8.8559    114.6936    153.9693   1.0070267747e+02   2.7701084930e+01    0.4258205    0.1309741 -58.14  0.001351461    3.834    0.739
        25  -9.7326     28.2969    150.0568   1.2096111568e+02   4.0529323979e+01    0.2269823    0.1732383  65.52 0.0005473281    1.196    0.164
        26 -10.5138     31.8109    146.7553   1.1979695090e+02   4.0937124812e+01    0.4210956    0.2468873  85.00  0.002349594    1.557    0.358
        27  -8.9540    134.5405    147.3249   9.4795975598e+01   2.5450271813e+01    0.4099256    0.1413997 -54.93  0.001316233    3.519    0.716
        28 -10.3602     89.0748    157.7921   1.0739817516e+02   3.1105745316e+01    0.4986807     0.358824 -28.04  0.001715515    2.199    0.545
        29  -8.1197     86.1952    145.1724   1.0608955610e+02   3.4400564610e+01    0.1928317    0.1477458  82.71 0.0003811301    1.326    0.246
        30  -9.1826    102.7954    141.8430   1.0135766189e+02   3.2454781921e+01    0.4877303    0.2777372 -32.58  0.001901229    2.956    0.662
        31 -10.4780     90.4258    141.9942   1.0448511309e+02   3.4466697894e+01    0.2638561    0.2366746 -51.25 0.0005192019    1.228    0.186
        32 -10.3737     31.5024    138.5041   1.1900223836e+02   4.2876847036e+01    0.3872301    0.3065722 -81.30  0.002536962    1.071    0.066
        33  -8.2905    135.3115    134.6324   9.1929100338e+01   2.7986262348e+01    0.1552239    0.1165055  89.93 0.0007037243    1.765    0.433
        34  -9.8662    118.5550    125.6356   9.4037241477e+01   3.3251441019e+01    0.4050353    0.2206512 -34.39  0.001552258    2.488    0.598
        35 -10.0150    113.2956    131.6763   9.6692661100e+01   3.2884260230e+01    0.4335745    0.3523753  59.65  0.002279296    1.255    0.203
        36 -10.1204    115.0000    124.4733   9.4683656771e+01   3.4191993379e+01    0.7839872    0.1507732 -52.79  0.001850903    5.802    0.828
        37 -10.0546     59.1852    133.3253   1.1114705155e+02   4.0991493731e+01    0.3181472    0.2020857  63.42  0.001643732    1.675    0.403
        38 -10.3651     32.8745    130.2073   1.1769200459e+02   4.4691995737e+01    0.4058578    0.1485682 -74.61  0.001721713    2.425    0.588
        39  -8.4161    105.7187    131.0067   9.8484497198e+01   3.4411491975e+01    0.2137733    0.1869295 -70.80  0.001170576    1.097    0.088
        40  -9.3945     98.8995    128.0051   9.9637881574e+01   3.6297832964e+01     0.296632    0.2466233 -28.96 0.0006995958    1.479    0.324
        41  -8.7718    126.2349    128.3611   9.2727995746e+01   3.1149978758e+01    0.3344629    0.1808378  65.04   0.00116598    3.046    0.672
        42  -9.8780     58.1949    127.5170   1.1050560819e+02   4.2502762593e+01    0.2655713      0.17418 -68.85  0.001415868    1.339    0.253
        43  -7.9915    108.0661    120.0077   9.5480763196e+01   3.6508094118e+01     0.170817    0.1631041  75.92 0.0003531789    1.054    0.052
        44 -11.3537     18.2082    191.9598   1.2620844051e+02   3.2545592322e+01    0.3171503    0.2273213  60.82 0.0004988575    1.169    0.145
        45  -8.5704    134.6049    118.1899   8.8253361699e+01   3.1669807782e+01    0.2179228    0.1418678 -36.59  0.000945823    1.647    0.393
        46 -10.9282     33.0000    111.1337   1.1509989845e+02   4.9242896065e+01    0.7711363    0.1172468 -68.17  0.002139128    5.316    0.812
        47 -10.2593    119.4530    109.8623   9.0019049282e+01   3.6612125886e+01    0.4319545    0.2931606  81.39  0.001760614    2.289    0.563
        48  -9.8501    114.6721    110.5116   9.1449865537e+01   3.7414952687e+01    0.5982293    0.1880398 -48.02  0.001892013    3.043    0.671
        49 -13.0794     45.0495    207.9118   1.2214723329e+02   2.6578057208e+01     1.776698     1.103677 -42.27  0.009823804    3.085    0.676
        50  -8.0732    168.0404    113.0220   7.9189959799e+01   2.5403092188e+01    0.1899791    0.1759861 -33.08  0.000457424    1.055    0.052
        51  -8.8039    134.8188    111.1989   8.6431683267e+01   3.3132988026e+01    0.3531063    0.1100157 -50.02  0.001018295    3.529    0.717
        52  -8.1563    205.5232    110.4375   7.1105706444e+01   1.7394330161e+01    0.1482909    0.1390225 -19.12 0.0008068037    1.020    0.019
        53  -9.2760     43.3478    109.0404   1.1169988045e+02   4.8700581322e+01    0.2474086    0.1878663  49.71  0.001457244    1.443    0.307
        54 -10.4252    102.0288    228.9872   1.1338013943e+02   1.5361504440e+01    0.4255513    0.1391935  40.62   0.00197504    2.481    0.597
        55  -8.4711    134.5996    102.7975   8.4249979582e+01   3.4981198219e+01     0.224464    0.1426645 -53.79  0.000565018    1.651    0.394
        56 -10.4735    114.9856     95.7694   8.7454075989e+01   4.0652227618e+01    0.9374357    0.1384769 -46.30   0.00200105    6.444    0.845
        57  -7.9391     85.9843     99.4687   9.6786814140e+01   4.5186560616e+01    0.2027272    0.1450712  43.01 0.0004854232    1.512    0.339
        58  -8.3302    120.5008     98.4987   8.6720095282e+01   3.8916499328e+01    0.1540539     0.146648 -59.72 0.0008105861    1.023    0.023
        59  -9.3596     32.6637     81.6754   1.1001534062e+02   5.6362270538e+01    0.2603765   0.09081543 -55.66   0.00109556    2.192    0.544
        60 -10.1562    114.7433     84.3949   8.4196335588e+01   4.3177415320e+01    0.7021626    0.1279729 -42.83   0.00163029    5.375    0.814
        61 -13.2192     54.7405    197.4331   1.1947234395e+02   2.7456012670e+01     1.899499     1.266723  88.89   0.01105428    1.348    0.258
        62  -9.6783    164.0000    217.0365   1.0049257766e+02   7.6718845161e+00    0.2884096    0.1175262 -53.27  0.001270344    3.536    0.717
        63  -9.2254     32.7111     51.5466   1.0228775787e+02   6.3281596507e+01     0.242878   0.09750269 -57.10 0.0009867527    2.068    0.516
        64  -9.2543    152.3535     47.6636   6.2627876583e+01   4.1091587740e+01    0.3375121    0.2557516 -82.93  0.001006624    1.657    0.396
        65  -8.7021    151.1147     54.7821   6.5344132115e+01   4.0279495540e+01    0.2356636    0.2079333 -70.71 0.0006274785    1.247    0.198
        66  -9.5258     91.7724    233.4871   1.1564389602e+02   1.6063769339e+01    0.2081591    0.1543922  72.93  0.000475919    1.254    0.202
        67 -10.8955    189.4676     40.6430   5.3868345661e+01   3.2434030364e+01    0.3963192    0.3749725  21.50  0.001376032    1.144    0.126
        68  -8.7172     89.9785    229.7508   1.1563353659e+02   1.6925862240e+01     0.155882    0.1070188  62.47   0.00025104    1.226    0.185
        69 -10.2227     96.1793    224.8906   1.1405282434e+02   1.6874636822e+01    0.3393522     0.237508  69.46  0.001467145    1.345    0.257
        70  -9.1791     61.3487    221.2072   1.2011216939e+02   2.2166506686e+01    0.2779514    0.1710762 -54.14  0.001746167    2.221    0.550
        71  -9.3272    115.0000     25.9390   6.2694449399e+01   5.3530686004e+01    0.5501062   0.08078921 -27.84   0.00123422    6.738    0.852
        72  -9.1775     73.3483    205.8343   1.1656508572e+02   2.3444033014e+01    0.3475956    0.1121995 -58.84  0.001555792    3.291    0.696
        73 -15.6991      6.1375    211.5828   1.2935527266e+02   2.9915027998e+01     16.94011     1.126822 -78.72   0.03248065   11.345    0.912
