#   1 NUMBER                 Running object number                                     
#   2 MAG_AUTO               Kron-like elliptical aperture magnitude                    [mag]
#   3 X_IMAGE                Object position along x                                    [pixel]
#   4 Y_IMAGE                Object position along y                                    [pixel]
#   5 X_WORLD                Barycenter position along world x axis                     [deg]
#   6 Y_WORLD                Barycenter position along world y axis                     [deg]
#   7 A_WORLD                Profile RMS along major axis (world units)                 [deg]
#   8 B_WORLD                Profile RMS along minor axis (world units)                 [deg]
#   9 THETA_WORLD            Position angle (CCW/world-x)                               [deg]
#  10 FWHM_WORLD             FWHM assuming a gaussian core                              [deg]
#  11 ELONGATION             A_IMAGE/B_IMAGE                                           
#  12 ELLIPTICITY            1 - B_IMAGE/A_IMAGE                                       
         1 -14.8746    164.7527     42.0178   7.7270339045e+01   3.9179042900e+01      1.38398     1.122545 -10.49  0.003950053    1.424    0.298
         2 -14.7614    181.9760      8.2864   6.4273963295e+01   3.8651310743e+01     2.007994    0.8985978  63.44  0.006800243    1.948    0.487
         3 -10.9642    133.7396    246.8440   1.2899052390e+02   7.3082738279e+00    0.1391475    0.1187774  63.93 0.0003770391    1.174    0.148
         4 -19.8933     72.8044    168.2686   1.3194572489e+02   3.1928047572e+01     17.90399     7.263115 -67.89   0.07574617    2.447    0.591
         5 -11.4269    118.9850    240.2009   1.3096296210e+02   1.0674691307e+01    0.1757638    0.1422353 -76.76  0.001016271    1.438    0.304
         6 -10.9208    118.7452    181.9748   1.2341697777e+02   2.1536574411e+01    0.3104031    0.1589791  60.42  0.001273734    2.378    0.580
         7 -11.6521    113.9412    177.8692   1.2384884201e+02   2.3244094022e+01    0.5830091    0.2942141  66.57  0.001729106    3.184    0.686
         8 -11.2772      3.7839    180.2693   1.4813291053e+02   3.6988019521e+01    0.2330458    0.1690942  32.23  0.001677955    1.752    0.429
         9 -12.0521    199.7849    179.4006   1.0581815019e+02   6.5470573103e+00    0.3578811    0.2666916 -86.17  0.001688465    2.434    0.589
        10 -13.2434    195.6355    169.4611   1.0464946049e+02   9.0509517995e+00    0.5551105    0.4456759 -49.94  0.001101029    1.419    0.295
        11 -12.0623    193.5073    164.4816   1.0404847505e+02   1.0355268836e+01    0.4138115    0.3006541  33.97  0.001390931    1.344    0.256
        12 -11.9828    169.9883    176.5071   1.1129093640e+02   1.2894511005e+01    0.2736905    0.2051565  46.90  0.000989677    1.246    0.197
        13 -13.7270    138.0823    170.6757   1.1715848895e+02   2.0306460966e+01     0.866589     0.646562  69.08  0.004394315    1.493    0.330
        14 -13.6901    144.5984    169.2761   1.1543536367e+02   1.9327663137e+01    0.8557817    0.5191798  79.89  0.003131588    3.277    0.695
        15 -10.7696     10.8665    174.5122   1.4633884349e+02   3.7595064512e+01    0.1761067    0.1210212 -85.82 0.0002813868    1.157    0.136
        16 -11.1194    165.8202    172.3343   1.1137312120e+02   1.4509537327e+01    0.2427862    0.1985472 -59.70 0.0009002482    1.388    0.279
        17 -11.9654    125.7578    171.8545   1.2016593382e+02   2.2388661877e+01    0.3127439    0.2465281 -70.67  0.001066858    1.350    0.259
        18 -12.4213    176.9232    170.2772   1.0862463585e+02   1.2664691736e+01    0.3442253    0.2455679 -33.45  0.001726132    1.544    0.352
        19 -10.2446    139.4756    249.9218   1.2829906703e+02   5.9423739208e+00    0.1383288    0.1181374 -54.32 0.0004400757    1.514    0.340
        20 -12.0736    230.1629    167.1640   9.7686184555e+01   2.7438561794e+00    0.3825908     0.177908 -44.52   0.00161933    2.483    0.597
        21 -10.4244     25.6521    230.6018   1.4693987640e+02   2.4958638035e+01    0.1292853   0.07697165  83.75 0.0006848541    1.359    0.264
        22 -10.4071     24.8919    165.3535   1.4262479354e+02   3.8295456082e+01    0.1535613    0.1326884  74.08 0.0006172726    1.181    0.153
        23 -10.4720     13.3333    163.1519   1.4499648640e+02   3.9838776420e+01    0.1632497    0.1072059 -86.57 0.0004025274    1.190    0.160
        24 -11.4118     25.1522    225.3591   1.4674006794e+02   2.5978767455e+01    0.2233029    0.1144376 -70.50  0.001219981    1.951    0.487
        25 -10.4598    191.8143    158.0954   1.0304206062e+02   1.1850344181e+01    0.2946135    0.1840651  21.27  0.001239492    2.172    0.540
        26  -9.8830     23.7550    214.6771   1.4637866988e+02   2.8151883993e+01    0.2676919    0.1162874 -59.44  0.001451392    2.811    0.644
        27 -10.9268    111.8062    213.8297   1.2931505455e+02   1.6424096496e+01       0.1752    0.1251395  72.54 0.0003440589    1.421    0.296
        28 -12.6820    161.6443    153.5134   1.0846671649e+02   1.9065976026e+01    0.4719826    0.3667729  82.97  0.001979865    1.669    0.401
        29 -11.7037    108.8663    209.0751   1.2932292641e+02   1.7798157345e+01    0.4494203    0.2695335  85.94  0.002063275    2.265    0.559
        30 -11.1967    174.3946    148.8509   1.0466531216e+02   1.7280192388e+01    0.3101899    0.2637861  83.95 0.0008832357    1.417    0.294
        31 -11.1275    116.5006    212.2740   1.2817560953e+02   1.5945672553e+01    0.2599584    0.1547359 -68.35  0.001371187    1.973    0.493
        32 -12.2281      5.1147    137.3476   1.4479750933e+02   4.6228117946e+01    0.3082915    0.2826249  75.18  0.001850256    1.265    0.210
        33 -11.7561     22.9835    138.1803   1.4043841596e+02   4.4624967311e+01    0.2908033    0.2145696  11.23  0.001619056    1.957    0.489
        34 -10.1007    130.2436    212.5569   1.2543962047e+02   1.3586024456e+01    0.1305988   0.09052985  78.62 0.0003695676    1.783    0.439
        35 -13.1195     11.7310    206.1246   1.4807047493e+02   3.1029519957e+01    0.4005158    0.2487548  33.60  0.002279863    1.940    0.485
        36 -12.5585    160.4614    127.7531   1.0287139986e+02   2.4608644259e+01     0.460638    0.3664307 -60.22  0.001642931    1.368    0.269
        37 -12.1403    163.6395    202.8266   1.1723693378e+02   9.3833915104e+00    0.3645884    0.2706062  71.88  0.001192502    1.742    0.426
        38 -12.7466    160.8952    197.6012   1.1693673017e+02   1.0800629663e+01    0.4533583    0.3036167 -71.58  0.002208803    2.229    0.551
        39 -11.8579    157.0022    200.1832   1.1815554895e+02   1.1060129508e+01    0.6377977     0.403838  80.04  0.002690574    3.031    0.670
        40 -10.7343    153.8124    194.9962   1.1796621039e+02   1.2582870996e+01    0.2627615    0.1996572  89.16  0.001316321    1.762    0.433
        41 -11.0147    167.5183    112.5067   9.7433662900e+01   2.6091686801e+01    0.3589569     0.242798 -81.64  0.001377894    2.421    0.587
        42 -10.0800    139.6503    200.5914   1.2179657428e+02   1.4134386719e+01    0.2890279     0.184847  40.50 0.0009223665    1.411    0.291
        43 -10.7721     16.4565    250.2286   1.4937075466e+02   2.2490978802e+01    0.1282014   0.07638961  87.01 0.0009613055    1.395    0.283
        44 -10.7947    205.3571    110.2328   8.9160073055e+01   1.7600367333e+01    0.3114793    0.2106951  46.85 0.0009633004    1.518    0.341
        45 -11.5215      8.1539    102.0850   1.4024771499e+02   5.4049344890e+01    0.2647601    0.2248073  82.28   0.00178392    1.200    0.167
        46  -9.9955    150.7395    245.3031   1.2571678603e+02   4.8268734491e+00    0.1121743   0.08042371  63.26 0.0003408508    1.516    0.340
        47 -11.3291    125.0427    243.5726   1.3021487076e+02   9.1847143342e+00     0.146091    0.1314363  84.40 0.0004675691    1.261    0.207
        48 -11.2605     21.8189    242.3021   1.4816602522e+02   2.3283669938e+01    0.1672295   0.09153011  87.78  0.001162153    1.538    0.350
        49 -14.4209    153.1857     56.5098   8.4227894682e+01   3.9990311790e+01     1.251995      1.17451  40.28 0.0009499752    1.074    0.069
        50 -12.4335    152.9010    184.0598   1.1629816988e+02   1.4798204936e+01    0.4380154    0.2959297 -78.77  0.002016374    2.248    0.555
        51 -12.9531    168.7569     33.8692   7.3984781419e+01   3.9223254774e+01    0.4265742    0.3894249  12.04 0.0009323093    1.235    0.190
        52 -11.0953     13.5143     59.9605   1.3106469332e+02   6.3094242179e+01    0.1792597    0.1601595  59.72 0.0004192742    1.421    0.296
        53 -10.4396    141.1483     32.8249   7.8787780145e+01   4.6485824544e+01    0.2113591    0.1904161 -86.03 0.0003772783    1.201    0.167
