#   1 NUMBER                 Running object number                                     
#   2 MAG_AUTO               Kron-like elliptical aperture magnitude                    [mag]
#   3 X_IMAGE                Object position along x                                    [pixel]
#   4 Y_IMAGE                Object position along y                                    [pixel]
#   5 X_WORLD                Barycenter position along world x axis                     [deg]
#   6 Y_WORLD                Barycenter position along world y axis                     [deg]
#   7 A_WORLD                Profile RMS along major axis (world units)                 [deg]
#   8 B_WORLD                Profile RMS along minor axis (world units)                 [deg]
#   9 THETA_WORLD            Position angle (CCW/world-x)                               [deg]
#  10 FWHM_WORLD             FWHM assuming a gaussian core                              [deg]
#  11 ELONGATION             A_IMAGE/B_IMAGE                                           
#  12 ELLIPTICITY            1 - B_IMAGE/A_IMAGE                                       
         1 -13.5527      6.3372     44.4998   1.1324127726e+02   6.4459809094e+01     1.074139    0.6205956 -64.37  0.005098349    1.368    0.269
         2 -13.9025    247.8376     16.7593   4.5032733776e+01   2.0875913780e+01     3.162116    0.3840574 -30.14  0.008795133    5.055    0.802
         3 -12.6650     29.7777      2.2771   8.8752042395e+01   7.0190370255e+01     1.642953    0.3387835  32.49  0.006156342    5.796    0.827
         4 -11.8886      2.1612     26.2909   1.1017897847e+02   6.8193071321e+01    0.8700574    0.1582322 -55.20  0.003835605    2.970    0.663
         5 -11.8340      9.6024     26.8563   1.0727522659e+02   6.7676901840e+01    0.5082382     0.402201 -79.34   0.00342259    1.647    0.393
         6 -12.7718      3.0614      8.6075   1.0396205396e+02   7.1315355008e+01      1.05616    0.2612178 -49.53  0.005166837    2.540    0.606
         7 -13.1036     10.8580      8.6185   1.0030278329e+02   7.0821023867e+01    0.7028877    0.5311783  -1.96  0.004853209    1.422    0.297
         8 -13.1309     21.3672     27.2441   1.0256867134e+02   6.6804021800e+01     1.578683    0.9512193 -58.16  0.009908323    1.583    0.368
         9 -12.4521     46.5972     17.0609   8.8382926005e+01   6.6083594982e+01    0.9341092    0.5373409   9.33    0.0049865    2.317    0.568
        10 -13.8054    137.1576     14.8018   6.0261067518e+01   4.9528296108e+01     1.561221    0.6251646  55.55  0.006162268    2.263    0.558
        11 -12.2288    163.3905      8.6597   5.3191170411e+01   4.3591477382e+01    0.5847846    0.4128252 -34.63   0.00296293    1.486    0.327
        12 -11.0522     87.5037      9.5466   7.0619673150e+01   6.0838496410e+01    0.3543611    0.2862284  68.47  0.002085201    1.767    0.434
        13 -12.4579    122.5322      5.0700   5.9595095591e+01   5.4001236082e+01    0.7360622     0.555502  79.73  0.003931284    1.680    0.405
        14 -12.8113    136.3541      2.5178   5.5738698413e+01   5.0979535868e+01     1.245775    0.2069882  58.07  0.003727234    4.067    0.754
        15 -11.2338     55.5211      2.0000   7.7914988525e+01   6.7046396813e+01    0.4649085    0.1664328  43.41  0.002131957    3.076    0.675
        16 -10.1729     14.3552    138.6958   1.2465184727e+02   4.4168100733e+01    0.2815984    0.1454753  82.43  0.001471771    1.781    0.438
        17 -12.1577    133.9913    248.7355   1.1366339664e+02   8.7978973102e+00    0.3108181     0.275932  64.82  0.001964267    1.244    0.196
        18 -11.5566     26.0215    215.3953   1.2801307949e+02   2.8368868616e+01    0.9709942    0.5085735  54.06  0.007033621    1.523    0.344
        19 -13.0286      7.2842    161.5601   1.2783436741e+02   4.0113942125e+01    0.9664419    0.4477907  82.74  0.005875729    1.849    0.459
        20  99.0000     20.4394    159.1038   1.2517526697e+02   3.9468579753e+01     2.441535    0.8509066 -87.94   0.01098251    3.179    0.685
        21 -14.6483     54.2261    167.7468   1.1940004512e+02   3.4180676538e+01     5.001875     2.262624  82.07   0.02256217    3.002    0.667
        22 -15.4307      5.8232    199.5072   1.3030067943e+02   3.3111383262e+01     2.497799    0.8125525 -82.64   0.01413988    2.516    0.602
        23 -14.3061     74.6546    198.9305   1.1870077323e+02   2.5536357399e+01      4.34387    0.8854977  53.66     0.013606    6.070    0.835
        24 -14.9255     85.7483    183.7980   1.1505761594e+02   2.6841020736e+01     2.801853      1.92193  88.43   0.01751759    1.374    0.272
        25 -14.8291     69.9380    213.0754   1.2078809442e+02   2.3630593385e+01     1.470403    0.6626068  49.99  0.007448661    1.808    0.447
        26 -14.2795     33.1465    238.8736   1.2822373213e+02   2.3729924816e+01     0.708224    0.3098466  50.53  0.002708707    1.734    0.423
        27 -14.7568     48.4783    223.1650   1.2501162585e+02   2.4560004698e+01      1.03903    0.7370781 -78.72   0.00556299    1.430    0.301
        28 -14.9207     77.3337    242.6544   1.2193182352e+02   1.7812170460e+01     1.720045     0.747246  50.48   0.01079586    1.719    0.418
        29 -16.5825     11.0687    243.3225   1.3149479823e+02   2.5319178476e+01     1.480132    0.6630585  59.36   0.01126335    1.519    0.342
        30 -15.1603     56.2753    247.1725   1.2535872264e+02   1.9778142058e+01     1.259848    0.5583321  39.57  0.007739105    2.496    0.599
        31 -15.6192     68.6431    228.2530   1.2220774849e+02   2.1230825100e+01     1.838105    0.9962822  31.04   0.01007662    3.237    0.691
        32 -12.7913    110.0734    136.9149   1.0294232246e+02   3.2611387755e+01     0.889562    0.7732232 -59.84  0.004824213    1.153    0.133
        33 -12.7591     47.5208    115.4415   1.1426022808e+02   4.6093039236e+01     1.045133    0.6599741 -74.51  0.005856563    1.360    0.265
        34 -10.5600      1.4407    131.3783   1.2672649259e+02   4.6646387587e+01    0.4542037    0.0806892 -75.59  0.001701552    4.298    0.767
        35 -12.2092     48.3552    132.4780   1.1650168074e+02   4.2277087792e+01      1.46052     0.665574  59.06  0.006990126    2.642    0.621
        36 -11.3930    100.1464    136.6128   1.0517096022e+02   3.4338596764e+01    0.5146007    0.3944612  50.82  0.002189295    1.319    0.242
        37 -12.4358     27.6855    110.7930   1.1851837488e+02   4.9006767079e+01    0.6908863    0.5268136 -60.09  0.004483699    1.237    0.192
        38 -11.5991     24.5948    123.4841   1.2084568044e+02   4.6530878804e+01    0.4726533    0.3060686  83.03  0.001983932    1.421    0.296
        39 -13.4757      7.7358    118.4953   1.2417551929e+02   4.8895784992e+01     1.075407    0.6343188  49.66  0.007267139    1.857    0.461
        40 -11.8444     12.1085    104.9951   1.2164330211e+02   5.1458676337e+01    0.7057949    0.2745031 -68.61  0.003012685    1.864    0.464
        41 -10.7933     93.9973    113.2941   1.0212599950e+02   4.0416916978e+01    0.3790996    0.2500085 -74.89  0.001871449    1.714    0.416
        42 -12.1413     67.0052    109.2290   1.0823817597e+02   4.5192707015e+01      0.98594    0.4424052  51.58  0.004364729    2.736    0.635
        43 -10.7433     50.8870    100.3748   1.1085434412e+02   4.9055445030e+01    0.3393985      0.24246  84.69   0.00175846    1.550    0.355
        44 -12.6029      3.3104     94.4469   1.2259321033e+02   5.4264564469e+01     0.653127    0.2858394 -70.91  0.002641263    1.641    0.390
        45 -10.7937     46.9458     94.0203   1.1074925432e+02   5.0871163605e+01    0.2511211    0.1967893  12.95   0.00159933    1.739    0.425
        46 -12.2277     19.9279     86.4515   1.1698090568e+02   5.4885651889e+01    0.6627882    0.4843864 -52.44  0.003785211    1.267    0.211
        47 -12.2816      3.2110     77.2913   1.2032381628e+02   5.7888781035e+01    0.5082105    0.3529073 -76.02  0.002258887    1.142    0.124
        48 -11.7337     14.1935     59.7070   1.1385105813e+02   6.0920726449e+01    0.5386925    0.4089449  -8.12  0.003403267    1.698    0.411
        49 -12.5449      9.3780     69.5717   1.1725484805e+02   5.9160631315e+01    0.6367369    0.5497786 -50.02  0.003891429    1.234    0.189
        50 -12.1510      2.7370     61.2137   1.1786403279e+02   6.1259582910e+01    0.6722803    0.2403158 -63.45   0.00266665    1.900    0.474
        51 -10.6509    125.7868    248.7460   1.1495324873e+02   1.0042864564e+01    0.2868345    0.1052275  53.22   0.00148755    2.217    0.549
        52 -13.2002     22.2125     46.6118   1.0801453844e+02   6.3036672818e+01    0.8052965    0.6097717  18.37  0.004837512    1.667    0.400
        53 -11.3414    115.5953     72.9403   8.6049906192e+01   4.5120036095e+01    0.5040758    0.3595477 -21.06  0.002405527    1.656    0.396
        54 -10.4222     23.7620     70.5011   1.1298242378e+02   5.8008128897e+01    0.2400606    0.1822679 -62.95   0.00149798    1.035    0.034
        55 -10.6267     61.1508     68.1882   1.0066042586e+02   5.4835498669e+01    0.3453698    0.2190281 -72.10  0.001752808    2.005    0.501
        56 -13.0124    119.0600     55.8589   7.9635857400e+01   4.7626005715e+01    0.9853576    0.7617295  39.58   0.00511716    1.341    0.254
        57 -13.5610    125.3117     45.9236   7.4556092222e+01   4.7981087224e+01     1.052739    0.5433905 -31.31  0.004425625    1.912    0.477
        58 -12.0698    135.1305     53.1058   7.4579879617e+01   4.4593601486e+01    0.6624066    0.4263903  42.86   0.00303702    1.584    0.369
        59 -11.9206    127.1795    238.2435   1.1369486313e+02   1.1315806560e+01    0.4799114    0.2489909  64.26  0.002465006    2.035    0.509
        60 -12.4715    149.7132     33.5184   6.4444526440e+01   4.4115769130e+01     0.726365    0.4829573  61.64  0.003388792    1.555    0.357
        61 -12.7507    135.1456    229.4262   1.1143643558e+02   1.1355305389e+01     0.661505    0.4623689  82.75  0.003049864    1.657    0.397
        62 -10.8298    119.3504    232.2434   1.1436193357e+02   1.3410383762e+01    0.3061144    0.1895223  57.02  0.001367689    1.272    0.214
        63 -10.8781     68.6673    143.2366   1.1339228459e+02   3.7513287923e+01    0.5367573    0.2663587  65.43  0.002454613    2.586    0.613
        64  -9.8539     37.9249    205.8221   1.2553453219e+02   2.8774784747e+01    0.1469402    0.1177556  77.11 0.0008739858    1.216    0.178
        65 -11.7428     31.1894    200.4824   1.2628234195e+02   3.0463458121e+01    0.4167711    0.1813166  56.12  0.001810843    1.867    0.464
        66 -11.2485    106.8847    172.8280   1.0949711687e+02   2.5751670609e+01    0.3729269    0.3330552  22.08  0.002385042    1.539    0.350
        67 -11.2563    119.0359     22.0106   6.7201400986e+01   5.2861189480e+01    0.3647813    0.3314731  18.99  0.001822722    1.029    0.028
        68 -12.7041    111.7175    160.0664   1.0658183494e+02   2.7503820042e+01    0.8719252    0.7048132 -78.37  0.004850231    1.196    0.164
        69 -11.9137     90.9538    152.6451   1.0987301254e+02   3.2364760305e+01     0.769967    0.4744245  82.84  0.003843132    1.959    0.490
        70 -10.5096     89.5446    145.2298   1.0903485705e+02   3.4149604934e+01    0.2648037    0.2285175 -82.74 0.0007515431    1.041    0.039
        71 -11.2748     99.1728    152.3502   1.0804374332e+02   3.1150635855e+01    0.3751376    0.2784718  83.64  0.001730182    1.361    0.265
        72 -10.1751    208.2046     19.2176   5.0087850565e+01   3.0654436147e+01    0.2540967    0.1320402  32.38 0.0009499499    2.773    0.639
        73 -10.3993      8.2474    130.2972   1.2518737746e+02   4.6386081214e+01    0.2471935    0.1641599 -71.31  0.001142525    1.229    0.187
        74 -11.6160      9.1425    140.6310   1.2589658733e+02   4.4180481911e+01    0.6774933    0.3902479 -88.40  0.004448651    1.339    0.253
