#   1 NUMBER                 Running object number                                     
#   2 MAG_AUTO               Kron-like elliptical aperture magnitude                    [mag]
#   3 X_IMAGE                Object position along x                                    [pixel]
#   4 Y_IMAGE                Object position along y                                    [pixel]
#   5 X_WORLD                Barycenter position along world x axis                     [deg]
#   6 Y_WORLD                Barycenter position along world y axis                     [deg]
#   7 A_WORLD                Profile RMS along major axis (world units)                 [deg]
#   8 B_WORLD                Profile RMS along minor axis (world units)                 [deg]
#   9 THETA_WORLD            Position angle (CCW/world-x)                               [deg]
#  10 FWHM_WORLD             FWHM assuming a gaussian core                              [deg]
#  11 ELONGATION             A_IMAGE/B_IMAGE                                           
#  12 ELLIPTICITY            1 - B_IMAGE/A_IMAGE                                       
         1 -14.2064    201.8421     17.4909   6.3533255926e+01   3.2412845559e+01     2.652425     1.504928  31.37    0.0114566    2.744    0.636
         2 -13.1783      3.6689     11.6680   1.1735470961e+02   7.2406412812e+01     1.842172    0.3396066 -46.92  0.007608713    3.508    0.715
         3 -11.7965     14.5478     12.5145   1.1190777584e+02   7.1409910941e+01    0.2297788    0.1771695  12.15 0.0009288489    1.373    0.272
         4 -11.4808     80.4502    248.2148   1.3740933870e+02   1.4565169853e+01     0.461271     0.165766  55.90  0.002178988    2.665    0.625
         5 -12.2003    139.5365    248.9816   1.2691906344e+02   5.7855198311e+00    0.4094675    0.3178165  54.79  0.002831668    1.174    0.148
         6 -12.5343    128.4807    245.5325   1.2853154240e+02   8.0148961021e+00    0.4616442    0.2744268  47.51   0.00278321    1.354    0.261
         7 -11.5688    104.6935    244.9564   1.3279497757e+02   1.1682466149e+01    0.2332149    0.1365264  50.08 0.0006149674    1.361    0.265
         8 -10.5602     66.5120    249.9927   1.3995869387e+02   1.6110222498e+01      0.22934    0.1261474  49.74 0.0003922736    1.400    0.286
         9 -10.3658     52.9729    249.7805   1.4223299057e+02   1.7845473337e+01    0.2454612    0.1462009 -87.80  0.001224158    1.628    0.386
        10 -10.6201     46.4567    248.7556   1.4325335841e+02   1.8805377539e+01    0.2740114    0.1634635  64.60  0.001099147    1.293    0.227
        11 -10.8306     49.6773    245.4069   1.4249737932e+02   1.8996556537e+01     0.232773    0.1536525 -80.44  0.001595295    1.502    0.334
        12 -13.1647     33.1583    247.7390   1.4538009612e+02   2.0513797356e+01     1.146224    0.8722802  13.52  0.007906505    2.599    0.615
        13 -15.0646      7.0129    241.8942   1.4927779075e+02   2.4265692436e+01     6.570447     1.125518 -76.61   0.02769259    4.939    0.798
        14 -14.5808      8.5948    207.2386   1.4732995737e+02   3.0542033102e+01     2.647501     1.654252  75.89   0.01151982    1.212    0.175
        15 -15.2996     12.8474    159.4719   1.4320425700e+02   4.0190909711e+01     5.290246     1.658464 -86.37    0.0199031    3.818    0.738
        16 -11.3266     83.4258    244.4143   1.3656039271e+02   1.4800031136e+01    0.2791581    0.1596089  78.18  0.001629352    1.984    0.496
        17 -10.5812    250.0000    243.4933   1.0680229343e+02  -1.0104910929e+01    0.2185069   0.05773573 -32.77 0.0009441057    4.011    0.751
        18 -14.2275     47.7346    219.5692   1.4099188867e+02   2.3956161426e+01     1.282928     0.703137  50.83  0.006338208    1.512    0.339
        19 -10.7769     41.8803    206.7228   1.4108683945e+02   2.7175131555e+01    0.2980028    0.1815993  62.54  0.001866097    1.384    0.278
        20 -12.6376     40.8737    228.6500   1.4289398041e+02   2.3049379268e+01    0.3349173    0.2960171 -71.80 0.0008875104    1.495    0.331
        21 -11.4537     66.1021    195.4152   1.3516173845e+02   2.6486924736e+01    0.3535631    0.2413035 -44.26  0.001822221    2.050    0.512
        22 -10.1945    192.6375    194.1205   1.0856361822e+02   5.4987346781e+00    0.4381947    0.2330164 -62.22  0.001476136    4.962    0.798
        23  -8.6911     47.8165    193.1419   1.3872612882e+02   2.9274578238e+01    0.1439623    0.1281373 -79.52 0.0002962755    1.265    0.209
        24 -11.9649    119.9561    238.2004   1.2927377754e+02   1.0503418703e+01    0.3683626    0.2282887 -88.19  0.002001146    2.377    0.579
        25 -11.7350     71.0819    187.6079   1.3322466959e+02   2.7465792485e+01    0.3650008    0.2612657  84.80 0.0007114164    1.329    0.248
        26  -9.1462    125.9772    185.3355   1.2086346496e+02   1.9266663284e+01    0.2184889    0.1138068  21.30 0.0007045636    4.299    0.767
        27 -10.8661     80.6703    175.8712   1.2959752418e+02   2.8657771084e+01    0.2410444    0.2100623 -74.07 0.0004587712    1.143    0.125
        28 -13.1089     67.8343    173.5983   1.3222581702e+02   3.0973688599e+01    0.4658862    0.2690051 -46.10  0.001432604    2.193    0.544
        29 -12.1069     86.6675    166.2297   1.2680353267e+02   2.9909364790e+01     1.174756    0.6035411  61.28  0.004961733    2.437    0.590
        30 -14.9240     55.2582    210.4976   1.3881524729e+02   2.4808384051e+01     8.477338          nan  45.88   0.02127396    8.681    0.885
        31  -9.8075     99.9851    151.0157   1.2100459498e+02   3.1226905249e+01    0.2915478     0.199882 -52.82 0.0006936205    1.447    0.309
        32  -9.1552    102.9261    146.7636   1.1946986026e+02   3.1698739753e+01    0.2957385    0.1704435 -32.84  0.001166696    2.672    0.626
        33 -11.9498     88.6682    150.1471   1.2368028774e+02   3.3272833650e+01    0.2811725    0.2526761 -42.98 0.0004860989    1.259    0.206
        34 -12.5844     67.3391    144.1787   1.2811247732e+02   3.7799457010e+01    0.7412653    0.4984239  74.82  0.003798962    1.691    0.409
        35 -12.3096     57.4442    130.0593   1.2840201159e+02   4.2423746732e+01     1.569507    0.5306155 -74.90  0.003680143    7.747    0.871
        36  -8.7116    134.4370    148.4995   1.1209201787e+02   2.5469369012e+01    0.1467703    0.1414359  82.75  0.000112874    1.026    0.025
        37  -8.7659    192.1470    144.1838   9.8408964698e+01   1.4378031426e+01    0.1905035    0.1730568 -69.47 0.0003814569    1.289    0.224
        38 -11.4695     33.5259    141.3224   1.3638453031e+02   4.2435248285e+01    0.2723045    0.2019202  52.76  0.001693222    1.408    0.290
        39  -9.8035    110.7365    136.5668   1.1542178451e+02   3.2644557874e+01    0.3125108    0.2368806 -19.30  0.001371323    1.827    0.453
        40 -10.3544     98.2587    133.5501   1.1803524196e+02   3.5549839195e+01    0.2728654    0.2193628 -32.78 0.0005401889    1.448    0.309
        41 -11.1411     50.2242    130.1034   1.3038273481e+02   4.3281047899e+01    0.2638148    0.2020193  58.59  0.000839506    1.384    0.277
        42  -9.8015     76.2542    235.8485   1.3710052530e+02   1.7271815064e+01    0.2003093   0.08977208  67.01 0.0008543211    2.740    0.635
        43  -9.4285    107.7221    123.2795   1.1326601979e+02   3.6235415305e+01     0.201086    0.1890552 -79.61 0.0004484874    1.051    0.049
        44 -10.5657    168.0500    113.1744   9.5918950147e+01   2.5674992175e+01    0.3491135    0.2928953 -75.95 0.0007204558    1.415    0.293
        45 -12.0877    151.5315    229.1556   1.2217743940e+02   6.9383217400e+00    0.6570482    0.1980635  35.08  0.002298661    3.800    0.737
        46 -10.9520    247.0034    249.5061   1.0823159723e+02  -1.0331566397e+01    0.2701141    0.1234175  47.45  0.001346509    3.144    0.682
        47 -12.4761     99.0702    246.6235   1.3396968278e+02   1.2224712737e+01    0.4601538     0.404571   2.32  0.002667522    1.752    0.429
