#   1 NUMBER                 Running object number                                     
#   2 MAG_AUTO               Kron-like elliptical aperture magnitude                    [mag]
#   3 X_IMAGE                Object position along x                                    [pixel]
#   4 Y_IMAGE                Object position along y                                    [pixel]
#   5 X_WORLD                Barycenter position along world x axis                     [deg]
#   6 Y_WORLD                Barycenter position along world y axis                     [deg]
#   7 A_WORLD                Profile RMS along major axis (world units)                 [deg]
#   8 B_WORLD                Profile RMS along minor axis (world units)                 [deg]
#   9 THETA_WORLD            Position angle (CCW/world-x)                               [deg]
#  10 FWHM_WORLD             FWHM assuming a gaussian core                              [deg]
#  11 ELONGATION             A_IMAGE/B_IMAGE                                           
#  12 ELLIPTICITY            1 - B_IMAGE/A_IMAGE                                       
         1 -13.3304    227.8401     16.0705   1.9567983831e+01   2.7912083193e+01     2.153719     1.292571  31.20  0.009617296    4.804    0.792
         2 -11.6563    249.2379     23.7513   1.9726587930e+01   2.3013420225e+01    0.5368394    0.2881067 -60.59  0.003258805    1.485    0.327
         3 -13.3260    238.5916     13.5710   1.8411809652e+01   2.6131650072e+01    0.8182122    0.6388252  -6.96  0.005487998    2.195    0.544
         4 -13.4201    240.1656     19.5670   1.9481625404e+01   2.5159753628e+01     1.289634    0.8821689   1.88  0.006831003    3.600    0.722
         5 -12.6422    247.9637     14.6639   1.8089894876e+01   2.4283343492e+01    0.8430506    0.4100995 -34.86  0.005002029    1.950    0.487
         6 -12.3927    245.1669     32.0320   2.1575039794e+01   2.2758935370e+01    0.3977431    0.3631953  41.08  0.001226941    1.690    0.408
         7 -12.4607    236.5012     30.1474   2.1811613170e+01   2.4596308094e+01    0.5179211    0.3305473 -34.36  0.003258734    1.609    0.379
         8 -11.7256    111.3132     19.2403   3.3869631093e+01   5.4034119654e+01    0.5139679     0.342575 -13.93   0.00270956    1.911    0.477
         9 -11.7779    192.0601     18.6062   2.2845968178e+01   3.5074011656e+01    0.4957764     0.271041  54.41  0.002274598    2.151    0.535
        10 -10.9892    100.9610     16.5028   3.5032265566e+01   5.6774440227e+01    0.4362605    0.2950523  31.05  0.002330623    1.721    0.419
        11 -10.5889    136.8666     15.9524   2.8409189931e+01   4.8225109822e+01    0.3183876    0.2351596  -7.40 0.0008267371    1.827    0.453
        12 -10.0970     50.0012      3.6948   4.4217280154e+01   6.9116820096e+01    0.3832744    0.1615872 -23.01  0.001802863    2.712    0.631
        13 -10.6348     38.3734     16.7795   5.6335517247e+01   6.9694865493e+01    0.5228618    0.2023825  30.59  0.001683853    3.251    0.692
        14 -10.0122     46.8979      5.4997   4.6442576211e+01   6.9528635495e+01    0.2441613    0.1597131  45.31 0.0008174704    1.333    0.250
        15 -10.3580     39.4563      9.3856   5.1882614193e+01   7.0446242730e+01    0.2180789    0.1944311  45.04 0.0008546321    1.296    0.229
        16 -11.3145     43.5141     12.1052   5.1444121032e+01   6.9409395384e+01    0.2341229    0.1962068  25.43 0.0003741743    1.025    0.025
        17 -10.9459     45.9713      9.2582   4.8845824261e+01   6.9295568158e+01    0.2199389    0.1991121  29.19  0.000259192    1.131    0.116
        18 -12.1178    127.9495      4.7327   2.6129830065e+01   5.1443511515e+01    0.3990671    0.2905803 -61.25  0.001220619    1.416    0.294
        19 -10.4900    133.4578      1.9780   2.4524512103e+01   5.0359835984e+01    0.2873101    0.1439243  68.39   0.00145279    1.674    0.403
        20 -10.0859    138.5210      1.4761   2.3751085552e+01   4.9191930285e+01    0.1907682   0.09820437  63.28 -2.308854e-05    1.679    0.405
        21 -10.4234    125.6874     14.3030   2.9592846156e+01   5.1090985847e+01    0.2726771    0.1682591 -45.90 0.0006611515    1.715    0.417
        22 -11.2797    123.3200     11.1377   2.8923365980e+01   5.1971385288e+01    0.4375261    0.2528946  61.91  0.001721691    1.495    0.331
        23 -10.8301     83.6148     13.2040   3.7897855895e+01   6.1102893963e+01     0.227729    0.2204849 -32.02 0.0006283483    1.176    0.150
        24 -10.1287     10.0017     15.1216   7.2243810932e+01   7.3791531386e+01    0.2121363    0.1660698 -52.14  0.001374341    1.613    0.380
        25  -9.7938    176.4709     12.1594   2.2697709585e+01   3.9269807559e+01    0.2531461    0.1488512  84.94 0.0003464912    1.541    0.351
        26 -13.3030    211.7541      7.5317   1.8839378638e+01   3.2075543782e+01     1.370348    0.4994327  62.97  0.006636394    2.821    0.646
        27 -10.7713    203.9238      3.8772   1.8564141181e+01   3.4085812816e+01    0.2721198    0.1955079  44.15 0.0009580091    2.057    0.514
        28 -11.7090    197.5593      2.9352   1.8785657933e+01   3.5534763856e+01    0.6629145    0.2272375  83.51  0.002900564    2.906    0.656
        29 -12.2691    186.9932     13.7383   2.2131107713e+01   3.6730581329e+01    0.2563814    0.1999696 -68.59 0.0003610439    1.069    0.065
        30 -11.8681    182.8281     12.2220   2.2130769959e+01   3.7823602067e+01    0.3052112    0.2585535 -75.65 0.0008516525    1.064    0.060
        31 -10.1121    157.8245     11.1488   2.4336581419e+01   4.3704030482e+01    0.2896857    0.1902716 -65.84  0.001070503    1.456    0.313
        32 -10.5263    150.1561      6.1520   2.3786614151e+01   4.6002908620e+01     0.285418    0.1939329 -78.71 0.0006003811    1.374    0.272
        33 -10.8693    153.3716      3.2656   2.2622246633e+01   4.5507765850e+01    0.4315127    0.2088842  78.14   0.00215003    1.821    0.451
        34 -10.5573    149.6488     11.9611   2.5514824010e+01   4.5562295701e+01    0.2383708    0.1666111  74.07 0.0005537856    1.255    0.203
        35 -10.6107    153.1338      9.4955   2.4401043525e+01   4.4977201529e+01    0.2499035    0.1927108  88.66 0.0006831912    1.113    0.102
        36 -10.0596     63.1735     10.0944   4.2640433306e+01   6.5837077949e+01    0.2022086    0.1680299  56.94 0.0007755599    1.198    0.165
        37  -9.9202     52.9840     10.7362   4.6703931072e+01   6.7807526654e+01    0.2441846    0.1922901 -56.62 0.0007123699    1.793    0.442
        38  -9.3449     62.5241     14.0434   4.4753939057e+01   6.5547699154e+01    0.2345126    0.1519081 -27.70  0.001062306    1.689    0.408
        39 -10.5972     58.2841     13.0023   4.5794421102e+01   6.6516988379e+01    0.3886445    0.2321705  47.71  0.001668579    1.466    0.318
        40 -11.5263     30.9437     11.4104   5.7330276888e+01   7.1597482970e+01    0.3123324    0.2277106 -17.54  0.001003473    1.353    0.261
        41 -10.8142     24.6077     13.2178   6.1901629050e+01   7.2291042192e+01    0.2633684    0.1881902  14.86 0.0003952891    1.273    0.214
        42 -10.1735    144.4277     12.1969   2.6236106939e+01   4.6787118480e+01    0.3669641    0.1763596 -65.00  0.001599055    2.547    0.607
        43  -9.2702     73.2783      8.6950   3.8797999742e+01   6.3832550173e+01    0.1841104    0.1449001  66.07 0.0001787933    1.266    0.210
        44 -10.0268     76.5048      9.4494   3.8212794073e+01   6.3054464617e+01     0.244125    0.1827395 -26.15  0.001469725    1.503    0.335
        45 -10.4444     77.3516      5.4075   3.6185471827e+01   6.3241469153e+01    0.3729627    0.2458297 -70.46  0.001932079    2.253    0.556
        46 -10.5017    134.9370      9.8916   2.6798455398e+01   4.9291717536e+01    0.1882027    0.1598203  80.79 0.0003003301    1.017    0.017
        47 -11.0418    167.8224      5.8108   2.1881776690e+01   4.1893871002e+01    0.3489364    0.2640266 -27.43  0.001313041    1.569    0.362
        48  -9.9505    115.7456      8.0489   2.9108154870e+01   5.4078713587e+01     0.179517    0.1536174 -80.88 0.0003992048    1.164    0.141
        49  -9.8530    103.2550      7.9148   3.1313736083e+01   5.7064876544e+01     0.221013    0.1594092  79.89 0.0009238363    1.342    0.255
        50  -9.3984     22.7551      7.9877   6.0075738224e+01   7.3269108364e+01    0.1562219    0.1275641   7.30 0.0002804783    1.005    0.005
        51  -9.2635     26.3813      6.5056   5.7089905125e+01   7.2926095517e+01    0.1858018    0.1031034  37.51 0.0004653441    1.631    0.387
        52 -11.0724    188.3591      6.6800   2.0331567474e+01   3.7163140421e+01    0.4094918    0.3390219 -40.62  0.002802961    1.338    0.252
        53  -9.7077    178.9830      5.7561   2.0873704247e+01   3.9349310230e+01    0.1688676     0.133149 -80.80 0.0003691374    1.034    0.033
        54 -10.2054    175.8331      3.2103   2.0506456757e+01   4.0309204751e+01    0.1989654    0.1759272 -29.67 0.0005357163    1.405    0.288
        55 -11.3183     89.2700      3.1967   3.2351388215e+01   6.0735392131e+01    0.4155426    0.2701219  84.80  0.001221474    1.729    0.422
        56 -11.6604      3.4861      4.1540   7.0993006621e+01   7.6159444890e+01    0.2629973    0.2136215 -10.44 0.0002901567    1.077    0.071
        57 -10.7014      7.4798      2.5206   6.7006904993e+01   7.5970507757e+01    0.2505879    0.1601122  -4.05 0.0008208166    1.530    0.346
        58 -10.8114     34.6785      3.8010   5.1076652232e+01   7.1905284526e+01    0.2821698    0.2018546 -22.24  0.001809425    1.457    0.314
        59 -10.2999     16.6148      2.9566   6.0926299043e+01   7.4777941863e+01     0.251781    0.2351876 -86.40  0.001375883    1.873    0.466
        60 -11.2091     40.8892      2.7479   4.7528675048e+01   7.0923577865e+01     0.259167    0.1880451  57.98  0.001293542    1.581    0.368
        61 -10.0023    107.2492      2.3851   2.8530905405e+01   5.6593125953e+01    0.3025533    0.1064686  71.51  0.001212515    2.633    0.620
        62  -9.8010    103.4585      1.5054   2.8870677754e+01   5.7561671347e+01    0.2128703    0.1434308  61.22 0.0009307477    1.253    0.202
        63 -10.0773    115.5033      1.2086   2.6768938739e+01   5.4723024475e+01    0.3517018   0.06470794  65.42  0.001175012    3.698    0.730
        64 -11.2028    101.4307     97.8009   6.2280181330e+01   4.3022407696e+01    0.3293392    0.2556557  57.81  0.001580973    1.377    0.274
        65 -12.4340      9.1829    248.8651   1.0872840403e+02   1.9452369948e+01    0.5851337    0.2191938  30.48  0.002975439    2.315    0.568
        66 -10.1581     86.8004     97.7132   6.6886136614e+01   4.5913565953e+01    0.3025795    0.2172795 -55.00  0.001415565    1.410    0.291
        67 -10.8047    108.0028     96.0542   5.9844875777e+01   4.2049195446e+01    0.3197185    0.2277893  57.49 0.0003921578    1.515    0.340
        68 -10.0028     26.9232     96.9641   8.9238259193e+01   5.4746109951e+01    0.2032309    0.1871509 -57.57 0.0003847477    1.017    0.016
        69  -9.5414    116.6934     96.0068   5.7380901811e+01   4.0211057952e+01    0.2073044    0.1925552 -62.88  0.000248949    1.076    0.070
        70  -9.3851     81.5507     94.7314   6.7824037909e+01   4.7577490713e+01    0.2103589    0.1459743 -63.73 0.0009440867    1.620    0.383
        71  -8.7088     69.6813     95.2952   7.2155750956e+01   4.9526257765e+01    0.1493634    0.1168621  72.85 0.0002208201    1.610    0.379
        72 -10.2376     17.0563     92.4393   9.2456159170e+01   5.6736665242e+01    0.2511316    0.1772116 -87.25  0.001318779    1.549    0.355
        73 -12.4521     34.9393     89.4446   8.4296853548e+01   5.5794162158e+01    0.3314334     0.260408 -75.87  0.001324807    1.361    0.265
        74 -10.3252     33.8732     83.8192   8.3400380940e+01   5.7276954915e+01    0.2548653    0.2219565 -72.94 0.0007935386    1.211    0.174
        75  -9.5669    127.4262     90.2968   5.2963779357e+01   3.9038996641e+01    0.2251343    0.1398997 -54.66 0.0005256756    1.725    0.420
        76  -8.9062     64.6635     89.2276   7.2347983740e+01   5.1777491795e+01    0.1425801    0.1108449  60.90 0.0001604025    1.531    0.347
        77 -10.2647     54.3222     88.8095   7.6225698918e+01   5.3465229783e+01    0.2777743    0.1850903  -8.40  0.000741285    2.106    0.525
        78 -11.4864     12.8792     88.1172   9.3436214059e+01   5.8124291066e+01    0.2102397    0.1999329 -70.18            0    1.094    0.086
        79  -9.6635    120.3715     87.6346   5.4024971685e+01   4.1145846991e+01    0.3025797    0.2213499 -70.36 0.0007068535    1.673    0.402
        80 -12.2615    105.3337     80.7385   5.6156858046e+01   4.5834351840e+01    0.7202607    0.4418117 -27.41  0.001716395    2.152    0.535
        81  -9.1838     20.4920     83.9914   8.9289516572e+01   5.8543902733e+01    0.1879597    0.1122171  81.98 0.0008099146    2.486    0.598
        82  -9.7430    187.9217     83.0088   3.8941428971e+01   2.6885980662e+01    0.2024365     0.177467 -61.10            0    1.021    0.021
        83 -10.8705     79.8022     81.1269   6.4457300942e+01   5.0941666201e+01    0.3013639    0.2470603  -2.44 0.0002312449    1.452    0.311
        84  -8.9591      1.4882     83.4578   9.7601067458e+01   5.9969488187e+01    0.1312447    0.1104659 -54.04 0.0002518861    1.030    0.029
        85 -10.3439     84.1081     87.0221   6.4745473273e+01   4.8838840347e+01    0.2485631    0.2176931 -65.24  0.000471729    1.218    0.179
        86  -9.7292    111.9622     82.4878   5.4795675415e+01   4.4039141356e+01    0.2264506    0.1464244  46.89 0.0004472946    1.532    0.347
        87 -11.2893     54.0693     81.0836   7.4180181852e+01   5.5305266031e+01    0.2659428    0.2251046 -58.08 0.0003511432    1.204    0.169
        88  -9.8539     86.9711     80.2223   6.1730758463e+01   4.9749585535e+01    0.1973072    0.1885614  37.37 -0.000430966    1.038    0.037
        89  -9.1593    150.7675     78.9893   4.4516024020e+01   3.5877902139e+01    0.1863736    0.1190172 -41.25 0.0003120168    1.546    0.353
        90  -9.5951     31.5436     78.9578   8.3202032787e+01   5.8689431319e+01    0.2058227    0.1276812 -59.91  0.000439056    1.531    0.347
        91  -9.2027     23.0145     79.0388   8.7051058514e+01   5.9517421506e+01    0.1648722    0.1382354 -52.69 0.0004358671    1.083    0.077
        92  -9.2512    187.0134     76.2506   3.7443929872e+01   2.8204360618e+01    0.1842414    0.1671666 -87.61 0.0003305745    1.093    0.085
        93  -9.2214     61.2206     76.3435   6.9900954942e+01   5.5256261669e+01    0.1936889    0.1281253  44.79 0.0003394724    1.604    0.377
        94 -10.1320     75.4142     75.1978   6.4167087076e+01   5.3025260528e+01    0.3033179    0.1855579  34.16 0.0008578291    1.692    0.409
        95 -11.4986     45.5580     73.1944   7.5430321766e+01   5.8306203826e+01    0.3557285    0.2971893 -51.61  0.002001443    1.180    0.152
        96 -11.5955      8.2301     73.9473   9.2773404071e+01   6.1878871850e+01    0.2348735    0.2048901 -19.23 0.0004953988    1.159    0.137
        97 -10.0250    152.0055     73.2638   4.2695172480e+01   3.6600042097e+01    0.2411186    0.1953181 -47.19 0.0003229394    1.208    0.172
        98 -10.3914     56.8122     72.4964   7.0474258510e+01   5.6802629109e+01    0.3717994    0.2093712 -38.07 0.0005623289    1.871    0.465
        99 -10.8502     61.1425     70.8251   6.8190254045e+01   5.6460998997e+01    0.4532746    0.2279948  35.17  0.001557627    2.008    0.502
       100 -10.9726    238.8816     73.3179   3.0336393198e+01   1.8352286889e+01    0.1935762    0.1385064 -73.50  0.001207477    1.428    0.300
       101 -10.3205    137.7694     72.6890   4.5487122390e+01   4.0014123049e+01     0.298511    0.2277867  45.21  0.001330975    1.382    0.277
       102 -10.3279    136.5374     69.4990   4.4828097466e+01   4.0862232306e+01    0.2731933      0.22266 -10.36  0.001111507    1.596    0.373
       103  -9.3133     83.5534     73.4166   6.0735185749e+01   5.1834356868e+01    0.2273346    0.1922668 -34.16  0.000407548    1.215    0.177
       104  -9.7413     81.9685     70.2709   6.0253050947e+01   5.2780897127e+01    0.2064887    0.1920137  73.24 0.0002131155    1.181    0.153
       105  -9.1851     23.8455     72.8212   8.5147077054e+01   6.0907820957e+01    0.1635292    0.1514284  77.57 -0.0006383859    1.265    0.210
       106 -10.5837     17.2972     70.7685   8.7736947933e+01   6.1965314993e+01    0.2896042    0.2059235 -49.63 0.0009322721    1.234    0.190
       107  -9.8544    142.9224     71.2686   4.3973634704e+01   3.9061230841e+01    0.2033188    0.1877658  72.21 0.0005613016    1.059    0.056
       108 -12.0016     51.2815     69.9221   7.1965805642e+01   5.8208905262e+01    0.3395256    0.2656682 -66.00 0.0005101635    1.483    0.326
       109 -10.7865     30.7038     71.0490   8.1477488873e+01   6.0618654826e+01    0.2176347    0.1884433  12.24 0.0002964445    1.189    0.159
       110 -10.5839     73.9789     67.5431   6.2185169314e+01   5.4864552229e+01    0.2573214    0.2259684 -39.04 0.0003896093    1.148    0.129
       111 -10.0449     35.5174     67.8736   7.8332105699e+01   6.0783512627e+01    0.2632259    0.1989125  66.40 0.0007587152    1.848    0.459
       112  -9.1458     85.4587     67.4543   5.8131257478e+01   5.2636638382e+01    0.1430826    0.1396324  36.51 9.042805e-05    1.020    0.019
       113 -10.2446    194.8438     65.7044   3.3790166366e+01   2.8187185783e+01    0.2344297    0.1659147 -48.89 0.0002861779    1.255    0.203
       114 -10.7556    180.8887     64.2109   3.5378596708e+01   3.1476223276e+01     0.315107    0.2202541 -38.25  0.001672703    1.417    0.294
       115  -9.5129    177.0724     63.9985   3.5894829387e+01   3.2366367960e+01    0.1894405    0.1808975 -72.49 0.0003040159    1.125    0.111
       116 -11.3364    111.1287     65.7893   4.9857228350e+01   4.7398247765e+01    0.2437622    0.2372575 -79.67 0.0002238109    1.038    0.037
       117 -10.0307     89.3386     65.7438   5.6280037814e+01   5.2166104353e+01    0.2919344    0.2143613  71.67 0.0008667283    1.764    0.433
       118  -9.5067      9.4765     66.1378   9.0452516478e+01   6.3626592682e+01    0.1924334    0.1144891 -62.25 0.0005556677    1.516    0.341
       119 -10.2586      2.4614     64.9211   9.3693510417e+01   6.4336391431e+01    0.2996455    0.1980621  73.41 0.0007726263    2.061    0.515
       120 -10.4822    161.4035     64.0066   3.8431268335e+01   3.5956890695e+01    0.4077868    0.1179157 -40.13  0.001374731    3.181    0.686
       121 -10.3088    153.0315     65.0104   4.0207759136e+01   3.7748948595e+01    0.2052252    0.1944758 -81.12  0.001194345    1.050    0.047
       122  -9.1475     26.3066     65.3211   8.1944174063e+01   6.2378656343e+01    0.1422418   0.09016476 -28.94  0.000703254    1.639    0.390
       123  -9.9262     62.4755     63.9632   6.5371580083e+01   5.7655810273e+01    0.4329181    0.2048719 -59.79  0.001552648    3.238    0.691
       124 -10.3629     58.1260     58.1174   6.5093195303e+01   5.9555924529e+01    0.3489226    0.2279555  55.57 0.0006655982    1.976    0.494
       125  -9.6139     61.3556     57.3073   6.3476961605e+01   5.9159015283e+01    0.2271322    0.1624472  31.50 0.0005376922    1.384    0.278
       126 -10.4895     81.2319     61.8169   5.7644561005e+01   5.4563799340e+01    0.3702604    0.1918727 -34.25  0.001348042    2.198    0.545
       127  -9.6258     44.6480     63.3451   7.2738487191e+01   6.0577049447e+01    0.1988537    0.1652676  75.33 0.0007521641    1.642    0.391
       128  -9.9773    147.0172     61.6803   4.0403457309e+01   3.9705410229e+01    0.1960972    0.1758221  74.93 0.0003634681    1.070    0.065
       129 -12.3694    150.7714     57.5021   3.8507052911e+01   3.9478912659e+01    0.3404508    0.2646294 -61.99 0.0005521767    1.282    0.220
       130 -10.2587    218.5905     59.2190   2.9480017494e+01   2.4233573619e+01    0.2003893    0.1502477 -82.04 0.0007053242    1.312    0.238
       131  -9.5801    132.2679     59.0276   4.2626283606e+01   4.3628438962e+01    0.1939899    0.1866602 -79.39 0.0005166021    1.050    0.047
       132  -9.4248    185.1331     57.8773   3.3195089957e+01   3.1492963560e+01    0.1573729    0.1560734 -75.92 0.0002560108    1.235    0.191
       133 -10.7414    160.6854     57.2569   3.6715208562e+01   3.7181340364e+01    0.3515776    0.2839429 -65.15  0.001377859    1.187    0.158
       134  -9.4110    105.7881     57.1590   4.8471216342e+01   5.0108728297e+01     0.194103    0.1660919  23.79 0.0003394702    1.311    0.237
       135 -11.2278     10.7712     52.4849   8.6224364478e+01   6.6587517906e+01    0.2916903    0.2596999  11.17  0.000550482    1.209    0.173
       136 -11.8669     30.5466     53.5656   7.6158497558e+01   6.4443015796e+01    0.4220483    0.3141155  86.37  0.001993009    2.217    0.549
       137  -9.7918     27.1978     56.3855   7.8783700845e+01   6.4233114980e+01    0.2566123    0.1257714  26.11 0.0009409096    2.077    0.519
       138 -10.7747     19.7976     55.5099   8.2308215600e+01   6.5170856145e+01    0.2240194    0.1922868 -39.44 0.0003497472    1.065    0.061
       139 -10.4873    127.9090     52.7897   4.1639886120e+01   4.5651574343e+01    0.3098705    0.1965638 -44.87 0.0009951721    1.616    0.381
       140  -9.6182     68.5459     53.9038   5.9400252235e+01   5.8491529860e+01    0.2084134    0.1353454 -38.17  0.001018956    1.583    0.368
       141 -10.0373    173.3433     51.2959   3.3166716190e+01   3.5127275594e+01    0.4307704     0.183849 -57.47  0.001626887    2.923    0.658
       142 -11.9971    122.4932     49.8944   4.1914929742e+01   4.7382539704e+01    0.4011328    0.2402549 -45.24  0.001737687    1.737    0.424
       143 -11.0227     18.8990     49.1958   8.0776875034e+01   6.6590468961e+01    0.4876432     0.318422   7.47  0.001988573    1.601    0.375
       144  -9.4193     44.4977     53.5251   6.9403318160e+01   6.2604405832e+01    0.1365384    0.1214249  -9.10 -7.031968e-05    1.047    0.045
       145 -11.7205      2.0333     51.2107   9.0694894619e+01   6.7443987071e+01    0.2972769    0.1551605 -52.11 0.0003922198    1.572    0.364
       146  -9.5880    179.3600     51.8138   3.2459191775e+01   3.3678282123e+01    0.1889384    0.1261519 -27.14 0.0009599157    1.775    0.437
       147 -10.1579    200.6035     55.1073   3.0565854051e+01   2.8528239120e+01    0.2347511    0.2118168  43.85 0.0004245398    1.438    0.304
       148  -9.9431    117.6597     51.6091   4.3592300494e+01   4.8260831544e+01    0.2415634    0.1577242  46.15  0.001156171    1.534    0.348
       149  -9.5037     35.2294     50.8277   7.2856545049e+01   6.4418396586e+01    0.1812112    0.1378175 -19.59 0.0004181732    1.308    0.235
       150 -10.5478    211.7385     49.4454   2.8041577414e+01   2.6992178064e+01    0.2771251    0.1896086 -86.01  0.001203613    1.466    0.318
       151  -9.9315    201.3253     49.8386   2.9254414409e+01   2.9119532068e+01    0.2155422     0.157309 -88.40 0.0009286999    1.338    0.252
       152  -9.8285     54.0426     49.4626   6.3608900060e+01   6.1880307759e+01    0.2862154    0.2139696 -89.88  0.001142211    2.416    0.586
       153 -10.6511    233.5149     48.2535   2.5718385154e+01   2.2851621088e+01    0.2116566    0.1439537 -54.58 0.0009830135    1.167    0.143
       154  -9.8639    194.0231     48.3431   2.9741680150e+01   3.0903498978e+01    0.2408135    0.1516192 -61.17 0.0008076325    1.497    0.332
       155  -9.7528    103.8254     49.1652   4.6267724984e+01   5.1854418996e+01    0.2062651    0.1868229 -78.31 0.0005293827    1.191    0.160
       156  -9.3488     45.3677     48.7978   6.7236087398e+01   6.3386244606e+01    0.1909791    0.1164615 -35.95 0.0009464246    1.648    0.393
       157 -11.8488    138.2997     47.5807   3.7911757662e+01   4.3947951340e+01    0.2737251    0.2350331 -77.03 0.0003074732    1.146    0.128
       158 -10.2031    134.4742     43.7096   3.7456507007e+01   4.5421024599e+01     0.240854    0.2116988  76.89 0.0005209228    1.051    0.049
       159  -9.3645     63.4244     47.7541   5.9057314279e+01   6.0538588947e+01    0.1900916    0.1267948 -26.85 0.0009415798    1.661    0.398
       160 -10.2426     27.0055     47.9333   7.6008324144e+01   6.5999079856e+01    0.2174066    0.1743826 -38.94 0.0005348941    1.161    0.139
       161 -10.0824     33.9764     46.3673   7.1832212908e+01   6.5455696524e+01    0.2250275    0.1742371 -12.90 0.0007143216    1.278    0.217
       162 -10.4438     38.4864     44.8172   6.8982105552e+01   6.5139453829e+01    0.3265472    0.1957971 -49.74  0.001253868    1.750    0.429
       163 -12.2327    163.4621     42.6187   3.2278612329e+01   3.8646204770e+01    0.3183781    0.2380099 -87.03  0.001765727    1.304    0.233
       164 -12.0174     90.8452     43.8138   4.8024690736e+01   5.5597665176e+01    0.2984758    0.2654089  44.92 0.0002917187    1.052    0.050
       165 -10.0019     89.0457     38.2707   4.6469368536e+01   5.6816743124e+01    0.2023969    0.1729285  33.64 0.0002847465    1.156    0.135
       166  -9.4547      7.6280     45.6690   8.5954403748e+01   6.8270141935e+01    0.1408521   0.07519545 -29.72 -3.075109e-05    1.835    0.455
       167  -9.8779    108.0546     43.6765   4.3256938580e+01   5.1709412439e+01    0.3837026    0.1687864  64.05  0.001453345    2.574    0.611
       168 -11.9553    249.4276     39.9532   2.2804403229e+01   2.1006948235e+01    0.3774615    0.2631071 -22.68  0.002383365    1.971    0.493
       169 -11.9308    239.7023     40.6813   2.3675712905e+01   2.2681635664e+01    0.2775103    0.2483664  10.90  0.001964012    1.784    0.439
       170  -9.8386    218.1106     41.3255   2.5633508091e+01   2.6781529758e+01    0.1856135    0.1496077 -46.11 0.0003355441    1.210    0.174
       171  -9.9406      8.1503     56.8386   8.8834056877e+01   6.5822005798e+01    0.1975042    0.1551323 -37.45            0    1.101    0.091
       172  -9.2823     97.1969     41.5936   4.5374394611e+01   5.4510415103e+01    0.1979967    0.1191326  44.97 0.0006546276    1.598    0.374
       173 -10.1099     28.0837     40.8032   7.2756137621e+01   6.7259843598e+01    0.2819824    0.1554963 -46.31 0.0009193978    1.738    0.425
       174 -11.9657    229.7342     38.6843   2.4066181707e+01   2.4825120367e+01    0.4058838     0.224502 -73.33  0.001173033    1.836    0.455
       175 -10.5105    114.1625     39.0023   4.0179686134e+01   5.0936972096e+01    0.3361225    0.2456224  28.95  0.001108299    1.679    0.404
       176 -10.5538    115.3730     35.2560   3.8624205329e+01   5.1153310853e+01    0.3733132    0.2083929 -43.80  0.001752646    1.911    0.477
       177 -11.3942     84.7848     38.9930   4.8045831098e+01   5.7643557887e+01    0.2303383    0.2222656  38.27 0.0002622973    1.048    0.046
       178 -10.1611     82.5191     35.5469   4.7403872674e+01   5.8630724343e+01    0.2189965    0.1964841  49.95 0.0008036321    1.061    0.057
       179  -9.5586     75.4924     40.0429   5.1516903624e+01   5.9447881533e+01    0.1834727    0.1347925 -34.02 0.0003121134    1.441    0.306
       180 -12.4418    140.2961     37.8175   3.4580942650e+01   4.4822447975e+01    0.2866291    0.2626379 -75.92 0.0003477424    1.062    0.059
       181  -9.8232    131.9610     39.2400   3.6539839540e+01   4.6642424777e+01    0.2877161    0.1804436  82.24 0.0006794498    1.805    0.446
       182 -10.3175    126.8886     37.7014   3.7035359482e+01   4.8070570878e+01    0.3358247    0.2784433  71.04  0.001308099    1.113    0.101
       183  -9.7373    126.8251     34.1324   3.5890294901e+01   4.8552888725e+01    0.1809538    0.1667364 -60.02            0    1.127    0.113
       184 -10.8176    123.9905     30.7247   3.5320818328e+01   4.9665256190e+01    0.2437963    0.2141761  86.71 0.0003948671    1.082    0.076
       185 -10.6517     55.4335     38.3213   5.8522784902e+01   6.3572787847e+01     0.379056    0.2845551  45.42   0.00151136    1.359    0.264
       186 -10.4870     54.0613     33.3544   5.6975030193e+01   6.4605461831e+01    0.2292321    0.1872477 -24.52 0.0003953819    1.245    0.197
       187 -11.0274     33.6495     37.8250   6.8604305854e+01   6.7089683389e+01     0.334413    0.2712838  52.08  0.001020057    1.614    0.381
       188 -10.3568    194.6214     37.6504   2.7120326164e+01   3.2207816679e+01    0.2464854    0.1799086 -63.34 0.0007732132    1.193    0.162
       189  -8.9881     10.3309     38.7095   8.2072818132e+01   6.9484224070e+01    0.1130477    0.0944834  52.94 0.0001783095    1.626    0.385
       190 -10.6785    154.7045     34.8558   3.1400952348e+01   4.1747389831e+01    0.3014471     0.233936  54.91 0.0009437275    1.352    0.260
       191 -10.3861     61.4531     34.9574   5.4622580118e+01   6.2999289842e+01     0.331615     0.238096 -72.26   0.00105057    2.459    0.593
       192 -12.1039    245.7747    248.2158   6.1225456083e+01  -8.6871991533e+00    0.3789771    0.1992061  26.21  0.002516325    1.828    0.453
       193  -9.5243    107.3730    246.7729   8.7602164524e+01   8.3164942549e+00    0.1579191    0.1147498 -44.48 0.0007859916    1.630    0.387
       194 -10.6745      1.5362    241.9893   1.1000155238e+02   2.1532129488e+01    0.1647691   0.09787944 -89.81 0.0006343226    1.581    0.367
       195 -11.0807     68.8865    217.5380   9.3259254542e+01   1.9337138881e+01    0.3591786    0.2229548  82.31 0.0004200612    1.947    0.486
       196 -10.2046     74.2080    221.1921   9.2367809400e+01   1.7844030225e+01    0.3257343    0.2342329 -19.72  0.001696158    2.038    0.509
       197 -10.4518    169.9693     33.4837   2.8937332137e+01   3.8319436703e+01    0.2374287    0.1804588 -48.60 0.0004028878    1.263    0.208
       198  -9.9499    170.4231     30.0000   2.7960178717e+01   3.8646130862e+01    0.2836134    0.1819509  73.97  0.001540306    1.449    0.310
       199 -11.3935    221.2452     15.5905   1.9906735392e+01   2.9271043655e+01    0.2172805    0.1656539 -63.68 0.0002235491    1.028    0.028
       200  -9.3564    149.0756     33.5210   3.1864368123e+01   4.3264138885e+01    0.1872393    0.1223224  68.83 0.0001286337    1.411    0.292
       201  -9.4515     68.2837     33.0632   5.1215830591e+01   6.1950053421e+01    0.1767561    0.1643712   5.07 0.0004170749    1.076    0.071
       202 -10.2837     31.7469     32.6182   6.7378000978e+01   6.8262447808e+01    0.2265923    0.1971102 -53.76 0.0008053845    1.443    0.307
       203 -12.0468    132.2699     29.6013   3.3431843682e+01   4.7803805345e+01    0.3342532    0.2781577 -53.99 0.0001646313    1.234    0.189
       204 -10.5187     78.6806    218.6974   9.1032133343e+01   1.7786495319e+01    0.2631524    0.2213196  11.09 0.0009266879    1.359    0.264
       205  -8.9298     24.6787     30.6813   7.0429155464e+01   6.9515054995e+01    0.1314117   0.08571982 -12.43 0.0004669096    1.667    0.400
       206  -8.9690    147.0256     28.9983   3.0849065947e+01   4.4314793723e+01    0.1575634    0.1380741  88.58            0    1.005    0.005
       207 -10.0705     47.3209     28.8232   5.7925451721e+01   6.6474732302e+01    0.1985962    0.1590121  39.39 0.0005488765    1.238    0.192
       208 -10.9830     34.8129     26.4891   6.2959595804e+01   6.8833834430e+01     0.418746    0.2217542 -44.33  0.002129851    2.042    0.510
       209 -10.1755     82.4641     27.4209   4.4143786704e+01   5.9735875621e+01    0.2556843    0.2402782 -27.66  0.001615065    1.168    0.144
       210  -9.8082     71.5157     26.4882   4.7261037509e+01   6.2194664282e+01    0.3331136    0.1121815  49.44  0.001292007    2.605    0.616
       211  -9.9909    182.6681     25.3213   2.5380962880e+01   3.6397490253e+01    0.2161536    0.1404571 -81.75 0.0008903031    1.457    0.314
       212 -10.0741    179.6902     22.3104   2.4937110631e+01   3.7423500553e+01    0.2685912    0.1598997 -60.84  0.001041678    1.570    0.363
       213 -10.0491    177.9926     19.2270   2.4333771118e+01   3.8159430838e+01    0.2090809    0.1729144 -44.17 -0.000430966    1.270    0.213
       214 -10.0939     99.5727     23.5038   3.8004501033e+01   5.6332232549e+01    0.2376971    0.2086345  63.68 0.0006448896    1.042    0.040
       215  -9.9849     22.6277     23.4452   6.8302266648e+01   7.0992927959e+01    0.2199055    0.1932841  29.58 0.0007825003    1.317    0.240
       216  -9.6446     55.8529    216.9761   9.6338011394e+01   2.1110935895e+01    0.1679472    0.1473923  73.29  0.001049391    1.087    0.080
       217  -9.8762     73.2078    214.1192   9.1849904333e+01   1.9523299868e+01     0.190326    0.1844932  11.31   0.00048501    1.182    0.154
       218  -9.5627     50.8933     22.8732   5.3551534470e+01   6.6701605251e+01    0.1972975    0.1551347  14.98 0.0005767873    1.235    0.190
       219 -10.0358    211.9646     22.3050   2.2018479581e+01   3.0394936067e+01    0.1694993    0.1307178 -85.25 0.0004619242    1.159    0.137
       220  -9.6492    164.9962     22.2890   2.6555428652e+01   4.0823801032e+01    0.1841656    0.1509622  89.22 0.0006574879    1.064    0.060
       221 -10.1618     67.2578     21.7446   4.6644199598e+01   6.3676368122e+01    0.2780394    0.1499523  41.16  0.001365972    1.714    0.417
       222 -10.3140      7.6211     21.3926   7.6876710945e+01   7.2964449512e+01    0.3293769    0.1969729   8.71  0.001920451    1.650    0.394
       223  -9.5875      1.3423     21.4545   8.1230642431e+01   7.3471249226e+01    0.1780183   0.09876277 -52.22 0.0001386607    1.716    0.417
       224  -9.3512    123.8839    206.0840   7.8553094047e+01   1.3911170790e+01    0.1675724    0.1475794  -3.10 0.0009666705    1.199    0.166
       225  -8.9864    159.6380     21.7572   2.7057463349e+01   4.2146411427e+01    0.1274668   0.08918443  50.63 0.0006540208    1.601    0.375
       226 -11.2042    151.5716     18.9068   2.7273872326e+01   4.4379498982e+01    0.3989485      0.23582  84.81  0.001505538    1.643    0.391
       227 -11.9468     55.3404     19.5505   5.0106321898e+01   6.6311349186e+01    0.2302731    0.1984166  31.00 0.0002991422    1.032    0.031
       228  -9.4166     27.4581     20.4875   6.4046823654e+01   7.0822876281e+01    0.2587001     0.110362  34.22  0.001224898    2.219    0.549
       229  -9.4523    100.9488    176.0800   7.9518344385e+01   2.4268456820e+01    0.1985246    0.1782332  62.69  0.001074198    1.126    0.112
       230 -10.9563      4.6460    163.0024   1.0513143573e+02   3.9435539466e+01     0.209232    0.1815986  44.48 0.0003322704    1.212    0.175
       231  -9.7895      6.2027    159.5563   1.0442948717e+02   4.0195048523e+01    0.2523258    0.1584909 -62.33 0.0006775371    1.514    0.340
       232 -10.2931      3.9362    152.3599   1.0452871918e+02   4.2202693648e+01    0.2630894    0.1703607 -83.13 0.0006188246    1.348    0.258
       233  -9.8174      5.5108    147.9476   1.0369352533e+02   4.3227095862e+01    0.1845209    0.1722839  59.53 0.0004535877    1.144    0.126
       234 -10.0921     29.6408    146.4943   9.6028691829e+01   4.1555646532e+01    0.3363687    0.1819544  45.13 0.0008716433    1.862    0.463
       235 -10.5098     11.7667    145.0315   1.0149843619e+02   4.3519145789e+01    0.2160388    0.1823497  50.20 0.0003022845    1.211    0.175
       236 -10.4235      2.7182    142.8057   1.0411534345e+02   4.4747145679e+01    0.2590835    0.1817217  67.50 0.0008545335    1.375    0.273
       237  -9.9689     71.9025    138.1774   8.1166467113e+01   3.8409186081e+01    0.2247666    0.1916546  70.28 0.0002735331    1.230    0.187
       238 -10.3639     29.6384    137.9617   9.4931720344e+01   4.3807725128e+01    0.2287097     0.192964  44.03 0.0002939139    1.228    0.185
       239  -9.9749     17.3878    140.9770   9.9295143219e+01   4.4127537630e+01     0.275354    0.1649493  42.67  0.001364282    1.695    0.410
       240 -10.8898     12.8028    135.0308   1.0013481010e+02   4.6052661901e+01    0.2162847    0.1952448 -50.76 0.0002494427    1.172    0.147
       241 -10.7669     16.9684    133.1247   9.8534025127e+01   4.6224181786e+01      0.45036    0.2225038  57.20  0.001023442    2.326    0.570
       242  -9.4690     87.0091     15.9703   3.8159451188e+01   6.0051724506e+01    0.1722329    0.1489105 -81.84 0.0004383338    1.328    0.247
       243 -10.1762    184.8297    134.0965   5.1299604943e+01   1.8162842684e+01     0.203924    0.1791976 -59.86 0.0002860379    1.184    0.155
       244  -9.4352     29.9874    133.9319   9.4263919369e+01   4.4838298319e+01    0.1973028    0.1531667  70.08 0.0003303774    1.326    0.246
       245 -11.0695     27.3914    130.2512   9.4629634362e+01   4.6062320876e+01    0.3783863    0.2871649 -17.49  0.001872786    1.607    0.378
       246  -9.5577     48.9565    126.7763   8.6633449974e+01   4.4598710018e+01    0.1929439     0.185504  73.06            0    1.056    0.053
       247 -11.0315     98.7040    125.8639   7.0240561057e+01   3.6963133551e+01    0.2732995    0.2486039  47.12 0.0002795513    1.106    0.096
       248  -9.0840      4.5414    131.4658   1.0249450154e+02   4.7566823185e+01    0.1341671    0.1156868 -87.06 5.566609e-05    1.029    0.028
       249 -10.6402     23.5924    124.7623   9.5174312789e+01   4.7859016665e+01    0.3598334    0.2040065  89.59  0.001597493    1.968    0.492
       250  -9.9590    230.0645    124.6894   4.1892835947e+01   1.1807007930e+01     0.239908    0.1927011 -85.51  0.001459129    1.646    0.392
       251 -10.2326    155.5374     14.9791   2.5666195836e+01   4.3853179088e+01    0.1776249    0.1548247 -75.74 0.0003984349    1.068    0.063
       252  -9.9835     59.0169    125.0301   8.2847305640e+01   4.3715855932e+01     0.212085    0.2034495 -86.68            0    1.025    0.025
       253 -10.2996    250.3893    120.2241   3.8344726820e+01   9.3010255117e+00    0.1831487   0.08974244 -45.71 0.0009555185    1.687    0.407
       254 -11.4622     41.5972    119.3703   8.7881445232e+01   4.7429754281e+01    0.2989433    0.2376648 -62.54  0.001252218    1.168    0.144
       255 -10.2780     21.5978    118.5921   9.4997207758e+01   4.9652504119e+01    0.3677392    0.1784345  33.23  0.001312747    2.121    0.529
       256  -9.1099     98.5646    117.4689   6.8283649654e+01   3.9021272048e+01    0.1529133     0.149725 -65.65 0.0001065054    1.009    0.009
       257 -10.1642    131.7166     13.8068   2.8495568303e+01   4.9685766612e+01    0.2626851    0.1617813  86.38  0.001021456    1.622    0.384
       258 -11.0674     46.8051    116.4205   8.5445204983e+01   4.7571912952e+01    0.2662991    0.2260084 -52.09 0.0001004219    1.128    0.114
       259 -10.8326     84.3343    113.3271   7.1744336914e+01   4.2646496785e+01    0.3244266    0.2603576 -88.60 0.0001741461    1.482    0.325
       260 -10.4539     15.4480    115.7018   9.6829417310e+01   5.0906376477e+01    0.2432593    0.2092421 -53.84 0.0003993209    1.113    0.101
       261 -10.3330     62.4522    112.7406   7.9057814708e+01   4.6377132161e+01    0.5014458    0.1643949 -49.59  0.001204624    2.898    0.655
       262  -9.0956    213.8820    114.5830   4.2140037424e+01   1.6318406900e+01    0.1542062    0.1263144  81.95 0.0003720662    1.485    0.326
       263  -9.9907      1.9713    113.4512   1.0148316406e+02   5.2386626261e+01    0.2633856    0.1862371  65.57  0.001455142    1.502    0.334
       264  -9.3607     20.4602     13.5460   6.4582828255e+01   7.2806763568e+01    0.1707896    0.1028842  37.83 6.653292e-05    1.716    0.417
       265  -9.1094     98.5561    113.5200   6.7307488719e+01   3.9965551069e+01    0.1529226     0.149864 -68.77 1.266187e-05    1.006    0.006
       266  -9.3086     71.5832    112.7620   7.5877633265e+01   4.4952590979e+01    0.1980112    0.1447464 -70.23 0.0002351536    1.478    0.323
       267 -11.4128      8.9923    112.8219   9.8823998463e+01   5.2115752882e+01    0.2511505    0.2279982 -16.43 0.0004500845    1.237    0.191
       268 -10.9697      5.5650    109.3032   9.9651624764e+01   5.3241624518e+01    0.2425227    0.1942643 -53.72 0.0002220424    1.157    0.136
       269  -9.4982     50.3139    111.9447   8.3259604799e+01   4.8279261680e+01    0.2083612    0.1718579 -55.51 0.0003750639    1.145    0.126
       270 -10.6095     35.5487    110.0992   8.8393642947e+01   5.0517037310e+01     0.377188    0.2204142 -59.45  0.001756576    1.541    0.351
       271  -9.6333     21.3086    110.5098   9.3866342497e+01   5.1782217259e+01    0.2576512    0.1602223  81.44   0.00119844    1.910    0.476
       272  -9.7987     28.7974    109.6434   9.0873127470e+01   5.1325608454e+01    0.2468054    0.1702399 -55.63 0.0007337189    1.314    0.239
       273 -11.8262    120.8443    107.8584   5.9448499379e+01   3.6753129485e+01    0.4587296    0.2479634  42.60 0.0008132676    1.890    0.471
       274 -11.6868     45.6118    102.8574   8.3065453901e+01   5.1195370598e+01    0.5460954    0.2602713 -63.96  0.002205372    2.079    0.519
       275 -11.9338     81.0299    103.1613   7.0273226640e+01   4.5693279556e+01    0.3012176    0.2825286  83.08            0    1.125    0.111
       276 -10.1625     16.8120    104.3992   9.4620848875e+01   5.3723705393e+01    0.2417412     0.170195 -69.45 0.0004698136    1.278    0.218
       277 -10.3245      9.0193    104.9591   9.7746678167e+01   5.4137723901e+01    0.2109129    0.1867769 -68.49  0.001295561    1.013    0.013
       278  -9.8814    114.0810    104.2895   6.0362173052e+01   3.8964441270e+01    0.2161609    0.1972912  53.96 0.0004156137    1.101    0.091
       279 -10.2030    249.6726    103.3412   3.5156329790e+01   1.2015084137e+01    0.1262405   0.07854255 -60.63            0    1.737    0.424
       280  -8.8664    131.3219    103.7006   5.5632535801e+01   3.5408825745e+01     0.155429    0.1203779 -88.66 0.0005048726    1.625    0.385
       281  -9.8186    106.7098    103.4121   6.2239108042e+01   4.0686945329e+01    0.2678921     0.148674  45.02 0.0009657973    1.811    0.448
       282  -9.2511    127.2075    101.8398   5.6182246477e+01   3.6695916115e+01    0.1936665    0.1774722   4.16 0.0002975652    1.255    0.203
       283  -9.1532     56.7445    101.6394   7.8553301370e+01   4.9998427108e+01    0.1534682    0.1059387 -33.08 0.0006965385    1.620    0.383
       284  -9.1385    143.4907    100.4929   5.1868167574e+01   3.3408894217e+01    0.1495641    0.1450165 -66.14 -1.371431e-05    1.023    0.023
       285  -9.6041     21.2431    104.8648   9.2962099280e+01   5.3244166691e+01    0.2076191    0.1763891  79.69 0.0007662231    1.246    0.198
