#   1 NUMBER                 Running object number                                     
#   2 MAG_AUTO               Kron-like elliptical aperture magnitude                    [mag]
#   3 X_IMAGE                Object position along x                                    [pixel]
#   4 Y_IMAGE                Object position along y                                    [pixel]
#   5 X_WORLD                Barycenter position along world x axis                     [deg]
#   6 Y_WORLD                Barycenter position along world y axis                     [deg]
#   7 A_WORLD                Profile RMS along major axis (world units)                 [deg]
#   8 B_WORLD                Profile RMS along minor axis (world units)                 [deg]
#   9 THETA_WORLD            Position angle (CCW/world-x)                               [deg]
#  10 FWHM_WORLD             FWHM assuming a gaussian core                              [deg]
#  11 ELONGATION             A_IMAGE/B_IMAGE                                           
#  12 ELLIPTICITY            1 - B_IMAGE/A_IMAGE                                       
         1 -10.7679      7.7476     51.7284   1.1267050477e+02   6.6523744064e+01    0.4035047    0.1648531 -55.96  0.001878354    1.935    0.483
         2 -11.9390    220.6627     19.7762   3.9214691891e+01   2.7791128803e+01    0.8151844    0.6428378 -37.96  0.003001601    1.125    0.111
         3 -12.7110    203.5142     36.7700   4.5468955106e+01   2.9805287930e+01     1.662072     1.120998  28.32  0.008079742    2.019    0.505
         4  -9.1841     47.5709      2.3518   6.7206177623e+01   7.2215365867e+01    0.2276736     0.198555  34.72 0.0007241136    1.174    0.148
         5  -9.2548    244.1384      1.6080   3.3201693792e+01   2.4542844943e+01    0.3693193    0.1555728  82.53  0.001799427    2.586    0.613
         6 -11.9330    114.3073    229.8034   1.0392789870e+02   1.4159519038e+01    0.8137059    0.2645408  39.40  0.003824741    2.293    0.564
         7 -13.2869     66.0983    247.5966   1.1473099538e+02   1.7293770856e+01     3.012505    0.6653072  29.80   0.01106092    4.763    0.790
         8 -14.4678      3.8297    155.8720   1.2348109408e+02   4.1218798826e+01     10.43775     1.306905 -82.80   0.02827095    7.308    0.863
         9 -13.0084      9.4010    207.3056   1.2405057132e+02   3.0048755132e+01     1.098476    0.8433905   0.55  0.004129741    1.995    0.499
        10  -9.8138    160.7651    226.1804   9.4471239786e+01   8.3735011337e+00    0.2701397    0.1214412 -34.61  0.001374793    2.954    0.662
        11 -14.1914      8.4168    239.4826   1.2512091677e+02   2.4400177209e+01     2.574198     1.659399 -74.56   0.01967656    1.859    0.462
        12 -10.2969     48.7908    224.5667   1.1675927277e+02   2.3029984590e+01    0.2579233    0.2130044 -87.35 0.0009202486    1.360    0.265
        13  -9.5667     53.9789    221.9446   1.1554590044e+02   2.2925518926e+01    0.4011655    0.1243545  49.22  0.001898836    2.507    0.601
        14 -10.2884     49.2526    216.5347   1.1619032611e+02   2.4423446174e+01    0.3721775    0.2174042  59.10  0.002345341    1.451    0.311
        15 -11.2532     84.3442    229.4174   1.0990008348e+02   1.8063872118e+01    0.7173905    0.3799346 -77.73  0.003777629    2.507    0.601
        16  -8.9621    164.0000    217.0386   9.2651059971e+01   9.1870276884e+00    0.2302569   0.06760854 -45.67 0.0009563458    4.111    0.757
        17  -8.5240     93.5136    219.8820   1.0719332791e+02   1.8503591006e+01    0.1505816     0.116279 -68.84  0.001023161    1.566    0.361
        18  -7.5289     61.2611    220.3361   1.1393908063e+02   2.2387352781e+01   0.09633703   0.08708762 -21.97 0.0002143678    1.580    0.367
        19  -7.9503    113.9378    207.9658   1.0164206703e+02   1.7775725843e+01    0.2342691   0.09705841  50.26  0.001022213    2.604    0.616
        20 -12.4134    140.1632    231.2832   9.9021638690e+01   1.0473326470e+01     1.259037    0.3268469  31.80  0.004746913    3.701    0.730
        21  -8.0688    209.8571    199.8974   8.1666216747e+01   4.9577353962e+00    0.1438961    0.1298843  12.27 0.0004283634    1.316    0.240
        22  -9.6651     61.4571    234.7346   1.1483989457e+02   1.9885004314e+01    0.2192013    0.1594386  60.19 0.0006737142    1.190    0.160
        23  -8.5464    170.6240    233.7387   9.3602523601e+01   6.0483196319e+00    0.1261057    0.1088593 -46.53 0.0009484984    1.624    0.384
        24 -11.4001     98.0950    227.4384   1.0695250276e+02   1.6653578093e+01    0.6480057    0.3079508  51.75  0.003480388    2.023    0.506
        25 -10.4282     63.7630    178.6841   1.0994912190e+02   3.0226817675e+01    0.3617539    0.2841415 -22.90  0.001545468    1.860    0.462
        26 -10.2236     68.6676    173.2022   1.0816912790e+02   3.0781052853e+01    0.3051028    0.2544163 -19.32 0.0007524346    1.654    0.396
        27  -8.7180     53.9771    231.0972   1.1609744321e+02   2.1330944994e+01     0.182405    0.1344658  88.50  0.001336603    1.461    0.316
        28  -9.8450    101.8648    171.6067   9.9731153593e+01   2.6427725378e+01    0.4423413    0.1378244  48.94  0.001444909    3.783    0.736
        29  -8.8640     91.2264    167.5861   1.0180800815e+02   2.8868453433e+01    0.1894724    0.1241589  24.60 0.0009524107    1.691    0.408
        30 -11.7293     68.3514    144.5354   1.0473006727e+02   3.7317445332e+01    0.8866243    0.5212749  71.34  0.003092935    2.058    0.514
        31 -11.5413     58.1288    131.9204   1.0594962551e+02   4.1691534917e+01     1.212811    0.4199919 -77.43  0.003739884    4.293    0.767
        32 -11.1350     84.6459    157.5927   1.0211163746e+02   3.2017025183e+01    0.8316053    0.4731131 -44.99  0.002277596    2.145    0.534
        33 -11.7868     65.5679    159.5000   1.0741950666e+02   3.4216889798e+01    0.4652846    0.3007665 -46.50  0.001514429    1.889    0.471
        34  -9.7940     32.7103    155.3351   1.1582894036e+02   3.8912704172e+01     0.399937    0.1389949 -85.92  0.001533106    3.260    0.693
        35  -9.4852    100.1786    141.4310   9.5352431591e+01   3.3227806411e+01    0.5465461    0.3266332 -26.90  0.002146637    2.924    0.658
        36 -10.5589     87.2953    141.4045   9.8902547180e+01   3.5302847034e+01    0.2802347     0.253853 -43.46 0.0005426503    1.237    0.192
        37  -8.4643     71.3381    134.3120   1.0234479650e+02   3.9345062563e+01    0.1391003    0.1086026 -26.65 0.0007045739    1.691    0.409
        38  -8.8048    109.9588    131.6528   9.0818693245e+01   3.3740946607e+01    0.2650721    0.2436642 -25.95 0.0006218191    1.207    0.171
        39  -8.4322    106.1867    130.3947   9.1598919505e+01   3.4696465630e+01     0.313186     0.231396  54.84  0.001552755    1.389    0.280
        40  -8.7212     33.0000    130.9299   1.1351541998e+02   4.4724859952e+01    0.3537486   0.06814247 -73.67  0.001033521    4.774    0.791
        41  -8.8459     97.2866    127.5159   9.3529317112e+01   3.6906987049e+01    0.2888207    0.2321084 -27.67 0.0008115232    1.522    0.343
        42  -8.8236    115.5389    125.4921   8.8006098565e+01   3.4093796118e+01    0.1454318    0.1428908  41.38 0.0008091425    1.031    0.030
        43 -11.1754     73.4264    154.5111   1.0468412474e+02   3.4306293922e+01    0.7606997    0.4212522  66.61  0.003381562    2.218    0.549
        44  -8.6091    135.0000    121.0182   8.1902342861e+01   3.1272217969e+01    0.2447189   0.08486497 -46.26 0.0006684224    2.935    0.659
        45  -8.0454    107.1502    119.7820   8.9080255329e+01   3.6939765703e+01    0.1914486    0.1706072 -21.25 0.0003602404    1.281    0.219
        46  -8.2598    168.0179    113.0070   7.2309150594e+01   2.5990715696e+01    0.2333913    0.1834305 -74.24  0.001127761    1.735    0.424
        47 -11.9954     24.4177    225.0417   1.2164859931e+02   2.5425198466e+01     1.011255    0.3004785  49.24  0.004530353    2.257    0.557
        48  -7.6219    205.6327    110.2602   6.4520069609e+01   1.8698673010e+01     0.131087    0.1088563 -74.82 0.0003407648    1.643    0.391
        49 -12.0589     30.5457    247.6447   1.2133628683e+02   2.1019659516e+01    0.7188258    0.6358016  17.94  0.004794181    1.567    0.362
        50 -10.2006     78.2410    163.5077   1.0458461405e+02   3.1617569391e+01    0.3404025    0.2714903 -63.62 0.0005603082    1.334    0.250
        51  -8.7263     33.4632    108.5093   1.1070563900e+02   5.0301152488e+01    0.1353399    0.1193839 -84.08 4.483024e-05    1.021    0.021
        52 -11.4809     36.8523    206.1956   1.1821638564e+02   2.7681380663e+01    0.4193908    0.3637889   2.52  0.001448013    1.623    0.384
        53  -8.1437     41.8174     92.1692   1.0503152421e+02   5.3624635180e+01    0.1850046    0.1559837 -37.25 0.0005735725    1.304    0.233
        54  -8.5151     52.6290     90.7777   1.0061784148e+02   5.2707899389e+01    0.2043235    0.1287005 -75.45 0.0006001824    1.644    0.392
        55  -8.2862     73.2108     83.8323   9.1207559993e+01   5.1442572055e+01    0.2228556    0.1944862  88.51 0.0007078747    1.232    0.188
        56 -13.5315     46.2108    196.3196   1.1554367282e+02   2.8628396857e+01     2.666119    0.9825043  56.17   0.01067071    2.563    0.610
        57  -9.9213     13.4917     59.7673   1.1123588270e+02   6.4226558040e+01    0.2657231    0.1787803 -66.95  0.000783683    1.250    0.200
        58 -11.5803    115.7911    238.7971   1.0451926504e+02   1.2607738816e+01     0.624405    0.2665756  26.29  0.003071221    2.458    0.593
        59 -10.0057    120.5714    223.9590   1.0206430442e+02   1.4229133761e+01    0.3398447    0.2493517   5.39  0.002007858    1.721    0.419
        60 -10.5611    214.0342     26.9643   4.1695590352e+01   2.8509031743e+01    0.3822626     0.308591  32.51  0.001119853    1.538    0.350
        61  -8.9379    138.0454     44.0311   5.8100516228e+01   4.5299141304e+01    0.2270484    0.2185247 -71.59 0.0003255699    1.038    0.036
        62  -8.6157    142.0909     39.3446   5.5565957546e+01   4.4957740142e+01    0.2073956    0.1882562  79.24  0.000436326    1.110    0.099
        63  -8.6110     33.0000     36.4704   9.4146167495e+01   6.8138266593e+01    0.2934624    0.0692395 -56.83  0.000922412    3.836    0.739
        64 -11.8658    128.8846    236.5027   1.0176458849e+02   1.1232499319e+01    0.5615147    0.3553225  29.27  0.003656517    1.300    0.231
        65 -10.5988     87.5091    226.0355   1.0897796043e+02   1.8232076018e+01    0.4669803    0.2605926  77.09   0.00245941    2.561    0.609
        66  -7.5752    189.7122     15.3162   4.0698704516e+01   3.5622504893e+01    0.1472432   0.09021632 -56.17 0.0004572757    1.590    0.371
        67 -11.6281    125.7906    229.8836   1.0166497632e+02   1.2615889202e+01    0.5369356    0.3303085  31.21  0.003366626    1.325    0.245
