#   1 NUMBER                 Running object number                                     
#   2 MAG_AUTO               Kron-like elliptical aperture magnitude                    [mag]
#   3 X_IMAGE                Object position along x                                    [pixel]
#   4 Y_IMAGE                Object position along y                                    [pixel]
#   5 X_WORLD                Barycenter position along world x axis                     [deg]
#   6 Y_WORLD                Barycenter position along world y axis                     [deg]
#   7 A_WORLD                Profile RMS along major axis (world units)                 [deg]
#   8 B_WORLD                Profile RMS along minor axis (world units)                 [deg]
#   9 THETA_WORLD            Position angle (CCW/world-x)                               [deg]
#  10 FWHM_WORLD             FWHM assuming a gaussian core                              [deg]
#  11 ELONGATION             A_IMAGE/B_IMAGE                                           
#  12 ELLIPTICITY            1 - B_IMAGE/A_IMAGE                                       
         1 -11.5602     85.8565     73.7703   9.9218561486e+01   5.1917721517e+01    0.8546335    0.6762487 -53.92  0.004433595    1.383    0.277
         2 -12.3275     60.2917     45.3150   9.8614346872e+01   6.1611110481e+01    0.9567049    0.4896477 -38.96  0.004562897    1.892    0.472
         3 -11.1744    120.2520     57.6177   8.3240036506e+01   4.7548410620e+01     2.334792      1.22266 -66.83  0.005727425    7.086    0.859
         4 -12.0028    125.0333     27.3683   7.1577025281e+01   5.0612954706e+01    0.7017088    0.5814904  40.73  0.001542013    1.160    0.138
         5 -12.9796    120.4728     39.2801   7.6830571922e+01   5.0231759932e+01    0.8605822    0.6067839 -57.60  0.002621097    1.786    0.440
         6 -11.9188    105.6222     33.1101   7.8388533975e+01   5.4521415963e+01    0.9073291    0.4928854  10.59  0.001496228    3.616    0.723
         7 -12.4342    105.9537     20.1259   7.3325489775e+01   5.5962807844e+01    0.3175147    0.2695553 -15.26  0.000407776    1.293    0.227
         8 -12.8429    237.2318     15.3645   5.3616821057e+01   2.4609395259e+01    0.5591088    0.4521576  52.58   0.00323863    1.624    0.384
         9 -12.5621    243.3186      5.6944   5.1202110866e+01   2.4382288791e+01    0.9852595      0.45176 -82.34  0.004973653    2.171    0.539
        10 -12.8258    247.2656     22.2639   5.4295300003e+01   2.1659397689e+01     0.744759    0.4580992  88.12  0.004402326    1.529    0.346
        11 -12.0091    244.0819     14.8241   5.3003909979e+01   2.3203218638e+01    0.3488406    0.2176587 -43.71  0.002111283    1.439    0.305
        12 -11.8632     27.2580     27.9480   1.0664252234e+02   6.8890768066e+01    0.5614801    0.4479497  36.22   0.00373679    1.620    0.383
        13 -11.9205     22.6821     11.2828   1.0130308255e+02   7.1931319088e+01    0.5306157    0.3430605   7.00  0.002559377    1.417    0.294
        14 -12.6637     15.5822     13.6153   1.0652027879e+02   7.2325988744e+01    0.9147113    0.4482456 -28.67  0.002915208    1.830    0.454
        15 -11.4412    178.6216     21.0898   6.0711398201e+01   3.7808773194e+01     0.548928    0.3484559  28.06  0.002574093    2.418    0.586
        16 -10.2859     87.2466      7.4517   7.3030375896e+01   6.1382685897e+01    0.5808455    0.2878225  56.39   0.00286348    1.767    0.434
        17 -11.2776     91.0687     19.9373   7.7236465225e+01   5.9322142124e+01    0.5406328    0.3752522 -22.20  0.002123291    1.554    0.356
        18 -11.4847     85.9320     14.1744   7.6300346984e+01   6.1029730225e+01    0.4776648    0.3128461 -14.65  0.001897629    1.669    0.401
        19 -10.7831     47.1042     18.7876   9.2763808900e+01   6.7676441858e+01     0.354422    0.2582426  -7.44  0.001410276    1.252    0.201
        20 -12.0751     48.0951     13.1165   8.9542897578e+01   6.8238901658e+01    0.8389256    0.3106407  39.95  0.003848869    2.469    0.595
        21 -11.8298     35.9501     17.9373   9.7632482195e+01   6.9380739510e+01    0.5444776    0.2721674 -26.15   0.00216121    1.980    0.495
        22 -10.6393    146.0368     16.3014   6.3937976190e+01   4.6557024316e+01    0.4717101    0.2471643  56.20  0.002230812    1.653    0.395
        23 -11.9625     68.7181     18.1076   8.3681086956e+01   6.4065582309e+01    0.6954688    0.3861612  54.71  0.003486857    2.013    0.503
        24 -11.4339     19.8848     22.9152   1.0837885226e+02   7.0459459740e+01    0.5766527    0.2421602 -42.57  0.002992874    2.058    0.514
        25 -11.0789    165.1517     17.3073   6.1413440988e+01   4.1614409837e+01    0.3767531    0.2428243  38.98  0.001124092    1.866    0.464
        26 -11.8897    133.5520     15.1885   6.5695279237e+01   4.9797751950e+01    0.9780988    0.2782753  64.56  0.003424088    2.995    0.666
        27 -10.6903    126.7169     11.4346   6.5656401340e+01   5.1841367742e+01    0.5650263    0.1943684  67.13  0.002128912    2.686    0.628
        28 -12.0488    104.8735     12.9666   7.0802916171e+01   5.6928804260e+01    0.4252744    0.3570923  -4.28   0.00151286    1.310    0.237
        29 -11.6213    211.8674      9.7664   5.4411067047e+01   3.0948945687e+01    0.4129508    0.3208963  -2.38  0.001210361    1.953    0.488
        30 -11.3856    192.1889      7.8834   5.5750212801e+01   3.5840105163e+01    0.4933485    0.3440371  25.97  0.002395723    2.198    0.545
        31 -10.0022     31.6532     11.9049   9.6798401296e+01   7.0764072071e+01    0.2022558    0.1529992  31.65 0.0008000179    1.449    0.310
        32 -10.4096      5.0310     10.0768   1.1120475810e+02   7.3765785395e+01    0.3515544    0.1886297 -32.05  0.001749907    1.487    0.328
        33  -9.4691      5.2728      5.3635   1.0871808670e+02   7.4458809154e+01    0.1959812    0.1134171 -31.03  0.001288587    1.382    0.276
        34 -10.5770    169.3468      9.8711   5.8760397665e+01   4.1302208377e+01    0.3543675     0.195516  50.90  0.001735773    1.841    0.457
        35 -10.6590     66.2440     10.2469   8.0903668196e+01   6.5390699350e+01     0.339154    0.1816167  46.32  0.001429144    1.646    0.392
        36 -10.3150     62.9911      6.2602   8.0148820584e+01   6.6398720835e+01    0.2821361    0.2181657  35.15  0.001537408    1.114    0.102
        37  -9.5549    157.0000      8.9178   6.0060579375e+01   4.4499032889e+01    0.1952051   0.07762606 -24.28 0.0005077454    2.922    0.658
        38  -9.4923    151.7488      7.8457   6.0456536437e+01   4.5919008105e+01    0.3727943    0.0781786  55.89 0.0009609679    3.487    0.713
        39  -9.6057    184.7969      6.8436   5.6223888488e+01   3.7751669832e+01    0.1831373    0.1306014 -65.60 0.0005050596    1.330    0.248
        40 -10.7949     77.3983      5.1522   7.4848480818e+01   6.3664708372e+01    0.4717855    0.2460311 -22.14  0.002456397    2.076    0.518
        41  -9.9870      1.2735      7.1975   1.1222195171e+02   7.4483910074e+01    0.1343794   0.08182497 -45.08  0.000284718    1.561    0.359
        42 -10.6769    176.1976      5.3153   5.6726789017e+01   4.0023195309e+01    0.4352383     0.206909 -86.80   0.00082611    2.364    0.577
        43  -9.7143    162.9223      5.9775   5.8442138135e+01   4.3278490535e+01     0.198843    0.1698708  81.64 0.0005279459    1.015    0.014
        44 -12.1029    221.7491      2.9438   5.2102281371e+01   2.9390369590e+01    0.8681258    0.2726877  76.40  0.003627061    2.878    0.653
        45 -11.3532    205.3562      2.5353   5.3277641082e+01   3.3215512419e+01     0.406661    0.2507248 -86.64 0.0009901336    1.424    0.298
        46  -9.8761     72.4795      2.5102   7.5139502092e+01   6.4893545342e+01    0.2420494    0.1262965  18.02   0.00116217    2.309    0.567
        47 -10.4395    142.0311      3.4733   6.0481438494e+01   4.8731333652e+01     0.318695    0.2134011  70.19  0.001759199    1.265    0.209
        48 -11.8907    133.7135      2.6107   6.1458536097e+01   5.0867685304e+01    0.3862109    0.2182824  60.59 0.0008138629    1.454    0.312
        49  -9.7418     55.1435      3.8984   8.1923141105e+01   6.8055101760e+01    0.1664665    0.1490655  24.10 0.0003886267    1.222    0.182
        50 -11.2045    111.2142      1.7387   6.5112550016e+01   5.6394724461e+01    0.5008178    0.1655871  65.59  0.001969517    2.630    0.620
        51 -10.8116    105.2438      1.7742   6.6346162004e+01   5.7794357110e+01    0.4025331    0.2105558  73.74  0.001021074    2.055    0.513
        52 -11.2296      3.2954      1.7717   1.0812850094e+02   7.5138409760e+01    0.4142589    0.1619683  15.39  0.002153682    2.770    0.639
        53 -10.7738     42.1668      3.5212   8.7224660742e+01   7.0259171375e+01    0.4177863    0.2163389   6.35    0.0020235    2.590    0.614
        54  -9.7028     12.6148      2.1365   1.0234610556e+02   7.4247251312e+01    0.1700555    0.1074499  12.22 0.0005200631    1.404    0.288
        55  -9.7490     69.6198      5.1920   7.7333151608e+01   6.5227405387e+01    0.3116061    0.1062086  56.71  0.001252262    3.004    0.667
        56  -9.5907     82.1365      1.2989   7.1737513924e+01   6.2992379975e+01    0.1715228      0.10416  64.42  0.000418323    1.694    0.410
        57  -9.9025    123.0308      1.0000   6.2663713104e+01   5.3613256024e+01    0.3655778   0.06410577  67.25  0.001036802    4.803    0.792
        58  -9.7644      2.0196    125.7607   1.3922591950e+02   4.9422578090e+01    0.2426014     0.131958  88.39  0.001280703    1.739    0.425
        59  -9.2301     81.6846    125.6630   1.1460285106e+02   4.0785452711e+01    0.4754282    0.1874504  47.56  0.001622069    2.943    0.660
        60  -9.5625     84.4993    123.4537   1.1324577156e+02   4.0864349456e+01    0.2201827    0.1514452  19.79 0.0008383524    1.813    0.449
        61 -11.0207     55.6662    123.2905   1.2228442937e+02   4.5144452277e+01    0.5289601    0.3498106  18.98   0.00195917    1.844    0.458
        62 -10.1323     18.8107    124.0212   1.3399746010e+02   4.8700251540e+01    0.2567693    0.1505382 -62.57 0.0009034791    1.419    0.295
        63 -11.5796    104.6553    121.6040   1.0672118540e+02   3.7676796752e+01    0.4933529    0.4491771 -54.27  0.001437798    1.084    0.078
        64 -10.4694     45.8178    120.5606   1.2493274399e+02   4.7000997543e+01    0.3232426    0.2178615  79.16  0.001584562    1.816    0.449
        65  -8.9542     40.6424    122.2310   1.2688467430e+02   4.7150940104e+01    0.1331351   0.09526035  61.11 0.0006890935    1.575    0.365
        66  -9.7574      4.1630    121.4302   1.3813213185e+02   5.0331634704e+01    0.2694025    0.1534628  69.40  0.001427178    1.951    0.487
        67 -10.1083    220.5552    120.0715   7.9531076955e+01   1.2521599648e+01    0.2131243    0.1097829 -56.19 0.0008078007    2.577    0.612
        68  -9.1861     72.6928    119.6650   1.1610683777e+02   4.3676717839e+01    0.1518018    0.1100747 -28.36 0.0003607558    1.672    0.402
        69 -10.6806     34.1094    119.1403   1.2846163088e+02   4.8574352326e+01    0.2113611    0.1655457 -46.36  0.001223765    1.263    0.208
        70  -9.3506    113.5491    115.9910   1.0271785411e+02   3.7225911938e+01    0.2316194     0.153019 -48.22 0.0003769701    1.507    0.336
        71 -11.8671     35.6561     93.0954   1.2299797756e+02   5.4726826383e+01     1.755257     1.106198  88.85  0.007194446    2.259    0.557
        72 -12.2206      7.6302     89.0460   1.3259159918e+02   5.7801817454e+01    0.4397597    0.4227566  -9.26    0.0031936    1.236    0.191
        73 -11.1127     37.5750     85.9313   1.2064588022e+02   5.6204801063e+01    0.3414657    0.2913602  27.50  0.001469992    1.315    0.240
        74 -11.3994     43.9442     85.3167   1.1805945032e+02   5.5668816258e+01    0.5384488    0.3209232   5.22  0.002169625    2.249    0.555
        75 -11.5140     28.4808    113.0364   1.2929380396e+02   5.0590251777e+01    0.6105756    0.3416628   4.24  0.002879567    2.557    0.609
        76 -12.2564     19.9217     95.7941   1.2928268876e+02   5.5428889645e+01    0.6446282    0.4835933  14.51  0.002453394    1.572    0.364
        77 -12.7632     18.0231     90.3556   1.2898170141e+02   5.6843742016e+01    0.5586601    0.3144869 -38.06 0.0006019606    1.761    0.432
        78 -11.4415     21.5176    114.2151   1.3176246147e+02   5.0881415323e+01    0.3794677     0.264377  -5.79  0.001856983    1.872    0.466
        79 -12.7451     25.4149    107.4742   1.2939387027e+02   5.2203976841e+01     1.084316    0.6070984 -37.53  0.004786782    1.953    0.488
        80  -9.8398      7.2879    114.5594   1.3636688788e+02   5.1790063718e+01    0.2003647    0.1759647  69.11  0.001273414    1.234    0.190
        81 -11.3969      2.4071    112.0600   1.3760171536e+02   5.2669817452e+01    0.3197834    0.2162086 -77.48  0.000831198    1.223    0.182
        82 -12.0725      4.0489    105.2775   1.3622871968e+02   5.4190204187e+01    0.4409247    0.3446026 -70.38  0.001412329    1.036    0.035
        83 -10.6213     67.0241    112.0913   1.1625930692e+02   4.6369863574e+01    0.4778063    0.2833126 -66.23  0.002122834    1.777    0.437
        84 -10.7194    107.7545    112.1901   1.0342765760e+02   3.9280598380e+01    0.3286898    0.2427541  83.15   0.00141585    1.899    0.473
        85 -10.4948    170.4422    110.2930   8.6750638394e+01   2.5620845046e+01    0.3949567    0.3197607 -51.81  0.001913169    1.249    0.199
        86  -9.9668     93.9456    111.6348   1.0748216857e+02   4.2060593596e+01    0.2953624    0.2225509 -80.49  0.001352582    1.676    0.403
        87  -9.8973     48.9459    112.1709   1.2230561789e+02   4.8712282165e+01    0.2120946    0.1828286  76.29  0.001060722    1.267    0.211
        88 -11.1362     79.5986    108.6574   1.1130997727e+02   4.5260878176e+01    0.6202862    0.4205524  47.22  0.002579247    1.589    0.371
        89 -12.1240      9.2314     96.1244   1.3315202482e+02   5.6057832501e+01    0.7271004    0.5301381  56.68  0.004458125    1.634    0.388
        90 -10.2436    175.2513    107.8581   8.5085624339e+01   2.4969518916e+01    0.3916774    0.2147744 -40.31  0.001572674    1.806    0.446
        91  -9.3009    120.2683    109.3479   9.9048287607e+01   3.7332010797e+01     0.158251    0.1250649 -11.58  0.000378946    1.618    0.382
        92 -10.1616    103.2652    106.0071   1.0313693646e+02   4.1597497321e+01    0.2735498    0.1971458 -58.44 0.0004015593    1.470    0.320
        93  -9.7483    157.9047    105.8508   8.8399852843e+01   2.9488077222e+01    0.2372264    0.2164212  13.48 0.0005928384    1.223    0.183
        94 -10.1056    143.3079    106.1761   9.2022882636e+01   3.2854489837e+01    0.3047301    0.2360817  56.42 0.0007386185    1.319    0.242
        95 -11.5211     47.7714    103.5335   1.2090934387e+02   5.0949817308e+01    0.4147284    0.2623318 -27.67   0.00197421    1.943    0.485
        96 -10.4122     52.4057     96.9720   1.1778068944e+02   5.1962490721e+01    0.4885638    0.1950695 -52.26  0.001733625    2.168    0.539
        97 -10.9331     85.9810    104.4772   1.0816841557e+02   4.5169718507e+01    0.3151218     0.267929 -39.64 0.0009797856    1.161    0.139
        98  -9.9665     57.5606    102.2551   1.1720543486e+02   5.0049258739e+01    0.2669151    0.1336361 -62.74  0.000771802    2.014    0.503
        99 -10.3006    145.4979    100.4405   8.9895746329e+01   3.3537730396e+01      0.40915    0.2589732 -26.74 0.0009412094    1.982    0.496
       100  -9.2002    120.4944    101.4863   9.6821994531e+01   3.9022844604e+01    0.1562504    0.1526734   5.75  9.92621e-05    1.047    0.045
       101 -11.7944     68.0507     96.8159   1.1220323860e+02   4.9864963985e+01    0.5879735    0.3398844 -48.17 0.0006904912    1.608    0.378
       102  -9.0218     96.0297    100.1826   1.0379185998e+02   4.4327545928e+01    0.1952047    0.1163281  39.26 0.0003288721    1.711    0.416
       103 -11.1344     89.4169     90.2067   1.0309254009e+02   4.7795197635e+01    0.4214613    0.2976661 -41.04  0.001078781    1.394    0.283
       104 -10.6048     78.0061     96.9903   1.0882512569e+02   4.8261590951e+01    0.3246619    0.2094184 -57.97            0    1.593    0.372
       105 -11.0415     80.7395     92.6468   1.0670027895e+02   4.8793011275e+01    0.6958192    0.6697868 -72.75  0.003959645    1.115    0.103
       106 -10.8733     66.6808     81.8634   1.0856434690e+02   5.3453721030e+01    0.4240969    0.3364711  20.49  0.002293246    1.334    0.250
       107 -11.1450     79.6757     82.7352   1.0417368417e+02   5.1158967341e+01    0.7118756    0.5597388 -84.93  0.003178117    1.799    0.444
       108 -11.3289     73.3692     77.4332   1.0478741597e+02   5.3350774011e+01    0.6117066    0.4181503 -19.71   0.00289424    1.768    0.434
       109  -9.3495    210.6797     98.3338   7.6033448472e+01   1.8515291184e+01     0.153585    0.1083137 -69.01 0.0007049435    1.700    0.412
       110 -10.1627     57.3146     97.7078   1.1620687392e+02   5.1162227071e+01    0.2432066    0.2119187 -81.25 0.0007172742    1.264    0.209
       111 -10.2270     43.1762     94.8267   1.2062135816e+02   5.3543321127e+01    0.3778611    0.2437011  29.76  0.001966855    1.705    0.414
       112  -9.6505    137.3864     93.8772   9.0083197424e+01   3.6792406313e+01     0.321271    0.2358719  14.00  0.000802312    1.904    0.475
       113 -10.5499    122.1826     93.7968   9.4144139664e+01   4.0296206622e+01    0.2824094    0.2347098 -44.98 0.0008880215    1.216    0.178
       114 -10.0897    126.2130     93.0451   9.2807741532e+01   3.9545867293e+01    0.6606634    0.4203827 -69.08  0.002509386    2.434    0.589
       115 -10.2140    117.5404     92.9448   9.5212175390e+01   4.1501750513e+01    0.3084701    0.2157748  29.03 0.0008736157    1.640    0.390
       116 -11.3432    102.1552     90.2360   9.9015598154e+01   4.5323313336e+01     0.481985    0.4214738  -9.84 0.0006866368    1.247    0.198
       117 -10.0185     50.5226     91.4906   1.1713494130e+02   5.3478409079e+01    0.4533146    0.1928151  34.20  0.001893711    2.485    0.598
       118  -9.2971     52.0000     88.0139   1.1570836001e+02   5.4099280472e+01     0.216381    0.1280931 -41.38 0.0005574855    1.608    0.378
       119  -9.5798     67.4617     88.0165   1.1004206603e+02   5.1969646130e+01    0.2214825     0.131374 -48.75 0.0007888514    1.571    0.363
       120 -10.5374    113.5865     83.4363   9.3498611609e+01   4.4331484004e+01    0.5528262    0.3135061 -29.59  0.002169092    2.159    0.537
       121 -11.2869    107.8122     79.4590   9.3975055841e+01   4.6378247429e+01    0.7471594     0.526478  86.73  0.002488373    2.428    0.588
       122  -9.9953    119.4564     85.5320   9.2450424222e+01   4.2608603019e+01    0.3640134    0.1865246  40.15  0.001393674    2.032    0.508
       123 -11.0720    143.2920     84.2082   8.5781113505e+01   3.7291308795e+01    0.3319082    0.3006159 -33.13 0.0007983475    1.150    0.130
       124 -10.0395    165.6179     83.3048   8.0476668458e+01   3.1976283283e+01    0.3372751    0.2474754 -73.39  0.001514077    1.675    0.403
       125  -9.6541    127.0591     83.5059   8.9732308345e+01   4.1279303263e+01    0.2416939    0.1508846  49.45  0.001026732    1.573    0.364
       126  -9.6152     60.1911     83.3360   1.1138858633e+02   5.4073668942e+01    0.2278484    0.1857368 -29.22  0.001260342    1.194    0.163
       127 -10.7013     58.5664     78.4208   1.1058826213e+02   5.5382483381e+01    0.2793989    0.2754653  69.46 0.0009495783    1.179    0.152
       128 -11.4551     52.7982     76.4022   1.1222201542e+02   5.6594691166e+01    0.5452477    0.3556836 -60.89  0.002744513    1.650    0.394
       129 -10.5876     52.6179     72.7913   1.1122700024e+02   5.7396492138e+01    0.2900675    0.2247117 -48.69 0.0008713294    1.218    0.179
       130 -11.6405    248.6308     75.6272   6.5503202537e+01   1.4078140218e+01    0.2911873     0.226831 -70.85  0.001509276    1.263    0.208
       131 -10.1196    142.4927    249.5135   1.2001075296e+02   3.4783448492e+00    0.1278753     0.102661  38.86 1.791081e-05    1.009    0.009
       132 -11.4608     78.5690     67.2764   9.9617221204e+01   5.4528381385e+01     1.049044    0.5567849 -59.69  0.003983397    2.978    0.664
       133 -11.7225     74.4981     53.0050   9.6036789588e+01   5.7897946180e+01    0.5583022    0.3925496 -24.59  0.002146638    1.454    0.312
       134  -9.8775     72.7214     47.2384   9.4510173144e+01   5.9200204080e+01     1.112902    0.7969251  63.79  0.004581777    2.132    0.531
       135  -9.0373     38.3022     78.6505   1.1855405669e+02   5.7783277989e+01    0.1281369    0.1020731  78.74 0.0007039446    1.695    0.410
       136 -10.0263     20.4859     71.7240   1.2407724683e+02   6.0907570033e+01    0.2652049    0.1618374 -14.60  0.001007548    1.904    0.475
       137 -11.6086      1.9644     71.3780   1.3165952614e+02   6.2093806700e+01    0.4614504    0.1758346 -68.55  0.001999801    2.227    0.551
       138  -9.8884      9.3498     75.9290   1.2955251300e+02   6.0700120686e+01    0.2340716     0.123257 -49.89 0.0004991312    1.511    0.338
       139 -11.3696     14.4339     66.5559   1.2540326952e+02   6.2462580911e+01    0.3160684    0.2421549 -71.53 0.0006525936    1.366    0.268
       140 -12.1540      5.9590     62.3454   1.2810019746e+02   6.3869586559e+01    0.6739759     0.319322 -39.64  0.003353819    1.812    0.448
       141 -11.1669     12.4583     62.2774   1.2522931041e+02   6.3511346454e+01    0.2632138    0.1744107   0.76  0.001014312    1.685    0.406
       142  -9.4375      5.2229     78.4315   1.3166470366e+02   6.0359022838e+01    0.1401794    0.1128942  33.19 0.0004392062    1.520    0.342
       143 -11.8637     14.0736     74.4923   1.2734557155e+02   6.0736493474e+01    0.4663753     0.312957 -61.82  0.002286506    1.274    0.215
       144  -9.6237    126.8544     76.8729   8.7742639565e+01   4.2603570715e+01    0.2218002    0.2036913  17.42  0.000278354    1.148    0.129
       145 -11.7571     19.0803    105.7289   1.3125835917e+02   5.3120389051e+01    0.5083107    0.1916647 -52.34 0.0009983348    2.184    0.542
       146 -10.6639     93.5985     76.3113   9.7446693032e+01   4.9926605135e+01    0.5510231    0.3253656  23.50  0.001907946    2.268    0.559
       147 -11.4620    186.9440     70.5314   7.2923310487e+01   2.8890502899e+01    0.6222674    0.4972819 -26.78  0.003187845    1.401    0.286
       148  -9.5040     60.9689     72.9517   1.0801968188e+02   5.6213822075e+01    0.1938218    0.1674783  73.29  0.000350229    1.544    0.352
       149 -11.4683     40.8144     70.0541   1.1518614411e+02   5.9400443929e+01    0.5468141    0.2716428 -56.21  0.001950247    1.902    0.474
       150 -11.5985     32.6809     72.1442   1.1912259836e+02   5.9781452578e+01    0.5549437       0.2546  27.85  0.001980628    2.360    0.576
       151 -11.5256    122.5957     68.7215   8.6291636806e+01   4.5096951187e+01    0.5809792    0.4455638  50.28  0.002631127    1.260    0.206
       152  -9.5071    161.7536     70.5680   7.7634434758e+01   3.5181294326e+01    0.2156079    0.1443838  71.18 0.0009454163    1.633    0.388
       153  -8.8166    208.6869     68.2796   6.8937218181e+01   2.3993252172e+01    0.1460895    0.1013756 -70.79 0.0003781493    1.568    0.362
       154  -9.5547    172.3347     67.9317   7.4812243295e+01   3.2960136307e+01     0.302002    0.1228471 -42.57    0.0010913    2.437    0.590
       155 -11.2315    219.9266     66.4791   6.6951652236e+01   2.1663616185e+01    0.5047942    0.2630721  68.20  0.001693311    2.049    0.512
       156  -9.6826     21.4423     65.2157   1.2204889808e+02   6.2252946723e+01    0.2646129    0.1892165  59.42  0.001217819    2.044    0.511
       157  -9.3134     25.6337     65.2226   1.2023909758e+02   6.1912328696e+01    0.1801123   0.09440283 -48.02  0.000591589    1.567    0.362
       158  -9.7456     66.8410     74.7144   1.0634222008e+02   5.4964099132e+01    0.2786232    0.1960046 -78.76  0.001257873    2.334    0.571
       159 -10.0146     98.1584     63.0280   9.1534828101e+01   5.1538140381e+01    0.3976101    0.2434213  -1.81  0.001462633    3.060    0.673
       160  -9.9886     84.6604     62.6432   9.5876348749e+01   5.4294341507e+01     0.394594    0.2450115 -14.09  0.001660034    2.319    0.569
       161 -11.1177     91.5266     62.4204   9.3472528021e+01   5.3000842015e+01    0.4795818    0.3608271 -38.05   0.00166555    1.344    0.256
       162 -10.3898     91.2386     57.5958   9.1860937251e+01   5.3918867442e+01     0.309869    0.2317909  44.69 0.0009514262    1.325    0.245
       163 -10.6878     87.5209     56.9400   9.2868951730e+01   5.4772216328e+01    0.4028648    0.2390895 -40.59  0.001257035    1.721    0.419
       164 -11.0328     58.1178     61.5944   1.0544836023e+02   5.8941817991e+01    0.4232688      0.31778 -56.79     0.001725    1.535    0.348
       165 -11.5117    127.5755    242.7538   1.2220420400e+02   6.9829001646e+00    0.3858382    0.2461333 -67.95  0.002119064    2.069    0.517
       166 -11.2023     60.8627     36.2543   9.4711603405e+01   6.2993918804e+01    0.3197831    0.2030007 -30.93 0.0009587655    1.535    0.349
       167  -9.8494     51.8942     48.0644   1.0317694335e+02   6.2381635489e+01    0.2278726     0.209158   4.98 0.0008396082    1.144    0.126
       168 -10.3857     26.0938     48.0738   1.1486091128e+02   6.5379540007e+01    0.3324639    0.1839788  -8.23  0.001345142    2.247    0.555
       169 -12.5340     49.5229     60.3109   1.0853290170e+02   6.0376213945e+01    0.6120442    0.5055897  48.83  0.001786457    1.534    0.348
       170 -11.4582     33.9745     43.4045   1.0948265790e+02   6.5471571368e+01    0.5745261    0.4072921  -7.52  0.002628783    1.391    0.281
       171 -10.3797     33.6241     58.1631   1.1467920066e+02   6.2645894925e+01    0.3439574    0.1763908 -29.29 0.0005932468    2.126    0.530
       172 -11.4749     40.2029     55.7704   1.1100312792e+02   6.2415858839e+01    0.4768687    0.4273802 -13.69  0.002192907    1.083    0.077
       173 -11.4259     46.2915     48.9834   1.0594328829e+02   6.2971247649e+01    0.4609176    0.3473078   8.49  0.001600522    1.319    0.242
       174 -11.3191     42.6718     44.7514   1.0597217571e+02   6.4205667519e+01    0.4657592    0.2745969  13.60 0.0008408712    1.921    0.479
       175 -10.3378    159.4228     61.5284   7.5449596847e+01   3.7257040208e+01    0.4174459    0.2275919  44.43  0.001709052    1.969    0.492
       176  -9.8314    113.5067     61.2192   8.6312048374e+01   4.8505947949e+01    0.3704406    0.2014561 -39.08  0.001568913    1.905    0.475
       177 -10.5337     20.4952     55.0026   1.1965007668e+02   6.4470767967e+01    0.2985087    0.2535508  48.33  0.001972644    1.569    0.363
       178  -8.8766     26.0302     60.0339   1.1861229030e+02   6.2974109076e+01    0.6202697    0.2989187  33.54  0.003086013    2.369    0.578
       179 -10.9125     25.4953     55.3731   1.1746936814e+02   6.3980551311e+01    0.3938056    0.2145752 -27.20  0.001388683    1.907    0.476
       180 -10.7331     29.4954     52.5202   1.1473967482e+02   6.4187075097e+01    0.3920554    0.1923529  29.27  0.001985673    2.193    0.544
       181  -9.8269    131.1549    240.8370   1.2122388483e+02   6.7451238144e+00    0.2073494    0.1628888  25.39  0.001143363    1.296    0.229
       182  -9.5573    199.4964    244.5230   1.0803734425e+02  -4.6346569214e+00    0.1237697   0.09933951  20.80 -7.05238e-06    1.038    0.036
       183 -11.0247    113.6016     49.6134   8.2261880288e+01   5.0366637997e+01    0.6093327    0.3394956  35.17  0.002326424    2.016    0.504
       184 -12.3624    116.0610     42.3858   7.9041694142e+01   5.0853564217e+01    0.9077134    0.6146981 -81.71  0.003927504    2.441    0.590
       185 -10.2853    150.5027    237.4918   1.1676751588e+02   4.1808544872e+00     0.207593    0.1190516 -35.80  0.001033968    2.279    0.561
       186 -10.5555    155.3182     49.9517   7.2773828852e+01   4.0064360428e+01    0.2834353    0.2567474 -30.84 0.0004850364    1.207    0.171
       187  -8.9374      1.6902     56.2826   1.2862043514e+02   6.5367973250e+01    0.1032144   0.08736177  71.25 0.0003411053    1.567    0.362
       188  -9.9354     67.0915     54.8918   9.9536990277e+01   5.8826893045e+01    0.1940883    0.1906026 -67.94 0.0006423756    1.279    0.218
       189 -11.0886    248.6700     52.9846   6.0616169313e+01   1.7372212530e+01    0.2652759    0.2061647 -77.97  0.001646759    1.202    0.168
       190  -9.9713    145.5213     52.0751   7.5411103157e+01   4.2232169352e+01    0.2695468    0.2664407 -50.56  0.001173688    1.084    0.077
       191 -10.8816    146.0109     46.7119   7.3614533811e+01   4.2890401697e+01    0.4981252    0.2761322 -27.15  0.002141982    2.070    0.517
       192 -11.2863    240.3513     50.2342   6.0852730827e+01   1.9507691058e+01    0.2848487    0.2208224 -42.42 0.0008602776    1.236    0.191
       193 -10.4506    174.1003     48.4705   6.8996043973e+01   3.5495375979e+01    0.4066305    0.2546936  80.20  0.001308732    1.738    0.425
       194 -11.0309    157.0035     53.4885   7.3519832785e+01   3.9114004563e+01    0.5738367    0.3474718 -50.59  0.002548783    1.803    0.445
       195 -10.7393    136.6138     56.0861   7.8666475348e+01   4.3841275714e+01    0.4837149    0.3266623 -10.45  0.001587777    2.042    0.510
       196 -11.0067     20.9904     47.1587   1.1699685488e+02   6.6002370084e+01     0.383264    0.2303535 -40.17  0.001697008    1.370    0.270
       197 -10.0462      2.3216     48.7610   1.2648659859e+02   6.6896594220e+01    0.2159206    0.1671429 -27.87 0.0009265841    1.167    0.143
       198  -9.6910      3.2441     44.5704   1.2491134985e+02   6.7696229527e+01    0.2205135     0.130919  -5.29 0.0006693121    1.801    0.445
       199 -10.0509    201.9888     48.2934   6.4842313337e+01   2.8575239454e+01     0.199442    0.1748067 -89.93  0.001158884    1.052    0.049
       200  -9.3843     91.1723     48.0828   8.8388134684e+01   5.5519350453e+01    0.2233516    0.1610745 -60.92  0.001072735    1.992    0.498
       201 -10.5167    233.5145     45.2373   6.0443551883e+01   2.1681725682e+01    0.2416888    0.1697099  77.06  0.001129872    1.410    0.291
       202 -10.0616    101.0911     43.8041   8.3702053063e+01   5.4063949657e+01    0.3392237    0.2529067 -71.21  0.001640017    2.030    0.507
       203 -11.1543     94.1355     41.2913   8.4860987494e+01   5.5935891408e+01    0.6260811      0.24434  48.60  0.002331627    2.372    0.578
       204 -11.3833    156.2303     41.7942   7.0117668285e+01   4.0973665644e+01    0.3451719    0.3119393  48.45 0.0008294099    1.141    0.123
       205 -10.3589    153.5180     36.3126   6.8925485140e+01   4.2383053666e+01     0.285694    0.2257989 -81.93 0.0007783957    1.347    0.258
       206  -9.8399    139.9056     43.6603   7.3903019904e+01   4.4855336541e+01    0.3318816    0.1260916  58.75  0.001206543    2.399    0.583
       207  -9.5794     26.2233     43.5876   1.1325698551e+02   6.6226508161e+01    0.1584775    0.1059997   0.03 0.0003017537    1.544    0.352
       208 -10.0458    188.9870     42.1489   6.5008868690e+01   3.2620795719e+01    0.2067768    0.1832954 -78.44 0.0004688757    1.031    0.030
       209 -10.1380     18.2719     41.4384   1.1642571101e+02   6.7326152233e+01    0.3034033    0.1738764 -10.09  0.001668457    1.926    0.481
       210  -9.7353     86.8174     31.5288   8.3309171069e+01   5.8826096584e+01    0.2642648    0.2093736 -61.42  0.001438778    1.792    0.442
       211 -11.0555     81.0792     39.7657   8.8553454028e+01   5.8822037944e+01    0.5212772    0.3375813  48.26  0.002523129    1.557    0.358
       212 -10.9335     77.6595     34.3258   8.7537669137e+01   6.0275214442e+01    0.4005823    0.2444721  41.52  0.001116524    1.522    0.343
       213 -10.4227     81.7521     31.3714   8.4906769467e+01   5.9877837720e+01    0.4284007    0.2738163 -49.94  0.002105406    2.150    0.535
       214 -10.7249    231.5591     39.5079   5.9357973893e+01   2.2883087876e+01    0.2686414    0.1872998 -64.88 0.0006211203    1.279    0.218
       215 -10.7952     22.9675     36.9194   1.1244179560e+02   6.7762103009e+01    0.3329442    0.2334756  44.94  0.001524481    2.080    0.519
       216 -10.6493    176.7429     36.9685   6.5350484862e+01   3.6381853507e+01    0.3296629    0.2523942 -31.40  0.001762335    1.443    0.307
       217  -9.7252    133.5627     37.5641   7.3239232388e+01   4.7257627572e+01    0.3280272    0.2055913 -71.97  0.001379095    2.417    0.586
       218  -9.4532    206.8241     36.8952   6.1395447591e+01   2.8948869535e+01    0.1951489    0.1398672 -66.71  0.001058666    1.313    0.239
       219 -10.6903      4.2131     35.9100   1.2183000000e+02   6.9333286514e+01     0.261766    0.1672511  17.10 0.0009694437    1.733    0.423
       220  -9.3620     15.1618    233.8654   1.4395268676e+02   2.3981581082e+01    0.1403319    0.1208405 -88.06  0.001071659    1.348    0.258
       221  -9.8017    247.3081    231.3128   9.7165895158e+01  -9.6338232350e+00    0.1217479   0.07401359   1.64 0.0007026443    1.624    0.384
       222 -12.0090    115.3407     24.8694   7.2857222092e+01   5.3239515064e+01    0.5004054    0.2321364  50.70 0.0005740664    1.854    0.461
       223 -11.2283    110.2068     23.3915   7.3529359733e+01   5.4618354236e+01    0.3116318      0.25765  50.05 0.0008053475    1.068    0.064
       224 -11.7503    241.1237     30.9159   5.6598807167e+01   2.1900057664e+01    0.4293003    0.2648362 -23.21  0.002272658    2.138    0.532
       225  -9.2744     23.4881    231.5172   1.4225696874e+02   2.3566651184e+01    0.1179249   0.08616859  68.04 0.0008102643    1.017    0.016
       226  -9.8917    234.5092    222.5008   9.7896393536e+01  -6.7207222235e+00    0.1243159   0.09817334   4.05 -7.500321e-05    1.015    0.015
       227  -9.4784    165.6432    212.3186   1.0970345529e+02   6.0142674294e+00    0.1382688    0.1045097  65.33 0.0007045182    1.755    0.430
       228  -9.7602    152.7498    207.5889   1.1171784266e+02   9.1780841201e+00    0.2021087    0.1195529  46.34 0.0009464026    1.596    0.373
       229  -9.7659    172.0628     33.0353   6.4935021598e+01   3.8065896071e+01    0.2304616    0.1538892 -70.34  0.001080677    1.650    0.394
       230 -11.2603    159.9114     30.1639   6.5973265849e+01   4.1510734206e+01    0.3757437    0.2563128 -42.30 0.0004460328    1.543    0.352
       231 -11.1882    164.0093     27.4695   6.4535644527e+01   4.0784034156e+01    0.2761995    0.2233374  63.77 0.0003888614    1.136    0.119
       232 -10.3519    138.3926     32.2873   7.0485342780e+01   4.6715324285e+01    0.5973674    0.2646016  71.53  0.002214375    2.673    0.626
       233  -9.8361     71.4558     32.5115   8.9018145675e+01   6.1700641695e+01    0.2182442    0.2043792  35.01 0.0006937057    1.232    0.188
       234  -9.8361     67.9834     31.9709   9.0092502355e+01   6.2407783348e+01    0.2359006    0.1824747  -6.87 0.0007317274    1.258    0.205
       235 -10.6851    147.4776     31.7214   6.8578262046e+01   4.4489686609e+01    0.2429771      0.20474  74.77 0.0002868791    1.105    0.095
       236 -11.3976     56.1454     30.9748   9.4406178558e+01   6.4557413663e+01     0.302162     0.214537  27.88 0.0002741651    1.313    0.239
       237 -11.8793     48.1948     30.5775   9.7684301003e+01   6.5829678999e+01    0.7175222    0.2941546  31.91   0.00313864    2.481    0.597
       238  -8.8915    182.6741     31.7276   6.3074803952e+01   3.5545425290e+01    0.1361931    0.0996488  44.17 0.0002870355    1.580    0.367
       239 -10.4862    176.1513     29.8567   6.3453463858e+01   3.7417646310e+01    0.2772121    0.2439467  -4.93   0.00161125    1.436    0.304
       240  -9.6837      7.4904     25.0204   1.1618146268e+02   7.1120763631e+01    0.3483759   0.09210279 -39.95  0.001496227    2.983    0.665
       241  -9.6372    238.6913    204.4796   9.3921094562e+01  -4.7822380328e+00    0.2192819    0.1034003 -34.81  0.001075942    2.015    0.504
       242 -10.0480      4.5347    204.8293   1.4448498563e+02   3.0993707996e+01     0.216021   0.08800996 -74.14    0.0011288    2.114    0.527
       243  -9.8858    243.6511    197.6798   9.1789777422e+01  -4.5270189088e+00    0.1337834   0.08514691   0.74 0.0007048674    1.738    0.425
       244 -10.8431     14.9968     22.3598   1.1084792279e+02   7.0994321232e+01     0.255045    0.1933951   0.04 0.0006699006    1.204    0.169
       245 -10.0157      6.6029     30.7579   1.1880867001e+02   7.0152381306e+01    0.2678065    0.1293058  -8.29  0.001399226    2.402    0.584
       246 -11.4369    199.0983     27.9338   6.0054405445e+01   3.1940969030e+01    0.3852074    0.3632314  15.76  0.001010685    1.385    0.278
       247 -10.0832     98.5714     28.4419   7.8531793658e+01   5.6692650072e+01    0.4477776    0.2628652 -48.31  0.002080526    2.247    0.555
       248  -9.4320    221.5039     29.4476   5.8063513316e+01   2.6446201141e+01    0.1334799    0.1077627 -72.84 6.125998e-05    1.044    0.042
       249 -10.2814    189.3558     27.6698   6.1136390198e+01   3.4369045218e+01    0.3074473    0.2408465  11.10  0.001542837    1.856    0.461
       250 -10.2882    152.5111     26.9924   6.6220844208e+01   4.3767827952e+01    0.4482661    0.2995019  17.92  0.001424552    2.164    0.538
       251 -10.7675    156.8167     25.1292   6.4951275817e+01   4.2883965525e+01    0.6339445    0.3256505 -55.42  0.001973346    2.366    0.577
       252 -10.3604    230.6238     26.4814   5.6550947512e+01   2.4747973730e+01    0.2311987    0.1729457 -58.39 0.0007988929    1.144    0.126
       253 -11.4370    183.3929     24.8653   6.1132361527e+01   3.6184953245e+01    0.5413734     0.247296  55.10  0.002368368    2.119    0.528
       254 -10.3130    143.2087     24.6226   6.7077362268e+01   4.6394241851e+01    0.2627825    0.1184058  65.18  0.001090849    1.992    0.498
       255 -10.7565    214.8702     23.2812   5.7276835342e+01   2.8730829534e+01    0.4041422    0.2853083 -14.99  0.002206072    2.000    0.500
       256  -9.7521    233.7492    197.0204   9.3407143560e+01  -2.9205128925e+00    0.1681851     0.100167 -33.58  0.000890718    1.592    0.372
       257  -9.8098     59.9570     24.4950   8.9950982033e+01   6.4842176778e+01    0.2133597    0.1645285 -37.53 0.0005462179    1.501    0.334
       258 -10.0382    169.7205    191.3535   1.0510341569e+02   9.1896235444e+00    0.3986404    0.2159746  24.93  0.001276229    2.322    0.569
       259 -12.2997      4.7804    184.5884   1.4325154951e+02   3.5420257150e+01    0.6012418    0.3830426  67.91  0.003780707    1.322    0.244
       260 -10.3389     81.4874     19.2040   7.9832199203e+01   6.1425327495e+01    0.3821295    0.1610198  47.08 0.0009173052    2.042    0.510
       261 -10.0377     39.5384    173.4943   1.3412772916e+02   3.4620733806e+01    0.1326685    0.1112725  83.53 5.465467e-05    1.006    0.006
       262 -11.8925      9.9906    165.7627   1.4070880073e+02   3.9324570378e+01    0.5352089    0.2870149 -66.69  0.002693216    1.631    0.387
       263 -11.6276     13.8695    158.2151   1.3910559046e+02   4.0794384898e+01    0.4538582     0.179911 -75.87  0.001806263    2.117    0.528
       264 -10.5024     38.6858     21.6660   9.8072071247e+01   6.8485748557e+01    0.2875005    0.1703951 -18.31  0.001376713    1.699    0.411
       265  -9.7599    198.1533    167.7948   9.4362250165e+01   8.2420249666e+00    0.2026086    0.1984961  -8.94 0.0006352972    1.113    0.102
       266  -9.5000    223.5144     22.4322   5.6280780929e+01   2.6837008993e+01    0.1918661    0.1647027 -49.84 0.0007564325    1.219    0.179
       267  -9.9175    221.0495     18.9836   5.5721241855e+01   2.7803157567e+01    0.1888271    0.1552222 -74.72            0    1.013    0.013
       268 -10.1597     18.8080    165.0089   1.3847287294e+02   3.8747071959e+01    0.2089964    0.1818801  51.82  0.001401327    1.246    0.197
       269 -10.6498    138.2272     21.5807   6.6981701978e+01   4.7979035571e+01    0.3629531     0.171229  51.38  0.001165215    1.889    0.471
       270  -9.4610    141.5047     19.5194   6.5725479456e+01   4.7371943087e+01    0.2615721    0.1839027  59.75  0.001057111    1.240    0.194
       271 -10.4711     66.1582     21.9083   8.6357452159e+01   6.4082365370e+01    0.2197828    0.1893193  25.17 0.0004281558    1.097    0.088
       272 -10.1804    205.2837    163.3622   9.2001918895e+01   7.6882561312e+00     0.254016    0.2448621 -25.06  0.000707881    1.111    0.100
       273  -9.2151    158.4934     20.4373   6.3282139149e+01   4.2972900218e+01    0.1387029    0.1202344  72.79 0.0001042479    1.025    0.024
       274  -9.4792    188.6036    164.2122   9.5574474517e+01   1.0797356313e+01    0.2069011    0.1360648 -30.20 0.0006122131    1.620    0.383
       275  -9.2938    211.4438     18.9670   5.6592270461e+01   3.0035606174e+01    0.1764984    0.1188347 -39.55 0.0003552029    1.491    0.329
       276  -9.9663     28.2968    163.6440   1.3594141576e+02   3.8179862980e+01    0.1392592   0.08241662  70.08 0.0007034215    1.698    0.411
       277  -9.6731    191.9079     16.5721   5.7974298624e+01   3.5003488800e+01    0.2584189    0.1753294   4.48  0.001280103    2.448    0.591
       278  -9.2327     79.3360    160.6601   1.2193148955e+02   3.2471240704e+01    0.1573831    0.1044009  70.77 0.0005527778    1.756    0.431
       279  -9.6501    226.5288    157.5005   8.6780296586e+01   4.7450098564e+00    0.1388346     0.123745 -15.82 7.054822e-05    1.011    0.011
       280 -10.3057    186.3878     15.0623   5.8187597345e+01   3.6525445127e+01    0.2525407     0.173078  74.46 0.0004140534    1.279    0.218
       281 -11.0372    104.8860    153.3005   1.1362179439e+02   2.9971274446e+01    0.6635399    0.4344402 -67.98  0.002938179    1.690    0.408
       282  -9.9858      8.8989    156.2423   1.4019626366e+02   4.1662538912e+01     0.251548    0.1179833 -54.56  0.001251654    2.144    0.534
       283 -10.7837     31.3446    153.9598   1.3408500217e+02   4.0233801683e+01    0.3930648    0.2640605  66.01  0.002022896    1.485    0.327
       284  -8.9393     94.6734     12.3042   7.3081386387e+01   5.9309034984e+01    0.1235223    0.1011997 -76.88 0.0007033896    1.646    0.392
       285 -10.4816     30.4174    149.2104   1.3378044950e+02   4.1491577039e+01    0.2664844    0.1708361  87.33 0.0007153652    1.514    0.339
       286 -10.1240     71.3284    151.6619   1.2265753261e+02   3.5904406488e+01    0.3264072    0.1884643  46.32  0.001479972    1.743    0.426
       287 -12.0091     23.1363    149.1105   1.3576201048e+02   4.2196802579e+01    0.4671967    0.2787073 -35.15  0.002088216    2.315    0.568
       288 -11.4528     15.9087    148.0627   1.3760586510e+02   4.3069282944e+01     0.372022    0.1976614  38.25  0.001623116    1.965    0.491
       289 -10.9240     46.9787    146.4341   1.2876325622e+02   4.0410139618e+01    0.5167902    0.2602014 -71.24  0.002324238    1.857    0.461
       290  -9.7476     47.9189    151.8240   1.2926183682e+02   3.8957428442e+01    0.2689242       0.2429  -2.42 0.0009108732    1.401    0.286
       291 -10.3915     44.5634    150.7871   1.3005555293e+02   3.9605001201e+01    0.4815611    0.2432882  78.86  0.001672307    2.808    0.644
       292 -10.3259      3.4868    152.5175   1.4126185693e+02   4.2947118559e+01    0.3199784    0.1529147  68.01  0.001582456    2.167    0.539
       293 -11.6470      3.7659    147.4770   1.4077065183e+02   4.4123562089e+01    0.4651038    0.3388264  12.72  0.002944703    1.821    0.451
       294 -11.7010      3.6122    141.8062   1.4031555114e+02   4.5485502420e+01    0.3849512    0.3256109  12.17  0.002416305    1.538    0.350
       295 -11.9779      3.9078    136.6867   1.3976373752e+02   4.6690121792e+01    0.2539391    0.1935157 -64.30 0.0002882564    1.199    0.166
       296 -10.7232     62.2479    149.7807   1.2492058015e+02   3.7651604939e+01    0.4891636    0.3513517  85.28  0.002484382    1.486    0.327
       297  -9.3989     85.4815    149.9863   1.1836878706e+02   3.4135124388e+01    0.2091993    0.1266644 -89.65 0.0007571545    2.420    0.587
       298 -10.4988     56.2371    149.0056   1.2650749193e+02   3.8636386593e+01    0.1987286    0.1685973 -75.68 0.0003104011    1.072    0.068
       299  -9.6414    108.0534    146.2816   1.1132888972e+02   3.1084451667e+01    0.2231942    0.1933193  44.50  0.000792284    1.146    0.127
       300 -10.7604     33.0687    144.2729   1.3242862383e+02   4.2448684101e+01      0.26422    0.2327199  88.02 0.0007766243    1.051    0.049
       301 -10.7664    249.6137    142.0345   7.9686562847e+01   3.2248241409e+00    0.3216656    0.1122536 -37.34  0.001266748    2.492    0.599
       302  -9.5926    133.5458    140.7930   1.0326785722e+02   2.7303732960e+01    0.3032574    0.1519126 -44.01  0.001131775    2.072    0.517
       303 -11.9162     12.3785    138.6801   1.3760812792e+02   4.5618049698e+01    0.4980469    0.2841718  64.14  0.002632184    1.870    0.465
       304 -12.3440     22.3785    135.4968   1.3439350494e+02   4.5598344362e+01    0.7609395     0.366979  46.85  0.003653554    2.231    0.552
       305 -11.8642     29.7680    132.8506   1.3187158036e+02   4.5594070668e+01    0.5644325    0.3566462 -88.35 0.0004482722    1.586    0.369
       306 -10.4538     47.1004    134.4882   1.2690684188e+02   4.3382226553e+01    0.3591698    0.3009662 -73.47  0.002086972    1.067    0.063
       307 -10.6304     71.5214    134.1231   1.1944651510e+02   4.0261064847e+01    0.5349872    0.3324291   1.50  0.002079944    2.959    0.662
       308 -10.3036     92.7974    129.3096   1.1204066792e+02   3.8003983360e+01    0.3435784    0.3072736  73.91  0.001638875    1.167    0.143
       309 -10.8845     10.5510    127.3679   1.3689560272e+02   4.8490122699e+01    0.4593028    0.1524807 -58.67  0.001583262    2.366    0.577
       310 -10.4313     80.6564    135.9036   1.1705745277e+02   3.8412951323e+01    0.4879422    0.3140866  -8.76  0.001858255    2.967    0.663
