#   1 NUMBER                 Running object number                                     
#   2 MAG_AUTO               Kron-like elliptical aperture magnitude                    [mag]
#   3 X_IMAGE                Object position along x                                    [pixel]
#   4 Y_IMAGE                Object position along y                                    [pixel]
#   5 X_WORLD                Barycenter position along world x axis                     [deg]
#   6 Y_WORLD                Barycenter position along world y axis                     [deg]
#   7 A_WORLD                Profile RMS along major axis (world units)                 [deg]
#   8 B_WORLD                Profile RMS along minor axis (world units)                 [deg]
#   9 THETA_WORLD            Position angle (CCW/world-x)                               [deg]
#  10 FWHM_WORLD             FWHM assuming a gaussian core                              [deg]
#  11 ELONGATION             A_IMAGE/B_IMAGE                                           
#  12 ELLIPTICITY            1 - B_IMAGE/A_IMAGE                                       
         1 -15.5616     74.5080     87.0744   8.6926146723e+01   5.0415579729e+01     2.994669     2.200573 -40.62   0.01535361    1.263    0.208
         2 -16.6413     99.8935     67.1461   7.2243254839e+01   4.9928875321e+01     4.723634     3.664475  72.22   0.02304784    1.807    0.447
         3 -16.8334     48.1005     20.8033   7.2987535864e+01   6.6484901658e+01     4.848306     2.210419 -31.21   0.02406087    2.114    0.527
         4 -15.5790     62.0231     59.4613   8.2767742110e+01   5.8056383524e+01      1.37179     1.143592 -62.04  0.006506354    1.547    0.354
         5 -16.1219     44.1370     68.4299   9.2751461191e+01   5.8591512491e+01     2.075727     1.587467 -48.73  0.007192347    1.215    0.177
         6 -14.7335    126.3717     31.9894   5.2970598451e+01   4.9467232084e+01     1.298571     1.017717 -68.71  0.005274112    1.590    0.371
         7 -14.0780    223.8498     27.6296   3.7405003229e+01   2.6809010666e+01    0.8160737    0.5517678  40.48  0.001462684    2.119    0.528
         8  99.0000     17.7621     11.7788   8.3559938989e+01   7.1561660114e+01    0.8586724    0.3661055 -28.38   0.00358529    2.226    0.551
         9 -12.0329     17.4657      2.5677   7.8984760824e+01   7.2851779883e+01    0.4922462    0.2226965  18.20   0.00259461    2.378    0.579
        10 -14.0749    241.1238     11.7466   3.2556991352e+01   2.4980309827e+01    0.6775638    0.4775355 -64.27  0.002579664    1.157    0.136
        11 -10.4771      4.8139      8.8950   8.9636369705e+01   7.3146096209e+01    0.2129525    0.1281135 -36.43  0.001030095    1.368    0.269
        12 -10.9005      4.3869      3.5954   8.7278403520e+01   7.3964953322e+01    0.2849024    0.1018057 -36.72  0.001491357    2.265    0.559
        13 -12.5865    121.7044      4.0927   4.4213827388e+01   5.3395452920e+01      0.58835    0.4162028  56.65  0.003441444    1.198    0.165
        14 -11.4717    187.1147      3.3420   3.5197564095e+01   3.7838755231e+01    0.2450887    0.1759004 -45.47  0.001485488    1.404    0.288
        15 -11.6022    174.5554      2.8358   3.6366893972e+01   4.0856903971e+01    0.2719388    0.2006797  72.50  0.001645763    1.180    0.153
        16 -15.7010    197.9494    214.0825   8.3347043654e+01   3.1512259046e-01      2.27995     1.801065  82.54   0.01183643    2.483    0.597
        17 -13.2647    244.1960    248.3305   8.0558613447e+01  -1.1053740993e+01    0.6887263    0.3695366  26.52  0.003534951    1.616    0.381
        18 -14.4912    198.2013    246.5321   8.8659789924e+01  -4.6991113096e+00     1.062115     0.743344  23.91  0.005554763    1.183    0.155
        19 -12.3534    189.8509    238.9074   8.9089200120e+01  -2.3635759225e+00    0.3367599    0.3116724  18.87  0.001611145    1.234    0.190
        20 -10.5989     16.5032    250.5002   1.2430044765e+02   1.9575392975e+01    0.1784548    0.1257236  61.50 0.0006128274    1.073    0.068
        21 -13.2216      4.6880    248.6544   1.2623526757e+02   2.1089856118e+01    0.6443867    0.3571801  44.86  0.003883962    1.531    0.347
        22 -13.0760      2.3270    240.1696   1.2627460436e+02   2.2914693493e+01    0.4854209    0.2186596  89.68  0.002895989    1.919    0.479
        23 -13.4089      5.5018    233.5100   1.2541429962e+02   2.3910210537e+01    0.3419327    0.2509921  87.04  0.002233019    1.173    0.147
        24 -14.3452    174.8296    211.3028   8.7592161553e+01   4.5669039308e+00    0.9829796    0.9339385  52.20  0.004176078    1.256    0.204
        25 -11.6527    108.3315    228.8733   1.0450714348e+02   1.2042361741e+01    0.2450374     0.156002  46.67  0.001331397    1.380    0.276
        26 -12.3913     98.7197    226.4944   1.0627184993e+02   1.3955938653e+01    0.4565581    0.3200871 -74.82  0.002604002    1.598    0.374
        27 -12.7903     23.2786    207.8524   1.2049854862e+02   2.7498570163e+01    0.3235318    0.2469355 -47.02 0.0008696256    1.767    0.434
        28 -13.5278     39.9752    222.6637   1.1818767670e+02   2.2534480812e+01    0.7102429    0.4750275 -74.92  0.002909563    1.441    0.306
        29 -13.1610     34.1442    181.2137   1.1587102972e+02   3.2438032778e+01    0.5849928    0.3671048 -86.86  0.002162575    1.448    0.309
        30 -14.1939     24.6799    189.0183   1.1875086562e+02   3.1577014477e+01     1.008928    0.5476399  51.68  0.005151388    1.718    0.418
        31 -14.4406     37.9174    210.1953   1.1762423930e+02   2.5430656481e+01    0.8091063    0.5602277 -55.54  0.003281699    1.689    0.408
        32 -15.1676     35.8236    196.9866   1.1695344161e+02   2.8602860171e+01    0.9800499    0.7717332  41.92  0.002774514    1.336    0.251
        33 -11.9147     87.1532    215.2478   1.0745225526e+02   1.7973413919e+01    0.5321923    0.3011392  82.83  0.002379274    2.525    0.604
        34 -13.7685     77.8838    209.7697   1.0887062908e+02   2.0475700847e+01     1.572936    0.6463739  63.79  0.005049951    4.620    0.784
        35 -12.3451     74.4860    204.4700   1.0902035717e+02   2.2117140703e+01    0.5066478    0.2958249  33.71  0.002180739    1.739    0.425
        36 -13.8699      8.7468    207.2597   1.2340745710e+02   2.9016296662e+01    0.7551923    0.5106184  21.94  0.004444139    1.983    0.496
        37 -11.3009    107.1417    211.2923   1.0248332956e+02   1.5786910969e+01    0.3977872    0.2318305  51.91  0.001928139    1.693    0.409
        38 -13.1039     63.4636    207.1345   1.1179644587e+02   2.3009087782e+01    0.7024318    0.3561397  71.79  0.003082676    2.529    0.605
        39 -12.0852    211.0892    202.4243   7.8641935686e+01   1.4754913819e-01    0.3321468    0.2395527 -42.37  0.001521236    1.524    0.344
        40 -12.4600    213.9562    197.9464   7.7244631400e+01   4.3120361260e-01    0.4522021    0.3385097 -56.40  0.002273103    1.910    0.476
        41 -12.4861    207.6091    195.7514   7.8057949616e+01   1.8334237727e+00     0.419313    0.3540553   7.55   0.00165852    1.066    0.062
        42 -11.8369      1.6841    197.2723   1.2424421019e+02   3.1796513005e+01    0.5326142    0.1360191 -81.11  0.002101144    3.504    0.715
        43 -11.7046     56.9408    194.7361   1.1194375641e+02   2.6646392534e+01    0.3082904    0.3003675  65.78  0.001305326    1.219    0.180
        44 -10.5107     68.6369    192.5619   1.0895389308e+02   2.5623938254e+01    0.2281932    0.1311446  29.92  0.000887388    1.915    0.478
        45 -11.7152     11.8135    188.6807   1.2156084154e+02   3.2849350735e+01    0.3298501    0.2175182  57.02  0.001511381    1.381    0.276
        46 -12.0093     53.5302    187.4867   1.1194001338e+02   2.8756289059e+01    0.3908387     0.231482 -71.11  0.001247669    1.571    0.364
        47 -12.3006     52.9921    181.1985   1.1134861128e+02   3.0311047851e+01    0.3924083    0.2623329 -56.59  0.002121685    1.521    0.342
        48 -11.1956     42.1196    179.9125   1.1383657333e+02   3.1885128130e+01    0.2365036    0.1565972 -66.60 0.0008782733    1.390    0.281
        49 -11.5536     45.3151    175.9612   1.1262229469e+02   3.2471129783e+01    0.4210206    0.2539009  68.65  0.001949255    1.755    0.430
        50 -11.4094     41.4974    174.5054   1.1339812330e+02   3.3249651981e+01    0.2670048    0.2076149 -87.39   0.00102094    1.128    0.114
        51 -14.8873    225.8833    167.1234   6.8856886050e+01   3.7139969161e+00     1.208574     1.031023  43.25  0.003704616    1.375    0.273
        52 -12.6791    239.8046    166.9456   6.6370807902e+01   1.4255093050e+00    0.5029675    0.3993085 -45.32  0.002172173    1.388    0.279
        53 -11.5803     59.9090    174.3277   1.0878339629e+02   3.1102741584e+01    0.2468551    0.2227363 -35.10 0.0005712981    1.346    0.257
        54 -11.0281     70.9830    164.3024   1.0449803522e+02   3.2082820001e+01    0.2296424    0.1879865 -69.18  0.000394836    1.144    0.126
        55 -13.2903     57.3529    160.7515   1.0759269610e+02   3.4759709153e+01    0.4993655     0.280487 -42.35  0.001694635    2.157    0.536
        56 -11.7450     78.0474    158.2511   1.0163482722e+02   3.2572452973e+01    0.3309862    0.2756791 -35.17 0.0007224421    1.377    0.274
        57 -12.9847      2.8168    117.0693   1.1729912972e+02   5.0545353662e+01     1.013409    0.2198922 -71.11  0.003620502    3.387    0.705
        58 -13.3554      5.1259    101.4703   1.1452986411e+02   5.4159299587e+01     1.057516    0.3237647 -56.53  0.004620936    2.292    0.564
        59 -12.9915     20.7557    152.9102   1.1630150258e+02   4.0537413868e+01    0.7612045    0.3103191 -64.79  0.002792493    1.982    0.495
        60 -15.4627     11.3379    139.0856   1.1733775216e+02   4.4655062354e+01     1.337762    0.7926253 -88.88  0.004441388    1.558    0.358
        61 -15.8340     39.3396    143.1361   1.1003314813e+02   4.1215655716e+01     1.745998     1.065962  44.68  0.006053211    1.754    0.430
        62  -9.8513    122.7466    151.3075   8.8297081430e+01   2.6717836805e+01    0.1487835    0.1202421  87.56 0.0002228775    1.513    0.339
        63 -11.9262     70.0006    145.2581   1.0163393323e+02   3.6970999928e+01    0.3624728    0.3307573  38.70  0.001202937    1.184    0.155
        64 -12.3460     67.5163    142.5031   1.0185807426e+02   3.8005971816e+01    0.4742488     0.314313  49.97  0.001599627    1.629    0.386
        65 -13.0508    231.2941    138.9613   6.1883800767e+01   7.7002844100e+00    0.6597204    0.4985087 -37.91  0.002463124    1.177    0.150
        66 -13.7901    234.2260    131.7211   5.9808333926e+01   8.4308844835e+00     1.622109    0.6689724 -51.41  0.005786362    3.217    0.689
        67 -11.8461     82.0955    141.9350   9.7555554087e+01   3.6034360247e+01    0.2920391    0.2241002 -52.26  0.000448965    1.245    0.197
        68 -10.5015    106.8233    131.8262   8.8324551573e+01   3.4356466158e+01    0.2417362    0.2114514 -18.54  0.001220583    1.272    0.214
        69 -10.8107    122.6215    118.3277   8.0608020536e+01   3.4486378842e+01    0.3075881    0.2419345  87.32  0.001387771    1.699    0.411
        70 -11.0705    107.3920    249.2299   1.0705599402e+02   8.3927865999e+00    0.1597518    0.1140916 -83.75 0.0009580704    1.723    0.419
        71 -11.4240     85.9670    249.0311   1.1128407088e+02   1.1462607284e+01    0.1896702    0.1551509  58.66  0.000892736    1.038    0.037
        72 -11.4496     60.5457    248.0992   1.1612832349e+02   1.4992472641e+01    0.3394757    0.1689995 -89.11    0.0017641    2.407    0.585
        73 -11.0881     88.4770    105.4811   8.7357349710e+01   4.3915692491e+01    0.2818924    0.2530167 -45.68  0.001095668    1.055    0.052
        74 -13.8769     26.5318     96.6632   1.0636701886e+02   5.3868564700e+01     1.026222    0.5429258 -70.94  0.003792787    1.840    0.457
        75 -12.2542    108.0070     98.6586   7.9488945035e+01   4.1865563736e+01    0.6424147    0.3168845 -41.04  0.002471165    2.023    0.506
        76 -13.7030     98.1555     88.6919   7.9604026144e+01   4.5947314755e+01    0.7613428    0.5425426  49.16  0.002609484    1.540    0.351
        77 -11.6363     18.0533     87.7629   1.0768075470e+02   5.6608002449e+01    0.4035554    0.1844435 -49.12  0.001328555    1.758    0.431
        78 -14.1650      9.4208     81.6336   1.0971316374e+02   5.8569787162e+01    0.9506317     0.687758 -86.81  0.005076521    1.557    0.358
        79 -12.5055    229.5487    244.1116   8.2459379838e+01  -8.6712314287e+00    0.4177525    0.3348196  -3.62  0.001769451    1.123    0.109
        80 -13.4040    222.4651    239.3667   8.2971228719e+01  -7.0949926125e+00    0.5801252    0.4500718  23.45  0.002004837    1.215    0.177
        81 -11.8139     20.8062     74.6428   1.0380379339e+02   5.9415580314e+01    0.4544634    0.2578852 -20.46  0.002183993    2.031    0.508
        82 -11.7952     16.6429     51.4366   9.9448688723e+01   6.4678429391e+01    0.4690971    0.3655494  63.81  0.002542691    2.043    0.510
        83 -11.9178    176.4003    237.8429   9.1587310235e+01  -1.6494095569e-01    0.3064631    0.2457445 -55.46  0.001897806    1.660    0.397
        84  -9.9366     20.4630    238.5285   1.2297270468e+02   2.1449148847e+01    0.1131476   0.08453319  69.61  0.000112657    1.004    0.004
        85 -11.4639     25.3190     35.1031   8.9763402147e+01   6.7056453653e+01    0.4513117    0.2618397  -9.37  0.002276224    1.889    0.471
        86 -11.3979    229.8153    231.9518   8.0392918238e+01  -7.0801682976e+00    0.2421844    0.1721676 -24.78  0.001550942    1.339    0.253
        87 -13.2649    174.2001    221.6705   8.9471704493e+01   2.8508584797e+00    0.7187299    0.3528968 -37.36  0.002648843    2.272    0.560
        88 -12.5681     84.8519    229.7720   1.0957822899e+02   1.5309434554e+01    0.3999905    0.2635221  65.77  0.002258116    1.528    0.345
        89 -12.4747     86.9804    225.5919   1.0867521114e+02   1.5850239706e+01    0.3371854    0.2238101 -84.55  0.001654548    1.699    0.411
        90 -13.6302    216.4128    210.2432   7.9063753766e+01  -1.9454582257e+00     0.915028     0.622404  -5.88  0.005079524    1.523    0.343
        91 -14.7095    228.0527    207.3571   7.6360221264e+01  -3.2485265827e+00     1.614568    0.7314872 -47.00  0.007043749    2.890    0.654
        92 -14.3670    226.0234    186.9736   7.2848441615e+01   3.1847038448e-01     2.435846     1.615414 -67.88  0.009926129    3.817    0.738
