#   1 NUMBER                 Running object number                                     
#   2 MAG_AUTO               Kron-like elliptical aperture magnitude                    [mag]
#   3 X_IMAGE                Object position along x                                    [pixel]
#   4 Y_IMAGE                Object position along y                                    [pixel]
#   5 X_WORLD                Barycenter position along world x axis                     [deg]
#   6 Y_WORLD                Barycenter position along world y axis                     [deg]
#   7 A_WORLD                Profile RMS along major axis (world units)                 [deg]
#   8 B_WORLD                Profile RMS along minor axis (world units)                 [deg]
#   9 THETA_WORLD            Position angle (CCW/world-x)                               [deg]
#  10 FWHM_WORLD             FWHM assuming a gaussian core                              [deg]
#  11 ELONGATION             A_IMAGE/B_IMAGE                                           
#  12 ELLIPTICITY            1 - B_IMAGE/A_IMAGE                                       
         1 -13.0940    211.0995     55.4393   1.4281239758e+00   2.7661677780e+01    0.8741833    0.7317479 -50.87  0.003404097    1.221    0.181
         2 -13.5166    223.1769     47.2168   3.5877503059e+02   2.6603007105e+01    0.7246191    0.6997675 -27.68  0.001857491    1.543    0.352
         3 -11.6142    249.1204     23.9854   3.5288842268e+02   2.5080759153e+01     0.498221    0.2838126 -30.43  0.003299603    2.139    0.533
         4  -9.1319    189.4825     14.9500   3.5478813249e+02   3.6853709611e+01    0.1638816   0.09980749 -41.42  0.000721604    1.558    0.358
         5  -9.8661    227.3581      9.5249   3.5140959254e+02   3.0288367985e+01    0.1973263    0.1418156 -65.73 0.0007295774    1.044    0.042
         6 -10.3669      1.8628     11.0405   5.1189206398e+01   7.6857137639e+01    0.3809588   0.07176349 -47.80  0.001378593    4.399    0.773
         7  -9.6648      2.3179      2.0272   4.5808610491e+01   7.8332301717e+01    0.1605441    0.1374761  -5.87  0.000651842    1.104    0.094
         8  -9.2429     42.1760      1.3815   1.7043037177e+01   7.1860692565e+01    0.1790166     0.104337  63.32 0.0006670145    1.700    0.412
         9 -10.4553    118.1418    232.9278   5.0907746806e+01   1.0332503033e+01    0.2485577    0.1542253  40.07 0.0007553134    1.586    0.369
        10  -9.9721     75.1025    248.5013   6.2736816805e+01   1.2308965369e+01    0.4774522    0.1535795 -52.16  0.001961294    3.532    0.717
        11 -12.9924     43.7707    242.6644   6.9951603587e+01   1.6797437127e+01     1.193297    0.5726336  19.30 0.0008775098    1.935    0.483
        12 -13.2309     60.9773    159.1106   5.6816066077e+01   3.4728913336e+01     3.533292     1.759762 -12.07  0.008719577    6.508    0.846
        13 -13.6579     54.7552    235.4890   6.6693462303e+01   1.7152759646e+01     4.247641    0.8971124 -63.12  0.004701533    4.482    0.777
        14 -14.2393     54.6412    217.5803   6.5258197682e+01   2.1083950522e+01     3.177822     1.736363 -20.14  0.004777532    3.126    0.680
        15 -15.8170     27.7433    178.2675   6.9710703370e+01   3.3544110908e+01      12.2221     4.038774  86.44   0.01586073    5.244    0.809
        16  -8.6202    132.0237    211.5313   4.4896942502e+01   1.2694997688e+01    0.1867956    0.1179906  26.51  3.43289e-05    1.442    0.307
        17  -9.4854     96.0104    209.5717   5.3433322871e+01   1.7824283315e+01    0.2539257    0.1951819  84.70   0.00134009    1.685    0.407
        18 -11.1209    103.0837    202.9943   5.0756486452e+01   1.8312601217e+01    0.4305747    0.3974588 -74.39  0.002170362    1.244    0.196
        19  -9.6199    210.8340    198.8723   2.7502592161e+01   5.2576805505e+00    0.1999999    0.1527996 -10.96 0.0005530439    1.179    0.152
        20  -9.6478    192.1976    193.2051   2.9779298591e+01   8.3245398175e+00    0.4014607    0.2388299 -71.44   0.00140799    6.239    0.840
        21  -9.1552     72.8629    190.6174   5.7365434370e+01   2.5206914594e+01    0.2178597    0.1958748 -43.78 0.0003781028    1.225    0.184
        22 -13.3406     60.6504    145.0114   5.4791624805e+01   3.8473996770e+01     1.175039    0.7706609  -6.86  0.001224146    2.180    0.541
        23 -14.7299     10.2243    206.2980   7.6673187882e+01   2.8094660882e+01     1.172872    0.7501881   2.03   0.00285831    1.859    0.462
        24 -10.0026     94.7777    183.4259   5.0212655325e+01   2.3894164931e+01     0.372068    0.2352329  36.05   0.00124668    1.449    0.310
        25 -13.8240     18.8483    237.2798   7.5845863339e+01   2.0316289172e+01     1.097491    0.5469669  70.05 0.0004814933    2.123    0.529
        26  -9.1441     83.0755    180.4363   5.3079971848e+01   2.6279309169e+01    0.2506229    0.1965687  84.15 0.0005957363    1.497    0.332
        27 -10.6904    176.4423    170.1771   2.8839318611e+01   1.4439437239e+01    0.5768656    0.1701163 -46.99  0.002164009    3.171    0.685
        28  -9.9100    171.2175    172.9592   3.0330916988e+01   1.4679313041e+01    0.2725899    0.1685599 -45.99  0.001135825    1.537    0.349
        29 -10.1352    172.6888    169.3522   2.9415528948e+01   1.5135561134e+01    0.2574926    0.1739926 -64.02  0.001076635    1.954    0.488
        30 -10.3703    180.7774    167.7546   2.7603448037e+01   1.4257165245e+01    0.2858059    0.1695086 -50.03 0.0008281802    1.666    0.400
        31 -10.2499    178.2233    163.9840   2.7413524309e+01   1.5313318733e+01    0.4071693    0.2114881  41.48   0.00201865    2.094    0.523
        32 -14.3799     72.6340    148.1760   5.1300878934e+01   3.5903772091e+01     6.041715     2.828609  69.09  0.002514208    6.354    0.843
        33 -10.5750    148.5453    228.6466   4.3612708366e+01   7.5002608167e+00    0.2873134    0.1699117 -18.08  0.001493718    2.003    0.501
        34  -9.1028    110.7210    167.0283   4.3254525478e+01   2.5285167426e+01    0.2201681    0.1922897  73.88 0.0005989979    1.295    0.228
        35 -14.6939     12.3136    246.0460   7.7798876749e+01   1.9047037079e+01     1.248121     1.030267 -53.64  0.008329407    1.547    0.354
        36  -9.8094     72.5200    224.9822   6.1230276771e+01   1.7400201302e+01    0.2610964     0.175464  28.27 0.0005114599    1.264    0.209
        37 -15.2011      5.8379    230.3132   7.8811888086e+01   2.2942308594e+01      1.58933    0.7309657 -76.12  0.007836251    2.354    0.575
        38  -9.3400     41.1872    153.6512   6.2749097620e+01   3.8648704247e+01    0.2443847    0.1935979  77.26 0.0004758248    1.307    0.235
        39 -10.3617    134.3295    148.0066   3.3734845903e+01   2.5592831131e+01     0.595265    0.2473866 -56.18  0.002196159    2.711    0.631
        40 -10.2459    133.0000    141.4619   3.2758507192e+01   2.7241423103e+01    0.6103184    0.1904154 -55.02  0.001878159    3.789    0.736
        41 -10.4588    108.9323    145.3602   3.9783261926e+01   3.0630436305e+01    0.2849116    0.2653839  53.70 0.0006364353    1.058    0.055
        42 -10.3822     37.2589    142.9528   6.2788684306e+01   4.1975257405e+01    0.4646255    0.2722909  61.47 0.0009245577    1.915    0.478
        43  -8.4903    101.1790    144.0686   4.1732283091e+01   3.2281524313e+01     0.256461    0.1755323  83.83  0.001077855    2.105    0.525
        44 -15.0570     41.1189    172.9691   6.4969307693e+01   3.3537106853e+01     7.397846     3.487013  29.16   0.03061275    1.891    0.471
        45 -16.2274      5.6826    215.7244   7.8307520859e+01   2.6244561497e+01     4.329849     2.083753  29.84   0.02132186    1.709    0.415
        46 -10.5771     98.1669    133.4753   4.0508486685e+01   3.5355097033e+01    0.6120916    0.3821807   9.10  0.002289553    2.737    0.635
        47 -11.7527     84.6299    131.7977   4.4371064591e+01   3.8133347259e+01    0.2915266    0.2871201  81.64 0.0003919589    1.043    0.042
        48  -9.5884    108.7535    126.1146   3.5873661075e+01   3.5147329703e+01    0.3525997    0.2570914  17.49  0.001075321    1.769    0.435
        49 -10.2775     43.7286    131.1989   5.8704999927e+01   4.4392068470e+01    0.3832493    0.2328614 -49.12  0.001517819    1.733    0.423
        50  -9.4523    131.8199    129.8504   3.0642238560e+01   2.9963926262e+01    0.2879154     0.200499  85.28 0.0005775364    2.135    0.532
        51  -8.8484    129.9241    126.3305   3.0349166411e+01   3.1079494504e+01    0.1996575    0.1789859  51.56 0.0007208067    1.113    0.102
        52 -10.1163    105.7308    130.4329   3.7659500067e+01   3.4705912525e+01    0.3774359    0.3224677  89.82  0.001060715    1.289    0.224
        53 -10.2971     24.7286    128.7656   6.5729559292e+01   4.7116228823e+01    0.3934863    0.3034965  85.37  0.002001658    1.339    0.253
        54  -8.5162    219.4420    126.4683   1.4044475407e+01   1.5652456041e+01    0.1174173   0.09531493 -47.90 0.0001030436    1.048    0.046
        55  -8.2832    107.3142    122.7029   3.5532655039e+01   3.6205704792e+01    0.1538785    0.1159609  74.89 0.0004728533    1.604    0.377
        56 -10.5988     95.2228    121.2589   3.8798076344e+01   3.8816116911e+01    0.3126839    0.2562851  27.38 0.0006634087    1.300    0.231
        57  -9.0183    114.9333    121.3241   3.3108575944e+01   3.5058684266e+01    0.2131521    0.1840538  40.84 0.0004740675    1.164    0.141
        58  -9.6846     86.7884    120.7728   4.1360712426e+01   4.0473047630e+01    0.2706999    0.2182394  70.74 0.0005193626    1.365    0.267
        59 -10.4287     27.7710    118.7149   6.3139363771e+01   4.9543415144e+01    0.3715388    0.2553761  76.02  0.001110029    1.634    0.388
        60  -9.4764    124.8490    118.7903   2.9946404266e+01   3.3686242846e+01    0.3685827    0.2183091 -75.91  0.001367365    2.875    0.652
        61 -12.2712    125.8616    229.7937   4.8749768376e+01   9.9914544683e+00    0.7545331    0.3513843  19.15  0.003430084    2.161    0.537
        62  -9.2937    105.8843    116.0237   3.4433527524e+01   3.8011391583e+01    0.2182674      0.20912  65.64 0.0003643862    1.012    0.012
        63 -10.1709     23.2802    113.8957   6.4331541889e+01   5.1272728913e+01    0.3513314    0.3054622 -19.07  0.001819668    1.227    0.185
        64 -10.0657    243.5109    114.0280   8.9808851645e+00   1.4156418759e+01    0.1694131   0.08469114 -42.52 0.0004516605    1.537    0.350
        65 -10.7487     47.2385    229.1964   6.8143594689e+01   1.9301791994e+01    0.2876333    0.2078878  58.08 0.0009478629    1.357    0.263
        66 -10.0427     32.7712    110.1636   5.9682238566e+01   5.1304752628e+01    0.3336396    0.1798101  36.73  0.001420362    1.762    0.432
        67  -9.8155    116.0681    106.9758   2.9473550626e+01   3.7991013787e+01    0.2199405     0.212618  87.07 0.0004667506    1.039    0.038
        68 -11.0092     24.0812    104.8368   6.2604739246e+01   5.3612982889e+01    0.4137627    0.3821954  79.76  0.001844854    1.109    0.098
        69  -9.8482     19.6543    102.7103   6.4272328772e+01   5.4579639538e+01    0.2975186    0.1654537 -42.82 0.0009792191    1.891    0.471
        70  -8.3952    212.2428    105.9633   1.1188468303e+01   1.9997707336e+01    0.1503802   0.08504295 -44.58 0.0002855408    1.469    0.319
        71 -10.0381     52.2060    103.4584   5.0192061777e+01   5.0537353641e+01    0.3119061    0.2392015 -28.58  0.001499925    1.527    0.345
        72 -10.4993     43.0352    229.9941   6.9288074762e+01   1.9565337753e+01    0.3687496    0.2890579  28.18  0.001393725    1.116    0.104
        73 -10.8933     15.4831     99.6816   6.5740838182e+01   5.5725288867e+01    0.3861603    0.2471328  24.15  0.001342971    1.531    0.347
        74 -10.6330     54.4988     96.4542   4.7651672893e+01   5.1944862892e+01    0.3099181    0.2649021 -19.15 0.0007671402    1.331    0.249
        75  -9.3269     45.3185     95.6950   5.1382301522e+01   5.3485497494e+01    0.2581645    0.2161088  61.16  0.000675681    1.267    0.211
        76  -9.4048     23.1893     95.9837   6.1525088126e+01   5.6019587028e+01    0.2328198    0.1993677  20.82 0.0003834761    1.155    0.134
        77 -10.1995    174.9723    223.0563   3.7489807908e+01   5.4118660088e+00    0.1852491    0.1523862  -8.96 0.0005674541    1.025    0.025
        78  -8.7228     74.9809     89.0055   3.7723321361e+01   5.0178382618e+01    0.2253057    0.1736755  72.26 0.0003264596    1.507    0.336
        79  -9.8706     42.2471     88.9668   5.1200839932e+01   5.5585740803e+01    0.2783426     0.202612  40.26  0.000697419    1.331    0.249
        80  -8.3833    163.4650     88.4945   1.4769065047e+01   3.1798511748e+01    0.1341907    0.1203599 -70.99 2.892307e-05    1.019    0.018
        81  -9.6972     39.8064     82.7811   5.0838174233e+01   5.7431225193e+01    0.3634081    0.1742412  52.06  0.001126218    2.688    0.628
        82  -9.2972    240.6560     82.6752   3.7948423579e+00   1.9015404186e+01   0.09832038   0.08222165 -14.47 0.0003488204    1.737    0.424
        83  -8.4465     47.3956     79.7075   4.6514729352e+01   5.7073589181e+01     0.157884    0.1054774  58.72 0.0006784443    1.789    0.441
        84  -9.1298     86.0838     73.9958   2.9541742201e+01   5.1188135769e+01     0.219412    0.1968244  65.74 0.0003205515    1.057    0.054
        85  -9.1687     31.0391     72.5209   5.2581963625e+01   6.1016481490e+01     0.216085    0.1337971  24.83 0.0006715276    1.550    0.355
        86 -12.4228    200.3807     62.2986   3.9085451027e+00   2.8683745352e+01    0.6235415     0.565671  25.77  0.001068612    1.676    0.403
        87  -9.2804    125.1063    248.6489   5.1183016392e+01   6.7036700092e+00    0.1861763    0.1362873 -38.97 0.0006496666    1.498    0.332
        88 -10.1412     67.3675    240.9834   6.3981620898e+01   1.4645703370e+01    0.3506996    0.1893438 -67.38  0.001409602    2.204    0.546
        89  -8.3320    144.0009     61.2406   1.1507581838e+01   4.0535046697e+01    0.1666117    0.1072056  64.64 0.0003273323    1.482    0.325
        90  -9.6319     65.9793     58.9869   3.2089446895e+01   5.8275934833e+01    0.2214654    0.1883638  71.38 0.0005556013    1.271    0.213
        91  -9.2594     61.0798     55.3150   3.2837989920e+01   5.9941234610e+01    0.4358104    0.2377794  63.68  0.001544657    2.903    0.656
        92  -8.9754     81.0518     69.4959   2.9878858725e+01   5.3143939872e+01     0.222521    0.1358897  48.32 0.0007006996    1.518    0.341
        93 -11.4922     18.6052     45.8522   5.2029727243e+01   6.8431577379e+01    0.5976349    0.1954033  31.86   0.00220014    2.670    0.625
        94 -11.2704      7.8832     44.3161   5.8737027091e+01   6.9765469585e+01    0.3217859    0.2272705  59.99  0.001063356    1.853    0.460
        95  -9.1456     59.5173     69.5114   3.8188426816e+01   5.7346526356e+01     0.146153     0.135286  47.12 3.474935e-05    1.026    0.025
        96 -10.4250     18.6831     36.0061   4.8505611897e+01   7.0438412195e+01    0.1806866    0.1657107 -17.78  0.000658342    1.099    0.090
        97 -10.9934    249.6072     28.7769   3.5368557685e+02   2.4462222920e+01    0.3493542    0.1653333 -38.74  0.001951515    1.802    0.445
        98  -8.5652    198.2606    240.9524   3.5710921317e+01   2.8904532300e-01    0.1294527   0.08251648 -36.86 0.0006172096    1.486    0.327
        99  -9.2914     65.3706     64.6280   3.4208165460e+01   5.7273436766e+01    0.2116259    0.1617371  70.93  0.001049191    1.555    0.357
       100 -10.0441      2.4098     31.3110   5.8832359050e+01   7.2925628735e+01    0.2284883    0.1060913 -56.35 0.0008766267    2.071    0.517
       101 -10.8276    163.6428    222.0485   3.9577508897e+01   6.8724860821e+00    0.2471209    0.1638181  14.43  0.001468302    1.413    0.293
       102 -10.2639      2.2500     22.8263   5.5967988482e+01   7.4634571785e+01    0.2469833    0.1474279 -64.05  0.001190687    1.937    0.484
       103  -9.5609     60.8954     21.2818   1.9278406098e+01   6.5536672275e+01    0.2322928    0.1992007  76.47 0.0006871774    1.232    0.188
       104  -8.9543    108.3729    239.8005   5.3974724571e+01   1.0197026564e+01    0.1710222    0.1119271 -42.47 0.0009581735    1.709    0.415
       105  -9.6502    103.0854    238.6794   5.5092152447e+01   1.1024788680e+01     0.291448    0.1714738 -46.94 0.0008303308    1.912    0.477
       106 -10.2926     72.7228    233.0947   6.1949186004e+01   1.5663644944e+01    0.2424669    0.2226026  36.09 0.0005581366    1.098    0.089
       107  -9.2351    187.4797     10.5026   3.5395760936e+02   3.7744163388e+01    0.1164143   0.08889105 -72.66 4.654769e-05    1.034    0.033
       108 -11.7174    108.1063    229.4709   5.2852574346e+01   1.2202730296e+01     0.554714     0.356029  33.59  0.003043686    1.367    0.268
