#   1 NUMBER                 Running object number                                     
#   2 MAG_AUTO               Kron-like elliptical aperture magnitude                    [mag]
#   3 X_IMAGE                Object position along x                                    [pixel]
#   4 Y_IMAGE                Object position along y                                    [pixel]
#   5 X_WORLD                Barycenter position along world x axis                     [deg]
#   6 Y_WORLD                Barycenter position along world y axis                     [deg]
#   7 A_WORLD                Profile RMS along major axis (world units)                 [deg]
#   8 B_WORLD                Profile RMS along minor axis (world units)                 [deg]
#   9 THETA_WORLD            Position angle (CCW/world-x)                               [deg]
#  10 FWHM_WORLD             FWHM assuming a gaussian core                              [deg]
#  11 ELONGATION             A_IMAGE/B_IMAGE                                           
#  12 ELLIPTICITY            1 - B_IMAGE/A_IMAGE                                       
         1 -13.7633    229.8049      4.4247   3.4792234684e+01   2.7558498235e+01     1.613585    0.8362797  56.45  0.006023007    2.160    0.537
         2 -14.1103    196.2742     39.4263   4.6905715773e+01   3.1291665099e+01      1.38627     1.102386 -35.84  0.003507855    1.269    0.212
         3 -14.5986    205.7249     29.5562   4.3117157317e+01   3.0272305038e+01     1.508391      1.27999  27.79  0.001483557    1.506    0.336
         4 -10.6974     63.8909      9.1102   6.4720855285e+01   6.5206327857e+01    0.1766858    0.1656153   6.89 0.0007317939    1.273    0.215
         5 -12.1517     58.0593      3.6225   6.4106180848e+01   6.6793666998e+01    0.4581929    0.1876264  35.14  0.002149336    2.335    0.572
         6 -10.8686     32.9971      2.5689   7.3969150212e+01   7.0777287156e+01    0.1761669    0.1209601 -17.82   0.00106902    1.246    0.198
         7  -9.9130    195.8064    173.9069   8.0680919312e+01   7.6124095661e+00    0.3466188    0.1921068 -50.73  0.001493114    2.155    0.536
         8 -12.2367    139.5461    248.3654   1.0428380895e+02   4.3724754543e+00    0.4324884      0.35055 -41.28  0.002931681    1.526    0.345
         9 -16.7797     71.7300    149.1260   1.0518321128e+02   3.5590287007e+01     21.25667     10.92792  84.87   0.04256609    4.005    0.750
        10 -10.8799     51.2188    163.9958   1.1258192780e+02   3.4665591312e+01    0.6402532    0.3419942 -40.68  0.002827958    2.724    0.633
        11 -11.2180     47.2849    173.4299   1.1465771715e+02   3.2905116758e+01    0.4669946    0.2036371 -54.55  0.001917667    2.334    0.572
        12 -10.3732     45.4958    169.5323   1.1462888030e+02   3.4027004723e+01    0.3104538    0.2285431 -65.93  0.001133397    1.271    0.213
        13 -16.8096     51.0216    202.9442   1.1689771016e+02   2.5822047032e+01     7.540156     3.137459  69.63   0.02982937    3.420    0.708
        14 -11.3037    139.4399    171.3626   9.2397883775e+01   1.8921236241e+01    0.4260703    0.2940252  49.74  0.001211548    1.456    0.313
        15 -10.3500    230.3896    166.6015   7.2601969135e+01   2.5663216824e+00    0.2709698     0.106971 -47.98 0.0009511223    3.428    0.708
        16 -10.5441    158.1542    160.8742   8.5982229024e+01   1.7526262956e+01    0.2961663    0.2512589 -77.43 0.0004949513    1.413    0.292
        17 -12.2885     90.9891    153.7164   1.0095884089e+02   3.1568333908e+01    0.6456999    0.4683771 -26.65  0.002431648    1.922    0.480
        18  -9.7620    128.6438    195.5126   9.9097008436e+01   1.5772339996e+01    0.2235969    0.1627007 -83.34 0.0008231631    1.748    0.428
        19 -10.5580    187.8502    152.3659   7.7665097362e+01   1.3248052490e+01     0.287279    0.2015645 -62.52  0.001288478    1.900    0.474
        20 -11.6167    133.7771    144.8524   8.8271590253e+01   2.5917111381e+01     1.214354     0.317075 -54.21  0.002954944    5.282    0.811
        21  -9.4272    112.5645    150.7595   9.4856889457e+01   2.8583048132e+01    0.2031851    0.1413891 -67.05 0.0004749469    1.541    0.351
        22 -10.9276    174.2554    148.9051   7.9768857943e+01   1.6734386318e+01    0.3236173    0.2933045  61.54  0.001089247    1.217    0.179
        23 -10.7587    143.5650    145.3246   8.5990188349e+01   2.3841998001e+01    0.3047348     0.148332 -52.16  0.001140349    2.149    0.535
        24 -10.3396     84.7928    144.1794   1.0083208587e+02   3.4858751967e+01    0.2328472    0.2103869 -88.65 0.0003888125    1.065    0.061
        25 -11.0311    104.0720    139.1407   9.4664603306e+01   3.2866100844e+01    0.5605572    0.3546979 -27.39    0.0022726    2.349    0.574
        26 -12.2897     91.6562    139.0705   9.7987774975e+01   3.5003669970e+01    0.2793751    0.2504712 -47.73 0.0003970277    1.137    0.120
        27 -10.0786     81.4572    194.6889   1.0945717470e+02   2.3538023534e+01    0.3431394    0.2648623  89.57  0.002010548    1.245    0.197
        28 -14.3291     58.5853    188.8991   1.1383698055e+02   2.7964912401e+01     1.362655     1.133315  56.38   0.00870307    1.172    0.147
        29 -16.5845     32.3878    249.6783   1.2383268458e+02   1.8794017558e+01     3.268949      1.05095  28.88   0.01143048    6.907    0.855
        30 -10.8284    105.9244    130.8344   9.2346788818e+01   3.4520500389e+01    0.3591073    0.3178054 -74.40  0.001088006    1.145    0.126
        31 -11.4795    135.7342    128.0120   8.3852165580e+01   2.9342151174e+01    0.7384015    0.2112075 -48.82  0.002106143    3.537    0.717
        32 -10.6163    135.0000    120.4094   8.2137418663e+01   3.1205748078e+01     0.408838    0.1419667 -43.87   0.00128541    2.826    0.646
        33 -10.9997    112.7724    129.6545   9.0227212222e+01   3.3531702131e+01    0.4780025    0.3087786  27.18 0.0009149184    1.910    0.477
        34 -11.7359    119.2832    123.3052   8.6965450915e+01   3.3760171708e+01    0.7015647    0.4368371 -19.54  0.002386039    2.781    0.640
        35  -9.0846    161.0507    199.5214   9.2777256101e+01   9.2596254153e+00    0.1994354    0.1262255  39.30 0.0003354944    1.460    0.315
        36 -11.0951    150.7720    179.4264   9.1362319383e+01   1.5087606798e+01    0.4358614    0.2843182 -73.24  0.001864786    2.351    0.575
        37 -10.2941    160.8333    127.7228   7.7732767479e+01   2.4029969113e+01    0.3320072     0.219621 -54.77  0.001423297    1.645    0.392
        38 -11.1483    100.0908    125.7898   9.2801357844e+01   3.6772914375e+01     0.315092    0.2567387 -16.06 0.0007892957    1.526    0.345
        39  -9.1404     95.2482    127.4308   9.4525413788e+01   3.7221448622e+01    0.1876786    0.1410478  53.71 0.0003698132    1.446    0.308
        40 -18.1507      6.3348    240.7245   1.2768603797e+02   2.3156257954e+01     5.061764     1.959035 -76.99   0.02983058    2.277    0.561
        41 -10.1557    108.6972    118.9479   8.8774290665e+01   3.6821446151e+01    0.2341936     0.215214  42.48 0.0004987216    1.143    0.125
        42 -12.0118     19.7818    111.3042   1.1376504126e+02   5.0561988392e+01    0.6446449     0.163935  34.19  0.002517763    3.982    0.749
        43 -11.9441    117.8346    109.2123   8.3747455063e+01   3.7280729798e+01    0.7137475    0.5626101 -79.20  0.003341293    1.591    0.371
        44 -10.1728    205.4838    110.2480   6.4123933309e+01   1.7562484322e+01    0.2994536    0.2404483  40.71 0.0009664427    1.350    0.259
        45 -10.4348    134.5912    105.0090   7.8152547168e+01   3.4686335335e+01    0.5363489    0.1492629 -43.45  0.001517618    3.486    0.713
        46 -10.8012    145.0677    180.4676   9.2833873922e+01   1.5937606478e+01    0.3338478    0.2854782  46.74 0.0009406074    1.130    0.115
        47  -9.8055    168.1856    113.0629   7.2323328667e+01   2.5446815058e+01    0.3621674    0.2377009 -70.96  0.001391088    2.371    0.578
        48 -10.6127    142.4268    176.6936   9.2726555090e+01   1.7221246712e+01    0.2729326    0.2326484  31.40 0.0007532493    1.186    0.156
        49 -11.6577     57.1490     96.1445   9.8827285805e+01   5.0439806884e+01     0.615205    0.2780176  43.12  0.002202154    2.631    0.620
        50  -9.9738    189.3871    178.2246   8.2861461951e+01   8.0255547622e+00    0.3094695    0.1989627 -53.17  0.001420829    1.882    0.469
        51 -10.3939    187.9499    173.4434   8.2181043182e+01   9.1849434041e+00     0.323103    0.1978096 -50.51  0.001301262    1.855    0.461
        52  -9.4078    159.6145     87.1861   6.7082466679e+01   3.2577447769e+01    0.2110728      0.14756 -28.10 0.0003486648    1.529    0.346
        53  -9.9901    157.0824     81.6932   6.6038607411e+01   3.4215748353e+01    0.2166742    0.1984841  47.24 0.0004311077    1.113    0.101
        54  -9.3023    184.5742     77.1780   5.9203419252e+01   2.8375518416e+01    0.2112654    0.1450846 -21.39 0.0006636453    1.693    0.409
        55 -10.5879     60.8694     68.5447   8.9850774496e+01   5.6097786048e+01    0.2763559    0.2333608  58.58  0.001580666    1.559    0.358
        56 -13.0360    196.2100    196.6831   8.5084060530e+01   3.5298117778e+00     1.435913    0.9213392  50.89  0.007199825    1.827    0.453
        57 -13.9992    185.7664     47.6897   5.0706567810e+01   3.2736843331e+01     1.213336     1.014266  21.07  0.000882859    1.471    0.320
        58 -10.4675     93.3361    249.7970   1.1308283664e+02   1.0999618956e+01    0.2613942    0.1832916  24.56  0.001184044    1.857    0.461
        59  -9.6640    169.1190    236.6701   9.7067235944e+01   1.5644466364e+00    0.1726985    0.1711055 -88.05 0.0004323317    1.257    0.205
        60 -11.6909    148.5591     52.4862   5.8873706156e+01   4.1260151940e+01    0.5292139    0.3401482 -76.15  0.001341526    2.464    0.594
        61 -10.8630    150.1882     45.9311   5.6431891630e+01   4.1831007796e+01      0.27115    0.2325473 -68.18 0.0003509176    1.279    0.218
        62  -9.9973     28.2214     35.4078   9.1551566452e+01   6.6419013518e+01    0.1498976    0.1103098  31.06 0.0006150804    1.634    0.388
        63 -11.9217     20.7196     34.3208   9.4624493352e+01   6.7318844160e+01     0.262817    0.2020005  -0.40 0.0009329284    1.300    0.231
        64 -10.8454     42.1878    178.6955   1.1640157116e+02   3.2272551722e+01    0.2690969    0.1779823 -52.18 0.0003842691    1.721    0.419
        65  -9.7306    189.4936     14.9836   4.1130590123e+01   3.5880594889e+01    0.2016805    0.1703681  82.45 0.0008088941    1.078    0.073
        66  -9.8441    204.3717    175.2115   7.9254463833e+01   5.7846651621e+00    0.1990607    0.1269936 -46.13 0.0009542046    1.697    0.411
        67 -12.0875    109.7551    201.3020   1.0411989850e+02   1.7746055573e+01    0.4694795    0.3675516   6.97 0.0002180106    1.832    0.454
