#   1 NUMBER                 Running object number                                     
#   2 MAG_AUTO               Kron-like elliptical aperture magnitude                    [mag]
#   3 X_IMAGE                Object position along x                                    [pixel]
#   4 Y_IMAGE                Object position along y                                    [pixel]
#   5 X_WORLD                Barycenter position along world x axis                     [deg]
#   6 Y_WORLD                Barycenter position along world y axis                     [deg]
#   7 A_WORLD                Profile RMS along major axis (world units)                 [deg]
#   8 B_WORLD                Profile RMS along minor axis (world units)                 [deg]
#   9 THETA_WORLD            Position angle (CCW/world-x)                               [deg]
#  10 FWHM_WORLD             FWHM assuming a gaussian core                              [deg]
#  11 ELONGATION             A_IMAGE/B_IMAGE                                           
#  12 ELLIPTICITY            1 - B_IMAGE/A_IMAGE                                       
         1 -13.6595    197.8695     65.3940   3.2810444574e+01   2.6348520379e+01     2.754642    0.3479586 -31.47   0.00602717    6.957    0.856
         2 -16.7471    244.8774    146.2476   4.4808111775e+01   4.8375868959e+00     7.171643     2.230001 -25.21   0.02472571    4.045    0.753
         3 -18.6613    235.1384     63.4347   2.7330922362e+01   1.8046288984e+01     9.341105      6.97777   7.59   0.05037708    1.721    0.419
         4 -14.6893    115.7404     29.8866   3.6984932839e+01   5.2840444889e+01     1.247273    0.7257762 -15.46  0.005001172    2.126    0.530
         5 -15.2654    130.7716     24.9171   3.1547313913e+01   4.9561197589e+01     2.067765      1.40186  73.16   0.00966543    1.514    0.340
         6 -13.3005    152.2606     21.7618   2.6444117173e+01   4.4139598537e+01     1.573737    0.6846287  -7.65  0.004867327    4.226    0.763
         7 -14.5704    130.2908     66.8774   4.6901506828e+01   4.3165927897e+01      1.96285    0.5538902 -34.48  0.005360268    4.094    0.756
         8 -15.5544    138.7246     62.3002   4.3267464506e+01   4.1874490317e+01     1.922738     1.197448 -23.95  0.007971124    1.888    0.470
         9 -14.9522    155.5498     45.4176   3.3979672572e+01   4.0179025340e+01     2.183901     1.459413 -35.32  0.009397089    1.513    0.339
        10 -14.8974    140.2336     39.7908   3.5111733760e+01   4.5061118370e+01     3.313272      1.03142  61.90    0.0101802    3.206    0.688
        11 -11.5833    200.9163     12.7302   1.7644559244e+01   3.2230957146e+01    0.2677543    0.2500751  46.17  0.001385482    1.236    0.191
        12 -12.4198    105.7827      9.7800   3.0747126465e+01   5.7797263862e+01    0.4233096    0.2104372 -12.84  0.001727143    2.445    0.591
        13 -13.9046    130.8713      6.9248   2.4460095313e+01   5.1475832459e+01    0.8644919    0.4686038  41.93  0.003765261    1.919    0.479
        14 -12.6513    145.3825      8.2370   2.2661375661e+01   4.7421217087e+01    0.3350922    0.2481501 -68.36  0.001133506    1.443    0.307
        15 -10.4178     89.7773      7.1764   3.3680378771e+01   6.2026000096e+01     0.194394    0.1460048  30.09 0.0003551908    1.294    0.227
        16 -10.7715    249.4625      4.5540   1.2111074038e+01   2.1767897853e+01    0.1213884    0.1007998 -55.81 8.924033e-05    1.030    0.029
        17 -10.8112    223.0925      1.6496   1.3000299879e+01   2.7924972668e+01     0.166178    0.1368464  83.50 0.0003891444    1.206    0.171
        18 -11.6439    145.6015     83.2083   4.8210137642e+01   3.6351010665e+01    0.2158099    0.2000183  73.75 0.0004833346    1.120    0.107
        19 -10.1481    218.6680    128.9863   4.5327699449e+01   1.1990846081e+01    0.1857505    0.1589948 -19.74  0.000412597    1.088    0.080
        20 -13.0325    172.0526    124.3095   5.3150404883e+01   2.2440805033e+01     0.564446    0.4256975  85.52   0.00257017    2.017    0.504
        21 -13.0277    165.9286    117.4942   5.2828823013e+01   2.5054028993e+01    0.8778799    0.6957216 -11.59  0.004308224    1.461    0.316
        22 -10.5642    218.3291    122.6664   4.3955202981e+01   1.3013669523e+01    0.1698285    0.1396823  -2.62  0.000659877    1.195    0.163
        23 -10.1497     95.4865    123.5312   7.2579863450e+01   3.8354601997e+01    0.1469036    0.1408058  67.49 0.0001074494    1.017    0.017
        24 -10.9240    180.5025    193.5002   6.5320224733e+01   9.0730495861e+00    0.1309445    0.1086595  24.40 0.0008106735    1.010    0.010
        25 -10.6322    227.9258    122.7393   4.2407562562e+01   1.1134072198e+01    0.1821158    0.1659466  30.36 0.0005141067    1.165    0.142
        26 -10.2123    232.8255    116.2793   4.0189205032e+01   1.1131010440e+01    0.1701636    0.1345699  11.57 0.0001834109    1.320    0.242
        27 -10.6116    205.4988    110.0694   4.3181518493e+01   1.7623867988e+01    0.4016602    0.2114424  38.76  0.001707306    2.083    0.520
        28  -9.8367     47.5221    172.5153   9.2939495177e+01   3.3976306362e+01    0.1266503    0.1058039  66.56 9.479334e-05    1.016    0.015
        29  -9.7638    178.2835    110.2730   4.8388243629e+01   2.3601751726e+01    0.1467366    0.1145907  13.16 0.0003217848    1.502    0.334
        30 -10.6697    191.9861    107.8968   4.5096534835e+01   2.0935239442e+01    0.3653651    0.2655555 -58.51  0.001388545    1.706    0.414
        31 -10.7250    188.6917    108.3403   4.5834466527e+01   2.1595869557e+01    0.3106778     0.231812 -65.45  0.001407964    1.779    0.438
        32 -10.7313    193.9055     97.2440   4.2029396461e+01   2.2279608208e+01    0.2050504     0.191504 -65.15  0.000540776    1.168    0.144
        33 -13.4195    227.1564    102.3574   3.7819426830e+01   1.4270448694e+01    0.8152885    0.5129855 -25.45  0.002563322    1.515    0.340
        34 -12.0295    208.7409    211.7155   6.2997438474e+01   2.0967534656e+00    0.2005843    0.1701744  32.16 0.0004106021    1.333    0.250
        35 -12.3841    180.9287    211.0552   6.8047531406e+01   6.4662768078e+00      0.53779    0.2578181  55.84  0.001943784    4.741    0.789
        36 -15.1235    167.7047     89.1702   4.4964203097e+01   2.9863038857e+01     1.863497     1.566074 -10.43  0.005234844    1.329    0.248
        37 -12.6696    133.3083    144.4230   6.6690289533e+01   2.6574908632e+01     1.268273     0.359832 -55.37  0.003227304    5.866    0.830
        38 -14.6777      4.8205    151.6620   1.0220358476e+02   4.2703824267e+01     2.334645    0.6169893 -88.76  0.008720007    3.826    0.739
        39 -12.4074    158.4594     70.1376   4.1327965797e+01   3.5497530450e+01    0.4063135    0.2722815 -34.41 0.0004067668    1.514    0.340
        40 -13.4785     46.1476    139.9630   8.9906003117e+01   4.1607015171e+01    0.4175159    0.3449209  29.16  0.001000232    1.351    0.260
        41 -11.6584    175.9701     71.1637   3.8158771227e+01   3.0891441765e+01    0.5649698     0.276816 -39.55  0.002219536    1.989    0.497
        42 -11.2989    182.1075     72.0252   3.7289022320e+01   2.9217873527e+01    0.2146608    0.2125138 -31.95 0.0003729849    1.020    0.020
        43 -12.4192    167.9489     59.0984   3.6030116924e+01   3.4859121501e+01    0.6245585    0.4289017 -80.01  0.002684491    1.928    0.481
        44 -11.6171    169.0963     69.7458   3.9048836321e+01   3.2859435537e+01    0.5561703    0.3221638 -15.85  0.001612402    2.427    0.588
        45 -10.0314    187.9635     70.5024   3.5836770180e+01   2.8006005980e+01    0.1942903    0.1451272  55.35 -2.576056e-05    1.353    0.261
        46 -15.8180     57.7213    136.4070   8.6065921841e+01   4.1055318020e+01     2.319958     1.577232  24.83  0.008462222    1.680    0.405
        47 -11.1256    204.7862     65.0517   3.1684776276e+01   2.4728275700e+01    0.2386686    0.2124136 -41.56 0.0006889502    1.065    0.061
        48 -11.9502    185.9694     64.2796   3.4397909453e+01   2.9459423764e+01    0.2749552    0.2064635 -32.72 0.0005175073    1.315    0.239
        49 -11.6489    208.8459     54.9033   2.8380922579e+01   2.5180803276e+01    0.2565323    0.1999445 -37.38 0.0004527261    1.203    0.169
        50 -12.6240    206.4756     47.6366   2.6712906730e+01   2.6729894534e+01    0.3458127    0.2736284 -69.62 0.0006138076    1.304    0.233
        51 -15.3486     17.9333    148.9239   9.8611816264e+01   4.2294133946e+01     1.138183     1.102307  87.76  0.004496539    1.257    0.204
        52 -11.1772    167.2963    200.9999   6.9175663396e+01   1.0139732896e+01    0.2285964    0.1623938  53.45 0.0008544661    1.628    0.386
        53 -10.3978    190.0868     36.9418   2.5802144033e+01   3.2228331767e+01    0.2563748    0.1803239 -36.89  0.001088362    1.375    0.273
        54 -12.5520    168.2793     35.4449   2.8488807519e+01   3.8150387808e+01    0.5308605    0.3583161 -68.42 0.0007579731    1.709    0.415
        55 -10.0009    202.9073     36.5010   2.4074183627e+01   2.9035401317e+01    0.1937541    0.1353023  69.49 0.0004454604    1.438    0.304
        56 -10.7422    181.6951     34.0357   2.6066326591e+01   3.4775509291e+01    0.2464946    0.2000662   3.01   0.00126098    1.500    0.333
        57 -12.3893    185.2600     28.1878   2.3825029417e+01   3.4553912402e+01    0.4200757    0.2705019  -1.28  0.001866541    2.161    0.537
        58 -11.3133    194.1348     28.5747   2.2857757264e+01   3.2211153048e+01    0.3502863    0.2410176  85.84  0.001180121    1.489    0.329
        59 -10.6514    207.2995     25.4267   2.0532810247e+01   2.9261155699e+01    0.5006314    0.2283179 -26.54  0.002131272    2.180    0.541
        60 -11.0757    177.1010     80.9415   4.0755412396e+01   2.8995035903e+01    0.4736103    0.1936651 -39.32  0.001188413    2.369    0.578
        61 -11.3507    206.1922    160.4721   5.4256264710e+01   9.5663054120e+00    0.2600327    0.1167103  37.56 0.0009309156    2.133    0.531
        62 -10.5676    201.4252     19.7931   1.9567634495e+01   3.1355132169e+01    0.2606532    0.2048307   0.62 0.0008674146    1.597    0.374
        63 -10.0327    204.0106     16.6995   1.8457748032e+01   3.1039740445e+01    0.1847201    0.1616014 -78.80 0.0004108949    1.052    0.049
        64 -11.8038    199.4521    129.7803   4.8931111813e+01   1.5696876414e+01     0.464179    0.3189772 -73.26  0.001844547    2.839    0.648
        65 -13.6219    178.4686    141.2012   5.5657796277e+01   1.8049490490e+01    0.7278578    0.5344455  85.99    0.0032504    2.408    0.585
        66 -12.1103    183.7240    122.3431   5.0250383984e+01   2.0264006241e+01      1.24998    0.7150021 -55.60  0.004267211    2.474    0.596
        67 -14.2584    132.3072     79.1547   5.0316099548e+01   4.0347935981e+01     1.162864    0.5823202 -33.46   0.00382072    2.235    0.553
        68 -11.1770    182.9681    119.4516   4.9707280700e+01   2.0935265145e+01    0.4445454    0.2941631  53.19  0.001141845    1.585    0.369
        69 -13.4477    161.1079    128.4769   5.6550054757e+01   2.4024596734e+01    0.5616311    0.4917487  50.75  0.001835249    1.150    0.131
        70 -10.4754    224.6923    130.0942   4.4569943754e+01   1.0672082527e+01    0.2923155    0.1909017  74.93  0.001258725    3.094    0.677
        71 -10.9760    190.2224    139.7555   5.2951512603e+01   1.5916384668e+01    0.2831407    0.2562839 -89.74  0.001592199    1.455    0.313
