#   1 NUMBER                 Running object number                                     
#   2 MAG_AUTO               Kron-like elliptical aperture magnitude                    [mag]
#   3 X_IMAGE                Object position along x                                    [pixel]
#   4 Y_IMAGE                Object position along y                                    [pixel]
#   5 X_WORLD                Barycenter position along world x axis                     [deg]
#   6 Y_WORLD                Barycenter position along world y axis                     [deg]
#   7 A_WORLD                Profile RMS along major axis (world units)                 [deg]
#   8 B_WORLD                Profile RMS along minor axis (world units)                 [deg]
#   9 THETA_WORLD            Position angle (CCW/world-x)                               [deg]
#  10 FWHM_WORLD             FWHM assuming a gaussian core                              [deg]
#  11 ELONGATION             A_IMAGE/B_IMAGE                                           
#  12 ELLIPTICITY            1 - B_IMAGE/A_IMAGE                                       
         1 -14.5971    246.1539    105.3926   6.3232462869e+01   8.9992370951e+00     2.336101    0.7705616 -30.41  0.007951512    2.967    0.663
         2 -14.0700    175.4242     19.1181   5.0085323186e+01   3.8867234947e+01     1.388861    0.9746649  44.19   0.00686421    1.458    0.314
         3 -14.6546    162.8543      7.6729   4.8250557429e+01   4.3297018409e+01     3.235353     1.604513  65.41   0.01429379    1.811    0.448
         4 -12.1749      4.3535      3.7989   9.7926197989e+01   7.3337669020e+01    0.3869319     0.247972 -11.55  0.002720136    1.418    0.295
         5 -10.5476     15.0041     17.9993   9.8618051689e+01   7.0200649999e+01    0.1797847    0.1009784 -26.73  0.001085692    1.542    0.351
         6 -12.7791    246.3261    248.1180   9.2071327169e+01  -1.0426566447e+01    0.6553955    0.3128901  32.14  0.003908945    1.634    0.388
         7 -10.8182    114.9807    250.2471   1.1502850324e+02   9.3724439923e+00    0.1675051    0.1275022  51.15 0.0006721558    1.048    0.046
         8 -18.8527     65.6712    226.5494   1.2152638841e+02   2.0282791910e+01     3.743871      2.75271  59.89   0.01567311    1.093    0.085
         9  -9.4819    133.2210    198.6431   1.0528867727e+02   1.5191308092e+01    0.1946966     0.153849 -28.08 0.0006608444    1.698    0.411
        10 -10.9214     19.7622    197.2184   1.2763915155e+02   3.1174699325e+01    0.2356612    0.1415412 -64.19 0.0005144002    1.769    0.435
        11  -9.7901    234.6735    195.3665   8.4980553460e+01  -2.4726922109e+00    0.1151294    0.1054821 -79.48 0.0007036834    1.804    0.446
        12 -10.0128    158.5092    228.5153   1.0462395939e+02   5.8036080926e+00    0.1247284    0.1019462  42.15 0.0008104251    1.002    0.002
        13 -10.3248    223.0695    188.1861   8.5687624014e+01   5.4707568059e-01    0.2941351     0.171562 -27.02 0.0008918221    1.774    0.436
        14 -10.3983      6.0042    228.1264   1.3160369545e+02   2.6687769700e+01    0.1723423    0.1197249  49.72 0.0007185666    1.438    0.305
        15 -13.2629     41.9312    177.6217   1.2177773894e+02   3.2912388226e+01     0.597602    0.5301688 -53.87  0.002336007    1.489    0.329
        16  -9.9933    191.9941    177.6250   8.9557235143e+01   8.0117032779e+00    0.2238026    0.1774767  33.12 0.0004489491    1.160    0.138
        17 -10.1032    188.0832    177.1998   9.0257411240e+01   8.8443041244e+00    0.3140399    0.1761506  35.67  0.001209867    1.728    0.421
        18 -10.6529    126.7421    220.7853   1.0960829974e+02   1.2313479583e+01    0.2969743    0.1434717 -57.52  0.001015879    2.439    0.590
        19 -12.6302     44.2262    172.6667   1.2081071664e+02   3.3726369859e+01    0.4303013    0.2995724  38.73  0.002243598    1.600    0.375
        20  -8.8853    141.2583    170.3287   9.8865256518e+01   1.9255720714e+01    0.1350254    0.1120406  -9.51 0.0001881829    1.561    0.359
        21 -11.8360     61.8825    168.7813   1.1653068688e+02   3.2453266508e+01    0.2894148    0.2363869  86.87  0.000559203    1.031    0.030
        22 -10.6945     58.8237    164.1577   1.1665319901e+02   3.3871500988e+01    0.2736774    0.1931031  68.40  0.000347608    1.340    0.254
        23 -11.0778     34.0820    166.4969   1.2237603838e+02   3.6172804036e+01    0.2524295    0.1398285 -85.17  0.000700308    1.581    0.367
        24 -12.8030     35.9664    158.1084   1.2112035910e+02   3.7839370980e+01      0.79966    0.2816535 -72.48  0.003560296    2.449    0.592
        25 -14.1771     38.3444    248.8583   1.2758006296e+02   1.9740205566e+01    0.3075039     0.252132  78.80  0.002117123    1.301    0.232
        26 -11.0096     44.0259    166.5144   1.2021894542e+02   3.5099848640e+01    0.2278316    0.1893654 -85.69 0.0005769435    1.092    0.084
        27 -11.3786     51.6025    165.1197   1.1839012587e+02   3.4536640069e+01    0.2824845    0.2584259  25.00  0.001086966    1.471    0.320
        28 -10.2921    120.5922    164.7787   1.0252394509e+02   2.4245902814e+01    0.3682546    0.2230878  68.07  0.001564239    2.230    0.552
        29 -10.3710    107.2693    153.2145   1.0358011207e+02   2.9138988481e+01    0.2491538    0.2148985  58.82 0.0002864061    1.128    0.113
        30 -11.0532     94.9989    150.2236   1.0602441680e+02   3.1868177885e+01    0.5273772    0.1860095  52.73  0.001700649    3.838    0.739
        31 -11.6145     96.9518    146.3615   1.0485408822e+02   3.2435074667e+01     0.297513    0.2780399 -33.17  0.000788643    1.258    0.205
        32 -11.8034     42.4081    148.1492   1.1850412507e+02   3.9420295586e+01     0.380148    0.2853567 -40.30  0.002214719    1.734    0.423
        33 -10.3214    109.8103    148.8639   1.0215657403e+02   2.9675355731e+01    0.2095936    0.1989402 -28.98 0.0006049742    1.217    0.178
        34 -11.6651     59.9992    130.6743   1.1159213505e+02   4.1466944325e+01    0.3072082    0.2600101 -46.56 0.0008871877    1.297    0.229
        35 -13.7241     68.6110    144.0652   1.1153267310e+02   3.7205106783e+01    0.8402669    0.7008237  44.70  0.004651236    1.306    0.235
        36 -13.0135     66.7015    134.0870   1.1040197913e+02   3.9801196161e+01    0.8918431    0.4542024  52.50  0.004049966    2.227    0.551
        37 -10.2418    166.0403    218.8298   1.0181492940e+02   6.0177952677e+00    0.1837431    0.1800934 -17.84 0.0005352365    1.206    0.171
        38 -12.7749     11.4045    206.6022   1.2967335452e+02   3.0146222422e+01    0.4349424    0.3485135  33.49   0.00221302    1.744    0.427
        39 -10.4358    187.7291    232.1809   9.9769205900e+01   4.1665728438e-01    0.2302939    0.1643457 -40.70 0.0007571171    1.723    0.420
        40 -10.6610     76.2467    126.6865   1.0654094358e+02   4.0234172901e+01    0.2749066     0.231804  39.55 0.0008800339    1.318    0.241
        41  -9.1365    109.5293    122.5838   9.6732031268e+01   3.5735106673e+01    0.1459712    0.1409512 -54.47 0.0003219645    1.049    0.047
        42 -11.1726    126.8245    229.5941   1.1066986258e+02   1.0820402586e+01    0.3726005    0.1996473  29.89  0.001842672    2.339    0.573
        43  -9.3353    213.4255    106.5430   6.8943559437e+01   1.6019266949e+01    0.1513764    0.1414297 -20.97 8.454667e-05    1.009    0.009
        44 -10.5397    107.1598    133.9808   9.9852512734e+01   3.3540144455e+01    0.2271167    0.2055464  55.16 0.0004042168    1.125    0.111
        45  -9.7197    116.0920     67.6192   7.9412667905e+01   4.6287401729e+01    0.1969521    0.1786779  28.28 0.0003480024    1.118    0.106
        46 -10.0368    152.0769     63.6507   6.8942516261e+01   3.8645447421e+01     0.259916    0.2170783 -47.61 0.0007456164    1.248    0.199
        47 -12.1365    164.6606     47.8374   6.1141628251e+01   3.7979704902e+01    0.4441324    0.4287808 -52.93  0.002437486    1.065    0.061
        48 -11.7004    168.2383     41.0021   5.8254251189e+01   3.8031490770e+01    0.3658059     0.317738  25.21 0.0008071422    1.227    0.185
        49  -9.9472    128.1631    246.1303   1.1230389360e+02   8.0038428198e+00    0.1598509     0.133112  46.25  0.000449319    1.125    0.111
        50 -10.8592    135.7176    238.2833   1.1006671507e+02   8.0210988839e+00    0.2973772    0.2754661 -80.15  0.001202411    1.291    0.226
        51  -8.8387    139.2306    199.2393   1.0414838858e+02   1.4030003987e+01    0.1127049   0.09826333  13.82            0    1.374    0.272
