#   1 NUMBER                 Running object number                                     
#   2 MAG_AUTO               Kron-like elliptical aperture magnitude                    [mag]
#   3 X_IMAGE                Object position along x                                    [pixel]
#   4 Y_IMAGE                Object position along y                                    [pixel]
#   5 X_WORLD                Barycenter position along world x axis                     [deg]
#   6 Y_WORLD                Barycenter position along world y axis                     [deg]
#   7 A_WORLD                Profile RMS along major axis (world units)                 [deg]
#   8 B_WORLD                Profile RMS along minor axis (world units)                 [deg]
#   9 THETA_WORLD            Position angle (CCW/world-x)                               [deg]
#  10 FWHM_WORLD             FWHM assuming a gaussian core                              [deg]
#  11 ELONGATION             A_IMAGE/B_IMAGE                                           
#  12 ELLIPTICITY            1 - B_IMAGE/A_IMAGE                                       
         1 -13.5224     12.3055     47.6306   6.1844003974e+01   6.5979786500e+01    0.5906512    0.4834307  45.83  0.001549286    1.780    0.438
         2 -12.4823     54.2884     40.1389   3.9823564580e+01   6.2110467162e+01     1.043893    0.6563445  -7.61   0.00540542    1.924    0.480
         3 -11.5671    142.3437     44.6386   1.6385438779e+01   4.3018526118e+01    0.5866849    0.4705966  37.62  0.003354621    1.406    0.289
         4 -10.2857     32.7943      2.0956   3.2718581128e+01   7.0088202588e+01    0.2394931     0.141068  28.93  0.001513441    1.353    0.261
         5 -10.6691      1.7426     23.2023   5.8907100301e+01   7.0955824330e+01     0.454548      0.18185 -30.28  0.002000018    2.307    0.566
         6 -11.3259     23.8901      2.6503   3.7272299052e+01   7.1318219423e+01    0.9876047    0.4007261  30.01  0.005180316    2.156    0.536
         7 -12.2961      7.4669     29.4670   5.8083663100e+01   6.9510411372e+01     1.065814    0.2759976 -52.91   0.00398929    4.722    0.788
         8 -12.5780      3.2002     12.7415   5.3677770872e+01   7.2398862479e+01    0.5420921    0.2770331 -35.17  0.002715001    1.730    0.422
         9 -12.3384     14.4533     17.8723   4.9480218481e+01   7.0607436963e+01    0.4158345    0.2966131  18.06  0.001271537    1.272    0.214
        10 -12.0613    231.8402     26.6340   1.0328544929e+00   2.5484111576e+01    0.3761246    0.2101496  89.85  0.001205275    1.650    0.394
        11 -11.6436    249.4667     21.0438   3.5873794859e+02   2.2814302259e+01    0.3149003    0.1638377 -45.40 -3.89509e-05    1.678    0.404
        12 -10.5099    100.0144     21.4860   1.8296610645e+01   5.5452896306e+01    0.4229052    0.2299142  49.88  0.002201034    1.513    0.339
        13 -10.6934     81.9232     19.6972   2.2418297145e+01   5.9495308470e+01    0.4156306    0.2258866 -28.58  0.002204675    2.122    0.529
        14 -12.6885     28.5338     20.1019   4.3115297842e+01   6.8648181896e+01    0.3665522     0.221461  17.38  0.000339727    1.473    0.321
        15 -11.7349    112.0736     26.7427   1.7244375815e+01   5.2204388267e+01    0.4550531    0.3420516  22.63  0.001329374    1.570    0.363
        16 -11.2116    169.6987     18.5621   5.4696513180e+00   3.9723627157e+01    0.2852943    0.1778057 -37.04   0.00164472    1.793    0.442
        17 -11.8936    168.7551     13.7221   4.4338102614e+00   4.0440732138e+01    0.4133171    0.2390646 -88.95  0.002246453    1.678    0.404
        18 -11.1443    132.1333     16.3970   1.0247806893e+01   4.8645200945e+01    0.2662779    0.1864921 -67.13 9.499488e-05    1.652    0.395
        19 -10.4744    217.3531     16.0530   2.1193273094e-01   2.9625959312e+01    0.3941579    0.1344238  61.11  0.001866615    2.868    0.651
        20 -11.2765    137.1198     14.9376   9.0292382376e+00   4.7627848214e+01    0.2658385    0.2065033 -39.57 0.0003408528    1.497    0.332
        21 -10.8632    139.6951     10.9508   7.5406432015e+00   4.7404371617e+01    0.2938902    0.1889724  50.31  0.001360752    1.507    0.336
        22 -10.9090    145.5652     12.1449   7.0136063446e+00   4.5933297931e+01    0.2631518    0.2286163 -48.20  0.001119697    1.329    0.247
        23 -10.5813    145.0208      7.8189   5.9467894141e+00   4.6456915663e+01    0.2983527    0.1817566 -63.67  0.001543554    1.855    0.461
        24 -12.7396    243.6827      5.3266   3.5644026598e+02   2.5668206883e+01    0.6380191    0.3744921 -38.02  0.004268117    1.897    0.473
        25 -11.5785    249.1555      9.4005   3.5679316294e+02   2.4210959310e+01    0.3297488    0.1778034 -46.67  0.002165872    1.618    0.382
        26 -10.6237    177.9824     12.0455   3.0214319428e+00   3.8525334216e+01    0.3633018    0.2029141  48.41 0.0003539775    2.188    0.543
        27 -10.5693     58.0879      5.3452   2.4174180881e+01   6.5510452466e+01    0.3384477    0.2246412  57.52  0.001555923    1.606    0.377
        28 -11.8407     82.2036      6.9254   1.7580437157e+01   6.0613211494e+01    0.2094614    0.1669813  41.79  0.000256857    1.051    0.049
        29 -12.6131     76.0328     10.4424   2.0608994119e+01   6.1580842804e+01    0.4865593    0.3123386  25.72 0.0009247729    1.590    0.371
        30 -13.2557     65.5157     11.6513   2.4318722116e+01   6.3542918484e+01     0.483613    0.2298668  45.80 0.0005436724    1.675    0.403
        31 -10.5711    124.3058     13.8626   1.0853202120e+01   5.0694915339e+01    0.3287334    0.2000282  71.10  0.001132738    1.450    0.310
        32 -10.8496     53.8997     13.7353   2.9274939166e+01   6.5473088006e+01    0.3375123    0.2288483  22.05   0.00201162    1.325    0.245
        33  -9.7063     26.8331     13.1798   4.0842366263e+01   6.9740349480e+01    0.2133687    0.1234375 -16.05 0.0009901496    1.760    0.432
        34  -8.6683     28.4585      9.4836   3.8313584871e+01   6.9949383047e+01    0.1724817   0.08764771  26.24 0.0002191507    1.716    0.417
        35 -11.6057    234.5478      9.3266   3.5770977953e+02   2.6960800802e+01    0.2319989    0.1857734 -61.28 0.0009601049    1.252    0.201
        36  -9.3474    101.0496     10.0977   1.4216211175e+01   5.6291556366e+01    0.2386255    0.1449246  66.20  0.000850859    1.476    0.323
        37  -9.7627     90.5068      9.5563   1.6450281461e+01   5.8635432251e+01    0.1835376    0.1086736 -39.44 0.0007581043    2.108    0.526
        38 -11.2745    154.9241      8.7826   4.9011822191e+00   4.4087347774e+01    0.3008036    0.1864904  76.53 0.0009879885    1.338    0.253
        39  -9.7669    117.9950      9.3335   1.0615445593e+01   5.2545798034e+01    0.4004626   0.06878349  60.41  0.001352545    3.681    0.728
        40 -10.2231     35.8305      6.3085   3.3362747065e+01   6.9208928386e+01    0.3069332    0.1373228  28.21  0.001573895    2.124    0.529
        41  -9.1449    102.0030      6.5072   1.2812410501e+01   5.6380182196e+01    0.1649973   0.09809486  88.49  0.000659767    2.351    0.575
        42 -10.7104     97.2245      3.8992   1.2941584671e+01   5.7639041192e+01    0.3065125    0.2232068  -0.46  0.001440336    1.717    0.417
        43 -10.3929     68.0011      5.3156   2.0958452504e+01   6.3622492346e+01    0.2471319     0.188427  61.65 0.0004920466    1.406    0.289
        44  -9.2904    223.0007      5.3064   3.5777516429e+02   2.9656469752e+01     0.151236    0.1107225 -81.00 0.0006500948    1.032    0.031
        45 -11.0636    179.8207      3.5142   9.3526076892e-01   3.8952398208e+01    0.3852368    0.1904074  60.59 0.0008230567    1.860    0.462
        46 -10.6484    164.5325      4.6210   2.7562388217e+00   4.2276617497e+01    0.2147089     0.164951 -82.12 0.0003923278    1.148    0.129
        47 -10.5257    159.4620      3.6089   3.0817904710e+00   4.3519790638e+01    0.2595711    0.1553308 -83.31  0.001142376    1.632    0.387
        48 -12.2302     10.4540     11.1608   4.8693794643e+01   7.1928402282e+01    0.5735828    0.3706028   8.51  0.003902839    1.261    0.207
        49  -9.3160    126.3721      2.7686   7.2633488841e+00   5.1174965761e+01    0.1419723    0.1158599  10.73 0.0004507948    1.605    0.377
        50 -10.0005     91.1538      2.1364   1.3663544253e+01   5.9091531155e+01    0.1841469    0.1299891  44.29 0.0004225277    1.202    0.168
        51 -10.2145    230.2649      1.3713   3.5658670964e+02   2.8639561934e+01    0.1908482    0.0825944  74.21 0.0007047871    2.006    0.501
        52  -9.5225    121.0065      1.4620   7.7308321339e+00   5.2501827806e+01    0.1956995   0.09733986  65.89  0.001026717    1.583    0.368
        53 -10.2800     73.4952      1.4403   1.7816419264e+01   6.2836247210e+01    0.2367225   0.09605039  56.78  0.001154113    2.000    0.500
        54  -9.6349     20.1012    211.8368   8.5747627079e+01   2.6370240528e+01    0.2121694    0.1438738  64.54 0.0009739486    1.326    0.246
        55 -11.7262    248.3408    248.3514   4.0178549120e+01  -1.2473786281e+01    0.5999902    0.3211503 -17.07   0.00349383    1.772    0.436
        56 -11.9694    225.5229    246.5820   4.3985816549e+01  -9.6594363437e+00    0.6921583     0.317322 -24.10  0.003343767    2.398    0.583
        57 -11.1959    181.2031    249.9834   5.3293428116e+01  -4.4494490049e+00    0.3426661     0.208229  23.51  0.001863429    1.468    0.319
        58 -11.1252    182.9893    246.5208   5.2377908948e+01  -4.1234743575e+00    0.2391448    0.1675622  37.02  0.001373683    1.461    0.316
        59  -9.3067    168.6744    250.6822   5.6041078693e+01  -2.7966859491e+00    0.1349987   0.09077129  -2.28 0.0003318066    1.674    0.403
        60  -9.9711     72.1714    250.1329   7.7383128633e+01   1.1448540157e+01    0.1785348    0.1715216  -3.13 0.0008536894    1.297    0.229
        61 -11.8762     21.8743    248.8570   8.7971720780e+01   1.7931882013e+01    0.5350758    0.1878404  42.69  0.002395207    2.203    0.546
        62  -9.8196      6.8203    249.3304   9.0988780546e+01   1.9407735158e+01    0.1861775    0.1438032  74.46 0.0005905119    1.065    0.061
        63  -9.4470    106.6256    211.2076   6.4372137087e+01   1.4860459306e+01     0.202158    0.1326573 -46.88 0.0009454474    1.654    0.395
        64 -11.3915     11.2885    208.9724   8.7557659828e+01   2.7909363260e+01    0.3149814    0.2845325  77.04  0.001541135    1.131    0.116
        65 -11.2853      4.9048    210.0437   8.9075957112e+01   2.8245038505e+01    0.4289933    0.2323163  64.07  0.001748988    1.700    0.412
        66 -10.5083      5.1388    204.3411   8.8637265427e+01   2.9561742094e+01    0.3230509    0.2426006 -35.36  0.001207852    1.816    0.449
        67 -10.8570    217.3609    208.6123   3.8983986922e+01  -2.4762038676e+00    0.3899605    0.1873941 -32.34  0.001637626    2.024    0.506
        68  -9.1219    193.5356    210.4875   4.4050620212e+01   7.0898781865e-01    0.1382154    0.1192709  -6.79 0.0002509651    1.025    0.025
        69  -9.2443    132.3250    209.3103   5.7710356758e+01   1.1019700424e+01    0.1498572    0.1125924  -8.17 0.0004808853    1.656    0.396
        70  -9.5369    201.4583    207.7775   4.1939932263e+01   6.5362352011e-04    0.1974748    0.1147389 -30.56 0.0007466398    1.702    0.413
        71  -8.8068    123.9467    206.0238   5.9220453418e+01   1.3172341028e+01    0.1686556    0.1567847  32.23  0.000926075    1.013    0.013
        72  -9.4694     18.5595    205.1207   8.5571119874e+01   2.8121131887e+01    0.3622808   0.01028199 -61.50 0.0009477168    6.473    0.846
        73  -9.4262     28.1340    205.1897   8.3287805437e+01   2.7117136713e+01    0.1831474    0.1307855  68.89 0.0003745349    1.293    0.226
        74  -9.3043    206.4928    204.5056   4.0336047859e+01  -1.6078841891e-01    0.1371088    0.1154132 -11.55 0.0008101566    1.048    0.046
        75  -9.2278     68.9979    203.2436   7.2827553306e+01   2.2511194983e+01    0.1892626    0.1160427  33.68 0.0008811825    1.590    0.371
        76  -9.0110    174.3190    202.2669   4.6653109230e+01   5.3864505903e+00    0.1434805    0.1052767  -2.65 0.0003097348    1.557    0.358
        77  -9.9973    238.3047    200.9165   3.3791644865e+01  -4.0333551489e+00    0.1814031    0.1335858 -28.86 0.0004523588    1.129    0.115
        78  -9.3925    120.4499    200.0661   5.9093141948e+01   1.5133137699e+01     0.213813    0.1476746 -53.10 0.0006560376    1.514    0.340
        79 -10.2007     21.8546    198.7084   8.4236065611e+01   2.9342109457e+01    0.3502924    0.2476348 -10.30  0.001743097    2.144    0.534
        80 -10.1454    134.3379    197.1747   5.5108029965e+01   1.3386836324e+01    0.4284726    0.2625442 -27.48  0.001754759    2.194    0.544
        81  -9.5123    177.4223    198.1977   4.5209934575e+01   5.6869497780e+00    0.1989252    0.1362608 -56.19 0.0009496572    1.734    0.423
        82  -9.3048     50.4744    197.5000   7.6898152351e+01   2.6405845065e+01     0.140315    0.1258354  76.13 9.006661e-05    1.010    0.010
        83  -9.6599     40.4533    196.9725   7.9413630870e+01   2.7751879541e+01    0.2036819    0.1256868 -73.70 0.0002896305    1.536    0.349
        84  -9.1290    236.5120    196.4961   3.3298977170e+01  -3.0498018755e+00    0.1284077    0.1048199 -21.55 0.0002360796    1.002    0.002
        85 -11.4679     15.3130    192.2454   8.5281980696e+01   3.1555881852e+01    0.3727115    0.3302641 -15.44  0.001641594    1.470    0.320
        86  -9.1264    209.6476    193.1740   3.7602130674e+01   1.4401374340e+00    0.1815565    0.1123816 -32.55 0.0002274662    1.509    0.337
        87  -9.5739     61.6091    192.6408   7.3371327833e+01   2.6165632043e+01     0.285722    0.1217701 -59.42  0.001130446    2.232    0.552
        88  -9.8805    225.4019    188.2935   3.3739051304e+01  -5.1471279947e-02    0.2020436    0.1121052  12.03 0.0008409878    2.956    0.662
        89 -11.1380    244.7757    189.0043   3.0533830468e+01  -2.8989520257e+00    0.2836598    0.2091913 -54.77  0.001686947    1.685    0.407
        90  -9.7548    187.4030    189.7701   4.1450701953e+01   5.6968010607e+00    0.2039556    0.1245277 -33.32 0.0004630318    1.643    0.391
        91  -8.8190     73.7030    186.7169   6.9279127320e+01   2.5951387833e+01    0.1425372    0.1139828 -25.83 0.0002266841    1.543    0.352
        92  -8.9203     87.4982    185.5351   6.5333202648e+01   2.4139660632e+01    0.1492424     0.143355  64.82 0.0008096374    1.003    0.003
        93 -10.0307     62.1796    184.6733   7.2131856220e+01   2.8105541382e+01    0.2708699    0.2288014 -50.91 0.0008982883    1.245    0.197
        94 -10.9525     15.6323    181.9378   8.4280765300e+01   3.4079172322e+01    0.4332919    0.2380133  69.92  0.002074126    1.942    0.485
        95 -10.0596    249.7899    181.5877   2.8367118734e+01  -2.3255553463e+00    0.1479404    0.1202502  46.59 0.0009492774    1.629    0.386
        96 -10.5396     23.9132    180.7458   8.1999248921e+01   3.3599701848e+01    0.4007293    0.1967825  50.72 0.0003958496    2.090    0.522
        97 -10.6348     28.5055    180.5045   8.0752923030e+01   3.3200629931e+01     0.389037    0.2146328  44.08  0.001600793    1.794    0.443
        98 -10.2953    101.0063    176.0332   5.9990994303e+01   2.4293594083e+01    0.2163549    0.2113191  58.54  0.001164677    1.004    0.004
        99 -10.8115    250.2967    173.2660   2.6759072840e+01  -9.9049110413e-01    0.2645057    0.1328328 -29.97  0.001287904    1.985    0.496
       100  -9.4282    216.7969    173.4526   3.2451215115e+01   3.9922132808e+00    0.2545364    0.1552495 -60.08  0.001148292    2.295    0.564
       101 -10.2488    242.3793    173.2298   2.8006322691e+01   1.3065219789e-01    0.1864437    0.1035301 -47.87 0.0008947752    1.716    0.417
       102  -9.8181     17.9820    173.0421   8.2792180702e+01   3.6105262660e+01    0.2214115    0.1376097  66.64  0.001060803    1.680    0.405
       103  -8.6267    155.3046    172.2855   4.5173422910e+01   1.5189997267e+01    0.1525151    0.1184816  -6.52 0.0002097613    1.562    0.360
       104  -8.9684    117.6657    169.6753   5.4232672663e+01   2.2904335333e+01    0.1627248    0.1232053 -13.42 0.0007051099    1.713    0.416
       105  -9.4524     67.5123    165.5084   6.7690124752e+01   3.2303291217e+01    0.1506162    0.1400211  80.69 -9.372094e-06    1.063    0.059
       106 -10.3586    239.8255    162.8112   2.6447130765e+01   2.3318283325e+00    0.1731652    0.1424462 -55.74 0.0005771277    1.331    0.248
       107  -8.9241    133.7533    162.4341   4.8487441900e+01   2.1609724151e+01    0.1605653    0.1227837 -86.39            0    1.768    0.434
       108  -9.1572    117.0358    161.9652   5.2845442884e+01   2.4912428632e+01    0.1847089    0.1804442  38.06 0.0003751779    1.016    0.016
       109  -9.2103     56.3547    162.6909   7.0521556175e+01   3.4567550708e+01    0.1572325    0.1059298  64.51 0.0007043146    1.725    0.420
       110 -11.8694     17.4127    159.8813   8.1534559543e+01   3.9504702585e+01    0.3704242    0.2622119 -65.49  0.001025689    1.244    0.196
       111  -8.6579      1.6778    157.2972   8.5702163455e+01   4.1366580546e+01    0.1327842   0.08543143  64.95  0.000363496    1.621    0.383
       112 -10.7611    250.5526    155.2562   2.3370999418e+01   2.0515435260e+00    0.3193723    0.1031115 -40.51   0.00129336    2.575    0.612
       113  -9.9462    216.1423    154.8673   2.8868378668e+01   7.6132083359e+00    0.2003316    0.1770056 -60.45 0.0002947264    1.229    0.186
       114  -9.4028    158.7377    153.4346   4.0352601968e+01   1.8744562299e+01    0.2160225    0.1480299  28.66 0.0009463294    1.645    0.392
       115  -9.0885    105.7123    152.7143   5.4084405529e+01   2.9307162919e+01    0.1550066    0.1234517 -15.72 0.0002962014    1.531    0.347
       116  -9.8570    234.8479    151.3752   2.5034963030e+01   5.1466296590e+00    0.1701411    0.1223308  27.81 0.0005848749    1.731    0.422
       117  -9.3733    223.0040    151.5180   2.7006021509e+01   7.0722483796e+00     0.175551    0.1200419  76.16 0.0008099476    2.531    0.605
       118  -9.4613     53.8571    159.7796   7.0805166619e+01   3.5650127557e+01    0.3215785     0.131854  19.11   0.00106754    3.453    0.710
       119 -12.1025     13.7797    147.9752   8.1212482893e+01   4.2840576104e+01    0.2551214    0.2145485 -77.82 0.0003302741    1.051    0.049
       120  -9.5719    233.8308    146.8334   2.4307616433e+01   6.1296753987e+00    0.1804587    0.1368631 -54.02 0.0005102942    1.295    0.228
       121 -10.2013    217.3435    144.9625   2.6645391715e+01   9.2801122133e+00    0.3134664    0.1844158  28.10  0.001403134    2.447    0.591
       122 -10.3599      5.3695    145.1309   8.3394655752e+01   4.4174397623e+01    0.4499523    0.1272755  28.12  0.001749558    3.453    0.710
       123  -9.8165     17.2543    143.1044   7.9549092919e+01   4.3806120407e+01    0.2565411    0.1476544  55.53  0.001214086    2.036    0.509
       124 -10.9624    239.6798    140.2747   2.2128953911e+01   6.3484439361e+00     0.254972    0.1900601 -35.91 0.0004997139    1.198    0.165
       125  -9.3198    189.1486    140.1902   3.0840274491e+01   1.5496424453e+01    0.1963596    0.1698218 -75.69 0.0005091326    1.302    0.232
       126 -10.0697     14.6584    139.4455   7.9879329081e+01   4.4942326441e+01    0.3350072    0.1595023 -32.66  0.001283826    2.716    0.632
       127  -9.8564    235.2838    137.9915   2.2345134709e+01   7.4784040822e+00    0.1939159    0.1469891 -43.72 0.0004660953    1.118    0.105
       128 -12.7913     37.4951    134.8551   7.1851305128e+01   4.4036624924e+01    0.4743874    0.2841527 -74.49 0.0009275815    1.732    0.423
       129  -9.8265     20.3906    134.1875   7.7333046079e+01   4.5820455204e+01    0.2632617    0.1675503  76.05 0.0009665155    1.926    0.481
       130 -10.4332     16.5093    131.4826   7.8204095962e+01   4.6816612026e+01    0.3397825    0.2218741  22.34  0.001450776    1.724    0.420
       131  -9.9199     47.0763    133.6852   6.8483052020e+01   4.3257844778e+01    0.1940787    0.1837099 -18.76 0.0003754495    1.103    0.094
       132  -9.9127    123.0162    133.0298   4.4767585183e+01   3.0731481744e+01    0.1968331    0.1823485 -48.06 0.0009128985    1.081    0.075
       133 -10.9361     53.2126    132.4946   6.6224880022e+01   4.2803807101e+01    0.3533157    0.2056602 -51.97  0.000860289    1.584    0.369
       134 -10.1764     58.8118    131.9209   6.4256761303e+01   4.2211387036e+01    0.2384987    0.1666575  89.31 0.0009535137    1.887    0.470
       135  -9.5109     64.4543    131.0226   6.2209162302e+01   4.1650171309e+01    0.2258729    0.1399397 -55.14 0.0006708163    1.526    0.345
       136 -11.3948      4.9084    130.0651   8.1761433922e+01   4.7983617166e+01     0.240891    0.1977747 -57.10 0.0003304804    1.080    0.074
       137 -10.2553    216.9946    129.1931   2.3454515574e+01   1.2302474028e+01     0.236613    0.1791567 -43.50 0.0004027973    1.174    0.149
       138 -11.0937     73.5341    128.8556   5.8763595281e+01   4.0831187577e+01    0.3410908    0.2805982 -60.69 0.0006632316    1.218    0.179
       139 -10.4715     24.5823    127.6468   7.4951824018e+01   4.7120636638e+01    0.3515992    0.2253501 -76.95  0.001463449    1.573    0.364
       140 -10.4562     59.9588    126.7055   6.2799532302e+01   4.3373591325e+01    0.2086435    0.1962626  12.86  0.001157041    1.105    0.095
       141  -9.0914     68.3188    132.6914   6.1292576822e+01   4.0661994375e+01    0.1533184    0.1165319  69.62 0.0002278794    1.638    0.390
       142 -11.4064    241.3593    134.2372   2.0709753097e+01   7.1385623326e+00    0.2918174    0.2536284 -58.05  0.001005551    1.138    0.121
       143 -10.3467    229.9042    124.4798   2.0469036202e+01   1.0822959263e+01    0.2094749    0.1593339 -45.09 0.0007546716    1.132    0.117
       144 -10.5249     82.8755    124.5317   5.4746178610e+01   4.0375704714e+01    0.3100443    0.2265375 -54.02 0.0008125844    1.357    0.263
       145 -11.5667     47.1558    124.1251   6.6624159743e+01   4.5675305470e+01    0.2858172    0.2312765  13.88 0.0004319983    1.339    0.253
       146 -11.0556      9.8244    121.8248   7.9035429730e+01   4.9715204929e+01     0.441197    0.2452021  65.98  0.001370535    2.497    0.600
       147 -10.8959     68.2987    121.6617   5.8886064189e+01   4.3423639909e+01    0.2525637    0.2272068 -88.65 0.0006988677    1.253    0.202
       148 -10.1359     61.1550    121.3280   6.1234113733e+01   4.4549242489e+01    0.2530266    0.1883859 -44.96 0.0005357364    1.282    0.220
       149 -10.6366     56.2509    121.2271   6.2893796385e+01   4.5247466460e+01    0.2909108    0.2562842   7.00  0.001173792    1.194    0.163
       150  -9.5650     35.6435    121.5943   7.0116608008e+01   4.7592545256e+01     0.174044    0.1312917  35.35 0.0005966251    1.444    0.307
       151 -11.1152    248.8107    118.3473   1.6629043502e+01   8.6499917735e+00    0.2322479    0.1914141  -3.61  0.001439161    1.715    0.417
       152  -9.5938     85.5015    117.4950   5.2203997873e+01   4.1622013276e+01    0.3563588    0.1031674 -39.78 0.0008106842    5.857    0.829
       153  -9.8621     24.8485    118.1202   7.3262401772e+01   4.9483280047e+01    0.2097059    0.1788748  77.80  0.001216959    1.336    0.251
       154 -10.1202      1.3982    117.7821   8.1318157671e+01   5.1223509924e+01    0.2505507    0.1305873 -55.52 0.0007521387    1.554    0.357
       155  -9.4720      4.3711    115.3324   7.9962402428e+01   5.1653049034e+01    0.2256728    0.1326638 -28.51  0.000637545    1.848    0.459
       156  -9.6623    120.1595    117.6047   4.1764495683e+01   3.4872024645e+01    0.2288923    0.1471642  30.56 0.0009443737    1.753    0.430
       157 -10.6845     71.4669    115.0631   5.6269073705e+01   4.4542435924e+01    0.4811425     0.316689  67.30  0.001970094    2.378    0.579
       158 -10.4937     16.4243    115.3685   7.5760198373e+01   5.0843784307e+01    0.2417346    0.2203236 -40.19 0.0007614132    1.084    0.077
       159  -9.3085    182.1818    115.1118   2.6574405039e+01   2.1952761913e+01    0.1995808    0.1648378 -71.21 0.0004834035    1.280    0.219
       160 -11.7429    246.7749    112.1854   1.5716076213e+01   1.0028611215e+01    0.3664838    0.2376078  40.90  0.002055295    2.094    0.522
       161 -11.4463     55.3212    109.9867   6.0698343253e+01   4.8119888126e+01    0.3129665    0.2693152 -43.23 0.0006594991    1.089    0.081
       162 -11.7747     31.1268    107.4754   6.8981180704e+01   5.1516773718e+01    0.5217605      0.36967  85.98  0.002614863    1.896    0.473
       163 -11.5943     12.4162    109.4939   7.6215261797e+01   5.2564624373e+01    0.3749511    0.3005611 -67.10 0.0007518957    1.153    0.133
       164 -11.2827     62.6225    107.3024   5.7450325943e+01   4.7734462491e+01    0.4003446     0.255583 -49.44  0.001456928    1.490    0.329
       165 -10.7049     44.5176    108.3867   6.4243933888e+01   4.9865102174e+01    0.3636346    0.2501335 -27.95  0.001573055    1.543    0.352
       166 -10.4940     19.9986    108.2045   7.3227198841e+01   5.2317381834e+01    0.2886173    0.1865453  15.39  0.001113611    1.718    0.418
       167 -10.1760      3.2910    105.7291   7.8910892473e+01   5.4034346237e+01    0.3477402    0.2196354 -73.16   0.00190774    1.474    0.322
       168 -11.9185     75.0252    104.2195   5.2327645960e+01   4.6515242830e+01    0.5377248    0.3702686  45.18 0.0002897831    1.560    0.359
       169 -10.4216     76.6096     98.0352   5.0129784984e+01   4.7642450522e+01    0.3916565    0.2722071  -5.79 0.0008919658    1.910    0.476
       170 -10.1130     50.2673    103.6246   6.1030159843e+01   5.0294403488e+01    0.2315637    0.2128468  52.60 0.0005322495    1.254    0.202
       171  -9.3200     42.3923    103.7400   6.3980823841e+01   5.1221968773e+01    0.1902718    0.1179886 -47.09 0.0004691704    1.460    0.315
       172  -9.3739    105.9993    103.2071   4.2074405590e+01   4.0981531535e+01    0.2093343    0.1918591  35.84            0    1.068    0.064
       173 -10.7407     92.1845    101.2630   4.5824748705e+01   4.4124714896e+01    0.3314137    0.2964518  73.93  0.001049576    1.313    0.238
       174  -9.4686     36.7601    102.4100   6.5794779421e+01   5.2158726893e+01    0.1867561    0.1297658   2.29  0.000946962    1.612    0.380
       175 -11.4428    248.5376     98.9703   1.2981375421e+01   1.1912669142e+01    0.2921786    0.2650734  60.98  0.002037776    1.361    0.265
       176 -11.0112     62.3015     98.4828   5.5324616584e+01   4.9823063235e+01    0.3839366    0.2619795 -38.57  0.001014302    1.433    0.302
       177  -9.4292     42.6364     98.7377   6.2720297822e+01   5.2367988911e+01    0.1894381    0.1286886 -63.58 0.0009121446    1.559    0.359
       178  -9.5571     10.2302     99.0589   7.5212998527e+01   5.5203733951e+01     0.174176     0.144335 -57.51 0.0002294825    1.082    0.075
       179 -10.3307     51.9683     97.1865   5.8809032146e+01   5.1567380711e+01    0.2743801    0.1925648 -29.39 0.0006568175    1.454    0.312
       180  -9.5558     33.9564     98.0114   6.5875130920e+01   5.3483942168e+01     0.237779    0.1405098 -32.30  0.001129513    1.736    0.424
       181 -10.6921     15.3713     96.6640   7.2787992009e+01   5.5414899370e+01    0.2687517    0.1949752 -36.51  0.001348092    1.241    0.195
       182 -10.6250     14.7219     91.6816   7.2047318318e+01   5.6617084292e+01     0.380175    0.1600752 -45.14  0.001721095    1.995    0.499
       183 -11.9662     57.4901     90.8414   5.5061592420e+01   5.2230745599e+01    0.4788522    0.3089485 -36.17 0.0006506278    1.534    0.348
       184  -9.3777     31.7107     92.5922   6.5501152483e+01   5.4961474849e+01    0.1664439     0.124568  31.12 0.0002562664    1.464    0.317
       185 -10.0839      7.5237     92.5152   7.5055755024e+01   5.6898383051e+01    0.2213022   0.09873756  31.49  0.001026574    2.536    0.606
       186 -10.6299     35.3348     90.4944   6.3562903154e+01   5.5066906176e+01    0.2372383    0.2243255  84.51 0.0004920318    1.299    0.230
       187 -10.5571     49.0254     89.9610   5.8054641662e+01   5.3577734669e+01    0.2067716      0.18698 -20.63 0.0003188663    1.005    0.005
       188 -10.2950     22.4842     88.7343   6.8299942909e+01   5.6686116797e+01    0.3840964     0.223569 -77.51  0.001772136    2.351    0.575
       189  -9.8096     97.5106     89.4731   4.0825391478e+01   4.5579560990e+01    0.1502107    0.1407802  13.73 5.515181e-05    1.043    0.041
       190 -11.2928    184.7943     85.2687   1.9141013007e+01   2.6902249896e+01    0.2397218    0.2106875 -70.66 0.0002692188    1.056    0.053
       191 -10.4871    108.6535     85.6196   3.6357850097e+01   4.4043335924e+01    0.3650107    0.2305675  61.00  0.001127926    1.940    0.485
       192 -10.0049      8.5336     85.1996   7.3219216034e+01   5.8504321958e+01    0.2229499    0.1903233  57.54  0.001214076    1.508    0.337
       193 -10.7771    239.4905     84.5387   1.1282126344e+01   1.5847361705e+01    0.2246434    0.1857065 -61.64  0.000713234    1.025    0.024
       194  -9.2756     34.6515     84.5637   6.2348360420e+01   5.6460328007e+01    0.2390088     0.118068 -55.47  0.001082212    1.917    0.478
       195  -9.6111      4.0129     85.3105   7.5086650640e+01   5.8743654062e+01    0.1724815    0.1497796 -33.61 0.0005990873    1.085    0.078
       196  -9.6346    117.0121     83.7279   3.3460814196e+01   4.2598484012e+01    0.2075135    0.1815658  45.81 0.0002853158    1.089    0.081
       197 -10.5748    120.0679     79.8579   3.1526274664e+01   4.2640969769e+01    0.3331968    0.2741618  21.65 0.0008306743    1.374    0.272
       198 -10.7860     76.2485     82.6615   4.5865141905e+01   5.0964821030e+01    0.4648381     0.231902  36.29  0.001481636    1.959    0.489
       199  -9.6644     30.9834     83.0573   6.3463958725e+01   5.7168842480e+01    0.1627428    0.1393169 -32.29 0.0005135268    1.025    0.024
       200 -10.3098     64.2154     80.8221   4.9678428473e+01   5.3345743679e+01    0.3287192    0.1713373 -40.35  0.001079176    1.915    0.478
       201 -10.7044     25.6627     70.6094   6.2420216722e+01   6.0335488355e+01    0.4494541    0.2758339 -68.61  0.002236442    2.193    0.544
       202 -11.6847     17.8721     80.0570   6.8197782178e+01   5.8993958574e+01    0.6934602    0.2565641 -49.36  0.003045409    2.153    0.536
       203 -11.0295     26.2651     78.3807   6.4234684365e+01   5.8639953985e+01    0.3303074    0.2455129  -8.06   0.00119681    1.326    0.246
       204 -11.1188     22.1234     76.5560   6.5530347908e+01   5.9403400635e+01    0.2628364     0.210076 -53.46  0.000343441    1.241    0.194
       205 -10.1108      1.6793     80.6538   7.5134708482e+01   5.9908525679e+01    0.3063221   0.09050974 -49.87  0.001306203    2.385    0.581
       206 -12.3124     88.2849     77.2199   4.0126878434e+01   4.9804986840e+01    0.3397897    0.3122354  22.72 0.0002689558    1.018    0.017
       207  -9.1746      7.5133     80.5070   7.2664213169e+01   5.9613508222e+01    0.1306296    0.1020249 -38.66 2.287948e-05    1.061    0.058
       208 -10.6914    100.4189     77.4863   3.6389453977e+01   4.7316981767e+01    0.3902389     0.282702 -44.09  0.001237273    1.468    0.319
       209 -11.7359    103.0789     69.8628   3.3271951176e+01   4.8127707986e+01    0.4799905    0.3794297 -85.87  0.001050768    1.782    0.439
       210  -9.5201     49.9792     78.0037   5.4345731291e+01   5.6012055955e+01    0.1666488    0.1455595 -24.74 0.0003180979    1.057    0.054
       211  -9.4036    212.0019     76.2721   1.3030068948e+01   2.2547560299e+01    0.1751248    0.1515669 -75.92 0.0004105517    1.032    0.031
       212 -10.1992    168.4990     74.9665   1.9508923302e+01   3.2338870449e+01    0.3557466    0.2062044 -55.24  0.001378009    1.859    0.462
       213  -9.9326     55.6438     75.0152   5.1212767352e+01   5.5822995249e+01    0.2526265    0.1380501  31.21  0.001168704    1.799    0.444
       214  -9.9517     44.5089     74.4534   5.5515706139e+01   5.7457626706e+01    0.2382226    0.1873913   6.85 0.0001014978    1.229    0.186
       215 -10.2905     45.0715     70.8338   5.4199439356e+01   5.8114756318e+01    0.1956441    0.1762659 -11.84 0.0003365764    1.062    0.058
       216 -10.4624      9.4054     71.9409   6.9923727522e+01   6.1352844415e+01    0.5517424     0.321552 -26.29  0.002591617    1.619    0.382
       217 -13.5482     16.4354     67.3412   6.5629993136e+01   6.1809590838e+01    0.4395128    0.2901498 -47.85 0.0006215395    1.327    0.247
       218  -9.2857    207.1957     73.4093   1.3063910238e+01   2.4006809955e+01    0.1732659    0.1172712  81.74 0.0004157927    1.553    0.356
       219  -9.8773    124.0345     73.0788   2.8542759028e+01   4.2952635094e+01    0.2138406     0.202579  54.53 0.0004315275    1.012    0.012
       220  -9.8226    159.9695     71.8250   2.0299436921e+01   3.4833264832e+01    0.1990397    0.1838548  43.71 0.0003556979    1.204    0.170
       221  -8.8997    175.4889     70.4263   1.7171650077e+01   3.1475205050e+01    0.1393589    0.1246568 -89.64 0.0001897219    1.012    0.012
       222  -9.4636     36.9590     76.5218   5.9237396388e+01   5.7934729292e+01     0.187798    0.1261167  20.36   0.00040881    1.499    0.333
       223 -11.0037     92.7980     67.9033   3.5772462573e+01   5.0604827231e+01    0.3137835    0.2624916  52.35 0.0009672879    1.238    0.192
       224  -9.6353     79.0163     69.4696   4.0815742592e+01   5.3000470434e+01    0.2245489    0.1316352  39.39  0.001039327    1.615    0.381
       225 -11.5085     50.6565     68.0884   5.1056892991e+01   5.7897772266e+01    0.3267542    0.2558601   5.48 0.0007051243    1.224    0.183
       226 -10.9435    129.5911     66.1568   2.5190084028e+01   4.2838148250e+01    0.3688396    0.2735273  30.71 0.0007978739    1.564    0.361
       227 -11.6965      5.1150     61.2332   6.9228148067e+01   6.3847244314e+01    0.7149674    0.3130323  -2.87  0.002916941    2.714    0.632
       228 -11.3151      6.4090     67.7925   7.0265309704e+01   6.2417342846e+01    0.2326513    0.1806624 -20.11 0.0002502981    1.155    0.134
       229 -10.1859      2.4481     67.5244   7.1986593885e+01   6.2702296544e+01    0.1974237    0.1547871 -40.24 0.0007851757    1.036    0.034
       230  -9.3118     75.0223     67.4862   4.1574813709e+01   5.4088487789e+01    0.1973492    0.1147832  17.20 0.0008077216    2.369    0.578
       231  -9.8565     60.3114     65.9898   4.6546780705e+01   5.6851605536e+01    0.3583954    0.2179431 -59.93  0.001609541    2.463    0.594
       232 -12.4410     30.0606     62.9709   5.8253836309e+01   6.1430419226e+01    0.5067189    0.4293655 -23.19  0.001224364    1.052    0.049
       233  -9.4639    148.9798     66.0365   2.0931646561e+01   3.8337029359e+01    0.2164614    0.1692362  26.98 0.0006794856    1.637    0.389
       234 -11.1604    160.4124     63.4670   1.8067121194e+01   3.6061591134e+01     0.403649    0.2863175  21.09  0.001033149    2.275    0.560
       235 -10.4063    155.0375     63.3121   1.9024046100e+01   3.7343889625e+01    0.2752578    0.2310442 -57.57 0.0008058184    1.219    0.180
       236 -12.0664    122.6378     63.2848   2.6023328200e+01   4.4895541014e+01    0.3651012    0.3110119 -57.55 0.0009261749    1.302    0.232
       237 -10.2501    109.0774     64.2712   2.9847142104e+01   4.7775019310e+01    0.2279142    0.2091668 -26.05 0.0006029418    1.176    0.150
       238 -10.1460     81.5489     64.8134   3.8444318739e+01   5.3353507171e+01    0.2564211    0.1837721  38.40 0.0005080555    1.300    0.231
       239 -10.7126    209.9661     63.1315   1.0505017920e+01   2.5006262185e+01    0.2079019    0.1615082 -59.08 0.0004727697    1.142    0.125
       240 -11.8501     46.5836     60.7603   5.0371952907e+01   5.9842501286e+01    0.4241077     0.270247 -23.88 0.0009814879    1.627    0.385
       241 -10.3546     90.8800     61.0652   3.4177416693e+01   5.2151686472e+01    0.3568248    0.1928051  46.03 0.0007855525    1.718    0.418
       242  -9.8231    189.1101     59.9975   1.2595875939e+01   3.0004092409e+01    0.1951613    0.1685276 -84.37 0.0003615009    1.009    0.009
       243 -10.0019    167.5263     59.3721   1.5785686848e+01   3.5025629470e+01    0.3022488    0.1870015 -68.58 0.0008189079    1.951    0.487
       244  -9.8945    151.0854     60.0009   1.8900859967e+01   3.8778610321e+01    0.2951566    0.1807026  47.69  0.001410925    1.647    0.393
       245 -11.0973    136.3000     57.7736   2.1287337787e+01   4.2584881952e+01    0.5810786    0.4301613  19.13   0.00115971    1.876    0.467
       246  -9.6067    114.6623     60.2650   2.7127230666e+01   4.7177582393e+01    0.2451333    0.1494619  37.50 0.0008078795    1.716    0.417
       247 -10.6207     58.5699     59.6858   4.5133820433e+01   5.8265099767e+01    0.2484629    0.2098206  46.98 0.0006373777    1.419    0.295
       248  -8.7847    143.2643     58.2985   1.9982506282e+01   4.0873269041e+01    0.1319529    0.1067887  27.52 0.0002285256    1.514    0.339
       249 -10.1128    128.5849     53.2134   2.1660631453e+01   4.5054640143e+01    0.4148182    0.2330714 -70.81  0.001482975    3.613    0.723
       250  -9.5245    110.3344     56.9615   2.7241341321e+01   4.8654265645e+01     0.184381    0.1807411  21.23 0.0004124476    1.090    0.082
       251 -11.5256     89.3276     54.6037   3.2531705336e+01   5.3498741493e+01    0.5224937    0.3626221 -44.01  0.002410064    1.644    0.392
       252 -11.1791    115.6679     55.2325   2.5329355643e+01   4.7720536552e+01    0.2771035    0.2249403  66.60 0.0005376085    1.253    0.202
       253  -9.3448    177.0891     56.5363   1.3558189444e+01   3.3236626134e+01     0.208056    0.1232791  68.22  0.001024577    1.604    0.377
       254 -11.3302     16.8330     42.1593   5.7749410148e+01   6.6571005828e+01    0.6672027    0.2898827 -40.53   0.00339254    2.006    0.501
       255 -11.5106      3.3825     53.1132   6.7895682204e+01   6.5564739486e+01    0.6112406    0.2633562 -50.72  0.002994176    1.872    0.466
       256 -11.1783      7.9818     51.5362   6.5184808503e+01   6.5570342525e+01    0.3994431    0.2607768 -74.72  0.001295624    2.397    0.583
       257 -10.7700     12.9600     53.3269   6.3285433891e+01   6.4861767027e+01    0.2595293    0.1587853 -26.79  0.001024563    1.437    0.304
       258 -10.9849    219.0797    246.2828   4.5147305784e+01  -8.8368838970e+00    0.3129505    0.1316738 -32.59  0.001502206    2.315    0.568
       259 -11.5621     27.8263     37.5693   5.0620286083e+01   6.6195446124e+01    0.2283528      0.19316  -8.24 0.0002759089    1.120    0.107
       260 -11.1047     24.1734     34.7935   5.1354793958e+01   6.7050876730e+01    0.3409495     0.221007 -13.02 0.0009200569    1.442    0.306
       261 -13.4026    149.6136     51.2625   1.6836561986e+01   4.0400949905e+01    0.3868109    0.3570985  63.04 0.0006312847    1.100    0.091
       262  -9.4363     99.5094     55.4324   2.9747295731e+01   5.1247121109e+01      0.21426    0.1171209  41.56   0.00063103    1.706    0.414
       263 -10.8747     59.8280     41.7107   3.8227861057e+01   6.0962380373e+01    0.4963293    0.2066132  37.42  0.001341021    2.187    0.543
       264 -12.2514     44.6932     43.7831   4.5216632812e+01   6.3017541243e+01    0.5043353    0.3710836 -49.27 0.0002697148    1.747    0.428
       265 -11.9248     54.8386     48.9714   4.2875060179e+01   6.0661563604e+01    0.5259545    0.4066064  20.80  0.001948233    1.153    0.133
       266  -9.3364     83.4873    248.2404   7.4669991171e+01   1.0261980715e+01    0.1662583    0.1217199  85.60 0.0007830162    1.564    0.360
       267 -10.3912     83.4422     49.8809   3.2801937346e+01   5.5399457068e+01     0.248234    0.1313103 -40.08  0.001149832    2.096    0.523
       268 -10.0015    201.8783     48.9145   8.4560650889e+00   2.8783909947e+01    0.1739882     0.161176  78.07 0.0002649669    1.252    0.201
       269 -10.6445    180.2873     47.1345   1.0853240792e+01   3.3832764317e+01    0.2394152    0.1788418 -83.73 0.0001981786    1.270    0.213
       270 -11.4901    105.1278     52.5951   2.7259755069e+01   5.0457661346e+01    0.3545664    0.2574746  30.12  0.000350914    1.452    0.311
       271 -12.0733    121.3925     46.8639   2.1397377922e+01   4.7609135343e+01    0.2739587     0.218347  62.21 0.0003537394    1.154    0.134
       272 -10.2654    119.2330     40.1361   1.9836053568e+01   4.8991719855e+01    0.4920869    0.2903043 -87.30  0.001938521    3.251    0.692
       273  -9.8855    105.8604     47.6892   2.5488072899e+01   5.1000901586e+01    0.2499096    0.1945731  82.56 0.0007933633    1.630    0.386
       274  -9.3395     72.6905     48.3513   3.5900561581e+01   5.7691800463e+01    0.1253966    0.1087561  87.64 0.0007044197    1.717    0.418
       275  -9.8684    247.9337     46.9894   3.4054083235e+00   1.9804761362e+01    0.1825327    0.1374044 -68.06 0.0007678694    1.011    0.011
       276 -10.6995    156.8355    245.6450   5.7836871288e+01  -1.8209535169e-01     0.186988    0.1570903  -2.31 0.0009619876    1.162    0.139
       277  -9.3789    222.2238     45.8266   5.5757459287e+00   2.4937361468e+01    0.1460834    0.1336584  85.25 0.0002743492    1.293    0.227
       278  -9.8536    237.2567     44.2672   3.8429252602e+00   2.2178067665e+01    0.2041682    0.1597317 -71.52 0.0007346682    1.021    0.020
       279 -10.1949     90.7560     42.7957   2.8092008157e+01   5.4920464219e+01    0.4110167    0.2506115 -52.26  0.001964045    2.293    0.564
       280 -11.1022    246.1937     41.8462   2.6280177307e+00   2.0812563175e+01    0.2462376    0.2108319 -63.00 0.0003557392    1.252    0.201
       281  -9.6286    131.1345     42.3779   1.7947649414e+01   4.5945445704e+01    0.2135325    0.1589692 -43.37  0.001097496    1.490    0.329
       282 -10.0435    127.1392     43.3986   1.9084444110e+01   4.6743463029e+01    0.1964359    0.1202767  70.53 0.0007913648    1.717    0.418
       283 -11.4788    108.4183     42.3689   2.3116060307e+01   5.1154419327e+01    0.3662249    0.2455574  34.35 0.0006064989    1.562    0.360
       284  -9.9960     72.9614     43.0400   3.3899764519e+01   5.8421445910e+01    0.1972274    0.1717783  25.94 0.0002986185    1.035    0.034
       285 -10.1234     98.1622     40.9919   2.5363962125e+01   5.3588748014e+01    0.3371931    0.2761959  45.91   0.00199533    1.067    0.063
       286 -10.7492    148.7694     39.8171   1.3909234609e+01   4.2130536683e+01    0.2880532    0.2180122 -61.51 0.0007747533    1.412    0.292
       287 -11.8274     83.9997     37.5115   2.8287515796e+01   5.7012049945e+01    0.5366063    0.3791186  12.19  0.001386916    1.653    0.395
       288 -10.1633     87.5283     33.5402   2.5813703816e+01   5.6786064599e+01    0.2493281    0.1826333  14.08  0.001058039    1.542    0.352
       289  -9.9354     68.2805     41.4579   3.4977251675e+01   5.9512074353e+01    0.1756336    0.1174784  49.31 0.0009366387    1.563    0.360
       290  -8.8272    162.3251     40.3227   1.1829123775e+01   3.8885172570e+01    0.1309017   0.09686615  38.80 0.0007047747    1.685    0.407
       291  -9.4005    102.9504     40.5288   2.3923843996e+01   5.2606058560e+01    0.2048678    0.1190529  53.15 0.0003830677    1.513    0.339
       292  -9.6851    233.0278     39.3459   3.3003025272e+00   2.3648202494e+01    0.1616138    0.1217888 -84.94 0.0002130201    1.134    0.118
       293  -8.9822    167.6952     39.2749   1.0760509817e+01   3.7768823216e+01    0.1324503   0.09016494 -78.25 0.0003472928    1.543    0.352
       294 -10.4591    225.5008     37.9568   3.7195404717e+00   2.5319219670e+01    0.1675772    0.1045608 -44.64 0.0005090363    1.524    0.344
       295 -11.4203    247.4479     35.6123   1.4164945891e+00   2.1390015634e+01    0.2594568    0.1891318 -59.44  0.001094091    1.131    0.116
       296  -9.4331    214.3583     35.8384   4.3685919227e+00   2.7870149949e+01    0.1477645    0.1105609 -35.35 0.0003138041    1.610    0.379
       297 -10.0081    172.3155     55.9208   1.4151230529e+01   3.4424854842e+01    0.1816665    0.1630339 -65.62 0.0003625362    1.119    0.106
       298 -10.2533    109.9301     34.8450   2.0328831885e+01   5.1761938654e+01    0.4316107    0.2276576  32.51  0.001883649    2.448    0.591
       299  -9.2604    129.1907     35.6499   1.6373440707e+01   4.7241629591e+01    0.1938166    0.1033946  52.48 0.0003742816    1.636    0.389
       300 -10.2629    240.6990     34.4425   1.7444720109e+00   2.2803336132e+01    0.1997673   0.09843507  79.71  0.001070403    1.993    0.498
       301 -10.2858    192.3025     34.0020   6.3334165456e+00   3.2843243921e+01    0.1735617    0.1466376 -74.95 0.0006290984    1.083    0.076
       302  -9.6221    101.3309     33.5129   2.2017124069e+01   5.3834759636e+01    0.3023258     0.197796 -89.18  0.001375949    2.638    0.621
       303 -10.7739     93.4288     33.0476   2.3962001277e+01   5.5602305792e+01    0.4665216    0.2323159  37.62  0.001553849    2.028    0.507
       304 -10.3231     75.9986     33.2958   2.9298217527e+01   5.9143736533e+01     0.278288    0.1779696  45.54 0.0007731371    1.370    0.270
       305  -9.8628     38.9601     52.5470   5.0885499364e+01   6.2328075305e+01    0.2933175    0.1991716 -13.89 0.0008824955    1.473    0.321
       306  -9.9757     34.3970     33.2597   4.5801022503e+01   6.6045718716e+01    0.2115544    0.1717165  10.37 0.0008138292    1.084    0.077
       307 -10.2235     78.8006     47.0913   3.3357401462e+01   5.6722097083e+01    0.3050252    0.1494237  36.14 0.0008920523    1.975    0.494
       308 -10.4109    119.7474     31.1930   1.6976711247e+01   4.9954336336e+01     0.362232    0.1951712  32.36  0.001281589    2.526    0.604
       309 -10.8472    119.5331     27.2587   1.5813576464e+01   5.0444360964e+01    0.2639428    0.1942993  55.01 0.0005914635    1.156    0.135
       310 -10.9240     72.8715    244.8901   7.6699784700e+01   1.2446319611e+01    0.2931659    0.2646669  54.22 0.0009389694    1.072    0.067
       311  -9.8604     12.1286     29.1025   5.5403108586e+01   6.9166932015e+01    0.2513658    0.1484866  -6.05 0.0007542578    1.608    0.378
       312 -12.2345     74.5212    239.9252   7.5806550828e+01   1.3275004799e+01    0.6135013    0.4632655 -61.99  0.003061037    1.460    0.315
       313  -9.7772    189.1976    244.6144   5.0788583255e+01  -4.6702994823e+00    0.1871193    0.1065596  19.96 0.0009500454    1.698    0.411
       314 -11.0658    176.2325    243.7625   5.3361204515e+01  -2.6960483622e+00    0.3844404    0.1710794  20.31  0.001533226    2.797    0.643
       315 -10.9491     10.1461     24.7473   5.4762584800e+01   7.0024317901e+01    0.3775785    0.2283291  -2.43  0.002325991    1.502    0.334
       316 -10.8795     46.2636    244.4019   8.2531930937e+01   1.6036985223e+01    0.3950549    0.1232999  33.88  0.001607049    2.751    0.636
       317  -9.4252     15.5131     32.0255   5.4727934307e+01   6.8386012471e+01    0.2182811    0.1247172 -15.79  0.001234989    1.711    0.415
       318 -10.1630     19.0261     30.9922   5.2491939784e+01   6.8199073686e+01    0.2208216    0.1568068  -9.35 0.0009569859    1.178    0.151
       319 -10.8824    198.3468     28.3378   4.4453369326e+00   3.2209902968e+01    0.2953939    0.1747912 -86.36  0.001637036    1.624    0.384
       320 -10.5287    162.8968     29.2073   8.9515806182e+00   4.0109349970e+01    0.2546059    0.1863459 -28.69 0.0009987778    1.687    0.407
       321  -9.9726     40.4827     47.9855   4.8601942858e+01   6.2913286551e+01    0.5205323    0.2656567  -0.15  0.001966414    3.693    0.729
       322 -10.1444     49.4290     28.0013   3.7025991439e+01   6.4571943367e+01    0.4392582    0.2395118   1.44  0.001452308    2.887    0.654
       323  -9.7278    125.9104     29.1023   1.5087166292e+01   4.8766804211e+01    0.2483521    0.1495141  54.00    0.0012767    1.422    0.297
       324  -9.8844      4.3199    243.9404   9.1195838872e+01   2.0777996322e+01    0.1633459    0.1215607  81.69 0.0004848995    1.133    0.118
       325  -9.3246    102.2985    243.6631   6.9870372011e+01   8.4610375980e+00    0.1392648   0.09474095  61.78 0.0007033177    1.657    0.396
       326  -9.6407     80.0975     27.7563   2.5947389556e+01   5.8994377540e+01      0.25103    0.1543223  12.67  0.001244111    2.166    0.538
       327 -10.0534     61.0363     27.2092   3.2164429176e+01   6.2697127399e+01    0.2192997    0.1695717 -14.90  0.001377513    1.350    0.259
       328 -11.1112    213.0508     26.6343   2.6510873488e+00   2.9283351390e+01    0.2141159    0.1668881 -46.03  0.001014098    1.388    0.280
       329  -9.1891    187.6245     27.4703   5.4221428203e+00   3.4673851373e+01    0.1231081    0.1014551 -83.49 0.0001862649    1.031    0.030
       330 -10.3856    176.6822     26.6962   6.5337977770e+00   3.7228977128e+01    0.2206011    0.1748571 -84.39 0.0002341608    1.091    0.084
       331 -10.0521    218.9822     25.6154   1.9184868759e+00   2.8181347569e+01    0.1663904    0.1216479 -87.76 0.0004087208    1.130    0.115
       332 -10.4683     69.2950     25.8720   2.8715049427e+01   6.1331112884e+01    0.3968658    0.1420303  43.98  0.001703192    2.330    0.571
       333 -10.0953     91.2062     24.6927   2.1646918521e+01   5.7026818712e+01    0.3618648    0.1498389  48.06  0.001639028    1.975    0.494
       334 -10.4039     54.9800     24.6945   3.3446440022e+01   6.4062305546e+01    0.2207273    0.1653178 -31.27            0    1.527    0.345
       335 -11.1057     33.4679    241.9839   8.5091019022e+01   1.8088144358e+01    0.2045327    0.1775538  88.91 0.0007219469    1.173    0.147
       336  -9.8668     22.1016     24.0149   4.8051882197e+01   6.8903610411e+01    0.1804986    0.1372567   0.90 0.0004298721    1.026    0.025
       337 -11.4341    159.5496     22.4816   7.7334078163e+00   4.1640786579e+01    0.3177339    0.2366578  44.35  0.001903504    1.568    0.362
       338 -10.4321    156.4942     21.5503   7.9201159785e+00   4.2450159041e+01    0.2018199    0.1611404  55.19 0.0007489909    1.285    0.222
       339 -11.4111     39.5680    236.5504   8.3346153351e+01   1.8555114600e+01    0.4161298    0.2132381  59.24  0.002063039    1.865    0.464
       340 -11.1719     34.8066    237.8020   8.4485619179e+01   1.8841233589e+01    0.2882867    0.2230812  56.13  0.001012984    1.094    0.086
       341 -11.8144     34.0557     22.6722   4.1573385686e+01   6.7569592961e+01    0.2220839    0.1632619  11.93 0.0002118578    1.112    0.101
       342 -11.3654     30.5340    233.9064   8.5115178735e+01   2.0189796388e+01    0.5229952    0.2632811  66.22  0.002083291    2.003    0.501
       343 -10.4284    193.0603     20.9660   3.4175749547e+00   3.4222424897e+01    0.1811336    0.1446485 -85.72 0.0003085732    1.007    0.007
       344  -9.9918    121.8324     20.0846   1.3170768668e+01   5.0665902369e+01    0.2980274    0.1460716  38.66  0.001350179    2.427    0.588
       345 -10.0889     68.6806     21.1402   2.7072634577e+01   6.1978159236e+01    0.2136681    0.1905867 -22.37  0.001251155    1.327    0.247
       346 -10.6208     64.9902     17.8665   2.7013011943e+01   6.3026368814e+01    0.3975785     0.199013  38.99  0.001726577    1.684    0.406
       347  -9.7076     58.7869     21.3656   3.0639535085e+01   6.3784638509e+01    0.2345066    0.1035607  47.88  0.001119822    2.066    0.516
       348  -9.4493     25.5209    242.4716   8.6802701334e+01   1.8883008341e+01    0.1242431   0.09936947  65.90 0.0001476419    1.003    0.003
       349 -10.9943     11.3163    248.6046   9.0068393823e+01   1.9102449925e+01    0.3937543    0.1518578  51.12  0.001857394    2.077    0.519
       350  -9.7047    131.8353    241.4103   6.2804672683e+01   4.4136718447e+00    0.1965743    0.1194536  22.54 0.0005596487    1.674    0.403
       351  -9.2866    210.7740     19.3719   1.4129376009e+00   3.0609630583e+01    0.1571717   0.09184243  67.41 0.0004239267    1.612    0.380
       352  -9.2482    116.2259    240.9813   6.6322410305e+01   6.8993377496e+00    0.1678743    0.1152737 -57.57 0.0008777489    1.663    0.399
       353 -10.1492     88.8952    240.9150   7.2618978139e+01   1.1011629683e+01    0.2009302    0.1805449  -7.85  0.001216081    1.354    0.262
       354  -9.6461     44.9518     19.7393   3.5436968134e+01   6.6311070950e+01    0.1793042    0.1347619  58.92  0.001061667    2.068    0.517
       355 -10.0262     60.1283    240.7611   7.9150737700e+01   1.5049035027e+01     0.259416    0.1549159  31.46  0.001346107    1.626    0.385
       356  -9.5930    149.7139    240.3123   5.8605517932e+01   1.8750375174e+00    0.1280387    0.1028292  59.45 0.0002410617    1.578    0.366
       357  -9.6173    109.4048     16.7382   1.4614487631e+01   5.3825864473e+01    0.2492518    0.1267522  56.46 0.0007657621    1.577    0.366
       358  -9.5438    193.0359     16.4641   2.4581238804e+00   3.4726665900e+01    0.1780394   0.09956793  74.82 0.0003478948    1.522    0.343
       359 -10.2668    196.1059    238.3878   4.8360338080e+01  -4.5904911678e+00    0.2290087    0.1825053 -38.21 0.0008443662    1.382    0.277
       360 -10.6545      3.7338    238.2483   9.1009712417e+01   2.2042153732e+01    0.2133964    0.1560764  89.45 0.0006044906    1.203    0.169
       361  -9.6721     67.0819    236.7671   7.7177549379e+01   1.4986431688e+01    0.3070092    0.1351575  37.20  0.001371641    1.956    0.489
       362  -9.8829     18.8316    237.3030   8.7856639555e+01   2.0723832200e+01    0.2754231    0.1185555  17.84  0.001101117    3.949    0.747
       363 -11.4497    183.1185    234.4298   5.0392329421e+01  -2.0689005445e+00    0.2971882    0.2314095  36.92 0.0009327831    1.365    0.267
       364  -9.7210     92.0104    235.5212   7.1250700365e+01   1.1702935688e+01    0.2091906    0.1247124  31.76 0.0005213809    1.563    0.360
       365  -9.9640     54.8424    232.3157   7.9538286009e+01   1.7597451174e+01    0.2768619     0.166657  58.56  0.001423707    1.584    0.369
       366 -10.4454    237.0076    230.1956   3.9157772783e+01  -8.5608854924e+00     0.163805    0.1330803 -45.58  0.001072623    1.630    0.387
       367 -11.0524    161.0979    234.8225   5.5216839751e+01   1.1596097448e+00    0.3529683    0.1977639  16.24  0.001447885    2.124    0.529
       368 -10.5018    248.4899    229.0271   3.6954467062e+01  -9.7192206354e+00     0.178114   0.09726769 -36.30  0.001030065    1.587    0.370
       369  -9.4842     59.4404    229.5159   7.8198752256e+01   1.7625614920e+01     0.135092    0.1153549  62.50 0.0001555047    1.025    0.024
       370  -9.6294     39.4759    229.4557   8.2772588962e+01   2.0148649920e+01    0.2363568   0.08818665  42.55   0.00102309    2.240    0.554
       371 -10.2760    192.9407    227.0907   4.7104490041e+01  -2.2075914899e+00    0.2199317    0.1442767  -8.43  0.001127286    1.708    0.414
       372  -9.5180    203.4674    250.5093   4.8855052285e+01  -7.5197776144e+00    0.1257876    0.1001918   1.49 -1.263257e-05    1.007    0.007
       373  -9.9269      3.5802    226.1728   9.0364447062e+01   2.4692737057e+01    0.1863821    0.1572317 -62.02 0.0008246568    1.417    0.294
       374  -9.9036      6.3570    225.6941   8.9751188407e+01   2.4538502725e+01    0.1877104    0.1070738 -88.13 0.0006913127    1.557    0.358
       375 -10.1211     78.9845    223.5945   7.2893484200e+01   1.6261339238e+01    0.2531529    0.1897477 -43.26   0.00134353    1.589    0.371
       376 -10.1269     16.1096    222.1283   8.7413247036e+01   2.4388387069e+01    0.1742743    0.1600986 -83.40 0.0005054307    1.226    0.184
       377  -9.6083    126.3310    220.6445   6.0995007274e+01   9.5477361573e+00    0.2233573    0.1610543  62.76  0.001081566    1.724    0.420
       378  -9.9486     41.9722    220.7029   8.1418243549e+01   2.1857504779e+01    0.2184396    0.1551251  62.13 0.0006949173    1.282    0.220
       379 -11.2562     48.7308    218.7413   7.9633048838e+01   2.1487024587e+01    0.5689583    0.2468253  27.85   0.00240469    2.454    0.592
       380  -9.5662    250.2215    219.0020   3.4950093928e+01  -8.4056109176e+00    0.1606804      0.08109 -37.20 0.0008749097    1.676    0.403
       381  -8.8966    233.3269    219.2891   3.7937127197e+01  -6.3995752372e+00    0.1276504   0.08162072  -8.41 0.0003131649    1.614    0.381
       382  -8.7160    198.3180    219.2773   4.4642221661e+01  -1.6089143121e+00    0.1355263   0.09287213  -4.39 0.0002728563    1.573    0.364
       383  -9.4796     55.9221    216.9251   7.7716431708e+01   2.0995423335e+01    0.1777651    0.1729108 -82.27  0.001112157    1.169    0.144
       384  -9.7711     38.6734    217.2022   8.1868696926e+01   2.3068091597e+01    0.2263754    0.1519281  47.90 0.0005822863    1.349    0.259
       385 -10.7715      8.3470    216.5676   8.8743523882e+01   2.6419320959e+01    0.2977419    0.1830249  30.82  0.001708002    1.727    0.421
       386  -9.1535    204.6695    216.6684   4.2901069530e+01  -2.0714035286e+00    0.1408116   0.09195664  -8.21 0.0007051963    1.720    0.419
       387 -10.2062     23.9279    216.0111   8.5197309687e+01   2.4992839036e+01    0.1917228    0.1571971  72.56 0.0003087265    1.030    0.029
       388 -10.2805     63.7166    212.8251   7.5344732558e+01   2.0928477229e+01    0.4284448    0.1827083  54.56  0.001620146    2.711    0.631
       389  -9.4708    169.7750    213.2111   4.9645239005e+01   3.9497901057e+00    0.2270231    0.1006803 -37.06  0.000882338    2.492    0.599
