#   1 NUMBER                 Running object number                                     
#   2 MAG_AUTO               Kron-like elliptical aperture magnitude                    [mag]
#   3 X_IMAGE                Object position along x                                    [pixel]
#   4 Y_IMAGE                Object position along y                                    [pixel]
#   5 X_WORLD                Barycenter position along world x axis                     [deg]
#   6 Y_WORLD                Barycenter position along world y axis                     [deg]
#   7 A_WORLD                Profile RMS along major axis (world units)                 [deg]
#   8 B_WORLD                Profile RMS along minor axis (world units)                 [deg]
#   9 THETA_WORLD            Position angle (CCW/world-x)                               [deg]
#  10 FWHM_WORLD             FWHM assuming a gaussian core                              [deg]
#  11 ELONGATION             A_IMAGE/B_IMAGE                                           
#  12 ELLIPTICITY            1 - B_IMAGE/A_IMAGE                                       
         1 -12.9575     10.3647    131.9564   1.4056543282e+02   4.7017018809e+01     3.078253     1.239271 -71.68   0.01517121    1.963    0.491
         2 -12.9769     40.5505     59.7898   1.1658849139e+02   5.9967219705e+01     2.423266     1.838009  51.88   0.01488749    1.926    0.481
         3 -13.5404     70.8159     32.4955   9.6233134099e+01   6.0374715028e+01     2.937443      2.08623   1.18   0.01484963    1.419    0.295
         4  -9.3159    231.4564     16.2515   6.0568839308e+01   2.6179764653e+01    0.3198202    0.2200157 -39.05  0.001146963    1.546    0.353
         5  -7.3284    203.9940     10.6968   6.2079100709e+01   3.3247016570e+01    0.1761735    0.1370298  83.41 0.0003354315    1.081    0.075
         6 -11.2496      8.2002      5.6242   1.1059228426e+02   7.1480718716e+01    0.7926148    0.5204409  15.03  0.006040577    1.481    0.325
         7 -10.5290     62.3731      3.2518   8.7176377071e+01   6.5071746002e+01     0.821138    0.3901407  47.20  0.004532988    1.991    0.498
         8  -7.4649    175.4828      3.0890   6.3489873259e+01   4.0876753109e+01    0.1580523    0.1295756 -29.13 0.0004610253    1.456    0.313
         9  -7.4107    213.8304    196.1412   1.0387979363e+02  -6.9727082085e-01    0.1888795    0.1511122   2.44 0.0003986887    1.342    0.255
        10 -13.1906     13.9322    234.0921   1.4867432124e+02   2.4499343426e+01     2.551157      1.15973  69.45   0.01492476    1.849    0.459
        11 -11.6210      7.1125    174.6856   1.4568659234e+02   3.7633895071e+01     1.536402    0.6969935  85.68  0.007842467    2.143    0.533
        12  -7.7718    169.3857    193.9334   1.1253923320e+02   8.3282899072e+00    0.2509716    0.1841313  56.44 0.0007055934    1.405    0.288
        13  -8.0446    101.0219    175.9880   1.2475769022e+02   2.5317263325e+01    0.1971384    0.1807186  87.65            0    1.047    0.044
        14  -6.9864    112.4659    245.4951   1.3201700449e+02   8.7183403080e+00    0.1279617    0.1030593  60.90 8.960623e-05    1.003    0.003
        15  -8.9928    115.4136    152.6659   1.1693090637e+02   2.8222479579e+01    0.2651202    0.2444445 -87.84 0.0002522068    1.028    0.027
        16  -8.7752    180.9194    145.7710   9.9949594803e+01   1.5920048808e+01    0.2609524    0.2407659 -27.53 0.0002684043    1.139    0.122
        17 -10.3718    227.1277    139.3822   8.9345614521e+01   7.1130170146e+00    0.2808379    0.2661814 -45.82 0.0003355251    1.032    0.031
        18  -8.6641    113.4585    137.6192   1.1422735753e+02   3.2155807469e+01    0.2644112    0.2514927 -72.09 0.0003413177    1.022    0.022
        19  -8.7398    190.3991    130.2302   9.4281269700e+01   1.7017190764e+01    0.2279839    0.1427997 -51.65 0.0009546889    1.646    0.392
        20  -8.0110    156.3242    128.9513   1.0149785293e+02   2.5111663348e+01    0.2156457    0.2038958 -53.63 0.0004080871    1.054    0.051
        21 -12.0508     39.0772    115.0103   1.3018541605e+02   4.8441331411e+01      1.99985     1.164688  66.62  0.009462139    2.579    0.612
        22  -9.6497    173.9986    123.0571   9.6019794650e+01   2.2312754927e+01    0.2843386    0.2753689  35.47 0.0003374594    1.093    0.085
        23 -11.5612    179.3098    119.0399   9.3867936845e+01   2.1906555794e+01    0.7692955    0.5522504  26.18  0.002406161    1.832    0.454
        24  -9.0055    245.4234    120.8045   8.2109356036e+01   6.7427899973e+00    0.2337131    0.2240493 -62.75 0.0001746099    1.079    0.073
        25  -9.7463    191.0571    116.6330   9.0828078549e+01   1.9630972090e+01    0.3221768    0.2336048 -34.71  0.001474135    1.439    0.305
        26 -11.0275     38.9528    101.8040   1.2765227541e+02   5.1447455577e+01     0.918633    0.6907822  74.47  0.005373381    1.717    0.418
        27  -8.0633    231.3062    120.9376   8.4430160930e+01   9.6754908419e+00    0.3618794    0.1562839 -44.71  0.001061702    2.155    0.536
        28  -7.6172    131.2621    112.6728   1.0355851088e+02   3.4254456848e+01    0.1546682     0.121292 -80.60 0.0002732126    1.564    0.361
        29 -10.4340    176.9672    105.9705   9.1039132684e+01   2.5127969791e+01     0.357036    0.2971498 -80.90  0.001729046    1.333    0.250
        30 -10.8951    181.2986    103.2479   8.9429775853e+01   2.4627433858e+01    0.5514385     0.389181 -79.36  0.002342436    1.894    0.472
        31  -7.8893    160.3151    103.2926   9.3995610113e+01   2.9647334655e+01    0.1552168     0.126261  12.09 0.0003685252    1.597    0.374
        32  -9.6806    170.6200    100.4000   9.0937690288e+01   2.7766188562e+01    0.3978565    0.1533639 -35.69  0.001260837    2.969    0.663
        33  -7.4912    175.6179     95.3185   8.8529549242e+01   2.7551288852e+01    0.1675607    0.1202472 -81.87 0.0001014428    1.827    0.453
        34  -8.5650    199.6951     98.1365   8.4530979310e+01   2.1180172903e+01    0.2471683    0.2050426  77.52 0.0002876069    1.258    0.205
        35  -7.0943    118.0000    240.8856   1.3041098267e+02   8.6488158572e+00    0.1878755   0.07244537 -58.32  0.000803165    2.947    0.661
        36  -9.2626    139.2369    226.4545   1.2427266377e+02   7.6704655009e+00    0.3728409    0.1571148  56.28  0.001403602    2.908    0.656
        37  -8.2764    146.9185     78.0384   9.0063625091e+01   3.7719626120e+01    0.2254124    0.2168443  43.30  0.000330532    1.044    0.042
        38  -6.9049    234.2561     54.6708   6.8738207440e+01   2.0346346525e+01    0.1421029    0.0901055 -64.43 0.0001327071    1.558    0.358
        39  -7.7658    181.9915     49.5077   7.4944217238e+01   3.3771699624e+01    0.2015367    0.1872668 -66.65 -4.393392e-06    1.090    0.082
        40  -8.0393    154.4866     40.8086   7.7411950857e+01   4.1787125333e+01    0.3152271    0.2110497  23.73 0.0009258422    2.035    0.509
        41 -10.3038    136.6323     38.9548   8.0496564636e+01   4.6294220906e+01     0.248571     0.220266  50.99 0.0002539426    1.035    0.033
        42  -7.3647    147.5644     34.7733   7.6939861955e+01   4.4241537941e+01    0.1694621    0.1285108 -48.20 0.0002812616    1.459    0.315
        43  -8.9163    184.0495     76.1309   8.1742011059e+01   2.9001910924e+01     0.231136    0.2106531 -50.37            0    1.109    0.098
        44  -9.8000    239.7117     64.8695   7.0355670249e+01   1.7535971305e+01    0.2552571    0.2282189  73.17 0.0009674912    1.205    0.170
        45  -9.0728    243.8896     60.8177   6.8941768480e+01   1.7232902499e+01     0.312301    0.2468983  30.61 0.0009113079    1.902    0.474
        46 -10.0508    168.3363    208.4622   1.1538655836e+02   5.6958723490e+00    0.2579198    0.2456931 -77.11 0.0002675277    1.149    0.130
        47  -8.4652    125.6542     61.9528   9.0386603986e+01   4.5391749282e+01     0.241569    0.1982852  53.80 0.0003360772    1.215    0.177
        48 -12.4922     31.7376    191.3364   1.4215338759e+02   3.1518175584e+01     2.652792     1.111327  78.77   0.01080586    3.267    0.694
        49  -7.4251    199.6378    206.7052   1.0868495655e+02   9.3269434887e-02    0.1431257    0.1025905  10.34 0.0004011515    1.708    0.414
        50 -10.0981    158.8458    199.1735   1.1575327028e+02   9.3495622062e+00    0.2890923    0.2594129   1.07  0.001613186    1.317    0.241
