#   1 NUMBER                 Running object number                                     
#   2 MAG_AUTO               Kron-like elliptical aperture magnitude                    [mag]
#   3 X_IMAGE                Object position along x                                    [pixel]
#   4 Y_IMAGE                Object position along y                                    [pixel]
#   5 X_WORLD                Barycenter position along world x axis                     [deg]
#   6 Y_WORLD                Barycenter position along world y axis                     [deg]
#   7 A_WORLD                Profile RMS along major axis (world units)                 [deg]
#   8 B_WORLD                Profile RMS along minor axis (world units)                 [deg]
#   9 THETA_WORLD            Position angle (CCW/world-x)                               [deg]
#  10 FWHM_WORLD             FWHM assuming a gaussian core                              [deg]
#  11 ELONGATION             A_IMAGE/B_IMAGE                                           
#  12 ELLIPTICITY            1 - B_IMAGE/A_IMAGE                                       
         1 -11.2183    192.4633     56.2362   5.8961335293e+01   2.9611102309e+01     0.710392    0.3452582 -34.58  0.002803179    1.906    0.475
         2 -13.0344    243.5536     22.5198   4.3407268822e+01   2.1457094045e+01     1.420771    0.8349165  -9.22  0.006631302    2.227    0.551
         3 -12.2347    246.0708     46.0010   4.9148533875e+01   1.8032105144e+01     1.248338    0.6047202 -12.02  0.004685694    3.118    0.679
         4 -10.4545    249.9659     26.9005   4.3969159964e+01   1.9502185163e+01     0.659859    0.2574587 -20.29  0.002513634    2.994    0.666
         5 -12.7421    233.5320     35.9589   4.7827019058e+01   2.2187682949e+01    0.9909272    0.4650885 -29.05  0.004297108    1.928    0.481
         6 -11.9779    232.0584     19.3454   4.3570826245e+01   2.4501007742e+01    0.6661332    0.3314365 -22.69  0.002978835    2.047    0.511
         7  -9.3559    155.5792     15.3119   5.1282127972e+01   4.4676789111e+01    0.3478762     0.148572 -18.05  0.001286098    2.619    0.618
         8  -9.8578    237.6041      9.1829   4.0491977218e+01   2.4290721369e+01    0.2508413    0.1083958 -30.68  0.001118426    2.016    0.504
         9  -8.7236    155.4617      8.9379   4.8990109789e+01   4.5349840593e+01    0.2183479     0.142046 -20.13 0.0007349032    1.610    0.379
        10  -8.9026     18.8237      9.1875   9.3477274926e+01   7.3112738721e+01    0.1632119    0.1089728 -22.98 0.0002483258    1.301    0.231
        11  -9.9937    243.3686      3.7674   3.8731832979e+01   2.3514227544e+01     0.361769    0.2121412   1.44  0.001664945    2.680    0.627
        12  -8.4995    160.5392      8.5259   4.8122047536e+01   4.4039649026e+01    0.1424102    0.1347634  57.82 0.0003404753    1.036    0.035
        13  -8.9284    132.7432      7.6360   5.2164915081e+01   5.1427980790e+01    0.2483606    0.1536144 -42.68 0.0006168658    1.761    0.432
        14  -9.9612    116.5751      5.3114   5.4299759887e+01   5.5725950999e+01    0.2412907    0.2344526  36.63 0.0004166999    1.076    0.071
        15 -10.3162    110.7920      4.6375   5.5230692054e+01   5.7202783383e+01    0.3318726    0.2342951 -42.13  0.001713415    1.597    0.374
        16  -9.7492     75.4921      5.0145   6.4970078479e+01   6.5060515694e+01    0.2039886    0.1206904 -20.65  0.001037037    1.603    0.376
        17  -9.5662    239.6952      2.4600   3.8651831716e+01   2.4489241910e+01    0.3416118   0.06992923 -31.36  0.001203651    3.346    0.701
        18  -8.2200     64.6884      4.7361   6.8623568776e+01   6.7189387214e+01     0.131456   0.08666817  17.24 0.0002395672    1.537    0.350
        19  -8.7162     55.5229      4.4219   7.2069845614e+01   6.8867149182e+01    0.1291771    0.1049093   1.87 4.978632e-05    1.040    0.038
        20  -9.8337     50.9665      3.4328   7.3431449741e+01   6.9756422013e+01    0.2244107    0.1587233 -17.87 0.0003310685    1.228    0.185
        21  -8.6765     18.9922      4.5129   9.0776564884e+01   7.3879938278e+01    0.1492876     0.108205  16.79 0.0003720313    1.486    0.327
        22  -8.5853    153.4268      3.2355   4.7206312378e+01   4.6411339151e+01    0.1884839    0.1279115 -35.15 0.0003483501    1.511    0.338
        23  -8.6003    158.8493      1.8367   4.5979204286e+01   4.5094831318e+01    0.1965692    0.1593902 -61.02 0.0007111932    1.291    0.225
        24  -8.6572    121.5503      2.0096   5.1876909343e+01   5.4779381080e+01     0.195083    0.1358184 -12.61 0.0003119233    1.494    0.330
        25  -9.2044     14.8415      1.8818   9.1795194012e+01   7.4713648745e+01     0.174802    0.1198877 -22.88  0.000260017    1.181    0.153
        26  -9.7668    248.3325    218.2637   8.6842985078e+01  -5.2966581933e+00    0.2747252    0.2541205  68.59  0.001997814    2.081    0.519
        27  -9.3869    210.9182    249.2418   9.7552111498e+01  -3.2006035860e+00    0.2331831    0.1525011   3.55  0.001590686    1.678    0.404
        28  -9.8578    194.1636    250.0186   1.0040600127e+02  -8.9306071198e-01    0.2761756    0.1220499  45.56  0.001530236    2.032    0.508
        29  -8.8025    168.0718    249.6610   1.0473767288e+02   2.9535323626e+00    0.1573666    0.1078562  38.30 0.0004167857    1.096    0.088
        30  -9.0693    220.1062    217.7611   9.1387318688e+01  -1.0857193887e+00     0.222184    0.1673677  68.33  0.001267848    2.694    0.629
        31  -8.3010    239.9678    215.4809   8.7723701390e+01  -3.7994495964e+00     0.143829    0.0964852  55.41 0.0008099839    2.538    0.606
        32  -9.1380    233.3396    213.9159   8.8548383274e+01  -2.6459766099e+00    0.1955172    0.1428004  37.38  0.001306809    1.375    0.273
        33  -8.1512    201.6454    216.3296   9.4343303376e+01   1.9675760838e+00    0.1120274   0.09125348  62.85 0.0007045724    1.779    0.438
        34  -9.0394    231.9247    199.9506   8.6393841415e+01  -7.9651114688e-01    0.2344317    0.1886411 -68.79  0.001286236    2.627    0.619
        35  -9.7255    240.9557    209.0946   8.6488331509e+01  -3.2409326139e+00    0.3561461    0.2573379 -56.75  0.001982874    3.081    0.675
        36  -9.3949    235.9215    203.9456   8.6427403046e+01  -1.8922941810e+00    0.2432044    0.1821445  50.46 0.0009138489    1.812    0.448
        37  -9.2733    247.2500    207.4836   8.5195290151e+01  -3.9914307178e+00    0.2195815    0.1916023 -44.34  0.001214031    1.869    0.465
        38  -8.8883    229.4324    207.7579   8.8164066635e+01  -1.3421341545e+00    0.2006066    0.1082752 -35.28  0.001123105    2.080    0.519
        39  -8.6421    206.7950    208.5941   9.2197887306e+01   2.1343006577e+00    0.1675328    0.1016924  45.91 0.0006434207    1.647    0.393
        40  -8.7976    217.1405    204.8334   8.9761826402e+01   9.4842603659e-01    0.1732679    0.1550139  30.11  0.000838133    1.277    0.217
        41  -9.0942    187.7885    204.1876   9.4904517518e+01   5.8691264637e+00    0.1884521    0.1355492  78.25 0.0009418707    2.776    0.640
        42  -9.4176    173.1426    203.7004   9.7560886179e+01   8.4149469548e+00    0.1925702    0.1749647 -60.26 0.0007859916    1.388    0.279
        43  -8.5268    202.4715    204.9715   9.2367294149e+01   3.3160789350e+00    0.1500108    0.1096275 -64.45 0.0008096691    2.526    0.604
        44  -9.2123    250.1258    201.3576   8.3663810801e+01  -3.7371251158e+00    0.1994995    0.1532448 -21.43 0.0009841735    1.373    0.271
        45  -9.5739    244.0165    201.8877   8.4740300047e+01  -2.8850706075e+00    0.2609957    0.1780779  44.78  0.001619618    1.718    0.418
        46  -8.4219    223.8126    201.6305   8.8062788457e+01   2.8196829447e-01    0.1634677    0.1025253  45.60 0.0009296199    1.697    0.411
        47  -8.7032    176.5712    197.7938   9.5965242498e+01   8.7264042428e+00    0.1573119    0.1237871 -58.40 0.0008257047    1.672    0.402
        48  -9.7016    247.2391    194.0121   8.2806306191e+01  -2.4652552953e+00    0.2974708    0.2324798  61.44  0.001797904    2.280    0.561
        49  -8.9412    209.6915    195.3353   8.9428189454e+01   3.4139831413e+00    0.1748054    0.1527113  73.52  0.001091325    1.761    0.432
        50  -8.9199    231.2570    194.2791   8.5493357898e+01   6.1077861343e-03    0.2124381    0.1327461  32.72 0.0007321322    1.404    0.288
        51  -9.5644    224.9670    193.5058   8.6425287137e+01   1.1221421868e+00    0.1904062    0.1722875  62.27  0.001017885    1.652    0.395
        52  -8.6751    172.5092    191.0005   9.5620223287e+01   1.0500484774e+01     0.165593    0.1162141 -74.40 0.0008097503    2.479    0.597
        53  -9.4262    230.4466    187.8494   8.4452034084e+01   9.5106446695e-01    0.2558972    0.2168558 -52.77  0.001614232    1.801    0.445
        54  -8.8256    243.9775    188.4680   8.2313591273e+01  -1.3007691524e+00     0.176694    0.1076565  38.42  0.001018436    1.573    0.364
        55  -9.2974    237.2792    187.6417   8.3263740144e+01  -1.3336643908e-01    0.2212591    0.2078332 -58.62  0.001499293    1.686    0.407
        56  -9.6247    210.1643    186.5147   8.7754757775e+01   4.5525057814e+00    0.3912725   0.09148624 -32.18  0.001118423    6.193    0.839
        57  -8.2649    194.3254    188.6645   9.1050839635e+01   7.0065342234e+00    0.1215032    0.1033674  76.61  0.000705138    1.717    0.418
        58  -8.8589    215.2097    186.9858   8.6939493713e+01   3.6196083845e+00    0.1793036    0.1451215 -60.34 0.0006484293    1.953    0.488
        59  -8.9288    166.5289    187.4570   9.6196587451e+01   1.2141488558e+01    0.1317237    0.1162498  37.12 0.0008083154    1.019    0.019
        60  -9.3227    249.8994    185.2475   8.0752028436e+01  -1.8395075834e+00    0.2535175    0.1568948 -38.33  0.001447804    1.931    0.482
        61  -9.7066     77.6489    185.6631   1.1447203329e+02   2.7057499595e+01    0.2266172    0.1785197  66.27 0.0005586455    1.070    0.065
        62  -9.2933    224.1503    184.4833   8.4903938731e+01   2.4403292357e+00     0.225252    0.1623814 -47.17 0.0007530298    1.902    0.474
        63  -8.3405    173.5438    185.4829   9.4472621894e+01   1.1208250122e+01    0.1317928    0.1171996  33.25 0.0001540527    1.022    0.022
        64  -9.5073    197.7858    183.2484   8.9422493676e+01   7.2025862293e+00    0.2681721    0.2176793 -61.52  0.001551795    1.772    0.436
        65  -8.6174    218.4902    183.5225   8.5713522154e+01   3.5340136857e+00    0.1273944    0.1102178  14.63 2.372789e-05    1.064    0.060
        66  -9.4950    241.8769    181.6745   8.1375034815e+01  -1.2779331940e-01    0.2631562    0.2255463  53.23  0.001634471    1.665    0.399
        67  -9.1206    236.0258    181.5370   8.2319890569e+01   8.4534946557e-01     0.213872    0.1542733 -65.46  0.001022925    3.304    0.697
        68  -9.1191    183.3972    182.2542   9.1976457397e+01   9.9475564511e+00    0.1717363    0.1265077 -50.95 0.0006615204    1.661    0.398
        69  -9.4287    247.7040    178.2704   7.9770193479e+01  -6.4134227195e-01    0.3811411    0.2372032 -45.97  0.002018225    2.361    0.576
        70  -9.2628    191.1350    179.9485   9.0066457221e+01   8.9054896824e+00    0.2046655    0.1602111 -75.24  0.001083018    2.092    0.522
        71  -9.1166    219.2779    178.3704   8.4593724786e+01   4.1124478456e+00    0.2189004    0.1624054  45.13  0.001117648    1.447    0.309
        72  -9.2893    169.0000    177.9541   9.4041671854e+01   1.3294727879e+01    0.2074843   0.07757537 -43.89 0.0008021229    2.940    0.660
        73  -9.2054    210.7666    176.2512   8.5708674329e+01   5.9185674237e+00    0.2857975    0.1659918 -48.41  0.001370085    2.320    0.569
        74  -8.8533    198.0333    177.0524   8.8215267139e+01   8.0982065111e+00    0.1947543    0.1690089  84.43  0.001130326    1.695    0.410
        75  -8.7524    182.4868    176.5053   9.1096189597e+01   1.1042736556e+01    0.1346156    0.1209631  26.85 -6.568233e-06    1.017    0.017
        76  -9.1040    161.7487    176.0298   9.5169744088e+01   1.4969005244e+01    0.1677521    0.1175759 -45.29 0.0007988833    1.569    0.363
        77  -9.6948    223.8704    173.7868   8.2894074042e+01   3.9507842815e+00    0.2252781    0.1664388 -54.86 0.0009653593    2.078    0.519
        78  -9.9124    188.3363    172.3207   8.9161247550e+01   1.0636018791e+01    0.3139272    0.1979709 -50.71  0.001547074    1.979    0.495
        79  -8.9451    228.1317    171.8563   8.1773122695e+01   3.4748401466e+00    0.2414639    0.1967663 -79.15  0.001311825    2.335    0.572
        80  -9.3664    206.2195    170.1509   8.5346084850e+01   7.6536801333e+00    0.2782174    0.2134932 -72.48  0.001412887    2.301    0.565
        81  -9.4299    246.3425    169.3978   7.8241100762e+01   7.0492697591e-01    0.2304493    0.2060742   7.57 0.0009757475    1.197    0.165
        82  -9.6901    237.4935    169.7784   7.9770882176e+01   2.1433495800e+00     0.259899    0.2002881 -39.38  0.001315364    1.553    0.356
        83  -9.7930    218.9471    168.4161   8.2691522033e+01   5.5905222108e+00    0.3058579    0.2658476 -57.16  0.001576626    1.610    0.379
        84  -9.4881    179.8604    169.3069   9.0246581373e+01   1.2733881133e+01    0.2195312    0.1715378  56.98   0.00119478    1.439    0.305
        85  -9.1583    150.4102    169.1824   9.6305362081e+01   1.8325082916e+01    0.1865804    0.1323218 -62.53  0.000687485    1.700    0.412
        86  -9.6446    191.6455    166.1284   8.7303242120e+01   1.1020850822e+01    0.2886879    0.1658711 -48.90  0.001330869    2.125    0.529
        87  -8.2378    165.3140    167.6823   9.2892236260e+01   1.5787149035e+01    0.1357406     0.109169  79.42 0.0002392678    1.648    0.393
        88  -9.0187    234.2707    164.5285   7.9247624577e+01   3.4140024385e+00    0.2624838     0.140242 -42.45  0.001133332    2.213    0.548
        89 -10.0540    213.1822    162.9697   8.2617683320e+01   7.4549670714e+00    0.4866636    0.2220531 -38.04  0.002139083    2.242    0.554
        90  -9.1172    199.4258    164.8064   8.5545605864e+01   9.7556482687e+00    0.2460515      0.12906 -40.61 0.0009465472    2.022    0.505
        91  -9.5075    205.5995    162.3300   8.3879681076e+01   8.9771637793e+00    0.3003062    0.2333438 -50.90  0.001488022    1.615    0.381
        92  -8.7643    221.7889    161.9833   8.0874732690e+01   6.0128914283e+00      0.20682     0.153971 -57.33  0.001076538    2.036    0.509
        93  -9.1986    158.5833    160.3046   9.2883307510e+01   1.8438609667e+01     0.255946    0.1376098 -49.84 0.0008980786    2.049    0.512
        94  -8.4539    184.6701    160.3373   8.7502060028e+01   1.3336321940e+01    0.1366783    0.1131731  88.76 0.0007052003    1.734    0.423
        95  -9.2345    237.9553    159.0336   7.7494825506e+01   3.5255193717e+00    0.2341306    0.2075936 -60.89  0.001425613    1.670    0.401
        96  -8.4168    231.2853    159.6585   7.8746328956e+01   4.6254706670e+00    0.1212468    0.1047714 -56.32 0.0007017383    1.638    0.390
        97  -9.0018    176.6129    158.7987   8.8812347616e+01   1.5184636600e+01    0.1941421    0.1329035 -50.75 0.0009517093    1.676    0.403
        98  -9.4542    245.8494    157.7057   7.5927547970e+01   2.3297235343e+00    0.2524379    0.1719261 -30.65  0.001340275    1.413    0.292
        99  -9.5218    197.1617    157.0783   8.4382006544e+01   1.1442924520e+01    0.3199244    0.2003904 -34.68  0.001222275    1.626    0.385
       100  -9.2882    216.3428    156.6870   8.0734537998e+01   7.8169757099e+00    0.2673946    0.2291796 -73.49  0.001370521    1.756    0.431
       101  -9.3018    187.7415    156.3820   8.6072954238e+01   1.3410257644e+01    0.2567744    0.1697636 -47.02  0.001255124    1.696    0.410
       102  -8.2793    222.2874    156.6606   7.9672387119e+01   6.7067040241e+00    0.1247934    0.1079469 -61.85 0.0006147118    1.638    0.389
       103  -9.0140    250.5725    153.1746   7.4224042709e+01   2.1238446060e+00    0.2356595     0.110621 -32.82  0.001112822    1.961    0.490
       104  -9.0787    241.9955    153.3883   7.5641079771e+01   3.5921832254e+00    0.2216564    0.1758515 -44.04  0.001149729    1.559    0.359
       105  -9.1213    233.4753    154.0217   7.7186198830e+01   5.0327059181e+00    0.2307363    0.1960007  61.54  0.001355303    1.617    0.382
       106  -9.6215    205.8610    154.0931   8.2101586968e+01   1.0231938377e+01    0.3045362    0.2137991  63.55  0.001377447    2.005    0.501
       107  -9.8651    157.4991    152.9970   9.1652352277e+01   2.0042799224e+01    0.3178757    0.1393164 -51.31  0.001203477    2.634    0.620
       108  -9.0654    145.0022    154.4888   9.4705663223e+01   2.2199737944e+01    0.2042035    0.1183597  63.90  0.000809447    2.465    0.594
       109  -8.8070    221.7674    152.8011   7.8940231822e+01   7.3815579019e+00    0.1750697    0.1655515 -55.53 0.0008468697    1.375    0.273
       110  -8.7911    228.5919    151.8135   7.7542404275e+01   6.2502442048e+00    0.2805621    0.1250448 -34.34  0.001217221    2.147    0.534
       111  -8.4813    229.3429    148.3081   7.6654039931e+01   6.6260724841e+00    0.1408641    0.1240129  -2.38 0.0006602081    1.030    0.029
       112  -9.5242    211.9125    151.1266   8.0345176669e+01   9.5267637719e+00    0.2845126    0.1740752 -36.58  0.001383547    1.636    0.389
       113  -9.1463    176.4529    151.9506   8.7419317426e+01   1.6442856998e+01    0.1993899    0.1245076 -64.02 0.0008087765    2.597    0.615
       114  -9.5973    244.4789    149.7107   7.4453661079e+01   3.6601024004e+00    0.2799992    0.2153715 -48.11  0.001074665    1.697    0.411
       115  -8.8270    226.8034    157.3145   7.9023175399e+01   5.7761701383e+00    0.1920711    0.1706184  49.72  0.001163602    1.382    0.276
       116 -10.3587    235.3829    147.4922   7.5459292034e+01   5.6213546803e+00    0.4496282    0.3319294 -52.78  0.001871852    1.873    0.466
       117  -9.7502    230.0972    141.0837   7.4929194142e+01   7.5570747902e+00      0.63854    0.1795869 -36.64  0.002193446    3.305    0.697
       118  -9.1038    215.5858    148.8347   7.9179724121e+01   9.1728313581e+00    0.2722184    0.1620533 -45.91  0.001267395    1.968    0.492
       119  -9.6466    191.7038    148.7298   8.3653175436e+01   1.3931470384e+01    0.2911445    0.1718527 -57.53  0.001189817    2.599    0.615
       120  -9.3516    224.3002    147.1210   7.7262112526e+01   7.7577613461e+00    0.2495665    0.2032162  51.05  0.001282736    1.432    0.302
       121  -9.4368    207.6655    145.6635   7.9927346169e+01   1.1236330075e+01    0.3193901    0.2159683 -17.89  0.001570816    1.589    0.371
       122  -9.0143    200.6922    145.1983   8.1134412727e+01   1.2713232724e+01      0.21873    0.1800195 -52.10 0.0008144455    1.443    0.307
       123  -8.5339    247.4273    144.2112   7.2794253774e+01   3.8956317659e+00    0.1858862    0.1111027 -37.89 0.0009429182    1.690    0.408
       124  -9.5416    243.8620    140.5734   7.2559145026e+01   5.0509086698e+00    0.3070548    0.1993459 -36.36  0.001222095    1.517    0.341
       125  -9.8711    242.3279    134.3788   7.1417222260e+01   6.2213933014e+00    0.4378537    0.2054595 -42.15  0.001774276    2.305    0.566
       126  -8.6150    218.8949    144.5980   7.7653295727e+01   9.1884218944e+00    0.1823675    0.1329973  57.00 0.0009325778    1.689    0.408
       127  -9.4320    155.8103    143.9625   9.0123376464e+01   2.2145893181e+01     0.240465    0.1722918 -74.20  0.001085424    1.980    0.495
       128  -8.8289    214.5501    142.8093   7.8030567669e+01   1.0324790091e+01     0.196084    0.1260847 -43.77 0.0007402902    1.701    0.412
       129  -9.4272    181.9338    142.2381   8.4172642526e+01   1.7078829721e+01    0.3219458    0.2021326 -54.21  0.001152265    1.983    0.496
       130  -9.8273    198.9670    136.9738   7.9598045616e+01   1.4457681035e+01    0.3491792     0.194314 -45.54  0.001116039    1.965    0.491
       131  -8.9431    238.4423    140.2538   7.3360174840e+01   6.0999436402e+00    0.2153294    0.1931304  18.78  0.001051621    1.142    0.124
       132 -10.0694    234.9243    135.8970   7.2956047266e+01   7.4044694417e+00     0.415512    0.2618726 -45.78  0.001698936    1.849    0.459
       133  -8.7555    224.2100    140.1872   7.5733872041e+01   8.8316545788e+00    0.1824709    0.1636309 -49.01  0.001032293    1.354    0.261
       134  -9.4354    187.8598    136.1409   8.1581326858e+01   1.6933727412e+01    0.2863397    0.1999328 -35.11 0.0009097247    1.428    0.300
       135  -9.1302    218.6525    138.3214   7.6282520536e+01   1.0218732006e+01    0.2370383    0.2217378 -47.17  0.001397669    1.272    0.214
       136  -9.2227    208.9745    138.5203   7.8074094079e+01   1.2137573566e+01     0.270119    0.1968239 -48.16 0.0008280724    1.579    0.367
       137  -9.7153    172.5010    137.8750   8.5146251961e+01   1.9859647562e+01    0.4244029    0.3161429 -85.13  0.001914295    2.094    0.523
       138  -9.0971    249.1080    136.2197   7.0769965885e+01   4.7054784934e+00    0.2417469    0.1590645 -49.88 0.0009921923    2.023    0.506
       139  -8.8374    193.0240    137.2475   8.0813781597e+01   1.5651639009e+01    0.2029319    0.1940384  12.15  0.001157509    1.049    0.046
       140  -8.5331    162.7855    135.6976   8.6743374040e+01   2.2327150277e+01    0.2269464     0.114315 -51.99 0.0008650052    2.311    0.567
       141  -9.2076    225.2435    133.5635   7.4044620235e+01   9.6487963737e+00    0.2746629    0.2065171 -39.06 0.0009750038    1.366    0.268
       142  -9.8877    221.0813    129.6360   7.3846624177e+01   1.1100814172e+01    0.4385041    0.2425435 -50.71   0.00182434    2.421    0.587
       143  -9.7867    179.8842    132.5013   8.2352567658e+01   1.9293842829e+01    0.3404344     0.211466 -43.04  0.001366562    1.638    0.389
       144  -9.3293    198.2131    132.0197   7.8584933299e+01   1.5466985598e+01    0.2284894    0.1910491  -4.51  0.000697637    1.226    0.184
       145  -9.4070    142.8466    131.2625   9.0265260201e+01   2.7394688486e+01     0.296921    0.1721903 -59.23  0.001206982    2.085    0.520
       146  -9.8381    248.8087    130.1534   6.9452011356e+01   5.6150081621e+00     0.319658    0.2854723 -65.94  0.001931364    1.550    0.355
       147  -9.5903    205.8745    131.1122   7.6923898049e+01   1.4006448288e+01     0.221379    0.1991909 -59.89  0.001219713    1.336    0.252
       148  -8.9707    233.7675    129.4132   7.1658807537e+01   8.5972175142e+00    0.2603816    0.1537844 -40.10  0.001241027    1.699    0.411
       149  -9.1266    172.1669    129.5249   8.3266524080e+01   2.1516376556e+01    0.2777612    0.1732436 -60.94  0.001123284    2.256    0.557
       150 -10.4846    240.9776    125.6167   6.9622868378e+01   7.7554654682e+00     0.711466    0.2956515 -45.71  0.002654097    3.070    0.674
       151  -8.7194    212.3724    129.2290   7.5289466191e+01   1.2960284645e+01    0.2065339     0.125736 -42.06 0.0009414419    1.685    0.406
       152  -9.0082    186.1450    128.7045   8.0169225608e+01   1.8640071455e+01    0.2633837    0.2005866 -48.26  0.001168765    1.409    0.290
       153  -9.0435    165.3166    126.9537   8.4130563630e+01   2.3499051825e+01    0.4632156     0.177007 -48.95  0.001521278    3.017    0.669
       154 -10.1310    200.1064    126.1678   7.6823972673e+01   1.6072659125e+01    0.3287524    0.1994407 -40.75  0.000856877    1.642    0.391
       155  -9.2707    227.9707    125.4323   7.1684064260e+01   1.0359756017e+01    0.2761832    0.1807674 -43.41  0.000996978    1.617    0.382
       156  -9.3736    179.5630    124.6961   8.0541462436e+01   2.0814176176e+01    0.2993754    0.2497467 -58.76   0.00125278    1.368    0.269
       157  -9.0097    146.4966    124.9516   8.7926805612e+01   2.7951021023e+01    0.2360204     0.148336 -45.56  0.001033309    1.593    0.372
       158  -9.0296    249.4915    124.0686   6.7958526245e+01   6.3519827670e+00    0.2514068    0.1973836 -46.83 0.0009958348    1.478    0.323
       159  -9.7530    248.0331    118.9830   6.6997658866e+01   7.3585976676e+00    0.4087711    0.2161155 -45.77  0.001824336    2.171    0.539
       160  -8.9901    170.0120    124.2802   8.2458623080e+01   2.2993243087e+01    0.2099359    0.2028249  49.76 0.0007617854    1.068    0.064
       161  -8.9312    231.0258    116.2958   6.8996947532e+01   1.1146564833e+01    0.2515065    0.1831199 -37.41  0.000947675    1.319    0.242
       162  -9.2429    235.0884    123.0942   6.9967075930e+01   9.2879150260e+00    0.2134958     0.164319 -56.70 0.0006188989    1.691    0.409
       163  -8.5508    231.5199    120.4833   6.9923558302e+01   1.0402394437e+01    0.2070768    0.1683649 -57.45 0.0007083432    1.548    0.354
       164  -9.7562    220.6138    121.3928   7.1962744701e+01   1.2507972968e+01    0.4056306    0.2202968 -51.13  0.001640752    2.454    0.593
       165 -10.6607    216.7343    117.1490   7.1596485015e+01   1.4012032460e+01    0.4607203    0.1878464 -43.74  0.001678998    2.631    0.620
       166  -8.8256    212.6053    122.8133   7.3708598185e+01   1.3965107565e+01    0.2102736    0.1278898 -41.63  0.000804249    1.655    0.396
       167  -8.8973    188.1570    123.1537   7.8413382327e+01   1.9206527173e+01    0.2086499    0.1787825 -61.53 0.0006879634    1.365    0.268
       168  -9.0872    203.0194    121.3141   7.5090867889e+01   1.6276397197e+01    0.2040139     0.194123  18.26 0.0006022356    1.067    0.062
       169  -8.8095    194.4515    121.0325   7.6650002137e+01   1.8200048318e+01    0.2305842    0.1415139 -37.33 0.0007266368    1.582    0.368
       170  -8.2715    173.5085    119.5044   8.0522495145e+01   2.3135925700e+01    0.1502941    0.1476787 -18.84 0.0008104339    1.030    0.029
       171  -9.8007    140.4033    117.7805   8.7631816406e+01   3.0755169277e+01    0.3777919    0.1833918 -50.05  0.001432238    2.128    0.530
       172  -9.2653    212.9700    116.6973   7.2143611249e+01   1.4894912658e+01    0.3182855    0.1680925 -53.70  0.001185901    2.778    0.640
       173  -9.6725    186.1971    114.9472   7.6743024734e+01   2.1134494645e+01    0.3341286    0.1992323 -48.04  0.001407621    1.813    0.448
       174  -8.9883     70.9198    115.2097   1.0574744760e+02   4.3927458193e+01     0.203606    0.1727902  83.07 0.0003449604    1.169    0.145
       175 -10.6628    241.0553    112.7602   6.6574550575e+01   9.6409882047e+00    0.4024335    0.2502493 -44.42  0.001954787    1.691    0.409
       176  -9.0529    195.0000    114.0218   7.4779424157e+01   1.9316694461e+01     0.253226   0.08311095 -35.98 0.0008021905    2.941    0.660
       177  -8.4943    191.5008    114.5020   7.5579702222e+01   2.0018527330e+01    0.1501551    0.1442645 -23.37  0.000810318    1.043    0.041
       178  -8.6053    173.6142    114.2512   7.9160292461e+01   2.4114994300e+01    0.2129789    0.1447114 -29.15 0.0006965332    1.544    0.352
       179  -8.7865    247.6006    112.7934   6.5604981741e+01   8.3372071890e+00    0.1982371    0.1122882 -38.12 0.0005796059    1.635    0.389
       180  -9.2587    229.8528    111.1844   6.7939148058e+01   1.2179382986e+01    0.3861519   0.09851442 -30.49  0.001119901    3.968    0.748
       181  -8.9409    176.8920    110.7556   7.7559820952e+01   2.4029939375e+01    0.3038923     0.194681 -60.75  0.001226166    2.129    0.530
       182 -10.1309    242.5542    107.6606   6.5120082781e+01   1.0094260603e+01    0.4120195     0.193056 -52.76  0.001447664    3.552    0.718
       183  -8.3642    218.5364    109.5025   6.9383688556e+01   1.4862482059e+01    0.1470951    0.1340316 -16.64   0.00017558    1.003    0.003
       184  -9.0834    189.5187    108.5380   7.4423180947e+01   2.1538478577e+01    0.2731637    0.1325862 -45.74  0.001023076    2.181    0.541
       185  -9.0711    183.3940    108.7336   7.5692682180e+01   2.2911478812e+01    0.3016503    0.1389026 -41.17  0.001122662    2.117    0.528
       186  -9.2543    160.7489    108.6730   8.0508408369e+01   2.8131106492e+01    0.3244662    0.2053694 -49.62  0.001160869    1.657    0.396
       187  -8.4937    236.2817    107.6512   6.6063946847e+01   1.1380499375e+01    0.1426041     0.103331 -53.50 0.0004036262    1.647    0.393
       188  -8.9061    205.9566    105.1988   7.0470819366e+01   1.8367015819e+01    0.2819888    0.1727706 -44.90 0.0009115954    1.675    0.403
       189  -9.5412    229.8606    103.7455   6.6092012574e+01   1.3329118168e+01    0.3324048    0.2022312 -30.62  0.001561563    1.489    0.329
       190  -8.9920    222.6503    104.5343   6.7444953051e+01   1.4762227603e+01    0.2554313     0.159486 -47.39  0.001094848    1.731    0.422
       191  -8.8485    200.5608    103.0134   7.0874861310e+01   1.9970491612e+01    0.2356006    0.1420758 -33.84 0.0008674044    1.574    0.364
       192  -9.2687     18.9155    119.1634   1.2119145424e+02   4.8666625721e+01    0.1859472    0.1388312  80.36 0.0004765369    1.191    0.161
       193 -10.5010    244.4307     99.4907   6.2855845871e+01   1.0914721745e+01    0.6059406    0.3725652 -62.02  0.002623984    2.562    0.610
       194  -9.3338    130.0000    102.0214   8.6130340578e+01   3.6360371896e+01    0.2609858   0.08621711 -44.65 0.0008021691    2.941    0.660
       195  -9.2903    167.1002    100.1294   7.6778758236e+01   2.8328887823e+01    0.3619148    0.2126609 -42.65  0.001196885    1.670    0.401
       196  -9.1032    160.2897    100.1868   7.8300320670e+01   2.9914212306e+01    0.3691946      0.17834 -42.66   0.00135567    2.026    0.506
       197  -8.6467    225.2206     99.4476   6.5736902493e+01   1.5002831484e+01    0.1787933    0.1453743  75.69 0.0005771209    1.551    0.355
       198  -8.4378    215.6687     94.3042   6.5945516541e+01   1.7956269197e+01    0.2075969    0.1386081 -20.96 0.0004542283    1.533    0.348
       199 -10.5685    212.4933     95.9928   6.6920088022e+01   1.8407510698e+01    0.7607719    0.4119692 -65.06  0.002366475    4.240    0.764
       200  -9.4686    210.9968     91.9725   6.6102034050e+01   1.9407816049e+01     0.444714    0.2361085 -51.99  0.001237332    2.335    0.572
       201  -9.0531    202.9806     97.8020   6.9051673709e+01   2.0299832378e+01    0.2885056    0.1795688 -45.40  0.001261338    1.640    0.390
       202  -9.4588    194.8490     97.2477   7.0386431328e+01   2.2296224386e+01    0.3657779    0.1831689 -41.80  0.001429736    1.945    0.486
       203  -9.4946    149.6373     97.1904   7.9916298294e+01   3.2986586915e+01    0.2206976    0.1460916 -30.94 0.0005935336    1.608    0.378
       204 -10.5266    236.6735     90.1351   6.1632841141e+01   1.3933678712e+01    0.5994723    0.2687366 -46.43  0.002333717    2.437    0.590
       205 -10.0749    235.0409     95.0502   6.3115060314e+01   1.3547661696e+01    0.3600281    0.2472879 -44.25  0.001423413    1.444    0.308
       206 -10.1526    231.5068     90.7734   6.2549855996e+01   1.4962419524e+01    0.4941409    0.2920808 -27.39  0.001519848    1.568    0.362
       207  -8.8437    183.6476     95.5529   7.2071924424e+01   2.5252837295e+01    0.2871933    0.1416174 -36.01  0.001093036    1.945    0.486
       208  -8.6070    206.9681     94.4670   6.7457164367e+01   1.9932479752e+01    0.1974905    0.1354958 -87.84 0.0007192098    2.354    0.575
       209  -9.1421    164.4920     93.5931   7.5504168382e+01   3.0199960749e+01    0.3412661    0.1523293 -37.44  0.001216548    2.185    0.542
       210  -8.7879    242.0415     93.0527   6.1602981594e+01   1.2357079003e+01    0.2270424    0.1559317 -53.40  0.001121097    1.672    0.402
       211  -8.5686    176.9851     93.1608   7.2739435224e+01   2.7284103281e+01    0.2385319    0.1622204 -51.78   0.00103254    1.602    0.376
       212  -8.1786    225.2857     92.6670   6.3981478330e+01   1.6047289588e+01    0.1486271     0.106896 -56.09 0.0007013037    1.621    0.383
       213  -9.1285    157.9942     90.2670   7.5984391179e+01   3.2391400491e+01    0.3331048    0.1826882 -58.25  0.001166693    2.590    0.614
       214  -8.2835    183.3046     89.6495   7.0479867950e+01   2.6392242925e+01    0.1623797    0.1195983 -65.20 0.0004651764    1.703    0.413
       215  -9.4028    150.9465     87.9580   7.6922192920e+01   3.4518970653e+01    0.3375503    0.2163585 -39.07  0.001442499    1.516    0.340
       216 -10.3077    243.0011     82.9724   5.8941059072e+01   1.3624783983e+01    0.2685751    0.1684419 -35.33  0.001298008    1.392    0.282
       217  -8.9394    249.2976     87.6494   5.9271583243e+01   1.1625660553e+01    0.2648605    0.1433192 -39.95  0.000740602    1.663    0.399
       218  -9.4885    246.5151     85.0173   5.8986285802e+01   1.2583629150e+01    0.2290715    0.2145067  59.32 0.0006756715    1.234    0.190
       219 -10.0663    226.0358     87.4106   6.2497450699e+01   1.6692257308e+01    0.2954201    0.1943955 -38.23  0.001135519    1.393    0.282
       220  -9.9895    226.0616     82.3908   6.1174197816e+01   1.7454470252e+01    0.5174832    0.3083995 -63.91  0.002090564    2.528    0.604
       221  -9.2446    188.3280     86.8343   6.8714655331e+01   2.5667754026e+01    0.3419883     0.196273 -38.83   0.00111928    1.656    0.396
       222  -8.6750    124.4764     87.9701   8.3573015914e+01   4.0559013119e+01    0.2230407    0.1313876 -64.09 0.0008092927    2.471    0.595
       223  -8.8043    197.5039     86.9552   6.7065057649e+01   2.3427847029e+01    0.2412487    0.1448987 -33.47   0.00079496    1.574    0.365
       224  -8.6456    163.6644     86.4866   7.3613521117e+01   3.1745546907e+01    0.2768337    0.1440188 -36.64   0.00105828    1.868    0.465
       225  -8.9034     30.9829     86.5220   1.1272616884e+02   5.5469984554e+01    0.1647036   0.09877302 -26.06 0.0008014934    2.355    0.575
       226  -9.0098    206.1434     84.8696   6.4987901580e+01   2.1706114828e+01    0.2967862    0.1589948 -38.98   0.00122253    1.741    0.426
       227  -8.9553    185.4910     83.0338   6.8160419367e+01   2.7020055966e+01    0.2428125    0.1484481 -34.30 0.0008372323    1.564    0.361
       228  -8.6897    170.5185     83.0841   7.1146349675e+01   3.0697538958e+01    0.2429369    0.1516121 -35.41  0.000902245    1.551    0.355
       229  -8.5452    193.3728     82.2310   6.6472425186e+01   2.5225427888e+01    0.2320282      0.13236 -41.96 0.0009507682    1.696    0.410
       230  -9.2410    159.1065     81.4119   7.3088963844e+01   3.3806592554e+01     0.324719    0.2212802 -43.08 0.0008786941    1.440    0.305
       231 -10.1183    249.7176     81.0162   5.7573609409e+01   1.2480995762e+01    0.2962963    0.2123003  81.35  0.001527575    1.879    0.468
       232 -11.7880    244.0000     72.4989   5.6154858651e+01   1.4906682919e+01     1.163635    0.1731559 -32.93  0.003163257    4.601    0.783
       233  -9.7338    238.8409     80.7864   5.8946292685e+01   1.4842796626e+01    0.2007167    0.1473933 -46.44 0.0005630846    1.335    0.251
       234  -9.0893    209.9803     80.9705   6.3279458648e+01   2.1421299376e+01    0.4939032    0.2902187 -68.87  0.001798338    2.969    0.663
       235  -9.0329    210.9967     76.4783   6.1874832716e+01   2.1888491742e+01    0.2539025    0.1855308 -32.76 0.0009039054    1.268    0.211
       236  -8.3581    179.7545     79.9985   6.8374042944e+01   2.8963758151e+01    0.2108166    0.1293383 -33.84 0.0008781629    1.571    0.363
       237  -9.1247    201.1156     77.9210   6.3893798921e+01   2.4047598925e+01    0.3253502    0.1853985 -37.36  0.001224064    1.632    0.387
       238  -9.0225    166.5647     77.7622   7.0366622950e+01   3.2637097877e+01    0.4003081    0.1456834 -37.06  0.001300979    2.599    0.615
       239  -8.6156    150.7309     78.9770   7.4235387185e+01   3.6304079178e+01    0.2136475    0.1358382 -36.30 0.0008665483    1.534    0.348
       240  -8.6653    189.0000     77.4901   6.5895602572e+01   2.7099312539e+01    0.3345457   0.08539885 -32.92 0.0009109979    3.746    0.733
       241  -8.9335    174.4925     77.6223   6.8701693315e+01   3.0688157980e+01    0.3252224    0.1506742 -34.51  0.001185841    2.079    0.519
       242  -9.1259    130.4683     77.9410   7.8890143937e+01   4.1289335995e+01    0.2462837    0.1497587 -40.74 0.0008218205    1.584    0.369
       243  -8.8411    183.4884     77.0190   6.6777486112e+01   2.8549076522e+01    0.2429041    0.1477663 -35.26 0.0006655136    1.565    0.361
       244 -10.8904    239.1626     72.0062   5.6645420749e+01   1.6040106887e+01    0.3714392    0.1575327 -39.11   0.00117941    2.053    0.513
       245  -9.5943    157.5535     75.2243   7.1519007874e+01   3.5331889195e+01    0.3764152    0.1547671 -33.82  0.001269586    2.440    0.590
       246 -10.2301    248.1525     73.8734   5.5984637967e+01   1.3817538777e+01    0.3400134    0.1513912 -38.52  0.000860198    1.923    0.480
       247  -8.1654    206.3176     73.7033   6.1843082469e+01   2.3454154222e+01    0.1546276    0.1129161 -62.94 0.0004912797    1.610    0.379
       248  -9.4693    163.3315     71.4156   6.9076608376e+01   3.4575132218e+01    0.4474626    0.2065607 -35.70  0.001635982    2.079    0.519
       249 -11.8492    230.1497     68.2199   5.6838345376e+01   1.8623186806e+01    0.8088523    0.2710532 -29.59  0.002806103    2.728    0.633
       250  -8.3652    190.7800     72.0248   6.3971959583e+01   2.7561333997e+01    0.2078799    0.1215815 -32.75 0.0006626833    1.627    0.385
       251  -8.5902    175.7658     71.9361   6.6724031404e+01   3.1352597023e+01    0.2158893    0.1286515 -31.64 0.0008820946    1.643    0.391
       252  -8.7120    222.1927     71.1568   5.8729564957e+01   2.0043717152e+01    0.2114207    0.1575677 -50.45 0.0007035495    1.352    0.260
       253  -8.4523    210.5352     71.4769   6.0552356237e+01   2.2777208959e+01    0.1515169    0.1385436 -42.80 0.0008087124    1.048    0.046
       254  -8.6371    170.5298     70.0059   6.7159301217e+01   3.3005405329e+01    0.2513774    0.1503999 -34.47   0.00103716    1.611    0.379
       255  -9.0146    106.7930     69.9613   8.2866230289e+01   4.8078405218e+01    0.2139576    0.1161931 -41.57 0.0008693504    1.741    0.426
       256 -10.1503    193.9570     67.4553   6.2073972955e+01   2.7500377324e+01    0.3263998     0.188028 -30.95 0.0007660519    1.663    0.399
       257  -8.7595    219.0428    248.8236   9.6180308904e+01  -4.2953568991e+00    0.1631038    0.1101678  51.79  0.001071104    2.049    0.512
       258  -8.7730    203.4285     66.0059   6.0105213467e+01   2.5361444134e+01    0.2428762    0.1411018 -31.15  0.001032363    1.621    0.383
       259  -8.6013    152.7574     65.9740   6.9610623643e+01   3.8186052529e+01    0.2132684    0.1310055 -33.53 0.0008810253    1.595    0.373
       260  -8.4255    224.7782    248.6313   9.5234190059e+01  -5.0686530649e+00    0.1464872   0.08027988  41.27 0.0004897512    1.636    0.389
       261  -9.9625    176.6965    247.8563   1.0305950945e+02   1.9021102932e+00    0.3148604    0.1631542  52.34   0.00177138    2.161    0.537
       262 -11.2454    246.4326     32.2565   4.5620668220e+01   1.9661145437e+01    0.6562533    0.2297914 -28.27  0.002568015    2.516    0.603
       263  -8.9022    187.9273    248.0000   1.0118651122e+02   2.3784374441e-01    0.1904163   0.04882417  40.58 0.0008061905    2.969    0.663
       264  -8.9591    182.3149     68.0055   6.4287786633e+01   3.0352798268e+01     0.229503    0.1917539 -36.56 0.0006834835    1.149    0.129
       265  -8.3410    164.2950     64.6489   6.6722364678e+01   3.5500566794e+01    0.1650275    0.1186884 -63.00  0.000703259    1.681    0.405
       266  -9.0866    187.4990     68.4676   6.3493353973e+01   2.8965053669e+01    0.3208832    0.1472749 -32.31  0.001185743    2.079    0.519
       267  -7.9308    217.0000     62.9225   5.7205154404e+01   2.2499448729e+01    0.2486624   0.07909494 -29.89 0.0007977419    2.910    0.656
       268  -8.7322    170.5593     63.0163   6.4951970883e+01   3.4172929273e+01    0.2444241    0.1500919 -32.13  0.001024106    1.586    0.369
       269 -10.2564    248.5321     64.9911   5.3701084731e+01   1.4965674292e+01    0.4138536    0.1803139 -43.89  0.001393696    2.122    0.529
       270  -8.0383    182.6378     62.2820   6.2474884551e+01   3.1195226508e+01    0.1610104    0.1175972 -69.58 0.0007016388    1.678    0.404
       271  -9.0056    157.8515     61.5615   6.7053964394e+01   3.7662138398e+01    0.3284334    0.1835023 -46.11  0.001296577    1.865    0.464
       272  -8.3089    195.2779     72.3295   6.3279885074e+01   2.6390081138e+01    0.1542438    0.1186238  11.96 0.0003974025    1.598    0.374
       273  -9.0829    153.2845     59.4769   6.7335303416e+01   3.9173259012e+01    0.2847137    0.1366764 -33.20 0.0009430223    2.033    0.508
       274  -8.6697     25.8302     60.1464   1.0888362772e+02   6.2093115495e+01    0.1731156    0.1221649 -42.73  0.000256674    1.286    0.222
       275  -8.6289    147.0000     57.9395   6.8199219825e+01   4.1018954517e+01    0.2592523   0.08745322 -33.28 0.0007966417    2.902    0.655
       276 -12.3690    227.1576     54.8621   5.3635393942e+01   2.1214734940e+01     1.179844    0.2389802 -31.11  0.003407592    3.942    0.746
       277 -10.9496    224.2885     53.3335   5.3579521806e+01   2.2109620374e+01    0.5988924    0.2982605 -10.68  0.002098934    3.195    0.687
       278  -9.8687    197.7477     52.9823   5.7155830384e+01   2.8740732731e+01    0.5233271   0.07903695 -33.65  0.001320945    4.649    0.785
       279  -8.4542    175.5136     55.5086   6.1626138367e+01   3.4095827713e+01    0.1547662    0.1481303 -51.34 0.0008102529    1.033    0.032
       280  -8.4092    169.5805     55.2107   6.2625866998e+01   3.5681058721e+01     0.215428    0.1504403 -17.01  0.000943297    1.592    0.372
       281  -8.5884    139.5116     54.5095   6.8724040982e+01   4.3468311658e+01    0.1539825    0.1498861 -36.85 0.0008102746    1.034    0.032
       282  -8.9286    153.3774     52.6864   6.5006655701e+01   4.0265721882e+01    0.3117288    0.1359799 -36.64  0.001123301    2.180    0.541
       283  -8.4246    185.4968     52.5092   5.8951860153e+01   3.1961691256e+01    0.1517853    0.1469446 -42.61 0.0008106104    1.006    0.006
       284  -8.1611    163.3328     52.6931   6.2993690883e+01   3.7695811039e+01    0.1620953    0.1182192 -66.62 0.0007040098    1.666    0.400
       285 -10.4170    219.9286     47.7616   5.2587355919e+01   2.3925540424e+01    0.5712919    0.1976059 -44.94  0.001965744    2.844    0.648
       286  -8.6610    178.5081     49.9890   5.9332301306e+01   3.4153104859e+01    0.2413088     0.148112 -30.09  0.001032672    1.589    0.371
       287  -8.3611    172.6184     50.2242   6.0441206047e+01   3.5655916961e+01    0.2156485    0.1478717 -18.21 0.0009467673    1.594    0.373
       288  -8.6359    157.7923     48.0275   6.2503195555e+01   3.9854214452e+01    0.2123426    0.1215726 -30.71 0.0008642628    1.717    0.417
       289  -8.4391    181.4625     47.0080   5.7884285594e+01   3.3816489821e+01    0.2345445    0.1472602 -28.88 0.0007777191    1.563    0.360
       290  -9.2258     95.4156     46.7455   7.7887882655e+01   5.4904670399e+01    0.2877894    0.1314116 -41.54  0.001130644    2.094    0.522
       291  -8.1529    162.7058     45.3382   6.0634059365e+01   3.8975968525e+01    0.1616104    0.1143247 -60.65 0.0006904254    1.650    0.394
       292 -10.1214    237.6040     42.2795   4.9070099301e+01   2.0438174224e+01    0.4363611    0.1767419 -32.89  0.001784897    2.083    0.520
       293  -8.4541    250.1991    245.1862   9.0755660568e+01  -8.1451111023e+00    0.1290762     0.102665  23.68 0.0004754183    1.333    0.250
       294  -8.0270    200.3728     43.2783   5.3869648640e+01   2.9432541799e+01    0.1539467    0.1096152  32.76 0.0004431196    1.694    0.410
       295  -8.1247    183.0000     43.0264   5.6368493395e+01   3.3977403189e+01    0.2494154    0.0845015 -28.08 0.0007954758    2.894    0.655
       296  -8.5522    212.4993     65.9692   5.8708938230e+01   2.3138607731e+01    0.2331688     0.138694 -31.26 0.0006216602    1.559    0.359
       297 -11.0638    250.2316     56.3261   5.1324286068e+01   1.5764105744e+01     1.151525    0.1639995 -30.23  0.003045043    5.137    0.805
       298  -8.3958    185.4386     39.4967   5.4870744399e+01   3.3820911954e+01    0.1492603     0.142685 -52.92 0.0001125798    1.012    0.012
       299  -8.5798    173.4824     39.5306   5.6776904320e+01   3.6965596381e+01     0.150069    0.1460327  25.91  5.17464e-05    1.065    0.061
       300  -9.3333    170.4345     29.4894   5.3911566921e+01   3.9088491793e+01    0.2200034    0.1449079 -11.65 0.0001151486    1.746    0.427
       301  -9.3353    149.3574     33.7708   5.9110212074e+01   4.4102707641e+01    0.3893062    0.1337309 -29.69  0.001227032    2.780    0.640
       302  -8.9093    133.4185     34.2864   6.2631927580e+01   4.8126131255e+01    0.2968279    0.1494958 -21.60  0.001142497    2.186    0.543
       303  -8.4155    173.0000     34.0258   5.5027338230e+01   3.7829123343e+01    0.2450721   0.08468068 -26.58 0.0007946101    2.888    0.654
       304  -8.5184     22.8315     40.3865   1.0449287672e+02   6.6702807862e+01    0.1496816    0.1089921 -11.72 0.0002830942    1.553    0.356
       305  -8.2421     26.6932     33.7069   1.0028385686e+02   6.7757277390e+01    0.1282064    0.0778645 -30.59 0.0002126472    1.581    0.368
       306  -8.1745      1.4925     31.4805   1.1222195860e+02   6.9970104374e+01    0.1191906   0.08792267 -52.26 2.665232e-05    1.008    0.008
       307 -10.0999    168.5690     36.7783   5.6680657475e+01   3.8638438788e+01    0.3743899    0.1355197 -30.98  0.001284765    2.582    0.613
       308  -9.5162    173.5519     26.5276   5.2438725399e+01   3.8622333690e+01    0.5682397    0.1708448 -45.21  0.001684507    3.795    0.736
       309  -9.2020     42.1957     27.7828   9.0372378462e+01   6.7218459840e+01    0.1775893    0.1553378 -36.19 0.0004308741    1.165    0.142
       310  -8.1971      1.3114     27.2557   1.1104910366e+02   7.0865313874e+01    0.1172206   0.06458208 -39.08 0.0002559604    1.524    0.344
       311  -9.0833    136.8122     24.9411   5.8274001614e+01   4.8494844026e+01    0.2192192    0.1897338  15.40 0.0002741195    1.195    0.163
       312  -9.0896    118.4375     24.3377   6.2097608696e+01   5.3172901312e+01    0.2437278    0.1420836 -20.30 0.0006799664    1.781    0.439
       313  -8.6615    202.9992    243.5017   9.8077021874e+01  -1.4557026023e+00     0.173181   0.08583809  39.02  0.001024542    1.574    0.365
       314  -8.9605     84.9852     21.4961   7.0235101290e+01   6.1083312762e+01    0.2139346    0.1721721 -23.00 0.0005252048    1.171    0.146
       315  -8.0353    178.6746     21.6832   5.0105443720e+01   3.7827594989e+01     0.153706    0.1067657  33.80 0.0007044435    1.672    0.402
       316  -9.8293    209.7633     19.8980   4.5850957888e+01   2.9926735816e+01    0.2943849    0.1699002   8.61  0.001168121    2.831    0.647
       317  -8.3635    160.5551     20.5054   5.2360545242e+01   4.2786402481e+01     0.145818    0.1399474  43.23 0.0002327912    1.048    0.046
       318  -8.3258     74.2951     20.3293   7.3347932963e+01   6.3354032942e+01    0.1408456   0.09674173   6.05 0.0007024603    1.632    0.387
       319  -9.4889    140.4635     16.3065   5.4207231745e+01   4.8550399558e+01    0.2734332    0.1471668 -13.88    0.0011308    2.100    0.524
       320  -9.4682    177.3348    241.3474   1.0213448392e+02   2.5952579363e+00    0.2213954    0.1703861 -80.06  0.001137939    2.328    0.570
       321  -8.6626     23.2583     15.2358   9.4056230952e+01   7.1621590349e+01    0.1475736    0.1333663 -42.31  0.001045173    1.325    0.246
       322  -8.6598      8.6145     15.2066   1.0245406520e+02   7.2853178316e+01    0.1676514   0.07860225 -45.57 0.0003099674    1.569    0.363
       323  -8.3975      2.4968     15.5611   1.0624183337e+02   7.3165934347e+01    0.1174628   0.08510506 -42.05 6.944666e-05    1.030    0.029
       324  -9.3043     29.9150     12.9873   8.9267794873e+01   7.1301136541e+01    0.1835399    0.1432766 -23.36 0.0003261626    1.015    0.014
       325 -12.8737    241.1932     52.5830   5.1366369620e+01   1.8269577000e+01     1.343348    0.4233576 -41.68  0.004847213    2.731    0.634
       326  -8.4824    241.2068    241.3407   9.1583130070e+01  -6.6028472901e+00    0.1470504   0.08092749  40.18  0.000917696    1.695    0.410
       327  -8.3847     38.6128     10.5707   8.3424740278e+01   7.0607388171e+01    0.1250335   0.09809633 -17.45 8.601465e-05    1.029    0.028
       328  -9.9581    192.3317    237.3088   9.9029540083e+01   8.2862510808e-01    0.5301742     0.291461  59.10  0.002518691    3.478    0.712
       329  -9.4027    207.7735    237.8393   9.6494632077e+01  -1.5275932448e+00    0.2883322    0.1455189  50.28  0.001537001    2.442    0.590
       330  -8.7868    230.9820    237.5037   9.2638706118e+01  -4.8238746582e+00    0.1462583   0.08654337  52.70 0.0008100057    2.706    0.630
       331  -9.6075    218.0109    234.9858   9.4381641520e+01  -2.7106136733e+00    0.3238461    0.1313438  37.38  0.001730981    1.953    0.488
       332  -8.4004    225.3690    231.7164   9.2683212247e+01  -3.4257915372e+00    0.1014883    0.0818104  48.89 0.0003897583    1.698    0.411
       333  -9.1103    235.8640    230.1657   9.0740787485e+01  -4.7629743113e+00    0.1625172    0.1331435  26.22 0.0009711504    1.284    0.221
       334  -8.6091    145.6501    229.8485   1.0629685269e+02   8.9861835943e+00    0.1322454    0.1086803 -78.35 0.0002438638    1.579    0.367
       335  -8.9603    229.8433    228.7119   9.1492139245e+01  -3.7518066699e+00    0.1647154    0.1510289 -65.80   0.00111137    2.028    0.507
       336  -9.0628    199.6227    227.7214   9.6419831603e+01   8.6983607357e-01    0.1908421    0.1237776  49.81 0.0009864409    1.709    0.415
       337  -9.2828    206.3771    226.0177   9.5006498013e+01   3.9587753341e-02    0.2168868    0.1851234  64.07  0.001500132    1.778    0.438
       338  -9.1783    247.8441    226.5955   8.8271768092e+01  -6.0748279922e+00    0.2543229   0.09030678  41.67  0.001263725    2.611    0.617
       339  -8.0337    190.6686    226.6749   9.7823914296e+01   2.3839523082e+00    0.1207103   0.07853164  15.01 0.0007050749    1.706    0.414
       340  -8.7918    218.2031    224.9740   9.2842364565e+01  -1.6293813493e+00    0.1526839    0.1383965 -83.72  0.001069903    1.999    0.500
       341  -9.6743    240.9977    222.1261   8.8644577800e+01  -4.6577070928e+00     0.284853    0.1965808  53.43  0.001744404    2.329    0.571
       342  -9.5455    229.5812    222.3849   9.0543968321e+01  -3.0304600873e+00    0.3836979    0.1155705  44.43  0.001617102    3.349    0.701
       343  -9.2867    194.2579    220.1498   9.6230784450e+01   2.6511765374e+00    0.2158922    0.1429982  57.14 0.0009608908    2.041    0.510
