#   1 NUMBER                 Running object number                                     
#   2 MAG_AUTO               Kron-like elliptical aperture magnitude                    [mag]
#   3 X_IMAGE                Object position along x                                    [pixel]
#   4 Y_IMAGE                Object position along y                                    [pixel]
#   5 X_WORLD                Barycenter position along world x axis                     [deg]
#   6 Y_WORLD                Barycenter position along world y axis                     [deg]
#   7 A_WORLD                Profile RMS along major axis (world units)                 [deg]
#   8 B_WORLD                Profile RMS along minor axis (world units)                 [deg]
#   9 THETA_WORLD            Position angle (CCW/world-x)                               [deg]
#  10 FWHM_WORLD             FWHM assuming a gaussian core                              [deg]
#  11 ELONGATION             A_IMAGE/B_IMAGE                                           
#  12 ELLIPTICITY            1 - B_IMAGE/A_IMAGE                                       
         1 -13.1303     52.8813     74.4527   8.4745513553e+01   5.6406796865e+01    0.7982848    0.4234648 -60.17  0.001280499    2.409    0.585
         2 -11.4603     24.2805     56.0871   9.1289804396e+01   6.3413914980e+01     1.820028    0.5552256 -57.49  0.006570553    3.732    0.732
         3 -11.1049     19.0786     28.4997   8.3845375618e+01   6.8917338516e+01    0.3266793    0.2460348 -37.35 0.0006277911    1.345    0.256
         4 -10.8901      5.6132     36.1689   9.4004492533e+01   6.8706320116e+01    0.7445698    0.4089071 -33.15  0.004382773    1.467    0.318
         5 -10.5184     87.2741     34.5639   5.8063226083e+01   5.7312492616e+01    0.6230671    0.3642004   8.18  0.002704014    2.643    0.622
         6 -10.4938    141.5347     32.8188   4.4632021696e+01   4.5329023077e+01    0.5683721    0.4511809   8.85  0.002869202    1.609    0.379
         7 -11.0069     79.1979     30.5326   5.9035852851e+01   5.9449639081e+01    0.7785069    0.5047041  67.69  0.003721729    2.323    0.570
         8 -12.6432    105.1593     20.7639   4.8150585397e+01   5.5062839120e+01    0.3003628     0.259463  60.11 0.0004346143    1.116    0.104
         9 -12.5312    107.7534     29.0431   5.0466223183e+01   5.3582466112e+01    0.4614972    0.3649998  26.39  0.002696017    1.298    0.229
        10 -10.8656     50.4331     22.3345   6.6148830724e+01   6.5669091108e+01    0.5198458    0.2978001  12.38 0.0008228971    2.074    0.518
        11 -11.2048     28.6624     30.0475   7.9562847958e+01   6.7630015630e+01    0.8289368    0.4166458 -13.68  0.001928584    2.715    0.632
        12 -10.2880     41.1987     21.2239   6.9660594095e+01   6.7242552176e+01     0.300713    0.2663222 -62.66  0.001028104    1.966    0.491
        13 -11.2644     42.1541     15.7744   6.6695218967e+01   6.7785719996e+01    0.4049101    0.1975756  27.85  0.001376693    1.970    0.492
        14 -10.1700     28.8998     20.7886   7.5352229354e+01   6.8982881644e+01    0.9941654     0.385676  21.97  0.004163187    3.239    0.691
        15 -10.2781    131.6276     21.8330   4.3061791093e+01   4.8881708380e+01    0.4401371    0.2714922  -2.30  0.002149298    2.388    0.581
        16  -9.1027     75.5595     12.4331   5.2800283298e+01   6.2172927476e+01    0.2534017    0.1720129   9.64  6.67601e-05    1.592    0.372
        17  -9.4472     78.6645     11.2769   5.1399540122e+01   6.1654353644e+01    0.2022927    0.1666433 -19.82 0.0006411519    1.361    0.265
        18 -10.3316     69.1020     17.7039   5.7095744671e+01   6.2902594426e+01    0.4680552    0.3269702 -55.96  0.002517055    2.392    0.582
        19 -10.5660     69.7935     11.3152   5.4122642528e+01   6.3417976855e+01    0.2454624    0.1816305  36.14 0.0002449231    1.117    0.105
        20 -11.7454     62.0232     17.0732   5.9293864108e+01   6.4291977641e+01    0.4631412       0.2667  28.75 0.0003646264    1.638    0.390
        21 -10.1471    225.3422     18.1226   3.0803594947e+01   2.8159617408e+01    0.3444718    0.1822363 -31.41  0.001114519    2.117    0.528
        22  -9.6367    199.7156     18.4894   3.3123127452e+01   3.3533038398e+01    0.3038134    0.2277959 -16.15  0.001859994    1.860    0.462
        23 -10.7360    182.1891     18.4754   3.4935183308e+01   3.7445209711e+01    0.3148508    0.2079711  60.40 0.0006157394    1.468    0.319
        24 -10.0305    184.7778     13.0129   3.3342566078e+01   3.7431839818e+01    0.3543058    0.1968866 -54.74  0.001403988    1.762    0.432
        25 -11.0549    166.1379     18.0429   3.6732705255e+01   4.1181116766e+01    0.3080759     0.292123  29.29  0.001173761    1.297    0.229
        26  -9.1914     17.5621     18.4151   8.0241175014e+01   7.0633541579e+01    0.6392241    0.3150051  21.89  0.003568237    1.920    0.479
        27 -11.4154     14.6969     11.4279   7.8512131368e+01   7.1929136549e+01    0.3522764    0.2732785   7.26  0.002549192    1.171    0.146
        28 -10.2018      9.1787     14.8157   8.3346719147e+01   7.1989222748e+01    0.2507613    0.1533064   2.44  0.000383174    1.464    0.317
        29 -10.4463     14.9618      4.4746   7.4796250099e+01   7.2809201370e+01    0.2956186    0.1865271 -23.87  0.000604068    1.411    0.291
        30 -10.0392     18.2254      1.8407   7.1530068542e+01   7.2738289902e+01    0.2055157    0.1303784  16.09 0.0005562171    1.301    0.231
        31 -11.1434     24.9987      6.9461   7.0588308866e+01   7.1280510299e+01    0.2105772    0.1672599  18.79 0.0003243051    1.236    0.191
        32 -10.4352     21.1838      5.8444   7.2042904875e+01   7.1899602223e+01    0.2807291    0.1760475 -14.49  0.001471914    1.425    0.298
        33 -10.8626    230.8185     14.2001   2.9605094831e+01   2.7497047608e+01    0.3131585    0.2538235 -47.30    0.0017882    1.298    0.230
        34 -10.1911    152.9274      5.9316   3.5157858634e+01   4.5412043743e+01    0.4284394    0.2320004  31.91  0.001823679    2.786    0.641
        35 -11.6761    160.7445      2.6857   3.3355646010e+01   4.3886907009e+01    0.3870054    0.2727095  69.65 0.0007047172    1.210    0.174
        36  -9.5455    144.1362     16.6069   3.9401300141e+01   4.6474710469e+01    0.3583743    0.1865035 -17.24  0.001569892    2.582    0.613
        37 -10.0161    146.2437     12.3410   3.7855131902e+01   4.6390084818e+01    0.4835764    0.2350512  68.60  0.002370678    1.785    0.440
        38  -9.6609    148.6277     16.9059   3.8814081129e+01   4.5390718775e+01    0.2628325    0.1961977 -60.05 0.0008734723    1.431    0.301
        39  -8.1950    127.0000     17.9994   4.2693434740e+01   5.0348569314e+01    0.3606415    0.1720084  -9.75  0.001474946    3.448    0.710
        40 -11.1601    133.0460     12.4989   3.9925027748e+01   4.9461596405e+01    0.3655142    0.2883398 -52.46 0.0003212651    1.414    0.293
        41  -9.8673    127.1333      8.1423   3.9543247485e+01   5.1221604917e+01    0.2837393    0.1682399  62.69 0.0003678668    1.408    0.290
        42 -10.4899    211.3142     14.6919   3.1241856507e+01   3.1451780795e+01    0.3541287    0.1604202 -46.63  0.001875568    1.947    0.486
        43  -9.6059    117.0774     15.0891   4.3624454766e+01   5.2920336422e+01    0.2494989     0.201968  15.73 0.0007745051    1.408    0.290
        44  -9.4659     52.0414     14.0847   6.1735361265e+01   6.6379680273e+01    0.4051961    0.1574226 -39.50  0.001774218    3.332    0.700
        45 -10.8874    175.8972     13.0846   3.4308506257e+01   3.9438178838e+01     0.574297    0.2627114  72.52  0.002811212    1.940    0.484
        46  -9.4293    101.4840     11.4493   4.5632431916e+01   5.6770643420e+01    0.2707798    0.1742174  60.01 0.0009188865    1.364    0.267
        47 -10.5857     97.1073     12.4044   4.6996606922e+01   5.7648548044e+01    0.5704727    0.3353746 -17.80  0.001977189    1.981    0.495
        48  -9.7315     93.9566      8.4775   4.6267461805e+01   5.8679219412e+01    0.3887243    0.1761466  66.10  0.001382682    2.302    0.566
        49 -10.9448    208.8042      4.0305   2.9190315017e+01   3.3091889702e+01    0.4598173    0.2689034 -63.81  0.001276083    1.515    0.340
        50 -10.1505    214.8596      8.1339   2.9579870636e+01   3.1404176177e+01     0.369675    0.1856942  56.36  0.001165451    2.271    0.560
        51 -10.8873    217.6181      3.1637   2.8359965579e+01   3.1341051560e+01    0.8117366     0.187296 -37.54  0.003533812    3.375    0.704
        52  -9.8297     30.8683     12.3307   7.0328045281e+01   6.9843638043e+01     0.309891    0.1776274  33.53 0.0008673694    1.612    0.380
        53 -10.1376    191.5850      8.8334   3.1700521361e+01   3.6335903746e+01     0.430165    0.2529366 -38.78  0.002516556    1.723    0.420
        54 -10.8017    195.5454      3.6506   3.0178972063e+01   3.5974369805e+01    0.4684561    0.2020884  74.10  0.001638535    2.012    0.503
        55  -8.5891    245.0049     10.9567   2.8017501369e+01   2.5098856062e+01    0.1867647   0.09617542 -64.30  0.001016484    1.640    0.390
        56  -9.8268    166.1302      9.5575   3.4524468727e+01   4.2024621543e+01    0.2892986    0.2198624 -38.05  0.001271464    1.447    0.309
        57  -9.0346     56.1572     10.3355   5.8410439497e+01   6.6058218271e+01    0.1926506    0.1404024   2.88 0.0006924526    1.317    0.241
        58 -10.8759      6.8164      8.9311   8.1932219033e+01   7.3057536977e+01    0.2528405      0.17125 -16.36 0.0006855361    1.150    0.130
        59 -10.5551    218.6605     18.9427   3.1516630906e+01   2.9439831959e+01    0.4550783    0.2405757 -81.50  0.002446582    1.932    0.482
        60  -8.6497     86.4455      9.5881   4.8572714657e+01   6.0191664516e+01    0.2078352    0.1411237  18.70 5.975913e-05    1.578    0.366
        61  -9.3496     87.7494      6.4161   4.6986159941e+01   6.0185337399e+01    0.2491978    0.1217867  56.97  0.001141715    1.726    0.421
        62  -9.7441    128.3984     11.4911   4.0385499135e+01   5.0635056566e+01    0.2380736     0.187499  -7.32 8.243684e-05    1.552    0.356
        63  -8.8773    120.4438      8.9789   4.0966308144e+01   5.2694693900e+01    0.1747218     0.125222 -24.72 0.0001013811    1.622    0.384
        64  -8.7957      1.2986      9.0963   8.5439576257e+01   7.3508444311e+01    0.1463913   0.09039534 -46.84 0.0009311413    1.861    0.463
        65  -9.7079    202.2125      7.4539   3.0452672927e+01   3.4154676007e+01    0.3027342     0.164644 -68.45  0.001679878    1.766    0.434
        66  -9.7419    183.1913      7.1653   3.2112115936e+01   3.8369043526e+01    0.2057146    0.1902927  52.14 0.0003517078    1.333    0.250
        67  -9.3481     81.8835      2.4432   4.6889691300e+01   6.1738741608e+01    0.4432628    0.1463466  38.93  0.001794647    3.019    0.669
        68 -11.3726     74.1403      4.6024   4.9912073685e+01   6.3155234253e+01    0.5002657    0.2991423  -8.32  0.002754211    1.915    0.478
        69  -9.3746     69.7189      2.0963   5.0131683781e+01   6.4241413583e+01    0.1994969    0.1614977  35.16 0.0006437886    1.015    0.015
        70 -10.8261    236.8758      5.2807   2.7478472230e+01   2.7269618104e+01    0.3510282     0.234346 -13.32  0.002103743    2.673    0.626
        71  -9.0987     62.0880      6.0947   5.4351820086e+01   6.5375773560e+01    0.3027244    0.1973938  63.53   0.00130627    1.952    0.488
        72  -9.0520     65.6738      4.1400   5.2288958353e+01   6.4863661197e+01     0.208981     0.138238  31.56 0.0003408773    1.291    0.225
        73  -8.7492     48.5774      7.6690   6.0089582158e+01   6.7643797645e+01    0.2071349    0.0968823  45.76  0.001071019    1.936    0.484
        74 -11.6861    177.8974      2.8373   3.1594773122e+01   3.9964553598e+01    0.4031284    0.1840677  59.09 0.0008412867    2.021    0.505
        75 -10.8375    249.9701      1.4307   2.5998554502e+01   2.5190886661e+01    0.1963592    0.1484331 -81.56 0.0003083037    1.142    0.124
        76  -9.4923     38.0689      4.4024   6.2932813747e+01   6.9683476976e+01    0.1945582    0.1491481  19.13 0.0004268445    1.041    0.039
        77  -8.4069     35.2927      2.3549   6.3137697920e+01   7.0319347055e+01    0.1603192    0.1005089 -14.81 0.0002949964    1.548    0.354
        78  -8.1593    140.2589      4.3199   3.6382843801e+01   4.8494283463e+01    0.1203182   0.08400106  41.20 0.0002204061    1.545    0.353
        79 -10.8576     91.4417      2.4743   4.4562394698e+01   5.9706070802e+01    0.3018379    0.2192059  80.78 0.0008720214    1.632    0.387
        80 -10.2719     30.8790      2.9451   6.5531833420e+01   7.0916699208e+01    0.2229929    0.1742789 -34.18 0.0007868194    1.718    0.418
        81 -10.1452    127.4780      1.6858   3.7464454645e+01   5.1666379863e+01    0.3318395    0.1494606  53.78    0.0010959    1.852    0.460
        82 -10.3613    106.3323      6.2573   4.2732132218e+01   5.6129646836e+01    0.3949187    0.3044134  65.28  0.001447208    1.174    0.148
        83  -8.4688    143.5073      2.0037   3.5273296481e+01   4.7930027145e+01    0.1639932   0.09575722  23.85 0.0008104548    2.569    0.611
        84  -9.6690    135.5697      1.6867   3.6267049231e+01   4.9795445878e+01     0.229598    0.1495678  75.97   0.00133057    1.354    0.261
        85 -10.3588    115.7032      1.9217   3.9475576459e+01   5.4349156897e+01    0.2113567    0.1511455  62.37 0.0002762774    1.161    0.139
        86  -8.7220    109.5654      1.5565   4.0460625916e+01   5.5768014665e+01    0.2499873    0.1390358 -89.30 0.0008437594    2.578    0.612
        87  -9.4919     50.8986      1.6276   5.6253603038e+01   6.7811141848e+01    0.3128932    0.1153451  43.69  0.001509526    2.168    0.539
        88  -7.9524    227.6826      1.6664   2.7379848451e+01   2.9452638780e+01   0.09991851   0.08224391  51.67 0.0005262956    1.693    0.409
        89 -10.2782    248.0042      4.7712   2.6706997933e+01   2.5204250117e+01     0.213263     0.133662  86.83 0.0001991247    1.424    0.298
        90  -8.1443    120.2459      1.6849   3.8622517980e+01   5.3329285739e+01    0.1145353   0.08773562 -68.25 0.0002040916    1.516    0.340
        91  -8.4681    103.0422      1.1837   4.1588273947e+01   5.7257484238e+01    0.1542452   0.07929946  61.59 0.0007937594    1.605    0.377
        92  -9.4829      8.2976    105.8476   1.0919559239e+02   5.3283936097e+01    0.3284825     0.130661 -60.98  0.001151032    1.904    0.475
        93  -9.5792    201.4299    249.4776   8.2111933184e+01  -6.0244686071e+00    0.2229475    0.1793745  17.16 0.0007557262    1.155    0.134
        94 -10.4157      4.2124    116.3602   1.1210148198e+02   5.0924300773e+01    0.3910954    0.2812327 -40.67  0.001372973    1.362    0.266
        95 -11.1706      4.0389    109.9145   1.1127665319e+02   5.2525731856e+01    0.5189731    0.3431313  68.67  0.002828487    1.846    0.458
        96  -9.1771     80.1527    115.9736   8.6298475257e+01   4.2852709244e+01    0.2927748    0.2472473  -9.10  0.001128538    1.298    0.230
        97 -10.5350     62.5695    111.7515   9.1175144959e+01   4.6521481517e+01    0.6062478    0.2378447 -53.10 0.0005966378    2.268    0.559
        98 -10.5092     65.1454    102.8118   8.8089757788e+01   4.8321977138e+01    0.6865407    0.2908635 -35.97  0.002332076    3.032    0.670
        99  -8.9970     75.7310    112.0491   8.6789381529e+01   4.4510241417e+01    0.2075796    0.1790206 -45.17 0.0002271788    1.089    0.082
       100 -10.3172     52.8210    108.0661   9.3718568068e+01   4.8702884607e+01    0.2685748    0.2052204 -42.72 0.0002271894    1.197    0.165
       101  -8.8001     76.8226    108.5602   8.5547614925e+01   4.5178139026e+01    0.2022518    0.1397294  46.56 0.0009279163    1.626    0.385
       102  -9.9385     57.9042    108.0190   9.1916018767e+01   4.8064702351e+01    0.2149805    0.2029381  -8.61            0    1.091    0.084
       103 -11.2620     51.6355    101.2757   9.2543483865e+01   5.0497828678e+01    0.8596292    0.2952933  36.38  0.003113511    3.065    0.674
       104  -9.9554     39.6775    102.6761   9.7238341099e+01   5.1522055501e+01    0.4124531    0.2624927 -14.58  0.001958727    1.939    0.484
       105 -10.1767     40.2888     99.1535   9.6220281034e+01   5.2310263496e+01    0.4707994    0.2634469  22.06  0.002212119    1.976    0.494
       106  -9.7321     91.5742    105.6932   7.9957717423e+01   4.3349571669e+01    0.4371228    0.3236634 -86.20  0.001138379    2.042    0.510
       107  -9.6793     85.0537    102.0769   8.1096682448e+01   4.5333288212e+01    0.3220785    0.2867262  -3.49  0.001261058    1.153    0.133
       108  -9.7529    108.0078    104.2205   7.4480593283e+01   4.0570628950e+01    0.2680809    0.2111343 -45.83 0.0005037098    1.252    0.201
       109  -9.6959    132.1540    104.0233   6.7683381996e+01   3.5586478736e+01    0.2420232    0.2192054  43.03  0.000258358    1.118    0.106
       110 -11.0775    101.7588    102.3798   7.5858313872e+01   4.2204084973e+01    0.4686976    0.4217639  20.08 0.0008711569    1.132    0.117
       111 -10.1234     71.0663    103.8088   8.6283626879e+01   4.7206937173e+01    0.2184024    0.2032829  70.52 0.0006828977    1.256    0.204
       112 -10.1224    118.9651    103.0188   7.0980251172e+01   3.8604039270e+01    0.3320027    0.2551709   1.31 0.0003209278    1.676    0.403
       113  -9.9436    127.0402    102.1341   6.8518277869e+01   3.7086970441e+01    0.4885453    0.2258192  46.96   0.00164644    2.211    0.548
       114 -10.4872    111.1485     99.9269   7.2357537872e+01   4.0883284159e+01    0.6151717    0.3427726  64.68  0.002028426    3.402    0.706
       115  -9.8049     59.1674     97.0209   8.8733856875e+01   5.0527728955e+01    0.2168174    0.1716288 -29.58 0.0002571756    1.223    0.182
       116 -10.2875     33.8218    103.2102   9.9499364853e+01   5.1976781415e+01    0.4682384    0.2262913 -27.02 0.0009646643    2.810    0.644
       117  -9.8370     37.3394    106.1764   9.8842319903e+01   5.0904806887e+01    0.3444654    0.2124414 -61.17  0.001679327    1.466    0.318
       118 -10.4776     79.1602    100.3822   8.2605545328e+01   4.6720756994e+01     0.409002    0.3562304 -34.42  0.002182193    1.086    0.079
       119  -9.4990     16.4104     98.9145   1.0507922278e+02   5.4454980149e+01    0.3093693    0.2074125 -48.87   0.00172703    1.247    0.198
       120  -9.1958     20.5969     98.8458   1.0350897067e+02   5.4168387614e+01    0.2222547    0.1775546  63.70 0.0006064501    1.565    0.361
       121  -9.3170     13.2049     95.5840   1.0566183507e+02   5.5472289544e+01    0.3031411    0.2081849 -59.60  0.001728663    1.210    0.173
       122 -10.6244      7.3462     97.6114   1.0820345011e+02   5.5339304331e+01    0.4792508    0.4044563  44.10  0.002671044    1.444    0.308
       123  -8.9985      6.8429     78.1191   1.0474927371e+02   5.9938220223e+01    0.1688257    0.1573565 -59.78 0.0004706436    1.198    0.165
       124 -10.4973      2.3353     79.7355   1.0692470298e+02   5.9803236926e+01    0.4524522    0.2605264 -69.55   0.00245718    1.602    0.376
       125  -9.8048      2.0723     92.3079   1.0928079225e+02   5.6883788223e+01    0.2175661     0.175585 -79.38  0.000382451    1.261    0.207
       126 -10.3254      2.0977     86.7925   1.0832407760e+02   5.8181547152e+01    0.4646504    0.1559548 -62.79  0.002020864    2.219    0.549
       127  -8.5693    171.1748     96.8332   5.6763098443e+01   2.8356345431e+01    0.1953638     0.172894  -9.72 0.0003475637    1.304    0.233
       128  -9.3645    149.9896     97.0628   6.1396897583e+01   3.3070105944e+01      0.22232    0.2210372 -59.87 0.0003172988    1.013    0.013
       129 -11.6421    117.6498     97.9676   6.9936059258e+01   3.9960891442e+01    0.2832682    0.2684011  28.32 0.0003043628    1.056    0.053
       130  -9.1983    125.8420     97.0681   6.7426279769e+01   3.8406881046e+01    0.2384091    0.2154334 -77.04  0.001202035    1.247    0.198
       131  -8.1409    111.5917     96.5243   7.1262482335e+01   4.1523643728e+01    0.1515774    0.1463147 -22.56 0.0001512123    1.018    0.017
       132  -9.4753    154.4631     95.9830   6.0088216783e+01   3.2275127223e+01    0.2834072    0.2060059  34.83 0.0006562878    1.549    0.355
       133  -9.4217     86.9837     96.0477   7.8782530023e+01   4.6360391131e+01     0.232334    0.2158238 -10.01 0.0005834016    1.043    0.041
       134  -9.7496     23.1205     94.7209   1.0173061861e+02   5.4965564528e+01    0.3080688    0.2477732 -75.66 0.0008012471    1.324    0.245
       135 -11.0985     46.0080     90.6322   9.1987902480e+01   5.3686525724e+01    0.8531975    0.4777552  52.62  0.003440698    2.762    0.638
       136 -11.4113     48.9625     82.6282   8.8690584553e+01   5.5146174973e+01     1.162159    0.4357542  40.02  0.004346783    3.141    0.682
       137 -10.8387     32.1590     93.4000   9.7979864923e+01   5.4497277632e+01    0.6868461    0.3267462 -37.11  0.002039704    2.122    0.529
       138 -11.1022     27.6981     86.7622   9.8189802473e+01   5.6460175995e+01    0.8029372    0.4317563 -35.06  0.002992789    1.809    0.447
       139 -10.3782    115.8498    248.3747   9.9728454360e+01   6.2488938929e+00     0.258403    0.2169218  28.65 0.0008282882    1.090    0.083
       140 -11.3558     45.2292     68.7566   8.6085985578e+01   5.8582661410e+01     0.297521    0.2243215 -29.85  0.000217883    1.187    0.158
       141  -9.6819     71.3998     99.5461   8.5045772810e+01   4.8156448526e+01    0.3511685    0.2281641  56.27  0.001525803    2.123    0.529
       142  -8.9847     52.5569     90.3757   8.9430106014e+01   5.2942866212e+01    0.2527385    0.1341406 -58.22 0.0008517711    1.918    0.479
       143  -9.0556    114.7340     90.7118   6.8674095078e+01   4.2084178529e+01    0.3461705    0.1351737  46.55  0.001187747    2.601    0.616
       144 -10.4524     86.4954     88.7920   7.6838790713e+01   4.8033967678e+01    0.3936955    0.3467757  -2.82  0.001133042    1.144    0.126
       145  -9.6264     86.8957     83.6396   7.5153290120e+01   4.9047857410e+01    0.2552611    0.2293926 -51.44 0.0003894633    1.206    0.171
       146 -10.1707     71.0336     88.3284   8.2048173360e+01   5.0755717152e+01    0.5127195    0.2747291 -56.90  0.001483338    2.112    0.527
       147 -10.0176     65.8523     85.7975   8.3189036114e+01   5.2113876722e+01    0.3833729    0.2912338  -0.55  0.001125547    1.455    0.313
       148 -11.2413     80.8673     83.4477   7.7138727066e+01   5.0166936150e+01    0.3438667    0.2722864  -9.90 3.824836e-05    1.366    0.268
       149 -10.9302     73.0834     79.8899   7.8785151791e+01   5.2234439373e+01    0.5824476    0.5168194 -75.72  0.002582534    1.446    0.308
       150 -10.1007     17.1123     88.4825   1.0276297703e+02   5.6895181929e+01    0.3444999    0.2279613 -84.43  0.001425903    1.878    0.468
       151  -9.7573     13.4951     88.5189   1.0419159701e+02   5.7131891320e+01    0.2990943    0.1699078 -51.74 0.0007089483    1.407    0.289
       152 -10.2002      7.1820     89.2625   1.0679558180e+02   5.7337589797e+01    0.3086784    0.1826507  37.37  0.001221567    2.082    0.520
       153 -10.8124    123.4607     86.8441   6.5124711460e+01   4.0987978289e+01    0.4460749    0.3209448 -30.29  0.001180967    1.486    0.327
       154 -10.2783    119.5949     84.0945   6.5359303742e+01   4.2365998994e+01    0.4270777    0.2441527  40.63  0.001801541    1.776    0.437
       155 -10.0246    128.4989     85.3385   6.3356082394e+01   4.0171513755e+01    0.4457514    0.3143187  32.91  0.001302893    1.556    0.358
       156  -9.1243    132.5755     82.5185   6.1495599637e+01   3.9796382916e+01    0.2318356     0.207326 -78.72 0.0005060299    1.254    0.203
       157 -10.1295    104.5365     85.6999   7.0175573498e+01   4.5213196318e+01    0.3082739    0.2796434 -24.01 0.0009889863    1.090    0.083
       158 -10.1863    155.1947     85.1997   5.7003179973e+01   3.4144956629e+01    0.2877735    0.2455298  39.77 0.0003119214    1.236    0.191
       159  -9.7020    140.6889     82.6467   5.9560783391e+01   3.7934746093e+01    0.2261867    0.1997217 -40.66 0.0009409919    1.141    0.123
       160  -9.5601     36.7796     81.5665   9.3249054058e+01   5.6777911376e+01    0.3200817    0.2482164 -33.94 0.0008693174    1.136    0.119
       161  -8.7992     18.2093     71.9991   9.8527225559e+01   6.0571432822e+01    0.2871364    0.1762882 -43.29 0.0008780544    1.335    0.251
       162  -9.1655     12.9029     78.5591   1.0233032995e+02   5.9473785176e+01    0.2540282    0.1656013 -43.17  0.001114623    1.260    0.206
       163 -10.2112     19.0899     81.0462   1.0033860863e+02   5.8475500813e+01    0.3730274    0.3654099  37.40  0.002522463    1.261    0.207
       164  -8.8004     18.4648     76.5677   9.9544212907e+01   5.9536593812e+01     0.223257    0.1163551 -62.09 1.968768e-05    1.785    0.440
       165  -9.9509    153.3304     80.6993   5.6164042840e+01   3.5387582061e+01    0.2697402     0.220073  62.22  0.000872903    1.243    0.196
       166  -9.8742    150.1655     80.1929   5.6708981028e+01   3.6207750719e+01    0.3267663    0.2546338 -70.58 0.0008908739    1.507    0.337
       167  -9.7664    123.7208     79.5152   6.2879555697e+01   4.2334824733e+01     0.306613    0.2692749 -68.62  0.001067279    1.295    0.228
       168  -9.8867     87.0091     68.0339   7.0130204229e+01   5.2091369205e+01    0.2926551    0.2551789  48.26 0.0003088821    1.256    0.204
       169  -9.7525     83.0824     64.0719   7.0117272786e+01   5.3555338946e+01    0.5687603    0.2547315 -46.10  0.002049156    2.436    0.589
       170 -10.7316     94.2499     70.6108   6.8625831233e+01   5.0208197071e+01    0.6095792    0.4182179 -52.94  0.002362197    1.718    0.418
       171 -10.0490     89.2241     73.5317   7.1200537941e+01   5.0633326928e+01    0.4944494    0.3475276 -19.72  0.002036853    1.622    0.384
       172 -10.1046     93.8400     79.0778   7.1466253494e+01   4.8663750727e+01    0.3540508    0.2595065  13.10 0.0003574964    1.613    0.380
       173  -9.2299     89.1647     78.1178   7.2684637454e+01   4.9748098440e+01    0.2577188    0.2144375  56.78  0.000816193    1.413    0.292
       174  -9.2431     68.4203     74.7918   7.8888629915e+01   5.4043274940e+01    0.2607678    0.1876509 -39.76 0.0007572843    1.327    0.246
       175 -10.3174     64.8603     76.3859   8.0718018249e+01   5.4274371026e+01    0.5879277    0.4183066  80.25  0.002497375    2.900    0.655
       176  -9.9245    168.0514     78.4032   5.2557895233e+01   3.2395740559e+01    0.2570442    0.2214323 -47.20 0.0005595786    1.137    0.121
       177  -9.5003    137.0343     79.0562   5.9394262463e+01   3.9425721309e+01    0.2300073    0.1809542 -82.58 0.0005635284    1.622    0.383
       178  -8.5318    231.3818     77.7346   4.2667553978e+01   1.8858939678e+01    0.1632832    0.1121167 -35.37 0.0001901086    1.437    0.304
       179 -10.5133    179.6301     75.3638   4.9658510415e+01   3.0260479827e+01    0.3940636    0.3251217  -0.29   0.00147214    1.623    0.384
       180  -9.4045    111.1822     76.9183   6.5530204093e+01   4.5545556137e+01    0.3897117    0.2795019 -44.47  0.001885926    1.441    0.306
       181  -9.2802    111.8517     70.5626   6.3346721006e+01   4.6566619122e+01    0.3439635    0.2292289 -19.47  0.001084073    1.862    0.463
       182 -10.8212    135.2606     64.7419   5.5570034379e+01   4.2303928270e+01    0.7426206    0.3639296  44.42  0.003028263    2.074    0.518
       183  -9.5677    141.5740     75.2393   5.7221390148e+01   3.9066780809e+01     0.237814    0.2024061  10.27 0.0006522973    1.392    0.281
       184  -8.7913    141.6853     59.7111   5.2640476945e+01   4.1609575390e+01    0.2927673    0.2556715  16.73 0.0007896452    1.316    0.240
       185 -10.2941    145.3901     74.7624   5.6223341283e+01   3.8268916896e+01    0.3548361    0.2799182 -43.04 0.0009842848    1.282    0.220
       186  -9.1928    145.8138     70.5927   5.4931280303e+01   3.8884348821e+01    0.2625061    0.2049046 -57.57 0.0008138947    1.383    0.277
       187  -9.8289    140.9295     68.2977   5.5341127562e+01   4.0403693228e+01    0.2782138    0.2350888  58.88 0.0004127463    1.157    0.136
       188  -9.5798    143.6184     65.8260   5.4024513946e+01   4.0185454099e+01     0.355262    0.2292003 -59.22 0.0007289969    1.900    0.474
       189  -9.1377    118.6085     75.6248   6.3063816918e+01   4.4180759562e+01    0.2926877    0.2177609 -83.85  0.000869113    2.023    0.506
       190  -9.6248     15.7062     60.1204   9.6471244747e+01   6.3302656618e+01    0.2562594    0.1629521 -21.20 0.0004723417    1.492    0.330
       191  -9.1406     31.9318     47.6006   8.4843414953e+01   6.4264506302e+01      0.18372    0.1546588 -29.39 0.0005863533    1.153    0.132
       192 -10.8050     14.6571     39.5611   9.0440032431e+01   6.7408653488e+01    0.9610067    0.6103166  14.55  0.005854075    1.567    0.362
       193  -9.7428     52.5280     53.1525   7.7768487203e+01   6.0615097320e+01    0.3379501    0.2115875 -43.89  0.001286712    1.621    0.383
       194 -10.5637     44.1580     48.1538   7.9500967696e+01   6.2669674384e+01    0.8668964    0.3397456  20.56  0.003079269    3.860    0.741
       195  -9.9505     37.5688     47.3184   8.2138064721e+01   6.3659249244e+01    0.3713036    0.2309716   5.75  0.001966365    1.731    0.422
       196 -11.1194      8.1830     51.3329   9.7515960341e+01   6.5620480233e+01    0.5612657     0.314474  -7.38  0.002481686    1.870    0.465
       197  -9.2192     30.3315    247.6543   1.1749619852e+02   1.7441554813e+01    0.1308045    0.0665419  61.66 0.0007049979    1.760    0.432
       198 -10.7712     32.0279     53.5803   8.6892051846e+01   6.3132212335e+01    0.7379701    0.5162569 -51.86  0.003960143    1.525    0.344
       199 -12.3245      2.4798     66.3624   1.0406303796e+02   6.2787348405e+01    0.4176281    0.2364179 -63.08 5.806168e-05    1.569    0.363
       200 -10.7282     12.5512     66.7302   9.9672514463e+01   6.2121564013e+01    0.7558377    0.2859898 -28.19  0.002996946    3.193    0.687
       201 -11.3427      5.7728     60.2803   1.0110675801e+02   6.3918983851e+01    0.7497436    0.5887432  44.35  0.004794758    1.735    0.424
       202 -10.2391     16.3864     46.7789   9.2053771327e+01   6.5917313420e+01    0.2416852    0.1898747  12.57 0.0003216408    1.333    0.250
       203 -11.0927     54.1560     61.1880   7.9933446763e+01   5.8893197617e+01    0.2821871    0.2565064 -49.94  0.000243514    1.327    0.247
       204 -10.2456     56.3208     56.8540   7.7544852290e+01   5.9386006562e+01    0.3020995    0.2152259  12.62 0.0003046588    1.423    0.297
       205 -10.9327     32.8063     64.8481   9.0170790534e+01   6.0802411590e+01    0.8251686    0.2887649 -40.08  0.002046881    2.658    0.624
       206 -11.2148     28.0182     63.4616   9.1863052396e+01   6.1565027187e+01    0.5094352    0.2425281 -50.48 0.0001655691    1.826    0.452
       207 -10.8039     21.9257     45.9809   8.9056653881e+01   6.5584758647e+01    0.3450263    0.2332496 -30.64 0.0008353108    1.235    0.190
       208 -10.4366    169.9051     72.8293   5.0731647548e+01   3.2910031445e+01     0.360283    0.2550081 -39.39  0.001756542    1.408    0.290
       209  -8.5130     84.4098     72.6636   7.2527082181e+01   5.1703846676e+01    0.2154793    0.1791451  25.29 0.0009352305    1.174    0.148
       210 -10.5815     79.9801     70.1208   7.3215661077e+01   5.2999531524e+01    0.2524933    0.2346591  18.57 0.0003431721    1.083    0.077
       211  -9.3950     26.9804     44.5224   8.6080828290e+01   6.5357380514e+01    0.7114195    0.2451093 -43.96  0.003095902    2.489    0.598
       212  -8.1548    215.4784     70.4505   4.3078917104e+01   2.3203584706e+01    0.1323166    0.1156131 -63.07 0.0001175247    1.013    0.012
       213  -9.3153    129.4570     70.0148   5.8546325879e+01   4.2751596646e+01    0.2149767    0.1917291  49.65 2.387073e-05    1.088    0.081
       214 -10.2224    102.7920     68.4406   6.5287129600e+01   4.8867338176e+01    0.5465864    0.3915886   3.72   0.00255093    1.829    0.453
       215  -9.7277     37.2695     69.2267   8.9570822927e+01   5.9413948656e+01    0.3639449    0.2233719 -40.25  0.001901107    1.426    0.299
       216 -10.2655    173.4833     68.7740   4.9021060207e+01   3.2745971991e+01    0.2621838    0.2315635  89.98 0.0003008733    1.114    0.102
       217  -9.1117    157.1304     68.1720   5.1898375085e+01   3.6645561765e+01    0.2152985    0.1944283  21.03 0.0007538006    1.275    0.216
       218  -9.3742    119.0923     67.3921   6.0374942347e+01   4.5534633920e+01    0.3359801    0.2123971 -19.00  0.001450927    2.078    0.519
       219  -9.0854     75.0312     66.1187   7.3628691926e+01   5.4634080194e+01    0.2430206    0.1935986 -36.24 0.0004585167    1.244    0.196
       220  -9.5399     96.9726     63.6898   6.5483845822e+01   5.0904490677e+01    0.2015613    0.1732204  37.97 0.0002265213    1.124    0.110
       221  -9.2203    110.3367     62.8901   6.1304102954e+01   4.8222704257e+01    0.2504381    0.1887324  46.74 0.0005559214    1.274    0.215
       222  -8.9843    114.3801     60.8043   5.9523575707e+01   4.7681627164e+01    0.2472756    0.1904207  36.54 0.0007009638    1.278    0.217
       223  -9.6515    193.6548     60.9123   4.3831920167e+01   2.9377506909e+01    0.4136747    0.1726322 -41.03  0.001748023    2.216    0.549
       224  -9.5118    197.7385     59.9045   4.3013920621e+01   2.8620179028e+01    0.2451285    0.2123131  22.07   0.00102617    1.560    0.359
       225  -8.7490     64.3093     69.0125   7.8564601811e+01   5.5852374568e+01    0.1951333     0.174776  -6.33 0.0006920279    1.017    0.017
       226  -9.6480     77.3296     62.0855   7.1430981126e+01   5.4968269027e+01    0.2451658    0.1944002  38.78 0.0002673845    1.276    0.216
       227  -9.3699     65.3869     61.8123   7.5724465214e+01   5.7060219662e+01    0.2704744    0.1986922  20.93  0.001154426    1.344    0.256
       228  -8.5746     62.3197     62.3118   7.7076625604e+01   5.7455150380e+01    0.2008165     0.129648 -26.54 0.0009888697    1.586    0.369
       229  -9.5028    161.5272     60.1184   4.8833762081e+01   3.6887219577e+01     0.344148    0.2484499  29.66 0.0009839358    1.805    0.446
       230  -9.6237    162.8031     55.2210   4.7260468713e+01   3.7320984349e+01    0.2838057    0.1430158 -49.34  0.001212568    2.128    0.530
       231  -9.6121    152.7699     60.4048   5.0572110835e+01   3.8900529393e+01    0.4157677    0.2509971  35.88  0.001827595    2.098    0.523
       232  -9.9282    131.4900     59.6295   5.4885978293e+01   4.3994335835e+01    0.4388569    0.3433236  52.46  0.002320744    1.216    0.177
       233  -9.2256    124.8120     57.0194   5.5654719952e+01   4.5935890932e+01    0.3326223    0.2008046  62.03  0.001309896    1.772    0.436
       234 -10.1363     72.0463     60.3598   7.2730674592e+01   5.6210875709e+01     0.377747    0.2496764  36.29   0.00192115    1.483    0.326
       235 -10.0772    167.3529     58.0645   4.7240888246e+01   3.5833247424e+01    0.4815426    0.2392402 -31.03  0.001245003    2.251    0.556
       236  -8.6601    170.5191     58.4709   4.6809844682e+01   3.5033476008e+01    0.1368685    0.1299107  82.67 0.0001509643    1.054    0.051
       237  -9.2602     39.7557     59.3677   8.5386211718e+01   6.1134956353e+01    0.2908626    0.1884347 -15.28  0.001048849    1.629    0.386
       238  -9.1954     99.1688     58.5352   6.3077151538e+01   5.1324207908e+01    0.2766289    0.1017447 -40.04  0.001004432    2.818    0.645
       239  -9.3389    136.7077     55.6657   5.2501654167e+01   4.3391534176e+01    0.3410442    0.1893891 -28.01  0.001492347    2.079    0.519
       240  -9.9927     66.1432     55.8026   7.3315372586e+01   5.8022486868e+01     1.016636    0.4313593  24.15  0.003420689    3.820    0.738
       241  -9.4948     79.5991     54.0625   6.7807077094e+01   5.5940143942e+01    0.2293527     0.194512  41.99 0.0004801857    1.231    0.187
       242  -8.6843     75.5216     52.5299   6.8679160255e+01   5.6946116962e+01    0.2607211    0.1638228  14.57 0.0001944639    1.996    0.499
       243 -10.4878     68.3212     48.4272   6.9781373825e+01   5.8898630646e+01    0.4602925    0.3074796  56.89  0.001235611    2.121    0.529
       244 -12.2598     62.2861     44.2971   7.0506339637e+01   6.0588018841e+01    0.4648105    0.2595557  35.82  0.000532172    1.701    0.412
       245  -9.5108    127.5078     39.7948   4.9559025624e+01   4.7756915897e+01    0.2832824    0.2529061 -85.99  0.001079557    1.217    0.179
       246 -11.3001    126.8325     46.8176   5.1945235272e+01   4.6971148862e+01    0.5989233    0.4366685 -77.21  0.001941158    1.850    0.460
       247 -10.6447    122.4235     50.7812   5.4240409312e+01   4.7419986862e+01    0.6120086    0.4128999  10.76  0.002400871    2.161    0.537
       248  -9.5489    117.8031     52.1978   5.5833616345e+01   4.8260596247e+01    0.3658062    0.2508072 -24.50 0.0003764805    1.635    0.388
       249  -8.6538     96.4293     48.7915   6.0517660193e+01   5.3429902956e+01    0.1922291     0.168456   5.36 0.0003467487    1.138    0.122
       250  -9.7623     93.1696     55.1623   6.3747239771e+01   5.3109471776e+01    0.4055637    0.2604136  40.05  0.001586767    1.474    0.322
       251 -10.5226     92.9335     51.0317   6.2368305576e+01   5.3811628937e+01    0.2552744    0.2411396  59.46 0.0003341922    1.215    0.177
       252  -9.9022    145.5657     51.7772   4.9498538397e+01   4.1884462824e+01    0.4503866    0.2906954 -74.10  0.002011189    2.202    0.546
       253  -8.7970    106.8486     52.8984   5.8953012806e+01   5.0583876465e+01    0.2156093     0.175216  26.01 0.0004332405    1.243    0.195
       254  -9.4530     61.5061     52.2245   7.3803931484e+01   5.9403672086e+01    0.2516313    0.2172787  11.89 0.0007653676    1.067    0.063
       255 -10.5668     45.7494     55.4257   8.1442923607e+01   6.1138350011e+01    0.8273908    0.3576591  45.86  0.003165813    3.610    0.723
       256  -8.3180    191.2447     49.6806   4.1434001191e+01   3.1542309625e+01    0.1647738    0.1525897 -45.06 0.0003998893    1.188    0.158
       257  -9.6461     94.9435     35.2955   5.6080377933e+01   5.5619403983e+01    0.4790605    0.2409599  38.82  0.002171679    1.942    0.485
       258  -9.2292     83.8727     51.5454   6.5452612390e+01   5.5536398730e+01    0.2719882    0.1942076 -42.97  0.001425333    1.553    0.356
       259  -9.6849     87.4274     49.0777   6.3399917700e+01   5.5225066882e+01    0.3262287    0.2331278  28.56 0.0005193202    1.373    0.272
       260  -9.1555     91.0288     46.7448   6.1422379630e+01   5.4851612775e+01    0.2282608    0.1882767  42.43 0.0002043382    1.155    0.134
       261  -9.6410     93.8589     44.8500   5.9877807343e+01   5.4545949675e+01    0.3390246    0.2529045  36.49  0.000540813    1.239    0.193
       262  -9.5408     91.1753     41.0113   5.9287677812e+01   5.5645649103e+01    0.3898082    0.2422671 -37.44  0.001878591    1.745    0.427
       263  -9.6611    175.1604     49.9373   4.3816931612e+01   3.5189637406e+01    0.3177288    0.2560318  10.58  0.001735663    1.747    0.428
       264  -9.7406    165.1985     50.7188   4.5622071397e+01   3.7406627211e+01     0.225809    0.1663314 -88.59  0.001180639    1.480    0.324
       265  -9.8286    163.9763     46.1452   4.4581136586e+01   3.8327606202e+01    0.4143712    0.2583477  -7.86  0.001808957    2.724    0.633
       266  -9.2976    182.0423     48.4871   4.2421396232e+01   3.3802043592e+01    0.2379083    0.1969661  -8.90  0.001356408    1.602    0.376
       267 -11.0146    153.5632     47.7075   4.6807621413e+01   4.0569920728e+01    0.4224856    0.2962129  66.46 0.0003729814    1.363    0.266
       268  -7.9559    137.3362     49.2949   5.0431857872e+01   4.4174650317e+01    0.1436671    0.1032291  30.23 0.0007028467    1.647    0.393
       269  -9.7452    201.8943     47.1192   3.9454382576e+01   2.9525074983e+01    0.2109273    0.1991127   1.01 0.0004023254    1.396    0.283
       270  -8.3734    196.5348     48.5372   4.0460719922e+01   3.0515659431e+01    0.1282158    0.1181807 -82.88 0.0008068773    1.090    0.083
       271 -10.6449     79.5452     43.2770   6.3848955755e+01   5.7641255116e+01    0.4190491    0.3859022 -51.24  0.001484686    1.365    0.267
       272  -9.2416    234.8903     47.0293   3.5852444338e+01   2.2646535766e+01    0.1796675    0.1428801 -63.40  0.000313099    1.020    0.020
       273  -9.7866    145.8648     46.3693   4.7850318930e+01   4.2573243589e+01    0.2391753    0.2139915 -60.49 0.0004238947    1.162    0.139
       274 -10.2046    114.7941     46.4056   5.4676510054e+01   4.9778835108e+01    0.3167856    0.2558286  11.22 0.0007957774    1.404    0.288
       275  -9.9232    112.9921     41.2199   5.3382754941e+01   5.0895117304e+01    0.2298698    0.2098246  -1.94 0.0002428715    1.163    0.140
       276  -9.6516    245.1936     44.4940   3.4396382305e+01   2.0992086104e+01     0.218359    0.1443337 -46.51 0.0007529623    1.290    0.225
       277  -8.8400    131.8338     44.9227   5.0248655232e+01   4.6069310915e+01     0.214016    0.1750007  32.90 0.0005694357    1.299    0.230
       278  -9.9711    104.4536     43.5536   5.6398511765e+01   5.2470508984e+01    0.4308637    0.2507307  44.95  0.002011966    1.574    0.365
       279 -10.5865    103.8014     38.3152   5.4735778429e+01   5.3318987663e+01    0.3333734    0.2304364 -34.17 0.0009489101    1.567    0.362
       280  -9.3556      3.2248     43.6950   9.7714206205e+01   6.7433140783e+01    0.2815576    0.2196033  87.49  0.001440232    2.105    0.525
       281  -8.8313    185.7610     44.3700   4.0870513810e+01   3.3511012339e+01    0.1850265    0.1117801  57.42 0.0004030385    1.642    0.391
       282  -9.3335    178.2437     43.7466   4.1760945299e+01   3.5320500409e+01    0.2605452    0.1849191 -79.62  0.001001037    1.489    0.328
       283  -9.4387     43.4441     43.7417   7.8142990808e+01   6.3528463900e+01    0.3264576    0.1789381  12.92 0.0009471638    2.194    0.544
       284  -8.8173    249.6977     43.3644   3.3788621207e+01   2.0294183456e+01     0.129145   0.06829867 -62.00 0.0007035765    1.732    0.423
       285  -9.2595     71.1260     42.5118   6.6497919102e+01   5.9325949029e+01    0.2562573    0.1837296   5.05  0.000631996    1.504    0.335
       286 -10.5380    222.6050     40.7433   3.5745025962e+01   2.5962388742e+01    0.2404608    0.1927985 -71.37 0.0002751106    1.049    0.046
       287  -9.2726    223.8147     34.7957   3.4371780146e+01   2.6477215703e+01    0.2508259    0.1442031 -53.85 0.0008372542    1.511    0.338
       288 -10.8539    228.2805     39.9354   3.5022503788e+01   2.4908148302e+01    0.5246236    0.2824835 -32.10  0.002775772    2.034    0.508
       289  -9.2687    227.2865     33.2875   3.3738179381e+01   2.5957615254e+01    0.1723129    0.1464981 -79.33 0.0001632533    1.101    0.092
       290  -8.2696    202.3016     42.6708   3.8373168229e+01   3.0033684357e+01    0.1368527   0.08477946 -66.55 0.0003265202    1.646    0.393
       291  -8.6612    191.5485     42.0604   3.9544740381e+01   3.2505753217e+01     0.181528    0.1236761 -37.10 0.0003977521    1.509    0.337
       292  -8.9710    144.0434     41.7897   4.6843365777e+01   4.3616390563e+01    0.2171017    0.1761458 -88.63  0.001212612    1.315    0.239
       293  -9.6703     34.4028     41.7504   8.1504830175e+01   6.5020321792e+01    0.3254595    0.1839778   9.03  0.001538398    1.993    0.498
       294 -11.3479     40.2641     39.3565   7.7853838386e+01   6.4685520371e+01    0.2912893     0.193137  -6.66  0.000938121    1.535    0.349
       295  -9.8302    158.4954     39.4258   4.3628458360e+01   4.0505193693e+01    0.2923057    0.2272017  86.31 0.0005844957    1.287    0.223
       296  -9.4461    120.7874     38.6688   5.0680877976e+01   4.9455256899e+01    0.4058897    0.2137482 -42.35  0.001797534    2.114    0.527
       297 -11.7307    116.8142     33.4771   4.9861222112e+01   5.1011372195e+01     0.430708    0.2942919  25.87  0.000452921    1.717    0.418
       298  -8.9371    163.3155    246.3251   8.9330298667e+01  -2.8139992015e-01    0.1318764   0.09027105  -2.38 0.0007043304    1.668    0.400
       299  -8.5599    219.6729    245.6769   7.8025934235e+01  -7.7845736047e+00    0.1278614   0.07691985  -4.01 0.0005395417    1.691    0.409
       300  -9.0958     12.2270     32.3728   8.9059859140e+01   6.8890201079e+01    0.1704731    0.1310567 -28.46 0.0002872075    1.104    0.094
       301  -8.5817    215.5181     39.4887   3.6195965635e+01   2.7604952511e+01    0.1253452      0.10513 -71.64 4.492334e-05    1.011    0.011
       302  -9.2608    165.1494     36.9250   4.1897225752e+01   3.9254532133e+01    0.4017828    0.2848992 -75.66  0.002167922    1.528    0.346
       303  -8.4616      1.4702    244.4233   1.2281490101e+02   2.0992086146e+01    0.1128616   0.08388355  67.98 8.641543e-05    1.015    0.014
       304  -9.6929    183.7101     31.7628   3.8015475228e+01   3.5584797589e+01    0.3045355    0.1933373  71.09  0.001243205    1.454    0.312
       305 -10.5880    178.3876     37.2362   4.0079460470e+01   3.6131274991e+01    0.2643752    0.2206033  87.36 0.0003572149    1.087    0.080
       306  -9.0019    179.7221     33.3366   3.8915115838e+01   3.6307667995e+01      0.23939    0.1311713 -46.26 0.0005341609    1.789    0.441
       307  -9.9690    146.1526     28.9975   4.2697876206e+01   4.4683716738e+01    0.2821371    0.2225347  58.86 0.0005917916    1.157    0.136
       308  -9.6003    136.5738     37.7978   4.7073253775e+01   4.5889709399e+01    0.2449744    0.1801618  66.42 0.0002191192    1.283    0.221
       309  -9.3502    244.8572    241.9013   7.2863611575e+01  -1.0230399314e+01    0.1812058    0.1203714  -4.76 0.0005406024    1.244    0.196
       310  -8.9261    238.4137     37.2622   3.3559289583e+01   2.3239472942e+01    0.1913926    0.1332464  64.68 0.0007185838    1.592    0.372
       311  -9.0313    186.2424     36.3381   3.8824321535e+01   3.4443697219e+01    0.2679523     0.152503 -49.70  0.001371757    1.704    0.413
       312  -9.5543     72.6871     36.6624   6.3657715172e+01   5.9887027297e+01    0.5341727    0.3470657  15.65  0.001811768    1.734    0.423
       313  -9.3762     75.0468     23.0192   5.7355074677e+01   6.1165372016e+01    0.1967202    0.1651842  -3.35 0.0003236538    1.194    0.162
       314  -9.3917    101.5172    239.5110   1.0177646365e+02   1.0021190740e+01    0.1309016     0.114459  44.59 0.0002234042    1.009    0.009
       315  -9.5400     71.6613     30.2830   6.1462040940e+01   6.0933698268e+01    0.2346564    0.2135883  82.45 0.0008712333    1.570    0.363
       316  -9.8283    248.8257     35.8662   3.2422400971e+01   2.1425815816e+01    0.1680368    0.1471981 -64.41  0.001146044    1.206    0.171
       317  -9.3218    131.7008     36.0156   4.7489449269e+01   4.7255275699e+01    0.3082279     0.216661  76.18 0.0004153984    1.527    0.345
       318 -10.0604    133.8452     29.6470   4.5084246472e+01   4.7509520102e+01    0.6719666    0.3396388  32.58  0.002733198    2.927    0.658
       319  -9.8132     56.4208     35.2681   6.9233734850e+01   6.2930671453e+01    0.2867462     0.213516 -45.28  0.001117812    1.692    0.409
       320  -9.4054    209.0296     33.3714   3.5521331782e+01   2.9765060077e+01    0.2527703    0.1662773 -49.14  0.001484653    1.379    0.275
       321  -8.8410     61.2987     34.3118   6.6912991133e+01   6.2253251707e+01    0.2092074    0.1629686   1.01 0.0005862924    1.202    0.168
       322  -9.0974     62.1663     30.5868   6.5041095306e+01   6.2616911305e+01    0.3275021    0.2571293 -17.29  0.002016093    1.253    0.202
       323  -9.6237     49.5620     33.3317   7.1278518444e+01   6.4298394988e+01    0.4570674    0.1909171  24.84  0.001796826    3.157    0.683
       324  -9.7420     42.5434     31.0360   7.3387766914e+01   6.5674283277e+01    0.3949024    0.2366692 -46.91  0.002094952    2.142    0.533
       325  -8.7829    188.7051    239.6557   8.3069815578e+01  -2.7854708500e+00    0.1328095   0.08670886  -5.84 0.0007031529    1.666    0.400
       326  -8.8662    167.6937    237.3315   8.7042340933e+01   6.1889741565e-01     0.122227    0.1017115  60.09 0.0006339828    1.662    0.398
       327  -9.6210    100.8784     26.4679   5.1251000124e+01   5.5397678884e+01    0.3163413    0.1545932  57.86 0.0008143302    1.907    0.476
       328  -8.9763    153.0732     31.5598   4.2298785056e+01   4.2751835023e+01    0.2925928    0.1778198 -81.00  0.001366218    2.139    0.533
       329  -9.7166    222.5068    234.4157   7.5629766644e+01  -6.4881835439e+00    0.2761726     0.250946  87.72  0.001773348    2.158    0.537
       330  -8.6612    140.2915    236.6752   9.2845252355e+01   4.8292742650e+00    0.1281437   0.09972413  61.68 0.0004970801    1.615    0.381
       331  -9.6674     34.6638     31.6833   7.7323122901e+01   6.6639608637e+01    0.2205299    0.1750624  -1.59 0.0004845026    1.030    0.029
       332 -10.4816     37.2188     26.4660   7.3858803497e+01   6.7084621457e+01    0.2842161    0.2294967 -40.47  0.001715896    1.566    0.361
       333 -10.1617    186.6930    231.4154   8.2132762841e+01  -1.1398838948e+00    0.2363205    0.1445057 -20.33  0.001204972    1.814    0.449
       334  -8.7498     32.0580    232.4998   1.1611899539e+02   2.0395661952e+01    0.1683392    0.1073573  38.21  0.000368342    1.481    0.325
       335  -9.7131    247.9740     30.6591   3.1497837728e+01   2.2237051783e+01    0.2216849    0.2094936  38.57  0.001574091    1.608    0.378
       336 -10.3190    234.3811     30.1081   3.2476419171e+01   2.4929355013e+01    0.3280357    0.1994545  53.75  0.001144429    2.086    0.521
       337  -8.5094    168.8386     29.8613   3.9480825178e+01   3.9246347887e+01     0.173628     0.134357 -75.72            0    1.273    0.214
       338  -9.1975    126.0556     29.2384   4.6478889336e+01   4.9376854617e+01    0.2114574    0.1679565  28.43 0.0003420766    1.380    0.275
       339  -8.9169     94.0952     30.1120   5.4399567495e+01   5.6441666467e+01    0.2082725    0.1596686  31.14 0.0006553536    1.221    0.181
       340  -9.0902    189.6884     28.4187   3.6487752110e+01   3.4628301765e+01    0.2038549    0.1712903 -83.88  0.000543742    1.026    0.026
       341  -9.0496    183.0380     27.0435   3.6934504161e+01   3.6296674056e+01    0.2390867    0.1451713 -54.11  0.001286947    1.621    0.383
       342  -9.2065    116.7026     28.0353   4.8056536063e+01   5.1671710057e+01    0.3828488    0.1298227  55.75 0.0007576101    2.468    0.595
       343  -9.3388    222.6680     26.8582   3.2818628501e+01   2.7689009479e+01    0.1910371    0.1479949  75.66 0.0005568116    1.291    0.225
       344 -10.1527    213.0687     25.8708   3.3481105470e+01   2.9812011822e+01    0.2486907    0.1896406  59.17  0.000761888    1.491    0.329
       345  -9.4604    176.2235     27.0154   3.7767230181e+01   3.7863129293e+01    0.1740882    0.1546109 -68.13 0.0004010055    1.101    0.092
       346  -9.8642    173.5012     23.3906   3.7187776344e+01   3.8900871289e+01    0.2668884     0.247183  57.86  0.001777426    1.219    0.180
       347  -8.7843    169.5160     23.4735   3.7717749438e+01   3.9815122905e+01    0.2125774    0.1655462 -30.11 0.0007253548    1.471    0.320
       348 -10.4226    161.8211     26.6943   3.9621890794e+01   4.1252746020e+01    0.2549831    0.2015158  65.15 0.0002943833    1.159    0.137
       349  -9.0087    162.6487    225.6812   8.6263207608e+01   3.4653809981e+00    0.3070112    0.2183273  82.76  0.001362947    3.027    0.670
       350  -9.3811    205.0266     24.4119   3.3932335329e+01   3.1706555746e+01    0.2700148    0.1788593  50.83  0.001289717    1.825    0.452
       351  -8.2759     52.7180     27.6571   6.7540296208e+01   6.4602465584e+01    0.1309558   0.08561963   4.36 0.0005622171    1.634    0.388
       352  -9.1031    223.9919    225.0354   7.3743101372e+01  -5.2513034328e+00    0.1900617    0.1521197  -3.45 0.0005498789    1.030    0.029
       353  -8.7442    132.1446    225.1878   9.2971117861e+01   8.2992367728e+00    0.1813038    0.1559128  59.41 0.0004126518    1.301    0.232
       354  -8.7777    196.8138    222.0125   7.8475354701e+01  -1.0120149900e+00    0.2266695    0.1336244 -15.18  0.001083522    2.026    0.507
       355  -9.4880     89.0183    220.7266   1.0231547583e+02   1.5752349930e+01    0.2501813    0.2270291  -4.66 0.0009232452    1.309    0.236
       356  -9.7554     72.1409     15.0900   5.4985287512e+01   6.2588138342e+01     0.281821    0.1844995  62.18  0.001337154    1.819    0.450
       357  -9.1033    242.7157    210.1889   6.7744429207e+01  -5.3651356312e+00    0.2029862    0.1702347 -41.03   0.00078679    1.507    0.337
       358 -10.7917     62.2139     22.1856   6.1456048581e+01   6.3672602360e+01    0.4378944    0.2704529  10.47 0.0008578233    1.861    0.463
       359  -8.5785    230.5367    209.5497   6.9782242661e+01  -3.6744292097e+00    0.1303607    0.1010873 -11.02 0.0008065028    1.068    0.063
       360 -10.7925      2.0622     25.3543   9.2017196530e+01   7.0862577332e+01    0.2008963    0.1423157 -30.47 0.0002777528    1.102    0.092
       361  -9.8421    232.8639     23.6396   3.1312431786e+01   2.6009311664e+01    0.3377503     0.174784 -81.68  0.001349887    2.014    0.503
       362 -10.3350    153.6517     22.8881   3.9763267507e+01   4.3591436136e+01    0.2332772     0.215412  59.90  0.000326495    1.130    0.115
       363 -10.0815    117.0633     21.9048   4.5916159444e+01   5.2251390191e+01    0.2798502    0.1950561  -8.13 0.0005680382    1.771    0.435
       364  -9.9908     84.7991     21.0177   5.3552740710e+01   5.9423204193e+01    0.3348792     0.253121 -55.97 0.0009130129    1.869    0.465
       365  -8.6298     11.0920     23.0930   8.5934518403e+01   7.0538477008e+01      0.14354    0.1301078  14.98 0.0005948333    1.487    0.327
       366  -8.5353    247.6572     22.6713   3.0015790211e+01   2.3261057614e+01   0.09838757   0.08722473  42.18 0.0007051099    1.745    0.427
       367  -8.0997     80.2976     22.6743   5.5555900069e+01   6.0161383967e+01    0.1170366    0.1022326 -76.07 0.0003118668    1.630    0.386
       368  -8.7674    194.2282    209.5769   7.6785592531e+01   1.5454754636e+00    0.1916439    0.1192555  20.49 0.0009525432    1.654    0.395
       369  -9.4326    193.2330     20.0221   3.4120597226e+01   3.4794026961e+01    0.1859303    0.1714554  57.75 0.0003319617    1.313    0.238
       370  -9.8160    123.9806    205.9996   9.1893027628e+01   1.3621620535e+01    0.2014073    0.1904019  22.43            0    1.023    0.022
       371  -8.9316    196.0760     16.5158   3.3028566328e+01   3.4547187848e+01    0.2538697    0.1708221  73.78 0.0009550341    1.341    0.254
       372  -9.0954     35.4791    201.4870   1.1282513532e+02   2.7024996684e+01    0.1312772    0.1116652  78.26 0.0008101463    1.013    0.013
       373  -9.0515      7.9542    195.3947   1.1870737674e+02   3.1119951893e+01    0.3566364    0.1286038  42.32  0.001647122    2.484    0.597
       374  -8.5944    241.9668    193.7619   6.4851228101e+01  -2.6633853524e+00    0.1458333    0.1013495  26.46 0.0004078757    1.545    0.353
       375  -9.4991     18.4289    174.0815   1.1443974883e+02   3.5380066510e+01    0.2315405    0.1832951 -16.84  0.001363935    1.694    0.410
       376 -11.0891     14.5486    165.1638   1.1459160669e+02   3.7934003158e+01    0.3764738     0.282552  15.86 0.0004851702    1.651    0.394
       377 -10.0530      5.5581     16.4509   8.6241595621e+01   7.2054778369e+01    0.2159038    0.1718447 -16.50 0.0007315578    1.144    0.126
       378 -10.4566      7.4817    165.7862   1.1649355289e+02   3.8330112035e+01    0.2583205    0.2162551  66.00 0.0006930034    1.185    0.156
       379  -9.8116      8.1422    161.8307   1.1596522186e+02   3.9265158591e+01    0.1931068    0.1548827 -58.08 0.0003058055    1.244    0.196
       380 -12.0894     40.8113    161.9214   1.0705334112e+02   3.6285658018e+01     1.961886    0.8139676  60.52  0.006431068    4.011    0.751
       381 -12.5245     35.7940    158.6153   1.0803403745e+02   3.7661324493e+01     1.389171    0.4586744  48.11  0.004749962    3.690    0.729
       382  -9.8341     24.1963    162.8400   1.1176404926e+02   3.7693460920e+01    0.2032554    0.1624523  77.28 0.0007349809    1.199    0.166
       383  -9.6962     20.3613    160.7088   1.1257544703e+02   3.8571633893e+01    0.2123581    0.1676252  78.35 0.0004480017    1.209    0.173
       384 -10.1576      9.6761    157.7537   1.1517099531e+02   4.0171689737e+01    0.3319612    0.1797616  67.39  0.001607221    2.034    0.508
       385 -10.3176     15.0070    143.5704   1.1215352510e+02   4.3361023451e+01    0.4533151    0.2476239 -41.39  0.002200948    1.998    0.500
       386 -11.1617     12.8661    150.7829   1.1357970462e+02   4.1691110421e+01    0.5419305    0.3097969   1.62  0.002642659    2.494    0.599
       387  -9.0444      9.2170    147.6006   1.1426973838e+02   4.2761549797e+01     0.206566    0.1885813  31.45  0.000357426    1.299    0.230
       388  -9.3550    151.7919     17.9911   3.8660512429e+01   4.4539145041e+01    0.2216558    0.1805439 -47.78 0.0003684306    1.315    0.239
       389 -10.6530      2.0655    155.6644   1.1701842494e+02   4.1227926209e+01    0.4751361    0.1862376 -77.87  0.001654392    2.158    0.537
       390  -9.1848    249.1411    153.8171   5.5963413418e+01   2.9821612251e+00     0.181216    0.1339294 -19.29 0.0005704594    1.332    0.249
       391  -9.0633     45.8645    151.6374   1.0414323957e+02   3.8387201214e+01    0.2324705    0.1732841 -57.80 0.0003303667    1.229    0.186
       392 -10.5664     19.6983    150.7069   1.1163528796e+02   4.1171871058e+01    0.4362237    0.2047814 -69.00  0.002005883    1.780    0.438
       393  -8.6700     63.0198    149.1823   9.8635769780e+01   3.6921833354e+01    0.1881813    0.1844096  85.24            0    1.065    0.061
       394  -9.8411      3.4804    145.6108   1.1568497163e+02   4.3647621798e+01    0.2848099    0.2201476  80.34    0.0017464    1.236    0.191
       395  -9.4177     39.1210    143.2722   1.0489602639e+02   4.1284703109e+01    0.3811688     0.178668  28.62   0.00159285    2.298    0.565
       396  -9.8123    242.9996     14.9506   2.8892302785e+01   2.5035510619e+01    0.1781065    0.1310377 -67.22 0.0006245576    1.037    0.035
       397  -8.3910    111.5062     15.0489   4.4739681140e+01   5.4194739136e+01    0.1620038    0.1283644 -14.11  0.000429811    1.457    0.313
       398  -8.5171      7.7613    141.9903   1.1408528172e+02   4.4277866094e+01    0.1834193    0.1454345 -73.13 0.0003927648    1.043    0.041
       399 -10.1390     21.6746    139.7844   1.0969784337e+02   4.3802837237e+01    0.3699456     0.253564 -40.71  0.001993323    1.533    0.348
       400  -9.7802     12.3166    127.2769   1.1093610272e+02   4.7688917803e+01    0.5015452     0.228037 -33.91   0.00193013    2.727    0.633
       401  -9.5018      2.5009    130.0272   1.1431895967e+02   4.7613793785e+01    0.2491039    0.1662909 -48.73  0.001168413    1.407    0.289
       402  -8.7687     84.5565     14.0859   5.0869879511e+01   6.0175839598e+01    0.1954641    0.1443364  48.69 0.0008926115    1.172    0.147
       403  -9.4846      1.6190    139.6629   1.1561641893e+02   4.5253226459e+01     0.316285    0.1476632 -78.28  0.001498428    1.830    0.454
       404 -10.7966      4.7552    133.6891   1.1405181276e+02   4.6561547506e+01    0.6067758    0.3178408  -6.17  0.001922342    2.754    0.637
       405  -9.9532      5.6705    127.2806   1.1302146976e+02   4.8114789557e+01    0.2512362    0.1640462  75.33 0.0008115778    1.694    0.410
       406 -10.8242      7.3878    123.0206   1.1194503692e+02   4.9078269417e+01    0.3933434     0.234035 -43.98  0.001613109    1.610    0.379
       407 -10.0919     44.8888    125.6689   1.0009021101e+02   4.5208618799e+01    0.3101014    0.2528126 -84.83 0.0004718512    1.306    0.234
       408  -9.9806     41.4868    138.3424   1.0339082901e+02   4.2312911186e+01    0.3017705    0.2260785  63.59  0.001073059    1.515    0.340
       409 -10.5842     41.6410    132.7560   1.0241163376e+02   4.3739659495e+01    0.6181223    0.2932971 -45.51  0.002371666    2.072    0.517
       410  -9.1116    230.6692    136.9639   5.5414489062e+01   8.9063393371e+00    0.1974806    0.1531415 -38.59 0.0005126584    1.097    0.088
       411  -9.8889     35.1919    135.2106   1.0486183398e+02   4.3764512180e+01    0.4531462    0.1846618 -43.98  0.001743485    2.598    0.615
       412  -8.5700    235.9645    136.7719   5.4538816924e+01   8.0373713765e+00    0.1559968    0.1132598  44.46 0.0007935988    1.630    0.387
       413  -8.5189     75.3063    136.3257   9.2430457754e+01   3.8505036435e+01    0.1576151    0.1122793 -28.12 0.0002452581    1.648    0.393
       414  -8.2289     83.3012    135.7086   8.9832525447e+01   3.7426954836e+01    0.1512413    0.1190181  74.07 0.0003445022    1.567    0.362
       415  -8.5394     58.5083    135.5370   9.7542654877e+01   4.1043812068e+01     0.148896     0.133373 -47.17 4.309681e-05    1.072    0.067
       416  -9.8665     15.9433    135.0403   1.1082249843e+02   4.5462155735e+01    0.2239817    0.1303959 -44.40  0.001124037    1.710    0.415
       417  -8.7453    249.1189    133.8969   5.1987553893e+01   6.3705300733e+00     0.181826     0.132657 -25.61 0.0005297979    1.342    0.255
       418  -8.7865     48.2978    134.2562   1.0054852842e+02   4.2616625789e+01    0.3599492    0.1232383  48.26  0.001080479    4.399    0.773
       419 -10.3815     61.1735    131.1591   9.5843175394e+01   4.1822849779e+01    0.4114141    0.3104327  51.91  0.001166156    1.494    0.331
       420  -9.8670     20.6612    131.8848   1.0893625498e+02   4.5904365885e+01    0.3290211    0.2335376  49.49  0.001137083    1.591    0.372
       421  -9.5908     18.2988    127.1758   1.0901928107e+02   4.7285483413e+01    0.4375461    0.1667858 -54.70  0.001393859    2.113    0.527
       422  -8.7760     29.0554    132.3235   1.0635236077e+02   4.5083138470e+01    0.1771988    0.1714246  89.87 0.0004741309    1.123    0.110
       423  -9.6300     50.7752    126.2158   9.8252404316e+01   4.4394427661e+01    0.2967867    0.1921805 -75.46  0.001371994    1.687    0.407
       424  -9.5607     59.7609    124.6232   9.4970701774e+01   4.3677716784e+01    0.2279995    0.1937889 -38.09 0.0006404242    1.148    0.129
       425 -10.2996     61.8229    120.9669   9.3509670303e+01   4.4328412570e+01    0.3051001    0.2321237 -60.78 0.0003867219    1.255    0.203
       426 -10.3185     39.1605    123.4065   1.0157494164e+02   4.6396588053e+01    0.3201128     0.222509  -2.61  0.001600475    1.794    0.443
       427  -8.5227     71.5041    123.4648   9.0872465478e+01   4.2332338147e+01    0.1492242    0.1418238 -58.30 8.889679e-05    1.049    0.047
       428 -11.3393     20.7954    110.2375   1.0552120021e+02   5.1357508717e+01    0.6527281    0.3256932 -55.45  0.002977983    1.622    0.383
       429  -9.8876     16.4148    108.6217   1.0678568210e+02   5.2078467280e+01    0.4371177    0.2034519 -60.83   0.00127219    1.714    0.417
       430  -9.1314     19.9295    104.6216   1.0483570336e+02   5.2810077398e+01     0.317099    0.1397436 -51.47   0.00143215    1.832    0.454
       431 -11.9256     21.3576    119.7050   1.0689544814e+02   4.8942501972e+01     0.913377    0.4129994  38.05  0.004057362    2.498    0.600
       432  -9.9072     13.9402    113.4942   1.0842771825e+02   5.1039041406e+01    0.2440065    0.2021235 -54.09 0.0005228742    1.055    0.052
       433  -9.3016    236.8003    121.1668   5.1156059035e+01   1.0626150066e+01    0.1824238    0.1511516 -15.80  0.001082781    1.358    0.264
       434  -9.7841    221.6538    119.2982   5.3067233078e+01   1.3706349202e+01    0.3291868    0.2545159  32.73  0.001287486    1.581    0.368
       435 -10.5304     44.9894    119.6633   9.8905796019e+01   4.6726234015e+01    0.4102808    0.2700456  28.88  0.001160899    1.661    0.398
       436 -10.8167     47.6020    114.8292   9.7029308405e+01   4.7648954719e+01    0.4642383    0.3355763 -65.31  0.001438392    1.336    0.251
       437  -8.5886    103.8277    119.3740   7.9738068621e+01   3.7885351024e+01    0.2121705     0.149174  26.14 0.0003167531    1.580    0.367
       438  -9.1230     93.6800    118.9642   8.2730676978e+01   3.9835512816e+01    0.2632456    0.2160318  16.34  0.001045672    1.336    0.252
       439  -8.6684    241.3855    124.1563   5.1111861703e+01   9.3159883887e+00    0.2011338    0.1027307 -47.43 0.0009539345    1.740    0.425
       440 -10.1659     69.6576    116.7529   8.9946900413e+01   4.4278451065e+01    0.4133371    0.2799888 -22.65  0.001107568    1.816    0.449
       441 -10.3020     38.6217    116.5196   1.0046925959e+02   4.8197733740e+01    0.3315462    0.2383682 -54.37 0.0008053661    1.211    0.174
       442  -9.5419     28.0129    115.6687   1.0396307951e+02   4.9411700201e+01    0.2316313     0.161088 -46.82 0.0005774663    1.290    0.225
       443  -9.9911     33.4832    114.0198   1.0177038292e+02   4.9330507456e+01    0.2383963    0.2357989 -69.93 0.0004808333    1.134    0.118
       444 -10.5853     31.3186    111.3266   1.0201820994e+02   5.0205188234e+01    0.2840438    0.1716832 -45.65   0.00100026    1.485    0.327
