#   1 NUMBER                 Running object number                                     
#   2 MAG_AUTO               Kron-like elliptical aperture magnitude                    [mag]
#   3 X_IMAGE                Object position along x                                    [pixel]
#   4 Y_IMAGE                Object position along y                                    [pixel]
#   5 X_WORLD                Barycenter position along world x axis                     [deg]
#   6 Y_WORLD                Barycenter position along world y axis                     [deg]
#   7 A_WORLD                Profile RMS along major axis (world units)                 [deg]
#   8 B_WORLD                Profile RMS along minor axis (world units)                 [deg]
#   9 THETA_WORLD            Position angle (CCW/world-x)                               [deg]
#  10 FWHM_WORLD             FWHM assuming a gaussian core                              [deg]
#  11 ELONGATION             A_IMAGE/B_IMAGE                                           
#  12 ELLIPTICITY            1 - B_IMAGE/A_IMAGE                                       
         1 -12.1742    107.6437     28.6122   6.6279222388e+01   5.4631610859e+01    0.5944265    0.3158004 -22.62 0.0001526409    2.023    0.506
         2 -11.7889      5.7771     16.8871   1.0245911861e+02   7.1284246875e+01    0.4521058     0.266663 -52.43  0.002929794    1.493    0.330
         3 -12.3317    116.9044     22.3481   6.1409860853e+01   5.3325678888e+01    0.2977305    0.2366838 -19.02  0.001643579    1.297    0.229
         4 -11.3426    182.1350     19.0987   4.8238237912e+01   3.7287235530e+01    0.3445588    0.2739398   0.84 0.0008714642    1.551    0.355
         5 -11.3714     65.1678     14.9380   7.4006160916e+01   6.4701374248e+01    0.5611544    0.4089543 -18.91  0.003410026    1.251    0.201
         6 -10.4433    229.9313     16.1712   4.2052265744e+01   2.5651839548e+01    0.2079926    0.1518764 -64.09   0.00037787    1.251    0.200
         7 -11.6948    173.4835     14.0203   4.7903303113e+01   4.0078600738e+01    0.3158134    0.2825274 -13.20  0.001368746    1.263    0.208
         8 -11.2161    133.0339     12.9386   5.4276852466e+01   5.0493439573e+01    0.2916752    0.2450135 -26.94 0.0003267346    1.284    0.221
         9 -11.2396    209.7254     12.1897   4.3022576984e+01   3.1019429232e+01    0.4393174    0.2975944  -5.13  0.002044653    2.044    0.511
        10 -11.2263    148.3044     12.6728   5.1369953379e+01   4.6695309424e+01    0.4716848    0.1588181  50.72  0.001734642    2.605    0.616
        11 -10.6622     75.2333     12.6829   6.9340994259e+01   6.3203592270e+01    0.2208063    0.1899284 -41.01  0.001383749    1.473    0.321
        12 -10.4018    218.6355     11.9455   4.2071520134e+01   2.8848715359e+01    0.2595927    0.1838521  75.37 0.0006136601    1.325    0.245
        13  -9.8245     97.6900     11.6603   6.2004785591e+01   5.8821374726e+01    0.2461289    0.1565585 -25.37 0.0006935238    1.610    0.379
        14 -11.1300     14.2859     10.7908   9.5359803001e+01   7.1706523232e+01    0.3049702    0.1769518 -31.44  0.001142481    1.345    0.257
        15 -11.3808    116.8661     14.8964   5.8495431731e+01   5.4175272539e+01    0.3107291    0.2072396  29.72  0.001103918    1.529    0.346
        16 -11.6811    128.3755      8.6104   5.3590945825e+01   5.2057911099e+01    0.3210826    0.2782989  31.65  0.001268836    1.106    0.096
        17 -11.1699    133.9405      5.8161   5.1491721160e+01   5.0951122548e+01    0.3226131    0.2746478  30.72  0.001589124    1.160    0.138
        18  -9.6351     55.8375     11.0058   7.5753730096e+01   6.6717272175e+01    0.2094589    0.1227925  -4.81   0.00108316    1.933    0.483
        19  -9.6428      8.3468     10.7335   9.8547017342e+01   7.2166486035e+01    0.1711049    0.1149466  32.10  0.001066324    1.989    0.497
        20  -9.9844      4.7684      9.4010   9.9942558791e+01   7.2629735631e+01    0.2137706    0.1214993 -45.68  0.001350972    1.411    0.291
        21 -10.5513    164.8060      8.6228   4.7447931065e+01   4.2865369669e+01    0.3431102    0.2064821 -57.91  0.001105253    1.941    0.485
        22 -11.0300    165.9696      3.3312   4.5620719868e+01   4.3061124216e+01    0.3212658    0.2477118  32.10  0.001581235    1.449    0.310
        23 -11.5603    160.5781      3.1091   4.6287494404e+01   4.4464558797e+01     0.502256    0.3444752  67.53  0.001793422    1.297    0.229
        24 -10.8017    185.2755      8.9031   4.4845217774e+01   3.7561433686e+01    0.2432789    0.1809231  68.65 0.0003187156    1.225    0.183
        25 -10.2091     74.6847      8.5461   6.7583229390e+01   6.3779113990e+01    0.4934907    0.1957456  47.41  0.002213122    2.346    0.574
        26  -9.4438    240.5742      7.7532   3.9147617557e+01   2.4109693095e+01     0.167813    0.1026704 -46.44 0.0002836207    1.441    0.306
        27 -11.3591    192.9508      8.1697   4.3742197800e+01   3.5671609200e+01    0.3763845    0.1749543  84.88  0.001522079    2.416    0.586
        28 -12.0060    195.3567      3.4976   4.2187511826e+01   3.5523966244e+01    0.6072114    0.2338609  64.81  0.002528436    2.239    0.553
        29 -10.8201    115.7355      1.9892   5.3615155376e+01   5.5673649267e+01    0.2379764    0.1736705  55.39 0.0003616317    1.226    0.184
        30 -10.4507    111.9949      4.9729   5.5636205497e+01   5.6283135964e+01    0.2072321    0.1820881  32.64 0.0004273402    1.024    0.024
        31 -11.6297    107.8489      7.7326   5.7735700285e+01   5.6974727190e+01    0.5497718    0.2316605  56.58  0.001867442    2.118    0.528
        32 -10.5112    106.4983      4.4801   5.6705300840e+01   5.7583441670e+01    0.2646835    0.1870945  29.09  0.001467238    1.341    0.254
        33 -11.1371     49.6657      7.7354   7.6679901987e+01   6.8070360301e+01    0.4759083    0.1918831  29.38  0.002104158    2.873    0.652
        34 -11.4200    209.0208      4.8440   4.1176927609e+01   3.1965369157e+01    0.3739623    0.2580236 -53.56  0.001566549    1.381    0.276
        35 -10.4115    119.4409      7.2836   5.4923481137e+01   5.4329030334e+01    0.1789803    0.1243652 -33.32 0.0009470947    1.580    0.367
        36 -11.7053     87.2582      5.7678   6.2342374938e+01   6.1610455260e+01    0.2741608    0.2357948 -16.68 0.0002434113    1.229    0.187
        37  -9.8054     90.7460      1.3559   5.9352733351e+01   6.1302229614e+01    0.2491138    0.1142039  54.38 0.0003969463    1.976    0.494
        38 -10.8429     61.7716      6.3774   7.1135816134e+01   6.6315892199e+01    0.2405888    0.2357559 -40.49 0.0008153083    1.492    0.330
        39 -10.5845     39.6722      5.3036   7.9857183923e+01   6.9785178156e+01    0.2422411    0.2374198  54.75   0.00122481    1.717    0.418
        40 -10.5848     38.1593      2.1925   7.8915444166e+01   7.0382797403e+01    0.2415754    0.1980803 -25.69 0.0002436248    1.362    0.266
        41 -10.0703     24.6051      6.8147   8.8014570470e+01   7.1362646641e+01    0.2075326    0.1341438 -41.68  0.001327802    1.588    0.370
        42 -10.6962     20.6743      6.7145   9.0016790700e+01   7.1772058782e+01    0.2479507    0.1619184  -6.47  0.000653178    1.414    0.293
        43 -10.4170     46.5498      4.5086   7.6358796606e+01   6.8928715396e+01    0.2052435    0.1519439  -3.62 0.0001170416    1.120    0.107
        44 -10.2009     49.5374      2.5098   7.4032856325e+01   6.8722740993e+01    0.2091731    0.1589854  15.36  0.000636957    1.132    0.116
        45 -10.0893     30.9109      3.6870   8.3206384171e+01   7.1100211097e+01    0.2321029    0.1392312 -46.01 0.0009477893    2.209    0.547
        46 -10.4104    184.7818      4.3998   4.3604541756e+01   3.8129958457e+01    0.1945217    0.1103896  60.71 0.0003007061    1.596    0.373
        47 -10.2765    141.9901      3.6413   4.9304197601e+01   4.9139387997e+01    0.2511937    0.1739018  31.04 0.0006929465    1.539    0.350
        48  -9.1265     13.5944      3.8121   9.2408259960e+01   7.2854500157e+01    0.1458168   0.09130865 -46.07 0.0009382905    1.670    0.401
        49  -9.8856    248.8595      2.8988   3.7436018020e+01   2.2763332036e+01    0.1707699    0.1584277 -83.07  0.000324205    1.201    0.168
        50 -10.5704    218.0798      2.4275   3.9735804983e+01   2.9987040607e+01    0.2359557    0.2049152 -50.18 0.0006241893    1.159    0.137
        51 -11.0033     74.0962      2.0701   6.4663328516e+01   6.4565716049e+01    0.2602895    0.1920547  34.32 0.0006335863    1.194    0.162
        52 -11.2084    180.0576      2.0568   4.3473420404e+01   3.9559454061e+01    0.3403679    0.1780116  67.90 0.0009731646    1.680    0.405
        53  -9.7303    148.0485      1.4527   4.7577940409e+01   4.7800993481e+01    0.2144681    0.1205549  66.16 0.0003576474    1.574    0.365
        54 -10.6244    170.7990      6.1665   4.5857771747e+01   4.1556130621e+01    0.1913396    0.1487578  47.59  0.000470918    1.293    0.227
        55  -9.5033     81.4700      1.5153   6.2083895622e+01   6.3186966963e+01    0.2080268    0.1235548  66.34  0.001026078    2.265    0.558
        56  -9.4819     43.2684      1.3262   7.6117653901e+01   6.9784802517e+01     0.145585    0.1013179  38.30 0.0006438428    1.587    0.370
        57 -10.4634    130.0858      1.8652   5.0741684363e+01   5.2242698321e+01    0.2519906    0.1549737  73.45   0.00124108    1.668    0.400
        58  -9.5582     78.5158    222.6664   1.1767146269e+02   1.9130869071e+01     0.157022   0.09932604  87.12 0.0008797222    1.613    0.380
        59  -9.0159    233.7241    250.7114   9.2720779609e+01  -9.2024817777e+00    0.1111519    0.0684183  13.47 0.0001962666    1.516    0.340
        60 -10.2370    186.9981    250.4802   1.0078115124e+02  -2.1878674580e+00    0.1670064    0.1112451  36.89  0.001074777    1.161    0.139
        61 -11.1966    161.2235    249.2060   1.0522691880e+02   2.0354590016e+00    0.2556836    0.2345766 -19.17  0.001038362    1.374    0.272
        62 -10.2887    165.8742    248.8468   1.0434410372e+02   1.3489514007e+00    0.2187683    0.1448585  66.06  0.000408762    2.123    0.529
        63 -11.2952    127.4529    248.5399   1.1124081216e+02   7.4272736955e+00    0.2810466    0.2623346 -76.13  0.001648588    1.337    0.252
        64 -11.0256    115.5738    249.5399   1.1347245400e+02   9.0812099342e+00    0.3246797    0.1702977  52.96  0.001879704    1.576    0.365
        65 -10.1915    112.0085    246.3209   1.1378852834e+02   1.0126609576e+01    0.1889632    0.1648566 -75.19 0.0005793803    1.377    0.274
        66 -11.6386     38.8372    249.2034   1.2655986353e+02   1.9442799419e+01    0.2496015    0.2046852  54.13  0.001379572    1.386    0.279
        67 -11.1754      9.2417    225.0165   1.3015418236e+02   2.6880091436e+01    0.3924023    0.1521822  67.45  0.001616858    2.127    0.530
        68 -10.3041     30.9842    250.5982   1.2788530680e+02   2.0097255559e+01    0.1575422   0.08244815  56.27 4.248995e-05    1.367    0.268
        69 -11.5772     10.3418    249.4722   1.3102582444e+02   2.2471190527e+01    0.4305941    0.1741526  51.62  0.001983146    1.733    0.423
        70 -11.5262      5.0522    238.1813   1.3138823853e+02   2.4927118256e+01    0.3646299    0.1605246  54.91  0.001661091    1.626    0.385
        71 -11.1578     30.5804    245.1057   1.2766787005e+02   2.1077366047e+01     0.354488      0.24722  25.89  0.001644302    2.318    0.569
        72 -11.5350      4.6464    246.3069   1.3176454534e+02   2.3568032446e+01    0.3736965    0.2774605 -51.00  0.002040282    2.480    0.597
        73 -11.5977     23.7494    248.9034   1.2893857609e+02   2.1174486768e+01    0.7942033          nan  46.90  0.003048872    4.987    0.799
        74 -10.8875     16.2625    244.1443   1.2989116585e+02   2.2774892115e+01    0.2723995    0.1535926  42.19  0.001791992    1.705    0.413
        75 -12.0314     12.9042    235.8256   1.3005075693e+02   2.4569024797e+01    0.4386783     0.241564 -74.70  0.003114853    1.777    0.437
        76 -10.9748     11.1200    231.1487   1.3012699673e+02   2.5581747691e+01     0.190186    0.1479819  66.21 0.0005828994    1.230    0.187
        77 -11.3599      3.4074    230.8545   1.3135172898e+02   2.6379704618e+01    0.3622582    0.1739434 -86.41  0.001332493    1.711    0.416
        78 -11.4929      2.0881    224.9259   1.3131907457e+02   2.7574583034e+01    0.2141519    0.1534902 -84.68 0.0004921259    1.350    0.259
        79  -9.0399     38.6298    223.7260   1.2506207777e+02   2.4012996158e+01    0.0898592   0.08693743 -51.28 0.0007003338    1.679    0.404
        80 -11.8805     84.0154    220.7324   1.1644000969e+02   1.8714121969e+01    0.1987997    0.1631512  78.43 0.0003284798    1.114    0.102
        81 -10.6267    228.7293    220.1061   8.8689083684e+01  -4.8999404790e+00    0.2034967    0.1633352  32.14 0.0003117085    1.224    0.183
        82 -10.7367    136.0816    218.7773   1.0603502521e+02   1.0900510374e+01    0.3405937    0.2966906 -76.87  0.002236552    1.314    0.239
        83  -9.4946     63.6671    220.2904   1.2025140529e+02   2.1588633983e+01    0.2480252    0.1016399  75.27 0.0009638625    3.985    0.749
        84  -9.4542     54.4529    221.0488   1.2201994320e+02   2.2622576653e+01    0.1581598   0.09828733 -79.65 0.0005195009    1.530    0.346
        85  -8.8590    183.3173    219.7224   9.6977678899e+01   2.6607002978e+00    0.1204748   0.09315951  60.34 0.0003515735    1.572    0.364
        86  -9.4547     14.0524    219.2762   1.2907030487e+02   2.7475599254e+01    0.1599649    0.1462017   4.86  0.001285766    1.954    0.488
        87  -9.4158     17.3920    216.7810   1.2836558159e+02   2.7614159087e+01    0.1574336     0.103719 -58.62 0.0008488691    2.019    0.505
        88 -11.6575     89.6918    216.7486   1.1493693884e+02   1.8639876415e+01    0.6416178    0.1934129  50.43  0.002565015    3.006    0.667
        89 -10.2069     39.0909    218.0702   1.2460183897e+02   2.5032042936e+01    0.1542705    0.1347682 -86.54  0.001021034    1.361    0.265
        90  -9.9012     23.9767    217.4493   1.2725461048e+02   2.6810484562e+01    0.1686191    0.1104092  86.53 0.0005307319    1.226    0.184
        91  -9.3789    175.7608    217.3774   9.8060426923e+01   4.3200586883e+00    0.1841043    0.1044789  33.52 0.0003594776    1.613    0.380
        92 -10.9680     72.8649    215.9389   1.1812007794e+02   2.1189452491e+01    0.2480304    0.1809047 -71.84 0.0003695572    1.433    0.302
        93  -9.4971     58.4822    215.9902   1.2086413535e+02   2.3083255374e+01    0.1710018    0.1242063  57.49  0.001152333    1.147    0.128
        94 -10.1043     31.8275    216.1086   1.2577959470e+02   2.6224394331e+01    0.1655104    0.1220045  72.64 0.0003358615    1.017    0.016
        95 -10.8580     28.8362    213.3979   1.2614466900e+02   2.7073035907e+01    0.1877856    0.1599316   9.43  0.001359538    2.047    0.512
        96 -11.5940    127.5410    209.4419   1.0648286743e+02   1.4009539267e+01    0.6197242    0.4182046 -14.35  0.002785863    3.234    0.691
        97 -10.5138     68.2991    215.0318   1.1891366606e+02   2.1983916249e+01    0.1836435     0.147601  54.43 0.0003416704    1.188    0.158
        98 -10.4392    111.5677    213.6528   1.1025372912e+02   1.5856023809e+01    0.2211579    0.1783179  48.85  0.000638819    1.111    0.100
        99 -10.0753      1.4600    204.7998   1.3052954687e+02   3.1424100553e+01    0.1532458   0.09718103  79.48  0.001112587    1.136    0.119
       100 -11.8974      8.4708    210.6840   1.2959587167e+02   2.9647985573e+01    0.3548155    0.1924207 -82.43  0.002388375    1.530    0.347
       101 -10.2358      4.7332    206.0924   1.3001944841e+02   3.0880469073e+01      0.26764    0.1214592 -83.04  0.001642134    1.789    0.441
       102  -9.0457    164.6507    213.3074   9.9598307453e+01   6.9080188050e+00     0.131091   0.09522094  65.66 0.0007043282    1.707    0.414
       103 -10.9570     13.9230    212.4107   1.2873496388e+02   2.8793702930e+01    0.1873035    0.1383662  71.96 0.0004016411    1.074    0.069
       104  -9.9205    117.9549    211.9453   1.0875607057e+02   1.5139787883e+01    0.1962599    0.1653056  55.33 0.0004885099    1.021    0.021
       105  -8.8338     52.6466    212.7422   1.2169927104e+02   2.4448969081e+01   0.09477058   0.09269743 -15.51  0.000342563    1.609    0.379
       106 -11.6522     23.6592    208.6060   1.2678144047e+02   2.8554319016e+01     0.411206    0.2107903  45.23  0.001616411    1.729    0.422
       107 -11.4827     17.7059    207.7355   1.2780470948e+02   2.9328629072e+01    0.2323918    0.1448126  78.31 0.0004087279    1.224    0.183
       108 -10.7075    155.0453    209.7836   1.0096901984e+02   9.1894787393e+00    0.1909941    0.1866479  61.37 0.0003256378    1.144    0.126
       109 -10.8584    144.4986    208.5991   1.0291835069e+02   1.1247535264e+01    0.3561487    0.2055578 -61.67  0.001163157    2.211    0.548
       110  -9.6391     39.4810    210.0790   1.2396778822e+02   2.6540607312e+01    0.1632871   0.09500238 -78.40  0.001017493    1.557    0.358
       111  -9.5245     97.1840    208.8291   1.1257134665e+02   1.9032942094e+01    0.1546778    0.1458714  41.62 0.0005603457    1.306    0.234
       112  -9.5229     46.8653    218.3615   1.2320840196e+02   2.4063978773e+01    0.1464164    0.1006798  33.55 0.0009455884    1.784    0.439
       113 -11.2784     67.0670    207.2943   1.1843454739e+02   2.3670965328e+01     0.267468    0.1815764 -78.68 0.0002239713    1.412    0.292
       114 -10.8251     59.5363    208.1966   1.1999302582e+02   2.4478617293e+01    0.3333004    0.1923104  60.27  0.001052805    1.485    0.326
       115 -10.0629     57.6381    203.7683   1.1996931406e+02   2.5610696263e+01    0.2463239    0.1674852  57.73  0.001566368    1.235    0.190
       116 -11.1262     34.9483    204.5186   1.2441681065e+02   2.8156998124e+01     0.256513    0.1889324 -81.73 0.0009302279    1.264    0.209
       117 -10.6746    121.5313    200.5629   1.0649217473e+02   1.6704344385e+01    0.5088184    0.2723906 -78.09  0.002097134    3.138    0.681
       118  -9.4407     40.0283    204.9642   1.2348563090e+02   2.7495693893e+01    0.1411294    0.1061803  76.62 0.0005731808    1.021    0.021
       119  -9.9037    142.0227    203.5801   1.0267563022e+02   1.2587116709e+01    0.1985285    0.1826663 -29.34 0.0006937062    1.303    0.232
       120 -11.3798     97.8292    200.4695   1.1143574891e+02   2.0584030088e+01    0.4367407    0.2214491  38.15  0.001472627    1.921    0.479
       121 -11.0947      5.6270    200.1607   1.2955999291e+02   3.1963540882e+01    0.1780054    0.1302507  75.65 0.0002636137    1.052    0.049
       122  -9.3582    170.4051    200.2310   9.6343132282e+01   8.0729455922e+00    0.1723673    0.1303165 -60.68 0.0009337779    1.676    0.403
       123 -10.2882     32.1307    198.9917   1.2455350594e+02   2.9582708630e+01    0.1972231    0.1437795  60.25  0.001369527    1.185    0.156
       124  -9.0145     62.4644    198.5444   1.1851378378e+02   2.6056039221e+01    0.1218448   0.09996892  74.77 0.0001162124    1.042    0.040
       125  -9.9666     12.9604    197.1687   1.2805474816e+02   3.1887521552e+01    0.1864971    0.1311079 -76.39 0.0009906612    1.363    0.266
       126 -10.2360    109.6542    197.3268   1.0854517869e+02   1.9322706334e+01     0.212771    0.1394922  71.97 0.0007108061    1.717    0.418
       127 -10.1359    108.4638    191.4413   1.0799009207e+02   2.0709669507e+01    0.2256856     0.124157 -54.27 6.912565e-05    1.968    0.492
       128 -10.3266     82.4762    195.4803   1.1405075812e+02   2.3921050777e+01    0.2146179    0.1796188  80.21 0.0004845138    1.059    0.056
       129 -10.3850     38.1712    194.9200   1.2306478378e+02   2.9755452504e+01    0.3820319    0.1935293 -51.33  0.001977917    2.742    0.635
       130 -10.3733     95.4905    194.7696   1.1121365896e+02   2.2105584551e+01    0.2158549    0.1853937  44.30 0.0005600584    1.232    0.188
       131  -9.3708      6.6707    194.8414   1.2908506764e+02   3.2932226901e+01    0.1365345    0.1094529  68.87 0.0004744172    1.203    0.169
       132  -9.6668     44.3974    194.1754   1.2176238725e+02   2.9198565170e+01    0.1615774    0.1205089  83.22 0.0005778152    1.086    0.079
       133  -9.9474    100.0601    192.5549   1.0995062060e+02   2.1842701787e+01    0.1872127    0.1590583 -81.31 0.0002214684    1.176    0.150
       134  -9.8103     52.8186    193.0595   1.1995589619e+02   2.8422355267e+01    0.2734309    0.1931201 -74.52  0.001310723    1.336    0.252
       135  -9.4814     49.5216    192.4663   1.2057464177e+02   2.8948568408e+01    0.1213919   0.09661447  77.56 0.0001543795    1.017    0.016
       136 -10.7152     58.9640    190.2515   1.1841337427e+02   2.8243166400e+01    0.2311431    0.1529102 -73.81 -0.000430966    1.412    0.292
       137 -11.4032     91.6253    188.9846   1.1130254865e+02   2.3906539674e+01    0.2768816    0.2166226 -81.81 0.0004216704    1.246    0.197
       138  -9.7199     66.9936    191.1931   1.1682823396e+02   2.6990667117e+01    0.1705195    0.1237144 -55.20 0.0004335424    1.627    0.385
       139  -9.7042    165.8450    188.4618   9.5244374188e+01   1.0995549129e+01     0.241344    0.1677163 -77.59  0.001116027    2.329    0.571
       140  -9.4012    120.3930    189.1946   1.0508017113e+02   1.9151562041e+01    0.1819076    0.1261973 -74.94 0.0009393172    1.663    0.399
       141 -10.6172    104.9865    185.9420   1.0797101623e+02   2.2421611169e+01    0.2769078     0.217361  69.77 0.0008011907    1.210    0.174
       142  -9.9851     85.5420    186.9044   1.1235810858e+02   2.5269330000e+01    0.2149776    0.1746764  32.72 0.0005958249    1.453    0.312
       143  -9.9254     75.3066    186.4600   1.1452446529e+02   2.6852371703e+01    0.2279193    0.1080572 -66.85  0.001087867    2.066    0.516
       144  -9.0896     48.5689    187.4921   1.2031163149e+02   3.0115414755e+01     0.121216   0.09804667  81.88 0.0001662254    1.042    0.040
       145  -8.8354    148.9851    186.7799   9.8513400625e+01   1.4475377061e+01    0.1696917    0.1047827  42.39 0.0008146575    1.470    0.320
       146 -10.1321     35.7308    184.6206   1.2271094185e+02   3.2191301671e+01     0.231649    0.1963283 -30.05  0.001564758    1.880    0.468
       147  -9.2972    130.0379    184.3441   1.0221563644e+02   1.8432074449e+01       0.1888    0.1632518  53.98 0.0002842004    1.046    0.044
       148 -11.0261     15.6289    183.1328   1.2665704023e+02   3.4527103305e+01    0.2267969    0.1714165 -88.04 0.0004897282    1.124    0.110
       149  -9.2864    198.4955    183.0094   8.7601216243e+01   5.7555949301e+00    0.1660335    0.1229431 -69.19 0.0005375208    2.185    0.542
       150 -10.1702    177.8447    184.1545   9.1975393131e+01   9.4894030183e+00    0.1967742    0.1820662  52.86  0.000395431    1.145    0.127
       151  -9.2352      2.6238    183.5244   1.2921294957e+02   3.5588777730e+01    0.1109148   0.07837962  83.59 0.0001521154    1.031    0.030
       152 -10.3778     55.8505    180.9476   1.1811787072e+02   3.0637036760e+01    0.1965281    0.1676276  62.89 0.0008374199    1.159    0.138
       153  -8.7016    206.2814    179.7244   8.5441147151e+01   4.8305838769e+00    0.1222127    0.1102628  79.80 0.0001729676    1.502    0.334
       154  -8.9619    182.3489    179.7234   9.0211639830e+01   9.4107374551e+00    0.1373317     0.109642  71.03 0.0007005936    1.636    0.389
       155  -9.0360    130.3038    175.6783   1.0071044731e+02   2.0161307676e+01    0.2104379    0.1279901 -81.74 0.0006382602    2.686    0.628
       156  -9.3951      4.0001    179.0084   1.2868365353e+02   3.6412318742e+01    0.1319543   0.09659066  81.25  0.000341189    1.017    0.017
       157 -10.5341     92.0511    177.5938   1.0967368022e+02   2.6282180591e+01    0.2379432    0.1779026 -62.36 0.0007094424    1.363    0.266
       158 -12.2371     78.6260    173.8735   1.1221450217e+02   2.9124156088e+01     0.411025    0.2499978  80.29 0.0001343928    1.896    0.473
       159  -9.9260     46.0706    177.0411   1.1983414860e+02   3.2670427261e+01    0.1844441    0.1460211  78.95 0.0003174015    1.031    0.030
       160 -12.5564     32.0304    176.6364   1.2280064714e+02   3.4304630241e+01    0.3029811    0.2248563 -56.13 0.0007311255    1.604    0.376
       161  -9.6770    108.4696    176.2832   1.0575373247e+02   2.3893618960e+01     0.293306    0.1399237  51.59  0.001145599    2.089    0.521
       162  -9.4164     24.0071    176.4816   1.2446952363e+02   3.5146998001e+01    0.1507946    0.1027344  47.39 -7.312131e-05    1.466    0.318
       163  -9.4222     17.5028    174.9771   1.2570090696e+02   3.6087151533e+01    0.1552094   0.07126222 -56.78 0.0008082024    2.398    0.583
       164  -9.0287     87.3076    173.3492   1.1015692276e+02   2.7947891260e+01    0.1280879    0.1049584 -31.36 0.0007043403    1.707    0.414
       165  -9.9367     63.1176    170.9912   1.1538278978e+02   3.1908683702e+01    0.1938894    0.1604579  77.64  0.000431319    1.037    0.036
       166  -9.7572     43.2396    170.3468   1.1978143887e+02   3.4474089627e+01    0.2876124    0.1957498  -3.11  0.001260456    3.068    0.674
       167 -10.1337    121.7732    169.1124   1.0152246412e+02   2.3107284747e+01    0.3623708      0.20293 -40.84   0.00139504    2.230    0.551
       168  -9.0791     19.6764    169.6723   1.2483977168e+02   3.7035258955e+01    0.1108273   0.07885481 -54.07 0.0007049188    1.693    0.409
       169  -9.7078      2.6778    166.7744   1.2818692696e+02   3.9109572305e+01     0.259764   0.08902715 -67.89  0.001115752    2.342    0.573
       170  -9.7665     53.9573    166.9788   1.1699927478e+02   3.3971169875e+01    0.1932155    0.1491879 -40.11 0.0007639452    1.774    0.436
       171 -10.6049     46.4597    166.2780   1.1863045134e+02   3.5018604508e+01     0.282068    0.1703197  52.67 0.0005433724    1.577    0.366
       172  -9.0082     61.3642    166.2511   1.1520611320e+02   3.3205159051e+01     0.115304    0.1004443 -29.03 0.0004569652    1.620    0.383
       173 -10.6887     24.4947    163.1016   1.2324438400e+02   3.8032184188e+01    0.1973281    0.1707548  78.28 0.0003763017    1.166    0.142
       174 -10.5004     75.6074    162.0470   1.1129488734e+02   3.2226449149e+01    0.2611453    0.2005695 -61.64  0.001500536    1.295    0.228
       175 -10.4414    140.1497    160.9709   9.5769492788e+01   2.1383113039e+01    0.2422821    0.1984198  46.07 0.0004241617    1.165    0.142
       176 -10.9806     37.4455    159.6068   1.1998024086e+02   3.7522126001e+01    0.5752971    0.2032654  50.87  0.002496273    2.879    0.653
       177 -10.7604     29.9996    154.4650   1.2117431806e+02   3.9446456708e+01    0.3434373    0.1912772  54.40  0.001926261    1.767    0.434
       178  -8.9708      4.4581    159.4821   1.2731904850e+02   4.0547928529e+01    0.1160779   0.08494161  86.03 0.0001161395    1.027    0.027
       179  -9.4116     66.1596    158.3633   1.1304635936e+02   3.4379476417e+01    0.1874138     0.107322  49.89 0.0007143743    1.717    0.418
       180 -10.7902    112.9045    153.7700   1.0087597291e+02   2.8094494589e+01    0.2752492    0.2225709  59.65 0.0006183629    1.215    0.177
       181  -9.0657     72.4561    154.4245   1.1095281238e+02   3.4430363542e+01    0.1343727    0.1175945  87.71 0.0001927302    1.008    0.008
       182  -9.4252     45.7943    151.7579   1.1711570957e+02   3.8413228798e+01     0.169329    0.1227105  79.38 0.0002669573    1.274    0.215
       183  -8.9370      1.3197    152.6880   1.2751525908e+02   4.2268301432e+01    0.1194048   0.06541353  69.66 0.0002938887    1.648    0.393
       184  -8.9618    207.2917    151.6994   7.9377592002e+01   9.4072413306e+00    0.1359867    0.1170669 -78.72 0.0002543792    1.566    0.362
       185  -9.6719     72.3576    150.8505   1.1044099668e+02   3.5277133233e+01    0.2330991    0.1668911  59.05  0.001202326    1.392    0.281
       186  -9.4749     20.2943    150.3107   1.2302761273e+02   4.1286891907e+01    0.1144858   0.07876328 -54.23 0.0002919491    1.591    0.372
       187  -9.1240    163.3313    148.2652   8.7832776374e+01   1.9304054508e+01    0.1498568    0.1176508  11.88 0.0002255891    1.578    0.366
       188 -10.4728      5.6013    147.9025   1.2619828623e+02   4.3012791929e+01    0.2369243      0.12694  60.58            0    1.804    0.446
       189 -10.8586     13.5363    143.3118   1.2396258502e+02   4.3436050179e+01    0.2661281    0.1799107  84.54   0.00114943    1.244    0.196
       190  -8.9669     24.6778    144.7222   1.2143366568e+02   4.2172013935e+01    0.1142651   0.08281834 -49.85 0.0002472205    1.582    0.368
       191  -9.7107      4.9173    142.9728   1.2595646210e+02   4.4162703775e+01    0.1748658    0.1278015 -86.75 0.0003725876    1.033    0.032
       192  -8.8471     21.3138    142.2924   1.2199695145e+02   4.3025509898e+01    0.1155697   0.08037856 -51.24 0.0005550485    1.594    0.373
       193 -11.0071     35.2482    139.1291   1.1818239515e+02   4.2468962592e+01    0.2897585    0.2076206  73.01  0.001599537    1.353    0.261
       194 -10.6662    236.1427    137.7972   7.0976137946e+01   5.9425634256e+00    0.2054905    0.1914592 -46.66 0.0007686359    1.222    0.181
       195  -9.7153     49.8581    136.2980   1.1403507167e+02   4.1576521206e+01    0.2501109    0.1375631 -46.51  0.001012052    2.051    0.512
       196  -9.8822      8.5705    132.9887   1.2419747519e+02   4.6154544206e+01    0.3439638     0.106114 -51.30  0.001430897    3.511    0.715
       197  -9.2927    104.8696    132.8174   9.8783355336e+01   3.4351380649e+01    0.1982498    0.1635649  77.03 0.0003885454    1.303    0.233
       198 -10.9881     40.5112    131.9659   1.1588384509e+02   4.3619068862e+01    0.3093612    0.2686261  29.37 0.0007128898    1.419    0.295
       199 -12.5190     28.2113    131.9384   1.1910541616e+02   4.4814864231e+01    0.3012244    0.2306435  71.17 0.0007887626    1.279    0.218
       200 -10.6451     20.7488    126.5221   1.2040444365e+02   4.6715347187e+01    0.2660918    0.2055249 -43.69 0.0004569749    1.508    0.337
       201 -10.4138     77.8944    129.0740   1.0529284680e+02   3.9634994994e+01    0.3645813    0.1821086  44.64  0.001595991    2.095    0.523
       202 -10.0699     17.9462    131.0122   1.2164095793e+02   4.5900482514e+01    0.1802498     0.141592 -80.15 0.0003159822    1.019    0.019
       203  -9.9601     91.9049    126.3256   1.0091015851e+02   3.8100305492e+01    0.2384233    0.1876049 -71.36 0.0002617772    1.256    0.204
       204  -9.7530     30.0607    125.6968   1.1782402539e+02   4.6109371909e+01    0.1633388    0.1414164 -75.72 0.0003708968    1.091    0.083
       205 -10.9841      4.5605    110.7049   1.2294347655e+02   5.1503824800e+01    0.3061865    0.1302403 -57.66   0.00144717    1.900    0.474
       206 -11.3164      4.7751    123.5306   1.2423716024e+02   4.8565360063e+01    0.4246507    0.2993364 -42.78  0.002806531    1.679    0.404
       207 -10.0583     22.1183    120.8462   1.1934353538e+02   4.7925840647e+01    0.3762907    0.1627595 -50.86  0.001611141    2.243    0.554
       208 -11.3751      9.2292    118.2592   1.2251614275e+02   4.9477348653e+01    0.3279389    0.1701693 -55.74 0.0005761309    1.712    0.416
       209 -12.1332     18.8129    112.9308   1.1923441173e+02   5.0027738822e+01    0.8177609    0.4399763 -65.33  0.003483759    1.455    0.313
       210 -11.5034     69.2952    123.1039   1.0655047981e+02   4.2283519476e+01    0.2344161    0.2133964 -73.35 0.0002541167    1.032    0.031
       211 -10.6511    237.5411    121.2970   6.6943054150e+01   8.3650599055e+00    0.2521584    0.1682387  26.96   0.00119599    1.809    0.447
       212 -10.3742     92.6001    119.2399   9.9199483096e+01   3.9656831501e+01    0.3021004    0.2610137 -59.12 0.0008878756    1.086    0.079
       213  -9.3555     45.4915    120.0088   1.1272902598e+02   4.5930334139e+01     0.189637    0.1115719 -66.11 0.0007370426    1.441    0.306
       214  -9.6688     97.8261    118.9099   9.7666381742e+01   3.8843919354e+01    0.2085827    0.1893343 -34.39 0.0003400697    1.190    0.159
       215 -11.6428      1.5010    116.0025   1.2433849619e+02   5.0479627471e+01    0.2102315    0.1109156 -76.24  0.001221245    1.443    0.307
       216 -11.1139     55.2616    118.0224   1.0960546802e+02   4.5296937067e+01    0.2218323    0.1929504  39.82 0.0003809741    1.307    0.235
       217 -10.4685     49.3898    117.5137   1.1120253547e+02   4.6096872327e+01    0.2586915    0.1733211  85.12 0.0006102038    1.690    0.408
       218  -9.4932    123.2768    121.0131   9.1274830603e+01   3.3577989221e+01    0.2048785    0.1876956 -62.54 0.0002800611    1.076    0.071
       219  -8.9572     30.2807    117.3390   1.1661182877e+02   4.8054575296e+01    0.1285334   0.07998051 -48.17 0.0003480132    1.623    0.384
       220  -9.4666    108.6652    114.9900   9.3747130911e+01   3.7795770245e+01    0.2118009    0.1832934 -58.94 0.0004492041    1.118    0.105
       221  -9.5917     34.5004    115.1190   1.1508484881e+02   4.8192768540e+01    0.2305586     0.122742  56.12  0.001124111    2.280    0.561
       222  -9.9413     60.9682    113.9460   1.0719045742e+02   4.5567459142e+01     0.211805    0.1793163 -69.77 0.0005603467    1.049    0.047
       223  -9.9803     47.7591    111.5847   1.1063837783e+02   4.7687180073e+01     0.174146    0.1617355  67.17 0.0005065847    1.184    0.155
       224  -9.4585     45.2720    109.3166   1.1097017979e+02   4.8492828964e+01     0.183431    0.1107376 -72.76 0.0002215019    1.542    0.352
       225  -9.4413     31.5332    111.4825   1.1538146900e+02   4.9321066555e+01    0.1280584    0.1043469 -70.39 -1.686975e-05    1.012    0.012
       226  -9.3609     92.7836    108.9977   9.6792425506e+01   4.2025426782e+01    0.2001088    0.1129078 -53.23 0.0007081968    1.661    0.398
       227  -9.4946     36.6597    108.6946   1.1342687639e+02   4.9505340894e+01    0.1312203    0.0853691 -40.71 0.0007041162    1.680    0.405
       228 -10.5980     64.0204    106.5381   1.0478118040e+02   4.6933285007e+01    0.3580505    0.2439443  78.19 0.0009440493    1.956    0.489
       229 -10.3149      5.8490    114.9264   1.2305908624e+02   5.0460290826e+01    0.2511781    0.1423958 -53.41 0.0007439557    1.643    0.391
       230 -10.6880     47.4355    103.8128   1.0929188365e+02   4.9562005964e+01    0.4628001    0.1110957 -56.58  0.001291494    3.091    0.676
       231  -9.3362     83.6294    124.2149   1.0275878817e+02   3.9924272656e+01    0.2065199    0.1197183 -49.00 0.0004494063    1.679    0.404
       232 -10.2398     36.1071    103.9086   1.1277644936e+02   5.0684120810e+01    0.1845343    0.1518059 -88.26            0    1.204    0.169
       233  -9.3615    100.5476    103.4778   9.3174506862e+01   4.1934891952e+01    0.1484423    0.1401353 -53.72 6.934497e-05    1.005    0.005
       234  -9.3855     29.4673    103.4521   1.1471674701e+02   5.1386003023e+01    0.1269142    0.1038495 -69.98 7.677243e-05    1.016    0.016
       235  -9.7401     53.6854    102.2896   1.0706082569e+02   4.9216936349e+01     0.131413    0.0984088  77.74 0.0001818289    1.590    0.371
       236 -10.9836    141.8595    100.9547   8.1277748058e+01   3.3997346286e+01    0.2363782    0.2227481  45.41 0.0002972656    1.073    0.068
       237 -11.2844     41.9180     99.1160   1.1009907104e+02   5.1243522071e+01    0.2652293    0.2288642  28.71 0.0003825311    1.377    0.274
       238  -9.4647      3.8895     98.0329   1.2162018012e+02   5.4429772509e+01    0.1883614    0.1617436  71.93   0.00137677    1.292    0.226
       239 -10.5931     54.5047     94.5289   1.0514270767e+02   5.0936954266e+01     0.453588    0.1133296 -58.20  0.001483083    3.348    0.701
       240  -9.7204     32.1540     95.0943   1.1242857310e+02   5.3102187873e+01    0.2978738    0.1413189  89.77  0.001066586    4.063    0.754
       241 -10.2296     23.0331     95.9351   1.1545878583e+02   5.3655212325e+01    0.1818355    0.1476697 -68.28  0.001199089    1.022    0.021
       242 -11.1915     46.4778     94.3065   1.0767858783e+02   5.1892732068e+01    0.3171684    0.2166544  36.57  0.001096542    1.682    0.405
       243 -10.3112      8.7318     99.2005   1.2032993031e+02   5.3882192969e+01    0.2385771    0.1528047  59.06 0.0009278125    1.822    0.451
       244 -10.2881      1.6430     92.9490   1.2164063066e+02   5.5701414784e+01    0.2470514    0.1237019 -80.62  0.000784677    1.729    0.421
       245 -10.3744    104.5528     91.4377   8.8763155384e+01   4.3885263475e+01    0.2940837    0.2450326 -81.05 -0.0003254562    1.444    0.308
       246 -10.3249     16.2973     92.1279   1.1696074271e+02   5.5016538626e+01    0.3418143    0.1572088 -22.05   0.00143676    3.963    0.748
       247 -10.6051      7.0018     89.8986   1.1955786852e+02   5.6101418894e+01     0.254712     0.151301 -71.25  0.001428886    1.314    0.239
       248  -9.7534    118.0069     90.0374   8.4504800007e+01   4.1503551488e+01    0.2235716    0.2179744   8.40 0.0004320401    1.048    0.046
       249 -11.1527     27.0837     87.8160   1.1271403180e+02   5.5207847137e+01    0.5457792    0.2404843 -41.13  0.002531336    2.395    0.582
       250 -12.2279     21.2833     87.8165   1.1462403457e+02   5.5652699082e+01    0.2325088    0.2110343 -77.74 0.0003143835    1.155    0.134
       251 -10.0061     87.9175     88.6811   9.3024072788e+01   4.7485669201e+01    0.2601952    0.1842088 -40.94 0.0006336972    1.351    0.260
       252 -10.0080    123.7531     87.1864   8.2080717216e+01   4.0886261262e+01    0.2654791    0.1999485 -53.05 0.0005778623    1.379    0.275
       253  -9.0655     67.2835     88.6603   9.9601614586e+01   5.0652949229e+01    0.1363414    0.1059875 -89.91 0.0001743247    1.630    0.387
       254 -10.1579     11.1539     86.0255   1.1763316676e+02   5.6735619385e+01    0.3259541    0.1769167  89.29  0.001686098    2.159    0.537
       255 -10.8768      2.8029     87.4310   1.2052974658e+02   5.6885051606e+01    0.2303945    0.1477423 -68.89 0.0003505427    1.179    0.152
       256 -10.5591    155.0685     85.2178   7.3567785533e+01   3.4078841341e+01    0.2485102    0.2202612 -39.34 0.0003614822    1.122    0.109
       257  -9.6429     64.1256     86.6512   1.0012506221e+02   5.1537740750e+01    0.1824988    0.1303177  14.18 0.0009403632    1.757    0.431
       258  -8.7823     97.6829     88.7459   9.0046881228e+01   4.5757291883e+01    0.1427117     0.114466  -5.45 0.0002402355    1.532    0.347
       259 -11.9638     50.2249     83.2846   1.0394685388e+02   5.4014355438e+01    0.4024226    0.2843218  -3.78 0.0006020036    1.872    0.466
       260 -10.8179     73.2574     81.1417   9.5631129635e+01   5.1483162209e+01    0.4673998    0.2036491 -42.19  0.001872198    2.236    0.553
       261 -10.4588     44.1895     80.4636   1.0533942988e+02   5.5308008179e+01    0.2836271    0.1989059 -42.87  0.001096595    1.291    0.225
       262 -10.2527     20.2385     81.7618   1.1386296786e+02   5.7104477575e+01    0.2814478    0.1728797  89.47 0.0006668066    1.978    0.494
       263 -10.0547     18.2924     77.2830   1.1367469901e+02   5.8247653619e+01    0.2107415    0.1243125 -57.84 0.0004861446    1.309    0.236
       264  -9.8899     19.2947     73.3289   1.1252857925e+02   5.9060584153e+01    0.2950134     0.166864 -25.94  0.001082749    2.146    0.534
       265  -9.6147     57.5213     81.3093   1.0096747439e+02   5.3593932465e+01    0.2161198    0.1263067  28.59   0.00106293    1.977    0.494
       266 -10.8310     52.1520     75.8917   1.0140886154e+02   5.5448461576e+01    0.3384995     0.213698 -20.99  0.001355734    2.060    0.515
       267 -10.0310     29.1334     75.8146   1.0955156198e+02   5.7759575452e+01    0.4442876    0.1370228 -60.21  0.001827212    2.516    0.603
       268 -10.8633     63.3006     75.6588   9.7457631382e+01   5.4097105176e+01    0.3975692     0.249986  44.21  0.001902785    1.870    0.465
       269  -9.4379     93.0868     74.5107   8.7229162400e+01   4.9634022594e+01    0.1998655    0.1444415  40.15 0.0003644193    1.464    0.317
       270  -9.4033     94.9922     71.5221   8.5684680486e+01   4.9899029279e+01     0.227462    0.1832259   9.36 0.0003714126    1.417    0.295
       271 -10.0026     69.6346     74.1357   9.4842063873e+01   5.3541858429e+01    0.1941844     0.190449  82.04 0.0004464448    1.178    0.151
       272  -9.1156    168.7406     72.3246   6.6712887708e+01   3.3074862950e+01    0.1563415    0.1185702 -65.33 0.0001328734    1.555    0.357
       273  -9.3735    138.0499     72.4806   7.3802814691e+01   4.0564487252e+01     0.219301    0.1524103  51.97 0.0003675497    1.455    0.313
       274 -10.9572     88.6813     70.7866   8.7462348295e+01   5.1188040987e+01    0.4902513    0.2415085 -52.91 0.0006488055    2.219    0.549
       275 -10.7043     48.8202     65.3580   9.9699509840e+01   5.8119354807e+01    0.3517061    0.1971664 -11.96  0.001492535    3.017    0.669
       276 -10.8285     42.1932     70.9244   1.0366751282e+02   5.7634923721e+01    0.2073038    0.1879536  -0.96 0.0002445192    1.237    0.192
       277  -9.9098     45.0000     68.9893   1.0212681134e+02   5.7762175042e+01    0.2240158    0.1537415 -54.63            0    1.265    0.210
       278 -10.6313    204.9696     69.4861   5.9189263377e+01   2.4441412341e+01    0.2626372    0.2068558 -37.39  0.001316301    1.229    0.186
       279 -11.3066     79.7747     69.9859   9.0141983515e+01   5.2860329165e+01     0.231438    0.2153245  23.46 0.0003208389    1.150    0.131
       280 -11.0691     52.4133     69.6919   9.9621740327e+01   5.6772287205e+01    0.2353554    0.2105028 -57.39 0.0003834859    1.145    0.127
       281  -9.3045     63.8236     69.3918   9.5454455359e+01   5.5376025358e+01    0.1776682    0.1283437  12.95 0.0006114991    1.650    0.394
       282 -10.6014     20.2000     40.7485   1.0383461193e+02   6.5859175065e+01    0.4956558    0.3264245  37.77   0.00306797    2.002    0.501
       283 -11.2580      5.1464     38.8231   1.0996517389e+02   6.7194775922e+01    0.6525784    0.2882528  28.25  0.003383467    2.783    0.641
       284 -11.5956      7.4464     50.9698   1.1210229626e+02   6.4599820694e+01    0.4122227    0.2774353 -44.36  0.001873542    1.190    0.159
       285 -11.5563     17.2055     46.9812   1.0698667599e+02   6.4827466884e+01    0.5186486    0.2307953  20.39  0.002654467    2.661    0.624
       286 -11.7003      1.6681     62.1080   1.1675744603e+02   6.2524818060e+01    0.9093356      0.10167 -66.18  0.002845812    5.164    0.806
       287 -11.8079      5.6177     58.9761   1.1462612241e+02   6.3005893981e+01    0.5703303     0.370554  60.86  0.003429212    2.226    0.551
       288 -12.6606     12.4264     44.0544   1.0821354112e+02   6.5732186917e+01    0.2945942    0.1738952 -46.60  0.000551506    1.283    0.220
       289 -11.4367     14.2855     39.6667   1.0612345475e+02   6.6489313660e+01    0.1694243    0.1418107 -47.96   0.00044377    1.144    0.126
       290 -12.5168     13.5913     36.0688   1.0532650031e+02   6.7238848006e+01     0.243754    0.1940395 -30.57 0.0003379206    1.111    0.100
       291 -10.4909     56.6472     66.9003   9.7279753205e+01   5.6850451295e+01     0.303242    0.2392698 -88.59 0.0007918853    1.797    0.443
       292 -10.4151    105.8420     67.0177   8.0882455463e+01   4.8691466407e+01    0.2442833    0.2085031  39.64 0.0004620578    1.204    0.169
       293 -10.0873     21.7712     64.7551   1.0972826058e+02   6.0767109193e+01    0.4236996    0.1133267 -55.32  0.001546984    2.547    0.607
       294  -9.7934     75.2809     66.1145   9.0438439125e+01   5.4375469795e+01    0.1919595    0.1649257 -40.05 0.0003906903    1.075    0.070
       295 -10.3049     15.6788     65.3494   1.1215976970e+02   6.1055119572e+01    0.2313787    0.2094883  67.35  0.001495541    1.382    0.276
       296 -10.1626     17.2252     61.1208   1.1061380771e+02   6.1867580390e+01    0.2970432    0.1852592  83.82  0.001549685    2.519    0.603
       297 -10.5902     31.4492     64.6129   1.0602389428e+02   6.0024937060e+01    0.2939501     0.221258  34.27  0.001844434    1.610    0.379
       298  -9.1641    101.2533     70.3415   8.3362046126e+01   4.8948753008e+01    0.1478658    0.1111697 -12.63 0.0002976657    1.578    0.366
       299  -9.9160     98.4122     60.7909   8.1047860764e+01   5.1352748097e+01    0.1929414    0.1322819 -28.36 0.0003015759    1.485    0.327
       300  -9.7858     73.3627     61.2672   8.9521173876e+01   5.5655130196e+01    0.2230953    0.1820141  15.48 0.0006535295    1.310    0.237
       301 -10.3109     70.4833     59.8942   9.0080486750e+01   5.6371079368e+01    0.2534013    0.2108451 -24.45 0.0005476091    1.117    0.105
       302 -13.1113     24.1359     57.6773   1.0705429607e+02   6.2105436393e+01    0.3202136    0.2573544 -51.97 0.0005312113    1.065    0.061
       303 -10.3606     31.7521     59.0841   1.0443409640e+02   6.1177961707e+01    0.2277318    0.1973905  44.33  0.001523155    1.465    0.317
       304  -9.1823    238.4460     58.5548   5.1557966427e+01   1.8098116652e+01    0.1391733    0.1255382 -53.67 0.0001147396    1.008    0.008
       305 -10.2971     53.4941     56.1031   9.5093705804e+01   5.9478930033e+01    0.3459366    0.2218203 -77.17  0.001503473    3.073    0.675
       306  -9.7225    118.5405     55.4718   7.3284562399e+01   4.8103101209e+01    0.2686254     0.142445 -23.70   0.00069526    2.338    0.572
       307  -9.0246     93.2991     55.3062   8.0743860939e+01   5.3351388257e+01    0.1445713    0.1073812  -0.99 0.0004678274    1.592    0.372
       308 -11.1091     94.3360     49.6640   7.8366347319e+01   5.4158600802e+01    0.4824996    0.3357715 -15.21  0.001068691    1.613    0.380
       309 -10.3938    151.2391     53.2854   6.4499714280e+01   4.0667911838e+01    0.2443985    0.2169278  23.60 0.0003463287    1.188    0.158
       310 -11.9285     42.0044     51.9032   9.8224578080e+01   6.1656757040e+01    0.4516537    0.2621008 -25.99   0.00135816    1.896    0.473
       311  -9.0094    134.9704     53.2168   6.8238535032e+01   4.4675635451e+01    0.1850188    0.1207007  53.80 0.0008237799    1.519    0.342
       312  -9.6557     28.8585     53.3031   1.0395655767e+02   6.2635917764e+01    0.1641077    0.1477753  47.50   0.00085955    1.446    0.309
       313 -10.3159    122.7104     51.7216   7.0843899319e+01   4.7794561227e+01    0.3476003    0.2635725  46.07  0.001354355    1.296    0.229
       314 -10.2261     60.7692     51.9760   9.0937030035e+01   5.9334155703e+01    0.2084251    0.1834161  10.76 0.0006564631    1.184    0.156
       315 -10.9781     65.6419     49.3011   8.8159032180e+01   5.9143263071e+01     0.299941    0.1957154 -28.82 0.0007778655    1.475    0.322
       316  -9.9821     31.5500     47.9603   1.0123984186e+02   6.3484857930e+01    0.1681833    0.1421403 -28.41 0.0006075051    1.089    0.082
       317  -9.9040    114.6069     47.0195   7.1357158411e+01   5.0385067048e+01    0.2054732    0.1721712 -24.80 0.0004390407    1.183    0.155
       318  -9.0407    165.0423     46.0174   5.9338996193e+01   3.8260461942e+01    0.1725066     0.170133  75.43 0.0009551612    1.020    0.019
       319 -11.1474     62.0108     44.6719   8.7825443445e+01   6.0529726767e+01    0.3129885    0.2120599 -35.70 0.0004428926    1.311    0.237
       320  -9.4306    122.7754     45.4657   6.8600721407e+01   4.8782819192e+01    0.2068882    0.1303401  39.69 0.0009311889    1.599    0.375
       321 -10.1136    199.9912     43.5128   5.2762355540e+01   2.9607676461e+01    0.2405741     0.203982  -4.90 0.0003499203    1.406    0.289
       322  -9.2426    192.5150     44.5005   5.4162533952e+01   3.1381789156e+01    0.1460638     0.139725 -86.54 0.0008104625    1.014    0.014
       323  -8.9587    215.6863     48.2496   5.1860768446e+01   2.5005112727e+01    0.1440736    0.1027392 -70.18 0.0003024623    1.519    0.342
       324 -10.0241     70.3958     42.1828   8.3731583339e+01   5.9696953285e+01    0.2537329    0.1157813 -40.26  0.001116619    2.031    0.508
       325 -10.7182     47.3694     46.8107   9.4360709218e+01   6.2053501336e+01    0.4075269    0.2194727 -13.86  0.001458088    3.016    0.668
       326 -10.0991     33.2236     43.6654   9.9141682997e+01   6.4176657640e+01    0.2144825    0.1710711 -53.31 0.0009946665    1.274    0.215
       327 -11.9161    103.5267     39.2875   7.1626131658e+01   5.3993859036e+01     0.387838    0.2408989 -27.15 0.0004657851    1.625    0.385
       328  -9.9488     32.9150     54.3151   1.0261462905e+02   6.2068424277e+01    0.1783011    0.1576742  48.80   0.00110358    1.474    0.321
       329 -10.0098     91.2966     40.7858   7.5974758658e+01   5.6232574536e+01    0.2298717     0.188832  50.37  0.001279274    1.367    0.268
       330 -10.1306     38.7264     40.4640   9.5690630014e+01   6.4233659380e+01     0.345352    0.1882742   2.16  0.001307992    2.700    0.630
       331  -9.8585     40.7438     35.7111   9.3065675992e+01   6.4889961504e+01    0.2892121     0.201764 -70.09  0.001518125    2.480    0.597
       332 -10.1408    117.6108     38.8728   6.7540246505e+01   5.0964018118e+01    0.4111623    0.1792687  51.90  0.001092283    2.207    0.547
       333  -9.8249     82.2205     39.1017   7.8325036423e+01   5.8201902607e+01    0.2026194    0.1662293  -7.90 0.0004675194    1.152    0.132
       334  -9.0689     97.0038     38.7607   7.3386245158e+01   5.5422827553e+01    0.1731387    0.1144308  45.17 0.0004085449    1.512    0.338
       335 -10.1819     85.9907     37.1695   7.6284240533e+01   5.7817796831e+01    0.2208624    0.1797609 -20.91 0.0003816101    1.151    0.131
       336 -10.3567    208.3156     36.2123   4.9604973304e+01   2.8488678367e+01     0.348963    0.2339889  25.42  0.001584024    2.179    0.541
       337 -10.3814    156.1447     36.9454   5.8114406432e+01   4.1823194687e+01    0.2410331    0.2031281  59.01 0.0003143501    1.132    0.116
       338 -11.1315     75.5525     33.8562   7.8533701140e+01   6.0219397637e+01    0.4456381    0.2714708  13.89  0.001879253    2.129    0.530
       339 -12.2835    193.9945     35.1899   5.1269116947e+01   3.2266148980e+01     0.279737    0.2598435 -89.16 0.0003643522    1.013    0.013
       340  -9.4445    198.8125     35.1473   5.0581178496e+01   3.1037159279e+01     0.194165     0.163857  39.54 0.0004158751    1.335    0.251
       341  -9.5091    175.5971     35.8140   5.4278841876e+01   3.6945786532e+01    0.2121104    0.1280214 -42.57 0.0009456978    1.687    0.407
       342 -11.1610    142.4650     31.6767   5.9074095161e+01   4.5987026009e+01    0.5773172    0.2624748 -27.26  0.002084983    2.328    0.570
       343  -9.8887    136.1561     36.1289   6.2009351387e+01   4.6957268749e+01    0.2187256    0.1856007  25.00 0.0002571807    1.207    0.171
       344  -9.5460    131.7174     36.3179   6.3095492461e+01   4.8012242089e+01      0.21697    0.1768578  52.40 0.0002623335    1.179    0.152
       345  -9.9338    128.5002     35.4732   6.3549868201e+01   4.8902968601e+01    0.2650398    0.2285594 -72.51 0.0008126476    1.403    0.287
       346  -9.0337     55.5291     29.5146   8.4348995648e+01   6.4070566137e+01    0.2087317    0.1112019 -36.77  0.000712346    1.686    0.407
       347 -10.0835     60.7466     32.9610   8.3707266545e+01   6.2748088249e+01    0.2527485    0.1817321 -26.33 0.0009233979    1.235    0.190
       348  -9.9839     58.2901     35.2986   8.5631596900e+01   6.2716187162e+01    0.2009658    0.1577896 -11.00 0.0002731683    1.169    0.145
       349 -10.7304     55.0084     33.2997   8.6135301842e+01   6.3517727124e+01     0.227679    0.1800777 -30.22 0.0003454429    1.133    0.118
       350  -9.5076     47.7685     34.3818   8.9559436875e+01   6.4289689141e+01    0.1585628    0.1100278  10.89 0.0003362885    1.540    0.351
       351 -10.6821    118.2115     33.0716   6.5204404215e+01   5.1649612044e+01    0.2787551    0.2104013  68.57 0.0003485526    1.543    0.352
       352  -9.8702    137.4586    248.0560   1.0938244477e+02   5.9472518676e+00     0.145225    0.1177027 -63.35 0.0004067204    1.551    0.355
       353  -9.2850     66.4974     33.0119   8.1511855022e+01   6.1855210683e+01    0.1934835    0.1174404 -34.79  0.000488871    1.517    0.341
       354 -10.0900      5.0270     32.2767   1.0812314597e+02   6.8484195595e+01    0.2654025    0.1015678 -31.93  0.001301633    2.595    0.615
       355  -9.8206    233.0835     32.0611   4.5634355608e+01   2.2977403622e+01     0.203028    0.1768051 -67.83 0.0003475286    1.022    0.021
       356 -10.7251    159.0068     30.2841   5.5388430863e+01   4.1956896065e+01     0.255303    0.2131199 -28.13 0.0001795598    1.265    0.210
       357 -10.1574     32.6235     29.7664   9.4350713813e+01   6.6822767193e+01    0.3045488    0.2742103  68.53  0.002076484    1.775    0.437
       358 -10.3221     24.3517     30.1624   9.8313446860e+01   6.7531103389e+01    0.3450345    0.1976514 -59.36  0.001895775    2.041    0.510
       359 -10.2823    210.9368     29.2255   4.7397708579e+01   2.8727655039e+01    0.3515694    0.1980527  26.03  0.001329368    3.333    0.700
       360 -12.1669      2.0421     24.9242   1.0724516930e+02   7.0036677135e+01    0.3630037    0.1504283 -57.80  0.001977019    1.970    0.492
       361 -10.5009     15.0182     18.3222   9.8231907371e+01   7.0392684730e+01    0.2254946    0.1390155 -26.18  0.000825908    1.368    0.269
       362 -10.3564     19.0823     29.2352   1.0044857360e+02   6.8135534382e+01    0.2108183    0.1644246 -56.19  0.000926783    1.408    0.290
       363 -11.4901     18.4240     23.8669   9.8744427343e+01   6.9156931944e+01    0.2430943    0.1716261 -41.19 0.0006188495    1.163    0.140
       364 -10.6938     11.6639     22.3460   1.0151707186e+02   6.9931195461e+01    0.4240959    0.1486728  16.79  0.002020275    3.470    0.712
       365  -9.7858     77.9549    247.7634   1.1992660155e+02   1.4769694865e+01    0.2148762    0.1186382  86.22  0.001278436    2.051    0.512
       366 -10.3589    221.5030     29.0364   4.6127165586e+01   2.6140780331e+01    0.2720047    0.1813329 -80.25  0.001288222    1.584    0.369
       367 -10.3095    181.6856     28.0642   5.0975659484e+01   3.6351436065e+01    0.3300344     0.188465 -30.71   0.00130294    1.803    0.445
       368 -10.1050     71.2825     28.8304   7.7968769698e+01   6.1724159696e+01      0.28577    0.1729814  38.27  0.001495637    1.667    0.400
       369 -11.7882     48.7324     26.7417   8.5991058381e+01   6.5452237588e+01    0.3244611    0.2668009  67.44  0.001926834    2.183    0.542
       370 -10.6644    165.7193     26.8353   5.3107149944e+01   4.0646972710e+01    0.4114468    0.2014079  81.27   0.00148467    2.849    0.649
       371 -10.0219     87.6450     33.3575   7.4199742228e+01   5.8090306682e+01    0.3343476    0.1144877  42.82  0.001243437    2.887    0.654
       372  -9.8106     38.3559     26.3474   9.0363745098e+01   6.6795052413e+01    0.1959375    0.1208153 -16.64 0.0009936292    1.668    0.400
       373  -9.6065    204.7597     25.2023   4.7058981085e+01   3.0775098095e+01    0.2144821     0.121597 -11.41 0.0008932404    2.528    0.604
       374 -11.6965    201.7027    244.6764   9.7360311066e+01  -3.7485030755e+00    0.2701655    0.1811587  29.02 0.0005729941    1.202    0.168
       375  -9.6978    188.0002     23.2302   4.8653496221e+01   3.5296655144e+01    0.2089079    0.1746541  25.81 0.0004379944    1.422    0.297
       376 -10.0270    190.0692     20.2753   4.7524561686e+01   3.5105493374e+01    0.2062823     0.181012  52.59 0.0002726903    1.186    0.157
       377 -10.1857    192.8453     17.1736   4.6287948276e+01   3.4741855947e+01    0.2081107    0.1874558  86.00 0.0003623849    1.017    0.017
       378 -11.2654    175.7273     22.2359   5.0095784252e+01   3.8592057036e+01    0.4543156    0.2281065  44.54  0.001882926    2.178    0.541
       379 -10.0337     97.4920    245.0289   1.1626310057e+02   1.2481243628e+01    0.1490104    0.1087963 -72.74 0.0006196579    1.562    0.360
       380 -10.1236    169.8270     23.1767   5.1285622219e+01   4.0015044850e+01    0.2123922    0.1853603 -75.37 0.0003796401    1.175    0.149
       381 -10.2870    153.7730     23.0057   5.3916097326e+01   4.4180777963e+01    0.2393219    0.1935879  59.55 0.0003398015    1.146    0.127
       382  -9.9485    123.5811     22.5658   5.9904924523e+01   5.1731005111e+01    0.4619323    0.2442117 -65.94  0.001403997    5.135    0.805
       383 -10.0567     62.5144     22.9067   7.8685325975e+01   6.4038517467e+01    0.2473528     0.158252  20.54  0.001345421    1.629    0.386
       384 -10.2913    227.4816     22.3453   4.3807206685e+01   2.5513074229e+01    0.2336376    0.1194327  71.90  0.001079528    1.914    0.478
       385  -9.1269    207.6747     22.7218   4.6042235808e+01   3.0337210769e+01    0.1367775    0.1016401  41.21  0.000206567    1.590    0.371
       386 -10.2402    132.6336     21.9551   5.7669721549e+01   4.9614583807e+01    0.2530964    0.1999007 -79.68 0.0009973109    1.583    0.368
       387 -10.1864     89.9221     21.4023   6.8466346767e+01   5.9301415868e+01    0.3224503    0.1767266 -34.59  0.001322341    1.869    0.465
       388 -10.1307     36.2469     21.4516   8.9219490048e+01   6.7843125194e+01    0.2319796    0.1617328  -1.38 0.0005687391    1.410    0.291
       389 -10.4508     26.9794     21.3893   9.3568956685e+01   6.8829069181e+01    0.2962581    0.1718776 -11.47  0.001665893    1.925    0.480
       390 -10.0466     40.8559     21.6327   8.7199738311e+01   6.7271539937e+01    0.2154104    0.1706987  45.81 0.0008064837    1.816    0.449
       391 -10.7855    165.9369     18.1355   5.0299841707e+01   4.1592230543e+01    0.2580348    0.2244837  20.56 0.0003923389    1.289    0.224
       392  -9.3835     93.7702     20.5511   6.6934282029e+01   5.8625112596e+01    0.1774196    0.1296758  61.66 0.0007678495    1.633    0.388
       393 -10.2528    198.9285     18.7286   4.5984424552e+01   3.3013150020e+01    0.2036857    0.1739426  87.28  0.001166138    1.080    0.074
       394  -9.5687    101.9011     19.2476   6.4056931019e+01   5.7062417601e+01     0.184431    0.1591082  33.33 0.0003732577    1.063    0.059
       395 -10.4684     73.4098    244.2094   1.2043513583e+02   1.5982362631e+01    0.2030753    0.1420139  66.82 0.0005694359    1.135    0.119
       396 -10.1174     60.8755     18.0479   7.7109736534e+01   6.4988097242e+01    0.3460994    0.1535628  34.80  0.001329824    2.301    0.565
       397 -10.1289     46.1792     17.8760   8.3125039039e+01   6.7167727326e+01    0.2498044     0.192954  58.79   0.00146501    2.297    0.565
       398 -11.4056     76.0544    241.3152   1.1974254945e+02   1.6122068606e+01    0.3039758    0.1798601  66.35 0.0006423562    1.478    0.323
       399  -9.8733     23.4790     15.9910   9.2941362915e+01   7.0056579836e+01    0.1657407   0.09401122 -40.94 0.0004071808    1.475    0.322
       400 -11.0220    179.2657     13.6133   4.6991480971e+01   3.8625449516e+01    0.2523226    0.1638562  73.27  0.001033142    1.438    0.305
       401  -9.5756    179.5239    244.0002   1.0123965252e+02  -1.6441910356e-01    0.1525542   0.09742906  -9.01 0.0008093435    2.523    0.604
       402 -10.7534    169.3657     14.0715   4.8505556563e+01   4.1139120280e+01    0.2654437    0.1899493  66.66 0.0002699496    1.275    0.216
       403 -10.4345     62.8287    243.2121   1.2218769869e+02   1.7542521928e+01    0.1824495    0.1265609  66.12 0.0004464009    1.093    0.085
       404 -10.6464    145.8475    242.8203   1.0723950542e+02   5.4068403619e+00    0.1721919    0.1414405  34.16 0.0005091457    1.178    0.151
       405  -9.5543    154.8116     13.7609   5.0647162564e+01   4.4923719558e+01    0.1881677    0.1570601 -74.69 0.0005147245    1.300    0.231
       406 -10.0638     89.1433     13.9137   6.5441662605e+01   6.0360520475e+01    0.2172665    0.1697617  40.76 0.0003139519    1.202    0.168
       407 -10.6574     91.7107    242.2941   1.1704624260e+02   1.3770905577e+01    0.2226813    0.1558081  59.70 0.0004018645    1.126    0.112
       408 -10.4194    110.3862    241.0927   1.1355379452e+02   1.1220315598e+01    0.2655659    0.1768722  81.10   0.00109463    1.741    0.425
       409 -10.0655     51.2825     13.0333   7.8625564117e+01   6.7138825073e+01    0.1809397    0.1387647 -17.60  0.001166172    1.130    0.115
       410 -10.3521     55.1010    241.0895   1.2336188249e+02   1.8889141951e+01    0.2356117     0.125288  88.64  0.001029689    1.874    0.467
       411 -11.7440     21.3771    242.7916   1.2902301771e+02   2.2474396049e+01    0.4764062    0.2809931 -83.03  0.003510026    1.546    0.353
       412  -9.6115     32.0160     12.5221   8.7114769185e+01   6.9714380744e+01    0.1633095    0.1059306  22.37  0.001025581    1.573    0.364
       413  -9.1937     26.4299     12.4846   8.9850441239e+01   7.0321785398e+01    0.1171446    0.0897615 -20.00 3.968677e-05    1.020    0.020
       414 -10.1206    197.6128    240.2963   9.7451924384e+01  -2.5557202624e+00    0.2175914    0.1707395  59.43  0.001164347    1.702    0.412
       415 -10.3478    119.4111    240.8174   1.1187195777e+02   9.8855193463e+00    0.1913677    0.1148545  40.87 0.0002685126    1.410    0.291
       416 -10.4456    137.9891    239.7675   1.0832273784e+02   7.1305615377e+00     0.184853    0.1495213  51.14 0.0003947892    1.049    0.047
       417 -11.0893    143.0698    237.8560   1.0714660962e+02   6.6121559221e+00    0.5482624    0.1437111  43.37   0.00213642    2.997    0.666
       418 -10.0923     33.7814    239.5835   1.2684874032e+02   2.1681312528e+01    0.1724666    0.1492872 -85.47 0.0008978434    1.467    0.318
       419 -10.3220    246.7886    239.5870   8.8806134202e+01  -9.8579429240e+00    0.1548686   0.09172802  40.22 0.0009557975    1.671    0.402
       420 -10.3491     96.3861    238.8930   1.1588813263e+02   1.3671422810e+01    0.2339355    0.1208984  54.11 0.0007705591    1.597    0.374
       421  -9.8915    220.6872    238.3210   9.3062993884e+01  -5.8960432978e+00    0.1042577   0.08905529  53.61 0.0004391835    1.653    0.395
       422  -9.7319    167.8538    238.1303   1.0257560503e+02   2.5378139303e+00    0.1795009     0.145602  53.45 0.0007030198    1.254    0.202
       423 -10.0182    104.5282    238.5122   1.1436417179e+02   1.2531845366e+01    0.1599581    0.1059657 -87.78 0.0009783845    1.761    0.432
       424  -9.3794    105.8692    235.1952   1.1377916804e+02   1.2892884255e+01    0.1471241    0.1287941  39.71 0.0003034704    1.307    0.235
       425  -9.6780     84.1147    238.0575   1.1803222045e+02   1.5573119035e+01    0.1933351    0.1050601  62.89 0.0008765728    1.678    0.404
       426  -9.4449     63.3702    238.1941   1.2172616735e+02   1.8348026313e+01     0.147434   0.08761009  86.49 0.0009312796    1.639    0.390
       427  -9.0784     46.7254    238.3344   1.2460619428e+02   2.0397686445e+01    0.1442307   0.08301388  76.37 0.0004629481    1.491    0.329
       428  -9.2457     44.3848    235.8299   1.2484449281e+02   2.1122677550e+01    0.1946182    0.1359861 -71.06  0.001086388    1.603    0.376
       429  -9.6146    101.5309    235.8931   1.1465299211e+02   1.3424810473e+01    0.3132235    0.2036793 -34.46  0.001675186    2.986    0.665
       430 -10.1749    187.2431    235.9529   9.8697883805e+01  -3.1774946684e-01    0.1371508    0.1041933 -37.75 0.0008836222    1.604    0.377
       431  -9.9462     93.7944    234.4442   1.1593718741e+02   1.4816754706e+01    0.1927073    0.1469743 -80.22 0.0005439608    1.403    0.287
       432 -11.4076     18.0264    233.0719   1.2909455285e+02   2.4538936406e+01    0.2594834    0.1929135  71.10  0.001708812    1.115    0.103
       433  -9.6149    230.1850    233.1209   9.0587870108e+01  -6.7163631188e+00    0.1861249    0.1276175  14.61 0.0006497309    1.283    0.220
       434  -9.3883    173.3344    233.3387   1.0089296878e+02   2.3305336186e+00    0.1250264   0.08717762  13.81 0.0007051619    1.749    0.428
       435  -9.0629    156.6526    233.2968   1.0401447649e+02   5.0958564784e+00    0.1245826   0.08492056  61.63 0.0007034222    1.677    0.404
       436 -10.1533    134.2777    240.9208   1.0914494790e+02   7.5408955676e+00     0.155717    0.1390194  51.82 0.0003874076    1.136    0.120
       437 -10.0893    143.3967    232.1969   1.0637525125e+02   7.4506444828e+00    0.4447404    0.1223348  43.19  0.001730803    2.904    0.656
       438 -10.6145     73.1548    226.6632   1.1903437311e+02   1.9128988057e+01    0.4638461    0.2418666  75.79  0.002478917    2.144    0.534
       439 -11.7917     47.2777    231.0776   1.2403243288e+02   2.1635760960e+01    0.3625384     0.169655  62.55   0.00111421    1.811    0.448
       440 -11.0793     41.2648    231.4391   1.2509989396e+02   2.2282406113e+01    0.3373201    0.1632615  73.10  0.001550029    1.893    0.472
       441 -10.8446     29.5009    231.0076   1.2708114388e+02   2.3692122573e+01    0.2095917    0.1435996  85.66 0.0006439188    1.213    0.175
       442 -10.0010    243.8456    231.1501   8.7928605382e+01  -8.5080588739e+00    0.1607171    0.1361575  15.96 0.0004173801    1.232    0.188
       443  -9.1638    159.5824    230.5536   1.0308918437e+02   5.0305169438e+00    0.1242842    0.1018554  43.93 -4.133658e-05    1.042    0.040
       444  -9.6749    152.3387    230.2787   1.0442666887e+02   6.2786629066e+00    0.1210972   0.08896526  19.57  0.000231357    1.619    0.382
       445 -10.5933    109.2454    225.7244   1.1212339590e+02   1.4024796428e+01    0.4277108    0.2483779  66.74   0.00115786    1.907    0.476
       446  -9.6618    112.5237    223.8862   1.1128257924e+02   1.3838876247e+01    0.1843583    0.1394472  50.35 0.0004596862    1.096    0.088
       447  -9.6863    110.1000    220.8539   1.1140289730e+02   1.4764717826e+01    0.1831808    0.1537324  58.61 0.0003566545    1.036    0.035
       448  -9.5836     15.9368    228.6956   1.2922412001e+02   2.5543767833e+01    0.1462421   0.09625491  63.50  0.000383149    1.122    0.109
       449  -9.6549     93.5873    227.7881   1.1532242921e+02   1.6026428171e+01    0.2038803    0.1091577 -60.70 0.0009469808    2.109    0.526
       450  -8.9172     55.2929    228.3690   1.2242308666e+02   2.1148512411e+01   0.09703964   0.08577803 -52.16 0.0003285327    1.720    0.419
       451  -9.0903    175.2112    227.0156   9.9625961996e+01   2.9466641861e+00    0.1430322    0.1027977 -41.56  0.000858817    1.674    0.403
       452  -9.6863    234.6534    226.3083   8.8697611968e+01  -6.5797221692e+00    0.1052197   0.09265593  53.38 0.0006612513    1.702    0.413
       453  -9.7294    153.3260    226.1304   1.0367464306e+02   6.7718528422e+00    0.1653092    0.1446584  50.39 0.0004207278    1.092    0.084
       454  -9.5687    164.5139    225.5160   1.0144197959e+02   4.9805520978e+00    0.1274205     0.105203  40.33 -3.35714e-06    1.014    0.014
       455  -8.4522    138.3103    228.6518   1.0689217907e+02   8.8606800544e+00    0.1270088   0.08591527  67.35 0.0007045121    1.711    0.416
       456  -9.7060    124.2270    224.7594   1.0911990525e+02   1.1817108331e+01    0.1982194    0.0928385  32.52 0.0008180244    2.467    0.595
