#   1 NUMBER                 Running object number                                     
#   2 MAG_AUTO               Kron-like elliptical aperture magnitude                    [mag]
#   3 X_IMAGE                Object position along x                                    [pixel]
#   4 Y_IMAGE                Object position along y                                    [pixel]
#   5 X_WORLD                Barycenter position along world x axis                     [deg]
#   6 Y_WORLD                Barycenter position along world y axis                     [deg]
#   7 A_WORLD                Profile RMS along major axis (world units)                 [deg]
#   8 B_WORLD                Profile RMS along minor axis (world units)                 [deg]
#   9 THETA_WORLD            Position angle (CCW/world-x)                               [deg]
#  10 FWHM_WORLD             FWHM assuming a gaussian core                              [deg]
#  11 ELONGATION             A_IMAGE/B_IMAGE                                           
#  12 ELLIPTICITY            1 - B_IMAGE/A_IMAGE                                       
         1 -11.9372    221.5190     17.0349   4.0054517022e+01   2.7734079931e+01    0.7646151    0.6676247 -68.83  0.003091853    1.034    0.033
         2 -12.2766    205.5166     32.7978   4.5790348530e+01   2.9701726534e+01     1.035996    0.9610147  47.39  0.006232377    1.228    0.186
         3 -10.8172    213.7952     25.4573   4.2929880271e+01   2.8590818274e+01     0.503914    0.3843379  33.10  0.001092318    1.732    0.423
         4  -8.9946     47.9524      2.6314   7.0166592914e+01   6.8901704069e+01    0.1711808    0.1317141  22.79 0.0008178959    1.164    0.141
         5 -10.3215    126.6674    241.0722   1.0781114600e+02   7.9951649233e+00    0.2977388    0.1974354  66.04  0.001738215    1.689    0.408
         6 -10.9393     85.3674    249.6458   1.1634807639e+02   1.2679150747e+01     1.057352    0.2110606  37.68   0.00362546    4.777    0.791
         7 -12.5406     98.2304    246.6653   1.1373704255e+02   1.1355047679e+01     1.740515    0.5711226  33.54  0.006651156    3.908    0.744
         8 -10.7443     82.2433    244.7886   1.1648951335e+02   1.3952335958e+01    0.3865681    0.3041154  62.77  0.002137544    1.033    0.032
         9 -11.5195     71.8221    248.3302   1.1865646545e+02   1.4752526183e+01     1.199341    0.4209082  51.48  0.005939206    2.290    0.563
        10 -11.1215     61.8013    249.8862   1.2053265960e+02   1.5791534976e+01    0.8674922     0.400233  44.77  0.003203947    1.712    0.416
        11 -12.2246     28.2802    216.1725   1.2421263488e+02   2.6106166022e+01     1.317245    0.4914409  84.11  0.005814591    3.231    0.690
        12 -13.1791      2.7968    172.1258   1.2631009285e+02   3.7808130026e+01     5.521209    0.5213876 -77.24   0.01316032    9.610    0.896
        13 -14.2629      4.4018    136.5367   1.2314012440e+02   4.5756568248e+01     10.88833     1.578682 -77.01   0.02706918    7.815    0.872
        14 -10.7939    118.9687    231.2211   1.0813001109e+02   1.0887019615e+01    0.2934516    0.2635848 -65.10  0.001904892    1.309    0.236
        15 -10.3635     33.8191    233.4934   1.2431655544e+02   2.2143857368e+01    0.2467518    0.2091125  50.26  0.001286528    1.397    0.284
        16 -11.2704     83.6800    225.2082   1.1438220668e+02   1.7330603996e+01    0.6757613    0.4018352  62.18  0.003845949    1.557    0.358
        17 -11.0687     89.2528    228.4426   1.1362468435e+02   1.5914426136e+01    0.3790713    0.2749016  86.95 0.0005655609    1.400    0.286
        18  -9.7961     49.8319    233.7414   1.2148579569e+02   2.0211407898e+01    0.2377255    0.1342517  85.75  0.001446704    1.688    0.407
        19  -8.6636     53.3501    231.0943   1.2065017208e+02   2.0274786848e+01    0.1626597    0.1221238  78.01 0.0006670451    1.111    0.100
        20 -10.2464    149.7664    228.6213   1.0173384940e+02   6.3346521006e+00    0.2700186    0.2091627  -8.14  0.001586692    1.762    0.432
        21  -9.9042    109.2021    229.4658   1.0983909197e+02   1.2726847100e+01    0.2463463    0.1418973  70.90  0.001223858    2.244    0.554
        22 -10.2022     97.4254    226.4148   1.1181248673e+02   1.5084658273e+01    0.4079705    0.1516457  42.85  0.001847891    2.221    0.550
        23 -10.3017    164.7752    222.0027   9.7802103559e+01   4.9086070500e+00      0.42359    0.1590576  43.24  0.001783715    2.314    0.568
        24  -9.2825     37.4818    224.0598   1.2304850699e+02   2.3527230614e+01    0.2289875     0.195068  33.81  0.001275247    1.590    0.371
        25  -8.7240     94.8088    222.0292   1.1184937636e+02   1.6306447064e+01    0.1951195    0.1442646  68.23 0.0005188594    1.242    0.195
        26 -11.6068     37.5657    208.1888   1.2188502217e+02   2.6695447394e+01    0.5260446    0.3629906  39.71  0.001476049    1.547    0.353
        27 -11.0348     46.5812    222.2757   1.2123620515e+02   2.2805080477e+01    0.5134326    0.2456032  68.88  0.001217529    2.048    0.512
        28 -14.0186      7.5126    240.3326   1.2909496090e+02   2.3662509509e+01     2.109531     1.157013 -79.72   0.01491143    1.654    0.395
        29  -9.3598     62.9345    237.7261   1.1941394660e+02   1.7817642846e+01    0.2548635    0.1594591  82.46 0.0008878751    1.523    0.343
        30  -8.4321     64.0034    202.4744   1.1605088804e+02   2.4634565458e+01    0.1806655    0.1435645  72.12 0.0004318585    1.041    0.039
        31 -10.2250     86.4249    237.8157   1.1508398343e+02   1.4601726549e+01    0.2561888    0.1671806 -85.06  0.001581309    1.662    0.398
        32 -12.1571     31.0853    248.1414   1.2563036819e+02   1.9787531260e+01    0.8501086    0.7279646  49.73  0.006959854    1.467    0.318
        33 -10.4085     63.5492    180.2718   1.1370577355e+02   2.9556367199e+01      0.39618    0.2901508 -34.23  0.002156082    2.051    0.512
        34 -10.2181     68.7276    174.5171   1.1179443640e+02   3.0170085289e+01    0.3246833    0.2478996 -47.39  0.001035015    1.565    0.361
        35 -12.6799     10.4039    206.6601   1.2693282730e+02   2.9831374599e+01    0.7824528    0.6104282  30.84  0.003483007    1.724    0.420
        36  -8.8763     41.0379    178.5623   1.1857946129e+02   3.2705491746e+01    0.2239892    0.1469031 -60.88 0.0007468718    1.546    0.353
        37  -9.6405    101.6937    171.4250   1.0351757077e+02   2.5855911397e+01    0.4067667    0.1953002  55.14   0.00161942    2.396    0.583
        38 -11.5399     68.4461    144.4136   1.0745355886e+02   3.7344767558e+01    0.7923981    0.5172977  74.18  0.003838231    1.812    0.448
        39 -10.6337     73.8794    154.4841   1.0766479367e+02   3.4154411439e+01    0.6791766     0.384427  77.69  0.002816417    2.532    0.605
        40 -10.0169     78.2797    164.5401   1.0811097139e+02   3.1131364671e+01    0.2878298     0.232562 -66.69 0.0004893802    1.186    0.157
        41 -11.3149     84.4552    158.3581   1.0560899889e+02   3.1660853036e+01    0.8266447    0.6550398 -33.93  0.001928832    1.607    0.378
        42 -11.6971     65.5889    160.7874   1.1068936746e+02   3.3803650607e+01    0.5105892    0.3056232 -49.90  0.001365665    1.814    0.449
        43  -8.9554     33.0120    155.9828   1.1807727144e+02   3.8776573698e+01    0.2078439    0.1265969  71.79 0.0007350621    1.647    0.393
        44  -9.5631     22.2523    156.0484   1.2066230334e+02   3.9793762574e+01    0.2193405    0.1356996  56.30  0.001281377    1.593    0.372
        45  -9.1710    100.1746    142.1559   9.8605317820e+01   3.2954503983e+01    0.4896997    0.3030773 -25.23  0.001886295    2.828    0.646
        46 -10.5066     87.2254    142.1623   1.0204728563e+02   3.5103735612e+01     0.294362    0.2745696 -30.00 0.0006054856    1.242    0.195
        47  -8.4764     81.9389    141.7730   1.0338982193e+02   3.6023130193e+01    0.3182812    0.1850358  57.54  0.001347121    2.010    0.502
        48  -8.1818    133.6053    142.1810   9.0016301322e+01   2.6649273201e+01    0.2290457     0.141355 -39.12 0.0009611308    1.760    0.432
        49 -10.6695     59.2013    135.7976   1.0852263742e+02   4.0663854777e+01    0.7044492    0.2351147 -68.41  0.002403539    3.248    0.692
        50  -9.0780    108.8368    131.7597   9.4095448839e+01   3.3874268678e+01    0.4763837    0.2010242  41.48  0.001553153    2.423    0.587
        51  -9.2804     32.8770    129.3022   1.1479096795e+02   4.5162235347e+01    0.5156434   0.04530058 -65.98  0.001290543    6.359    0.843
        52  -9.0173     97.2552    128.0053   9.6426537904e+01   3.6845480902e+01    0.2762719    0.2397342 -26.51 0.0006751889    1.321    0.243
        53  -7.9565     28.9973    136.2519   1.1676590073e+02   4.3854879103e+01    0.1404925    0.1098552  34.63 0.0004196845    1.511    0.338
        54  -8.2087    107.0009    120.2183   9.1925051723e+01   3.6937734014e+01    0.2008276    0.1967609 -89.21 0.0003110371    1.039    0.037
        55 -13.5751     46.2757    198.9090   1.1937596273e+02   2.7626965624e+01      3.02096     1.157898  64.12   0.01230331    3.255    0.693
        56 -11.5945    126.3924    230.8307   1.0662626003e+02   9.7751384599e+00    0.5388979    0.2919795  45.47  0.002866662    1.538    0.350
        57  -9.8748     32.8697    108.5059   1.1156004236e+02   5.0175376803e+01    0.5909309    0.1050309 -63.30  0.001852621    3.984    0.749
        58  -7.9005    206.1849    110.4248   6.6203317483e+01   1.7152211069e+01    0.2024429    0.1485578  68.56 0.0005936262    1.656    0.396
        59  -8.0311    168.4059    113.1674   7.4581225753e+01   2.5331937957e+01    0.2307122     0.144222 -50.98 0.0009455642    1.697    0.411
        60  -7.8819    134.3646    103.3098   8.0107084649e+01   3.5164851876e+01    0.1638302    0.1257675   4.66  0.000703891    1.752    0.429
        61 -10.2881    122.2861    225.2690   1.0674157597e+02   1.1418877016e+01     0.287387    0.2598108  40.46  0.001792049    1.155    0.134
        62  -9.9978     40.2568    233.9950   1.2321483154e+02   2.1310170807e+01    0.3138048    0.1620668  72.29  0.001307074    1.735    0.424
        63 -10.3609     13.4379     60.0967   1.0849832161e+02   6.2753539277e+01    0.3348024    0.1599065 -61.04  0.001390463    1.699    0.411
        64  -9.3906    139.4553     45.0030   6.0550073467e+01   4.4735972871e+01    0.3105698    0.2334891 -71.24 0.0008306475    1.715    0.417
        65 -11.5638    135.0667    233.0247   1.0520539942e+02   8.0040550653e+00    0.6709706    0.4374202 -69.52  0.003779184    2.031    0.508
        66 -11.6708    197.0939     39.6581   4.8741245105e+01   3.0898642648e+01     0.581337    0.5264977  16.55  0.001953227    1.324    0.245
        67  -9.6235    119.3322    242.5855   1.0937554490e+02   8.8818803564e+00    0.2119662    0.1656011  52.48  0.001387151    1.048    0.045
        68  -8.6150     33.0000     31.9570   9.0858369458e+01   6.6665968059e+01     0.201669   0.05960984 -46.62 0.0008022885    2.941    0.660
        69  -8.8439     33.0000     20.5479   8.5932888330e+01   6.8554564715e+01    0.2609736   0.05865921 -42.50 0.0009353462    3.940    0.746
        70  -9.5924     53.1497    240.9586   1.2140953771e+02   1.8470719001e+01    0.2699485    0.1579893 -63.79   0.00108915    1.950    0.487
