#   1 NUMBER                 Running object number                                     
#   2 MAG_AUTO               Kron-like elliptical aperture magnitude                    [mag]
#   3 X_IMAGE                Object position along x                                    [pixel]
#   4 Y_IMAGE                Object position along y                                    [pixel]
#   5 X_WORLD                Barycenter position along world x axis                     [deg]
#   6 Y_WORLD                Barycenter position along world y axis                     [deg]
#   7 A_WORLD                Profile RMS along major axis (world units)                 [deg]
#   8 B_WORLD                Profile RMS along minor axis (world units)                 [deg]
#   9 THETA_WORLD            Position angle (CCW/world-x)                               [deg]
#  10 FWHM_WORLD             FWHM assuming a gaussian core                              [deg]
#  11 ELONGATION             A_IMAGE/B_IMAGE                                           
#  12 ELLIPTICITY            1 - B_IMAGE/A_IMAGE                                       
         1 -15.0622    169.2884     47.5018   6.8559716517e+01   3.6900359832e+01      1.14588    0.9712707   7.57  0.004206817    1.611    0.379
         2 -15.0439    186.1989     17.0701   5.8901942345e+01   3.6729666118e+01    0.8661755    0.7656282  86.14  0.003791972    1.124    0.110
         3 -11.1270    113.1275    205.8499   1.1838624615e+02   1.5379185385e+01    0.2425547    0.2192461  67.71 0.0009833346    1.059    0.056
         4 -15.1033    188.9129    248.6089   1.0882787763e+02  -6.0675610452e+00      1.46077    0.9119368  45.99  0.007768766    1.741    0.426
         5 -19.5460     65.3243    157.8028   1.2239661016e+02   3.4878215010e+01     19.55991      6.08698 -63.75   0.06267054    3.264    0.694
         6 -11.9491    112.4421    196.1010   1.1692916851e+02   1.7794230186e+01    0.6306499    0.3957505   4.28  0.002227931    3.496    0.714
         7 -11.2408    133.5816    195.5859   1.1177619087e+02   1.4106393494e+01    0.2680817    0.2381961  71.31  0.001420506    1.175    0.149
         8 -12.9607    152.0306    193.7367   1.0710991067e+02   1.1082513754e+01    0.5466696    0.3029853  50.93  0.002238791    1.991    0.498
         9 -13.2391    150.1779    188.1846   1.0646662942e+02   1.2687964120e+01    0.4312806    0.3415819  60.81  0.001310939    1.403    0.287
        10 -12.9105    204.1346    190.2368   9.5106544539e+01   2.1736015729e+00     0.364402     0.274476  69.46  0.001777052    1.971    0.493
        11 -13.4485    110.5070    187.3831   1.1588417309e+02   2.0233441505e+01    0.6858032    0.4517185 -39.47  0.003067553    1.771    0.435
        12 -12.0457    157.0118    190.9327   1.0542189418e+02   1.0766915625e+01    0.2260775    0.2223448 -80.20 0.0004824468    1.048    0.046
        13 -10.9443    152.6703    237.0892   1.1451150327e+02   1.8752585749e+00    0.2267321     0.170628  44.06 0.0005444498    1.248    0.199
        14 -11.3608     29.4130    183.5179   1.3523466784e+02   3.2800365306e+01    0.2197394    0.1777176  70.68 0.0004581428    1.185    0.156
        15 -13.0796    151.8060    181.2574   1.0471042314e+02   1.3957648683e+01    0.3920708    0.2904926 -77.11  0.000911032    1.739    0.425
        16 -12.1005    162.5695    181.1898   1.0220481686e+02   1.1877645222e+01    0.2982255    0.1475629 -52.54  0.001139278    2.103    0.525
        17 -14.4907    138.7870    168.4628   1.0520434451e+02   1.9505597035e+01     1.098861    0.5452783  25.74   0.00345419    3.292    0.696
        18 -14.6222    143.1479    175.4048   1.0558006549e+02   1.7006330081e+01    0.8428761    0.6480169 -57.75  0.004039569    1.320    0.242
        19 -12.9684    149.9014    173.1179   1.0349266901e+02   1.6212048457e+01    0.3293734    0.2777646  84.92 0.0009792998    1.390    0.281
        20 -10.1763     23.5518    182.7450   1.3652095415e+02   3.3591759834e+01    0.1250727   0.08992933 -37.52 0.0003059307    1.827    0.453
        21 -10.7103    125.4004    237.0794   1.2038332254e+02   6.4546950252e+00    0.1744946    0.1328848 -63.73 0.0003529545    1.442    0.307
        22 -11.7295      4.2453    178.4357   1.4051632103e+02   3.6383341531e+01    0.2204062    0.1637564 -73.55 0.0007749237    1.121    0.108
        23 -13.2448    187.4015    176.1036   9.5675729143e+01   8.1703857625e+00    0.4792759    0.3776003 -53.06  0.001043446    1.294    0.227
        24 -12.7072    186.0016    170.2660   9.4743775817e+01   9.6892946186e+00    0.3616783    0.3021961 -76.50  0.001824885    1.446    0.308
        25 -13.5365    125.3023    172.0110   1.0928048235e+02   2.1263914081e+01    0.4697212    0.3787228  83.84  0.001375488    1.448    0.309
        26 -10.6091     11.1416    174.4275   1.3854286594e+02   3.6761554216e+01    0.1500432    0.1290808 -84.56 0.0003860351    1.100    0.091
        27 -11.9915    193.8516    171.3016   9.3316648745e+01   7.9459858501e+00    0.2729414    0.2423719 -59.15 0.0006622476    1.187    0.157
        28 -11.6940     35.2890    168.5100   1.3196403020e+02   3.5874655586e+01    0.3162277    0.1999681  69.02 0.0008497267    1.771    0.435
        29  99.0000     88.9643    250.4079   1.2976241810e+02   9.5326903424e+00    0.3389741    0.1323875  37.91   0.00145714    2.347    0.574
        30 -10.7536     14.0127    163.8698   1.3671499255e+02   3.9070482310e+01    0.2241222    0.1402002  53.52   0.00124407    1.738    0.425
        31 -12.8016    124.7861    161.8416   1.0731722052e+02   2.3837614871e+01    0.3348933    0.2831908  85.88 0.0004990245    1.325    0.245
        32 -11.2231    110.4824    232.1522   1.2293166159e+02   9.9502886512e+00    0.5764162    0.3092878 -52.39  0.002679587    2.009    0.502
        33 -14.9376    133.7595    145.7665   1.0148404618e+02   2.5930979737e+01     1.593753    0.4610026 -55.31  0.003957851    4.726    0.788
        34 -11.5079    174.8636    149.1457   9.2518708842e+01   1.6562185573e+01    0.2422325    0.2127196 -80.16 0.0006511049    1.257    0.205
        35 -11.6616    161.2201    148.8151   9.5516020172e+01   1.9504032612e+01    0.2702003    0.1762861 -87.73 0.0009552584    2.847    0.649
        36 -14.0220    144.0856    145.9324   9.8940835293e+01   2.3762911930e+01      0.70316    0.4134291 -72.79  0.002395764    2.935    0.659
        37 -13.2980      6.0168    137.8699   1.3563328564e+02   4.5968858508e+01    0.4556327    0.2845913 -69.70  0.001524277    1.272    0.214
        38 -14.1765    134.6888    122.2526   9.5595448641e+01   3.1183764147e+01    0.7688926    0.3355009 -48.41  0.002410302    2.270    0.559
        39 -11.5518     13.7610    137.3979   1.3343899644e+02   4.5515045061e+01    0.1527003    0.1212379 -12.81 0.0004899512    1.588    0.370
        40 -13.2561      2.6094    126.8188   1.3510909762e+02   4.8809316058e+01    0.5119878    0.1909467 -70.34  0.002296423    2.196    0.545
        41 -12.5919    160.6447    128.0055   9.0751883596e+01   2.4281329573e+01    0.4217928     0.303896 -69.24  0.001750476    1.673    0.402
        42 -10.8661    105.9795    229.6462   1.2357273229e+02   1.1224637216e+01    0.2357638    0.1691025  35.39 0.0008936602    1.400    0.286
        43 -10.8917    160.4934    234.5086   1.1242717375e+02   1.0547710839e+00    0.1363103    0.1247937  27.02 -7.039401e-05    1.003    0.003
        44 -13.7074    114.0290    118.4813   1.0012062361e+02   3.6283533813e+01    0.5305074    0.3175243 -50.91   0.00155489    1.654    0.395
        45 -12.9005      6.6368    120.0232   1.3295636767e+02   5.0141443894e+01    0.3145678    0.1858109   0.13  0.001717479    2.282    0.562
        46 -11.5632     90.8798    244.7270   1.2871917217e+02   1.0406909217e+01    0.3051293    0.1738929 -41.84  0.001361837    2.578    0.612
        47 -10.9494    231.2669    113.8280   7.4123378163e+01   1.2100702724e+01    0.2196963    0.1845856  88.26 0.0008115851    1.278    0.217
        48 -11.9968    167.8317    112.8635   8.5445975376e+01   2.5904907610e+01    0.4179153    0.2993461 -80.18  0.001327287    1.854    0.461
        49 -11.3133    134.5198    239.8659   1.1882420669e+02   4.3744280110e+00    0.4875816    0.1768495 -46.70  0.001859608    3.146    0.682
        50 -12.9385    167.9599    237.8934   1.1139623413e+02  -8.2985477973e-01    0.2985508    0.1968698 -42.68 0.0007499022    1.627    0.385
        51 -11.4676    140.1684    219.2056   1.1436260060e+02   7.6607368319e+00    0.4733218    0.2002768 -60.70  0.001691525    3.140    0.681
        52 -11.8809    152.7791    219.8601   1.1166383094e+02   5.3030668257e+00    0.2084897    0.1907052  -1.57 0.0004208577    1.160    0.138
        53 -12.2558    130.0654    109.6794   9.3554378419e+01   3.4925663431e+01    0.2185037    0.2059531  39.18 0.0008278825    1.081    0.075
        54 -10.9025     23.6260    218.0844   1.3988720136e+02   2.5258698272e+01    0.1571297   0.09553353 -66.24 0.0008927875    1.539    0.350
        55 -12.4847     18.5812    108.9251   1.2739287761e+02   5.1862685875e+01    0.2587607    0.1667542 -14.46 0.0008972819    1.895    0.472
        56 -11.0160    205.5479    110.1940   7.7504818970e+01   1.8089121524e+01    0.2542551    0.2058614  59.87 0.0006783628    1.307    0.235
        57 -11.6382     11.5849    206.1023   1.4134391687e+02   2.9240524844e+01    0.2531246    0.1975005  40.42  0.001679073    1.486    0.327
        58 -13.9722    157.0518     61.4637   7.4375122501e+01   3.7724750034e+01    0.5131117    0.4154135  57.89  0.001081093    1.164    0.141
        59 -10.6025     13.6486     59.9641   1.1797172606e+02   6.2470984700e+01    0.1657374    0.1217143 -40.63 0.0004051437    1.130    0.115
        60 -10.5705    108.4367    249.1145   1.2560106050e+02   6.7801270428e+00    0.1510404    0.1270386 -61.05 0.0004034833    1.324    0.245
        61 -13.0426    174.3504     39.6728   6.5809588933e+01   3.6767074425e+01    0.3532909    0.3358895  66.16 0.0008408491    1.181    0.154
