#   1 NUMBER                 Running object number                                     
#   2 MAG_AUTO               Kron-like elliptical aperture magnitude                    [mag]
#   3 X_IMAGE                Object position along x                                    [pixel]
#   4 Y_IMAGE                Object position along y                                    [pixel]
#   5 X_WORLD                Barycenter position along world x axis                     [deg]
#   6 Y_WORLD                Barycenter position along world y axis                     [deg]
#   7 A_WORLD                Profile RMS along major axis (world units)                 [deg]
#   8 B_WORLD                Profile RMS along minor axis (world units)                 [deg]
#   9 THETA_WORLD            Position angle (CCW/world-x)                               [deg]
#  10 FWHM_WORLD             FWHM assuming a gaussian core                              [deg]
#  11 ELONGATION             A_IMAGE/B_IMAGE                                           
#  12 ELLIPTICITY            1 - B_IMAGE/A_IMAGE                                       
         1 -12.5256    119.7116     37.8881   3.9997479756e+01   5.0044753866e+01    0.9529754    0.5534071 -48.95  0.003132871    2.155    0.536
         2 -11.9097    105.9088     20.9237   3.7018345960e+01   5.5377132597e+01     0.464033    0.3896243 -71.01  0.002021581    1.720    0.419
         3 -12.3301     20.2263     21.8079   6.8096898937e+01   6.7765329680e+01    0.5284551    0.2324887 -43.77  0.001507196    1.678    0.404
         4 -12.0351     48.0526     12.8675   5.2725237491e+01   6.6353151562e+01    0.5364704    0.3071843  35.00  0.003096108    1.954    0.488
         5 -11.9757     26.9003     28.0346   6.7550545582e+01   6.6090308421e+01    0.5061747    0.3203563 -42.50  0.002294854    1.205    0.170
         6 -11.8532     35.5790     17.9648   6.0069490789e+01   6.7010837650e+01    0.6416546    0.2043915 -38.40  0.002215088    2.600    0.615
         7 -10.8264    121.4835     11.6690   2.9324769060e+01   5.3035252757e+01    0.4342559    0.1945717  57.87   0.00180538    2.195    0.544
         8 -12.3561    135.3884     22.4191   3.0400146183e+01   4.8525070949e+01     1.021449    0.3637981  47.97  0.003711883    2.559    0.609
         9 -11.1211    127.0150     11.4877   2.8010782620e+01   5.1762902046e+01    0.3140898    0.2634096  81.01  0.001543107    1.464    0.317
        10 -11.4140    134.6805     14.8931   2.7689880257e+01   4.9562772347e+01    0.6109398    0.3178024  52.03  0.002703953    1.756    0.430
        11 -11.3600    127.5477     16.1820   2.9742492687e+01   5.1123795093e+01     0.377061     0.267906  29.18  0.001186618    1.381    0.276
        12 -11.3306     85.8997     14.0342   3.9865544825e+01   6.0216324369e+01     0.450229    0.2594006 -25.08  0.001683083    1.603    0.376
        13 -12.7963    164.2695     18.5901   2.3398358224e+01   4.1688445910e+01    0.6090437    0.3101896  37.27  0.002437036    2.167    0.538
        14 -11.8230     67.8665     18.2813   4.7721837402e+01   6.2730046637e+01    0.4362833    0.3730859 -16.97  0.001723087    1.115    0.103
        15 -10.8990     13.1271      9.3793   6.6425227913e+01   7.0457611673e+01    0.3725674    0.2483795 -64.37  0.002329611    2.205    0.547
        16 -12.1055     15.8664     14.4103   6.7201121756e+01   6.9398485714e+01    0.5861664    0.2458872 -35.09  0.003173006    2.011    0.503
        17 -11.9085     22.8083     11.1564   6.2722761067e+01   6.9370474094e+01    0.4125758    0.2564933  -9.24  0.001600082    1.721    0.419
        18 -12.3264    227.7220     15.4556   1.3826624333e+01   2.5424421437e+01     0.491471    0.3359605 -87.90  0.002466287    1.576    0.365
        19 -10.7792    148.5426     15.9331   2.5302482513e+01   4.6016934823e+01    0.4409474    0.1985131  37.65  0.001255028    2.454    0.592
        20 -12.2557    104.9092     12.9878   3.3964780771e+01   5.6559157285e+01    0.5309698    0.3314226 -20.97  0.001717088    1.543    0.352
        21 -12.2368    192.3665      8.4748   1.5928817306e+01   3.5327365006e+01     0.769583    0.4139189  15.69  0.002993455    2.791    0.642
        22 -10.9734      5.1500     10.9827   7.0814574355e+01   7.0728446011e+01     0.356131    0.1671389 -45.94  0.001987642    1.496    0.332
        23 -11.8266    211.9772      9.3006   1.3831881430e+01   3.0100928950e+01    0.6359841    0.3575946   7.44   0.00259896    2.665    0.625
        24 -10.2146    246.0000      9.9581   1.0612077232e+01   2.1497393333e+01    0.2164636   0.07294752 -24.76 0.0007995008    2.922    0.658
        25 -11.8980    169.3144      9.3083   1.9423972246e+01   4.1333046275e+01    0.6664484    0.2198202  54.25  0.001946839    2.545    0.607
        26 -11.1011    163.4741      5.8052   1.9135068150e+01   4.3194357138e+01    0.3891414    0.2162096  21.15  0.001618492    2.280    0.561
        27 -10.9091    145.3773      9.6644   2.3597860135e+01   4.7465197970e+01    0.2865637    0.2116704  28.52 0.0003802576    1.343    0.255
        28  -9.8088      1.2577      8.0723   7.1556510573e+01   7.1462159937e+01    0.2193801   0.05545146 -49.51  0.001053747    2.501    0.600
        29 -11.6723    157.6790      3.6808   1.9310663890e+01   4.4892230405e+01    0.6298627    0.3075588 -14.58  0.002636821    2.267    0.559
        30 -10.4845    152.4296      1.4268   1.9358395072e+01   4.6440881469e+01    0.3436202    0.1392841  70.59 0.0008012875    2.629    0.620
        31 -10.3448     87.5035      7.4289   3.6403014885e+01   6.0709010713e+01    0.4814458    0.2571274  46.81  0.002150854    1.843    0.457
        32 -11.3250    232.5033      7.0215   1.1097557306e+01   2.5103387213e+01    0.3060758    0.1943813  81.09  0.001263297    1.587    0.370
        33 -12.0387    234.3580      3.2903   9.9528144818e+00   2.5014552908e+01    0.5493723    0.2857035 -66.35  0.001477192    2.249    0.555
        34 -12.0363    184.0965      5.8090   1.6174097753e+01   3.7769717012e+01    0.6321369       0.4326  49.61  0.003163545    1.391    0.281
        35 -11.8504    177.0968      5.8667   1.7145322507e+01   3.9613293830e+01    0.4266865     0.260833  72.32 0.0006606497    1.613    0.380
        36 -11.4550    122.0183      5.4029   2.6662256286e+01   5.3550527148e+01    0.2860783    0.1850259 -16.99 0.0009973217    1.553    0.356
        37 -11.1002     74.6372      3.5505   3.8597673079e+01   6.3516792738e+01    0.4670843    0.2415087  46.45  0.002392347    1.986    0.497
        38  -9.9411     62.8006      6.9014   4.4288952059e+01   6.5078582606e+01    0.2053834    0.1442436  -1.73  0.001234734    1.304    0.233
        39 -10.4687    247.1568      6.1579   9.5609380186e+00   2.1611920951e+01    0.1914272    0.1395724 -61.80  0.000522777    1.322    0.244
        40 -11.8116    207.3362      2.6887   1.2451847363e+01   3.1950308352e+01    0.5171264    0.2779387  79.31  0.002294822    1.903    0.475
        41 -12.7718    135.5076      2.9704   2.2931122870e+01   5.0549584925e+01     1.167804    0.3852981  68.51  0.003783672    3.712    0.731
        42 -10.5532     41.4386      4.1193   5.1278996126e+01   6.8449911760e+01     0.272133    0.1593058 -11.37 0.0008881761    1.749    0.428
        43 -11.1523    218.5934      3.6868   1.1558823522e+01   2.8947796407e+01    0.3143644    0.2402846  64.58 0.0006319265    1.258    0.205
        44 -11.3891    223.8490      2.5940   1.0744943064e+01   2.7714383900e+01    0.2747018    0.2358018  80.69  0.000477556    1.110    0.099
        45  -9.8766     21.8331      3.2078   5.9577174331e+01   7.0715553627e+01    0.1869245    0.1235197 -41.65 0.0006295336    1.401    0.286
        46 -11.3358    113.3350      2.6829   2.7489847142e+01   5.5798853321e+01     0.394386    0.2606166  83.93  0.001854411    2.347    0.574
        47 -11.2027    105.6472      2.7748   2.9373458410e+01   5.7487644765e+01    0.3433397    0.2821832 -44.37   0.00132936    1.512    0.339
        48 -10.2678     82.1176      1.3208   3.5175205805e+01   6.2400090451e+01    0.1729795    0.1115666  46.70 0.0004193226    1.570    0.363
        49  -8.7615     33.3468      1.3151   5.3378515093e+01   6.9803914837e+01    0.1218872   0.07249252  -9.12  0.000704759    1.720    0.419
        50 -10.0226     13.3749      1.6172   6.2888832452e+01   7.1694366314e+01     0.219317   0.09896238  17.12  0.001231809    2.729    0.634
        51 -11.0727      2.6029      1.9175   6.8388548514e+01   7.2416423600e+01      0.25347     0.149632 -12.46  0.001346585    1.748    0.428
        52  -9.4914     39.4903    133.4855   8.5918544352e+01   4.2908851132e+01     0.117714   0.09440312 -81.68 3.685679e-05    1.023    0.022
        53  -9.8989    249.4946    250.4739   6.2946272316e+01  -8.7440842522e+00    0.1100337   0.07528897  26.36 0.0008099419    1.027    0.026
        54 -11.0912     50.9856    249.5296   9.3592340952e+01   2.0351525018e+01    0.2450119   0.08182944  48.75  0.001498262    2.121    0.528
        55 -11.1460     47.6852    247.6760   9.3959945549e+01   2.1007141028e+01    0.4375997    0.1158463 -78.01  0.002042208    4.887    0.795
        56 -10.9588     10.2520    127.5590   9.1827202046e+01   4.6711076482e+01    0.3551911    0.1704919 -53.63  0.001911422    2.128    0.530
        57  -9.5847     22.8567    126.8622   8.8925127704e+01   4.5857841234e+01    0.1482717    0.1046513  84.20  0.001009908    1.247    0.198
        58 -11.2682     12.3241    136.2430   9.2188253726e+01   4.4754702042e+01    0.3967634    0.1966877 -55.17  0.002386157    2.066    0.516
        59  -9.9887      2.1204    125.9069   9.3462517590e+01   4.7628409885e+01    0.1716365    0.1109859  82.48 0.0008709832    1.305    0.234
        60 -12.5183    103.9357    122.5171   6.8727450801e+01   3.6653322337e+01    0.3056754    0.2857583  88.08 0.0005150803    1.036    0.035
        61 -10.1829     49.6355    123.0615   8.2128792286e+01   4.4084496766e+01     0.212167    0.1682391  -6.23  0.001321075    1.955    0.488
        62  -9.6059     56.2916    122.0030   8.0346584847e+01   4.3562582143e+01    0.1733566    0.1378946 -75.18 0.0004231413    1.064    0.060
        63 -10.0029     44.9962    120.2444   8.2842571237e+01   4.5192585009e+01    0.1808282    0.1454316 -59.30 0.0006611107    1.215    0.177
        64 -10.4505     43.9567    116.6838   8.2571647964e+01   4.6074355893e+01    0.2708645    0.1473616 -71.54  0.000733964    1.592    0.372
        65 -10.3945      7.0396    114.6896   9.1271230358e+01   4.9631868383e+01    0.2535249    0.1606243 -78.92 0.0009159569    1.187    0.158
        66 -12.4778      2.4538    111.7175   9.2045498491e+01   5.0555927074e+01    0.3644709     0.180191 -74.77 0.0007044125    1.494    0.331
        67 -11.2719      4.5763    104.8653   9.0802279136e+01   5.1861888009e+01    0.2955713     0.272591  65.69  0.002468521    1.339    0.253
        68  -9.9449     79.0892    114.7210   7.3356695085e+01   4.2212645229e+01    0.2265811    0.1680966 -71.43 0.0009623258    1.287    0.223
        69 -10.6871     34.2477    103.8887   8.3094779531e+01   4.9802003699e+01    0.4131878    0.2171937  15.65  0.002084475    3.091    0.677
        70 -11.7039     17.4202    100.6944   8.7028960048e+01   5.1874666284e+01    0.3677877    0.2094578 -84.29  0.001210716    1.621    0.383
        71 -11.5855     22.2601    100.5195   8.5739253145e+01   5.1545295334e+01    0.5576208    0.2644238  82.13  0.002497395    3.266    0.694
        72 -11.2965     21.6527    114.3994   8.7744679048e+01   4.8610299806e+01    0.3539831    0.2508155   4.19  0.001790046    2.235    0.553
        73 -10.8104     28.2745    113.2028   8.5966689375e+01   4.8313955890e+01    0.2096773    0.1889029  70.13 0.0006000643    1.248    0.199
        74 -10.9249     24.0011    109.0406   8.6473878805e+01   4.9570197236e+01    0.2879392    0.2202139  71.89  0.001776702    1.348    0.258
        75 -10.7976     26.7878    106.4223   8.5406393906e+01   4.9904442846e+01    0.3201875    0.1970674 -38.13  0.001898008    2.063    0.515
        76  -9.3995     67.3322    114.6572   7.6342183529e+01   4.3817459099e+01    0.1340508   0.09148183  80.91 0.0005200176    1.754    0.430
        77 -10.1160     48.8376    112.4639   8.0684532613e+01   4.6481075416e+01     0.223463    0.1525891 -68.28  0.000814316    1.225    0.184
        78  -9.8735     66.6246    110.8065   7.5813900055e+01   4.4752440383e+01    0.1670359    0.1596327 -76.11  0.000929044    1.134    0.118
        79 -11.3082     79.9458    108.1780   7.1820622657e+01   4.3519836692e+01    0.3937678    0.2783236  28.49 0.0007050649    1.739    0.425
        80  -9.2211     85.7149    103.6720   6.9332601315e+01   4.3649691726e+01    0.1337776    0.1007432 -29.55 0.0005617542    1.609    0.378
        81 -10.7094     51.5892     99.6474   7.7719461171e+01   4.8989145923e+01    0.5568653    0.1274263 -50.41  0.001929154    3.830    0.739
        82 -11.8624      9.7756     97.1882   8.8556624506e+01   5.3155143827e+01    0.4307203    0.4054705  -1.93    0.0003598    1.460    0.315
        83 -11.5531     27.7007     85.4066   8.1817593044e+01   5.4373281530e+01    0.5063173    0.4517574  22.42   0.00232631    1.440    0.306
        84 -11.0730     29.7350     97.7168   8.3323504577e+01   5.1540670202e+01    0.5554377    0.2237383 -46.08  0.002630139    2.636    0.621
        85 -11.1417     35.3777     93.0031   8.0983555400e+01   5.2067394017e+01    0.4672261    0.2368484 -67.15   0.00208387    1.644    0.392
        86 -11.6389     44.3043     84.8720   7.6871432037e+01   5.2977391221e+01    0.3921602    0.3065881  -4.89  0.002485766    1.713    0.416
        87 -10.3884     37.3027     85.9719   7.9137797323e+01   5.3416269785e+01    0.2142546    0.1789789  34.92 0.0007346646    1.469    0.319
        88 -11.5239     22.7043     94.4828   8.4723421233e+01   5.2812356229e+01    0.2667358    0.2345746 -37.82  0.001335539    1.360    0.264
        89 -11.9340     18.3977     90.5361   8.5298831418e+01   5.3984175162e+01    0.5470905    0.2376164 -69.81    0.0022741    1.828    0.453
        90 -10.7836    248.7980     97.7986   3.2770987638e+01   9.5556205354e+00    0.2555239    0.1424424  17.35 0.0009599256    2.868    0.651
        91 -11.6611     68.6521     95.7919   7.2234310850e+01   4.7778521836e+01    0.3220665    0.2725839  -7.66 0.0006123561    1.509    0.337
        92 -12.0157    125.6641     94.9551   5.6754494807e+01   3.8415735006e+01    0.2644768    0.2552094 -30.79 0.0002299638    1.027    0.026
        93  -9.8360    122.0000     93.9563   5.7415763402e+01   3.9352266503e+01    0.2624738    0.1958889 -36.08 0.0007764327    1.346    0.257
        94 -10.0759     82.9431     93.2772   6.7688511371e+01   4.6317291887e+01    0.2191294    0.1770208  51.61 0.0003642064    1.380    0.275
        95 -10.9766     78.4529     93.1198   6.8899860584e+01   4.7011087565e+01    0.4847049     0.340242 -51.48  0.002668062    1.266    0.210
        96 -10.6281     43.1365     94.6861   7.9124007184e+01   5.0960985384e+01    0.2815354     0.237818 -63.49  0.001494153    1.049    0.047
        97 -10.9734     98.5569     91.0247   6.2830312039e+01   4.4294693197e+01    0.2409469    0.2195988  46.03 0.0003767678    1.185    0.156
        98 -11.1673     89.6352     89.9781   6.5016896904e+01   4.5989172791e+01    0.4796202    0.2754935 -42.29  0.002271094    1.682    0.405
        99 -10.5389     49.5055     91.4927   7.6716861431e+01   5.0997763284e+01    0.2581866    0.2085961  87.11  0.001649439    1.343    0.255
       100 -11.7550      6.9821     88.7611   8.8180209152e+01   5.5122784920e+01    0.3972487    0.3335747  14.19  0.002328178    1.638    0.390
       101  -9.4632    104.3470     87.2958   6.0266061919e+01   4.4061036217e+01     0.143097    0.1111411  -7.21 0.0007033111    1.674    0.403
       102 -10.7531    143.1266     84.6761   4.9564395155e+01   3.6716877046e+01    0.2526421    0.2104394 -29.98 0.0003297862    1.197    0.165
       103 -10.5545     80.1980     83.9762   6.6156370996e+01   4.8716259276e+01    0.3152446    0.2576047 -37.74  0.001558725    1.188    0.158
       104 -10.9218     76.2455     78.5601   6.5896863029e+01   5.0437979747e+01    0.4913671    0.2635202 -58.09  0.002289029    1.863    0.463
       105 -10.2808     72.5040     78.0134   6.6865338417e+01   5.1081846572e+01    0.3179109    0.2117254 -74.97  0.001572056    2.007    0.502
       106 -10.6962    112.8926     82.3515   5.6578803671e+01   4.3485533138e+01    0.2620177    0.2434359 -29.25            0    1.042    0.041
       107 -10.0108     66.7321     81.8438   6.9555393717e+01   5.1044318976e+01    0.2941118    0.2423657   1.61  0.001773246    1.514    0.340
       108 -11.3144     53.5124     76.6628   7.2276284174e+01   5.3758436858e+01     0.476949    0.2853925 -60.31  0.002594677    1.479    0.324
       109 -10.9856     58.3212     77.8656   7.1101339233e+01   5.2943189371e+01    0.4274734     0.234855 -65.96  0.001835507    1.944    0.486
       110 -11.7361     13.5468     74.7309   8.4119737026e+01   5.7688415941e+01    0.5119815    0.2386793 -62.38   0.00293403    1.564    0.360
       111 -10.3440     14.5118     67.6591   8.2530129680e+01   5.9116955462e+01    0.3068034    0.1973184  10.12  0.001997759    2.132    0.531
       112 -10.2375     94.5919     76.5203   5.9977464509e+01   4.7982988543e+01    0.3553336    0.2274424  46.38   0.00151427    1.741    0.426
       113 -10.7187    249.5162     76.4965   2.7296792413e+01   1.2398667407e+01    0.1430084     0.131716 -16.55 0.0003184993    1.013    0.013
       114 -10.9330     79.3842     68.0949   6.2020604183e+01   5.2138159523e+01    0.5162013    0.3305679  63.72  0.002380132    2.549    0.608
       115 -10.2429     92.0668     71.9332   5.9368158120e+01   4.9339500139e+01    0.2150319    0.2013599  26.76 0.0003868694    1.161    0.139
       116 -10.8133     82.9424     73.9227   6.2635084221e+01   5.0404780167e+01    0.3933926    0.2800677  34.63  0.001646821    1.579    0.367
       117 -10.9988     88.0538     73.0355   6.0868353436e+01   4.9777986416e+01    0.3168992    0.2693329  73.72  0.001798395    1.488    0.328
       118 -11.0546      2.0016     71.7777   8.7115866432e+01   5.8985676847e+01    0.3404427    0.1329562 -64.47  0.001628783    1.772    0.436
       119 -11.1132    187.1042     71.0341   3.6002267953e+01   2.8491003219e+01    0.5330356    0.3106176 -33.49  0.001824396    1.688    0.408
       120 -10.2611     24.6791     73.6557   8.0515264782e+01   5.7128813382e+01    0.2165359    0.1801098 -46.96 0.0008117052    1.179    0.152
       121 -10.3470     28.8680     72.0924   7.8894146250e+01   5.7128200384e+01    0.2773582    0.1789369  45.00  0.001708774    1.954    0.488
       122 -11.4507     40.0735     70.3668   7.4975457964e+01   5.6498926272e+01    0.4370275    0.2746036 -71.51  0.001598077    1.658    0.397
       123 -10.9557     34.9758     71.5724   7.6863093543e+01   5.6715762816e+01     0.344334    0.1939098  38.78  0.001964339    2.172    0.540
       124  -9.3199     19.6598     71.6555   8.1681221362e+01   5.7924547313e+01     0.124238   0.06705397 -42.54 0.0007047909    1.781    0.439
       125 -11.1564    122.9950     68.8867   4.9828966530e+01   4.4074463742e+01    0.4085788    0.2617744  39.18  0.001244706    1.646    0.392
       126 -10.7623    220.0306     66.9320   2.9109157656e+01   2.0804706148e+01    0.4965875    0.2361395  65.98  0.001853161    2.488    0.598
       127 -11.4491      9.6820     62.6871   8.3124734234e+01   6.0455415695e+01    0.5704402    0.1637074 -49.78 0.0009017558    2.565    0.610
       128 -12.3986      4.6124     61.9183   8.4624971375e+01   6.0900795655e+01    0.4648793    0.3226401 -50.03  0.001839965    1.224    0.183
       129 -11.1093     92.9432     62.8660   5.6318563118e+01   5.0980784977e+01    0.6357591    0.2760094  48.54  0.002531044    2.773    0.639
       130 -10.3487     59.2762     63.4794   6.7012780599e+01   5.5835937608e+01    0.2645201     0.205768 -69.88 0.0009001747    1.471    0.320
       131 -11.3753     40.8258     57.0358   7.1356085659e+01   5.9195601387e+01    0.3472977     0.232351  50.15  0.001822362    2.053    0.513
       132 -10.4190     50.7981     61.5558   6.9247890037e+01   5.7225047815e+01    0.2484414    0.2207668  60.33  0.001581845    1.426    0.299
       133 -11.2187     43.4706     62.4463   7.1912690251e+01   5.7821179663e+01    0.2329527    0.1846604 -54.56 0.0005165913    1.080    0.074
       134 -11.1901     46.1836     59.1693   7.0126584446e+01   5.8214095627e+01    0.3119721    0.2377526 -60.09  0.001094091    1.247    0.198
       135 -11.6187    235.3259     60.8697   2.5190549029e+01   1.7901847466e+01    0.4191765    0.3287537  58.81  0.002182238    1.330    0.248
       136 -11.8803     25.0214     57.8528   7.6965989667e+01   6.0414552884e+01    0.5694451    0.4348033  52.61  0.003566998    1.743    0.426
       137 -11.1828     34.3109     52.0943   7.2258976777e+01   6.0811215098e+01    0.4943461    0.2697645   6.67    0.0025435    2.817    0.645
       138 -10.2783     87.6245     56.8773   5.5976938502e+01   5.3028705575e+01    0.4092002    0.1178999 -40.70  0.001369444    3.227    0.690
       139 -11.3673    117.2583     55.1520   4.6834038811e+01   4.7759502199e+01     1.291099    0.6750038 -59.17  0.004264907    3.839    0.739
       140 -10.5785    109.5791     41.0639   4.3907064219e+01   5.1703445677e+01     0.989096    0.3821153 -34.67  0.003755138    2.449    0.592
       141 -11.9028    117.7338     43.9786   4.2760960144e+01   4.9528792851e+01    0.6360624    0.4738095 -29.57  0.002526218    1.284    0.221
       142  -9.7333    174.2283    246.5852   7.4271992599e+01   3.2966518229e+00    0.1705368   0.08057442  38.03 0.0009599105    1.768    0.434
       143  -9.9063     91.6487     57.2722   5.4883349493e+01   5.2270386707e+01    0.2313279    0.1738439  56.04 0.0007162617    1.669    0.401
       144  -9.8810     50.9605     56.4797   6.7750521056e+01   5.8237399713e+01    0.2050042    0.1798101  -9.97  0.001201707    1.240    0.193
       145  -9.7793    157.6976     54.9757   3.6980601446e+01   3.8467984422e+01     0.437191     0.312255 -63.64  0.001925581    1.867    0.464
       146 -10.0284    106.0276     58.2171   5.0985062838e+01   4.9466358243e+01    0.2198626    0.1712006  84.53 0.0009048108    1.976    0.494
       147 -11.1014     72.6771     47.6938   5.7624039960e+01   5.7106175243e+01    0.2409126    0.1878718 -33.65 0.0006364979    1.107    0.097
       148 -11.5490     60.8304     47.9641   6.1712205508e+01   5.8706540242e+01    0.8033138      0.26397 -44.11   0.00323724    2.557    0.609
       149  -9.9632      7.4593     54.0545   8.2130042408e+01   6.2363830364e+01    0.1784965   0.08503303 -64.16  0.001027802    1.590    0.371
       150 -10.2014     51.8593     48.0821   6.4867282458e+01   5.9791684811e+01    0.2668386    0.2254174  23.53 0.0006998233    1.379    0.275
       151 -11.5663     45.5897     48.1670   6.7108799656e+01   6.0477536374e+01     0.544214    0.2886245 -43.05  0.002933445    1.542    0.352
       152 -11.8634     42.6430     44.0372   6.6866492013e+01   6.1590650380e+01    0.4982219    0.2519706  28.00 0.0003311787    2.377    0.579
       153  -9.8675      1.9707     49.0023   8.2979916278e+01   6.3681448391e+01    0.1709284    0.1260931 -56.77 0.0007218987    1.024    0.023
       154  -9.9599    146.3031     47.2081   3.6893128288e+01   4.2472887717e+01    0.2624665    0.1836525 -24.03 0.0007643568    1.444    0.308
       155 -11.1462     20.8101     46.1923   7.5510600300e+01   6.3096305865e+01    0.2938722    0.1786647 -50.02 0.0006452105    1.233    0.189
       156 -10.2466     13.0762     47.3321   7.8622497978e+01   6.3393556336e+01    0.2857541   0.09714261 -50.17  0.001443083    2.057    0.514
       157  -9.7158     82.6861     47.0233   5.4137741247e+01   5.5664989463e+01    0.1967245    0.1566208 -28.25 0.0006976557    1.115    0.103
       158 -10.1489    138.8368     44.1414   3.7544639115e+01   4.4730948835e+01    0.3433481    0.1934598  25.18  0.001187058    2.468    0.595
       159  -9.9139    134.0380     45.7954   3.9269851294e+01   4.5602314307e+01    0.2880146    0.1473045  55.56 0.0006154448    2.064    0.516
       160  -8.7543    101.3149     44.6475   4.7586104392e+01   5.2758525419e+01    0.1389629    0.1110599 -65.87 0.0007046207    1.734    0.423
       161 -12.4519     74.4972     52.5315   5.8673770275e+01   5.5928769905e+01    0.7737404    0.4392496 -49.81  0.001888162    1.708    0.415
       162  -9.5004    160.9782     44.0000   3.2660764839e+01   3.9301071315e+01    0.2525518   0.08540944  58.01 0.0008006762    2.930    0.659
       163 -10.5312    155.8764     42.4058   3.3173644472e+01   4.0818692002e+01    0.3007249     0.245948 -13.25 0.0009726349    1.251    0.200
       164 -10.8577     26.4565     42.9317   7.2510171263e+01   6.3305906349e+01    0.1997965    0.1557653 -19.55 0.0007344361    1.348    0.258
       165 -10.2777     92.5280     41.6966   4.9119938731e+01   5.4894678337e+01    0.3008822    0.1898945  39.58  0.001510957    1.673    0.402
       166  -9.8820     17.2804     41.8644   7.5654930297e+01   6.4205041009e+01    0.2133827    0.1128908 -29.42  0.001000644    2.050    0.512
       167 -11.3837      4.5382     35.9957   7.8978136918e+01   6.6134577416e+01    0.3754313    0.2572197 -44.17  0.002719457    1.153    0.133
       168 -10.5682     11.5942     30.1046   7.4496355526e+01   6.6854488957e+01    0.2973293    0.1803345 -16.91  0.001910441    1.884    0.469
       169  -9.8954      7.2034     30.5920   7.6431976658e+01   6.7028780598e+01    0.1809714     0.105653   5.46   0.00116608    2.191    0.544
       170 -10.1916    231.6191     39.0627   1.9789575240e+01   2.1690647436e+01     0.322883    0.1338034 -26.52  0.001227988    2.358    0.576
       171 -10.3944     79.9993     39.1451   5.2117579969e+01   5.7486383579e+01    0.3899044    0.2854832  78.03  0.001860921    2.741    0.635
       172 -11.3466     79.3959     33.2771   5.0051055803e+01   5.8563932672e+01    0.5316187    0.3274599  18.26  0.002602925    2.029    0.507
       173 -11.1527     61.0814     36.0806   5.7416785770e+01   6.0850845773e+01    0.4044612    0.2340868 -31.43  0.001405361    1.567    0.362
       174 -10.0303     67.3630     32.3147   5.3751926097e+01   6.0607748320e+01    0.3929349    0.3488704  39.41  0.002545915    1.396    0.284
       175 -11.7881     57.3980     30.5721   5.6637576989e+01   6.2299609494e+01    0.4297659    0.2934057 -30.43  0.001039013    1.235    0.190
       176 -11.3906     48.3274     30.5462   6.0017094391e+01   6.3444484255e+01    0.5821964    0.2993603  20.04  0.002896307    2.577    0.612
       177 -10.1491     43.1063     28.1268   6.1103062753e+01   6.4468418329e+01    0.1801796    0.1401079 -28.94  0.001194311    1.022    0.021
       178 -10.7375    176.5952     35.5920   2.6928592495e+01   3.6416274943e+01    0.3173721    0.2305855 -59.42  0.000929418    1.644    0.392
       179  -9.9879    168.9286     24.0049   2.4435026163e+01   3.9857209226e+01    0.3400356    0.1628355  46.78  0.001347487    2.013    0.503
       180 -12.3043    160.0039     29.8123   2.8032615436e+01   4.1467086891e+01    0.5291408    0.4537062 -24.91 0.0004170942    1.187    0.158
       181 -12.1716    164.2790     27.6881   2.6507003301e+01   4.0627580040e+01    0.3503411    0.3168323 -35.68 0.0003860258    1.159    0.137
       182 -10.7709    239.9750     32.3833   1.7006400379e+01   2.0445241982e+01    0.3101024     0.250446  13.86  0.001669409    1.465    0.317
       183  -9.4012     11.3182    244.3008   9.8868999555e+01   2.5350122375e+01   0.07358715   0.06277448 -89.96 0.0003687735    1.620    0.383
       184 -11.5482    107.4301     31.2387   4.0748888143e+01   5.3643881644e+01    0.5568444    0.3197426   3.06  0.002134359    2.704    0.630
       185 -11.9515    114.0467     25.1573   3.6568215471e+01   5.3085205213e+01    0.6685247     0.294362  44.45  0.001804594    2.196    0.545
       186 -10.3639     32.7617     31.1423   6.6290756941e+01   6.4992983252e+01    0.1700033     0.137862 -46.14 0.0005344669    1.191    0.160
       187 -11.5450    126.5533    241.8861   8.1438109268e+01   1.1333228856e+01    0.2581688    0.1603253  56.57  0.001753907    1.290    0.225
       188 -10.8871     73.7043    238.6228   8.9502771861e+01   1.9223025862e+01    0.3684331    0.1726782  50.94  0.002398457    1.607    0.378
       189 -11.0650     67.5228    240.9755   9.0615322032e+01   1.9646195571e+01     0.332006     0.136386  49.45  0.002077871    1.816    0.449
       190 -10.8649     38.8636     22.3204   6.0507073457e+01   6.5932457636e+01     0.214808    0.1367812 -35.96  0.000406447    1.245    0.197
       191 -11.1392    146.7369    237.8106   7.7718082145e+01   8.7710505403e+00     0.350837    0.1950016  58.77  0.002094027    1.748    0.428
       192  -9.4019    230.4790     30.5216   1.7606014013e+01   2.3020831970e+01    0.1379322    0.1369288 -49.00 0.0001266877    1.045    0.043
       193 -10.7052    189.0827     28.0338   2.2463678702e+01   3.4068428198e+01    0.4073049    0.2895257  10.83  0.001620538    1.699    0.411
       194 -12.1163    126.1142     28.3863   3.4802210080e+01   4.9953126545e+01    0.5005383     0.453982  74.50  0.002817324    1.317    0.241
       195 -10.5600     22.7009     37.3525   7.2280134843e+01   6.4687531548e+01    0.3952132    0.1938579  42.55  0.002092763    3.047    0.672
       196  -9.9021     89.7840     29.2655   4.5130021694e+01   5.7380046319e+01    0.2131915    0.1610904 -34.67  0.001190028    1.297    0.229
       197 -10.2276    197.6145     29.0098   2.1488867427e+01   3.1697460003e+01    0.3691866    0.1810353  55.70  0.001344879    1.910    0.477
       198 -11.6398    183.0583     25.5874   2.2626095511e+01   3.5951998332e+01    0.3940589    0.2853237  52.12  0.001381183    1.318    0.241
       199  -9.6069    150.3200     27.3280   2.9061228604e+01   4.4241123836e+01    0.1597469    0.1056007  26.22 0.0003179461    1.685    0.407
       200 -11.6804    154.3096     24.4057   2.7237540788e+01   4.3587926442e+01    0.4290356    0.2701965  77.49  0.001857177    1.994    0.499
       201 -11.7684    144.2410     24.8725   2.9420362090e+01   4.6062315605e+01    0.5285542    0.2677883  46.93  0.002216197    1.855    0.461
       202  -9.4914    167.5432    238.4945   7.4375186461e+01   5.3503062830e+00    0.1146632   0.08732382  45.30  7.70662e-05    1.005    0.005
       203  -9.3573     15.3745    233.8155   9.7865910791e+01   2.6571655121e+01    0.1191679   0.06802966 -76.22 0.0009453734    1.704    0.413
       204  -9.8270     93.1705    129.6366   7.2717690839e+01   3.6877274127e+01    0.1932857    0.1618598 -83.43  0.001144753    1.153    0.132
       205  -9.9875    246.3695    230.6998   6.0453473489e+01  -6.5186350215e+00    0.1007822   0.08342879  53.56 0.0007031735    1.740    0.425
       206  -9.6609     75.4820    224.4966   8.8125124664e+01   2.1218357585e+01    0.1080356   0.07978871  67.07 0.0006621326    1.004    0.004
       207 -10.0712     59.6844     23.8919   5.3089457603e+01   6.3089389382e+01    0.1796316    0.1335098 -31.73 0.0004843223    1.170    0.145
       208 -10.6521     90.7859     22.0440   4.1836350855e+01   5.8238805279e+01    0.3581355    0.2432275 -22.02  0.001541738    1.358    0.264
       209  -9.8405     81.3566     19.3004   4.3614682725e+01   6.0339307642e+01    0.3234318    0.1247941  45.34 0.0009759035    2.688    0.628
       210  -9.9341     49.6635    222.6780   9.2121898087e+01   2.4707682343e+01   0.08354823    0.0789182 -68.36 0.0007050472    1.711    0.416
       211  -9.9636     89.4973     16.5246   3.9861147464e+01   5.9221682680e+01    0.2370459     0.186593  21.33 0.0009642029    1.189    0.159
       212 -10.5692     13.9466     23.0706   7.1235832287e+01   6.8004651058e+01    0.1721877    0.1212389 -38.85 0.0004205887    1.063    0.059
       213 -10.0015    223.0645     22.0502   1.6149973719e+01   2.5881388341e+01    0.2170989    0.1982664 -72.29 0.0004611258    1.077    0.071
       214 -11.2854    179.3919     20.4318   2.1539885046e+01   3.7511984724e+01    0.6257239    0.2451108  40.85  0.002110243    3.021    0.669
       215  -9.9577      5.9237     21.6990   7.4239834351e+01   6.8768068207e+01    0.2100072    0.1034597 -40.74 0.0008665118    1.532    0.347
       216 -10.0289    164.7146    211.9656   7.1355892068e+01   9.3955427298e+00    0.2124828    0.1470426  46.47  0.000588195    1.178    0.151
       217 -10.2963    152.7180    207.0843   7.2815067763e+01   1.2194428550e+01     0.263353    0.1874115 -84.37   0.00152435    1.999    0.500
       218  -9.5652    216.5321     20.5129   1.6489139827e+01   2.7731344215e+01    0.1400227    0.1363288 -88.25 5.077466e-05    1.015    0.014
       219 -11.1329    156.5663     20.3349   2.5375944848e+01   4.3485465811e+01    0.3773475    0.1750347  63.81  0.001477288    2.160    0.537
       220  -9.9976     74.6538     19.5346   4.5929545875e+01   6.1454258396e+01    0.2364959    0.1779625   5.79 0.0006048943    1.283    0.221
       221 -10.2806     46.9055     19.3802   5.6059636148e+01   6.5489618858e+01     0.247872    0.1802437 -28.99  0.001594968    1.108    0.098
       222  -9.1264     61.4985    206.5038   8.8968922062e+01   2.6042108786e+01    0.1095121   0.08238342  72.39 0.0008106853    1.000    0.000
       223 -10.6064    139.3093    198.8629   7.4121327026e+01   1.5801957366e+01    0.1920016    0.1498344  86.56    0.0011967    1.471    0.320
       224  -9.7706    233.6831    196.4992   5.6780062666e+01  -8.0108326740e-01    0.1997501    0.1102534 -28.68  0.001075615    1.985    0.496
       225 -11.7682      4.9607    185.7151   9.7082934502e+01   3.5715495810e+01    0.3285174    0.2242658  69.88  0.001987445    1.142    0.125
       226  -9.6443     86.0830    185.5137   8.2456867693e+01   2.6592052226e+01    0.1752411    0.1046752  45.02  0.001025112    1.572    0.364
       227 -10.5021    186.8734     15.1112   1.8729774493e+01   3.6107669081e+01     0.240226    0.2305564  64.56  0.000428479    1.010    0.010
       228 -10.1621    117.3091     16.5850   3.2303356085e+01   5.3434324337e+01    0.2537771    0.1374488  60.58 0.0007581085    2.045    0.511
       229  -9.1948    175.6875    179.6806   6.4201571023e+01   1.2307124496e+01     0.133001   0.09890671  15.47 0.0007037035    1.648    0.393
       230  -9.5824    113.4968    175.9814   7.5848814507e+01   2.4188185965e+01     0.160108    0.1073424 -32.85 0.0008080427    2.394    0.582
       231  -9.4883     28.2343    175.9898   9.2383062472e+01   3.5397995837e+01    0.1394767   0.07196411 -78.12 0.0006503265    1.609    0.378
       232  -9.6337     98.4770     12.4870   3.5495882411e+01   5.7953489889e+01     0.136951    0.1173711   8.67 7.792082e-05    1.007    0.007
       233 -10.0335     51.4913    172.6229   8.7718496009e+01   3.3556660028e+01    0.3113922    0.1279179 -81.71   0.00146515    2.758    0.637
       234 -11.6996      9.4310    167.0788   9.5169048160e+01   3.8832271876e+01    0.2335675    0.1871497  54.21  0.001286363    1.398    0.285
       235  -9.9140     18.9821    164.8258   9.3238443292e+01   3.8438383415e+01    0.1471385     0.116444 -39.82  0.001083882    2.001    0.500
       236 -10.2671    205.0289    163.3270   5.5528126628e+01   9.0770704192e+00    0.2397134    0.2012542 -36.71 0.0006591966    1.328    0.247
       237  -9.7136     28.5094    160.5145   9.1056495614e+01   3.8402793618e+01    0.1111355   0.08376327  86.30 9.911753e-05    1.007    0.007
       238  -9.7218     65.6684     10.4244   4.4930862799e+01   6.4168198415e+01    0.2071922    0.1203342  45.50  0.001065796    1.983    0.496
       239  -9.5537    215.4840    157.4332   5.2379360350e+01   7.8493373287e+00    0.1388375    0.1228397  23.18  3.22726e-05    1.018    0.017
       240 -10.0209      9.3614    155.5702   9.4370406617e+01   4.1085221174e+01    0.1842249   0.07658526 -76.18  0.001073978    1.863    0.463
       241 -10.6262    104.4774    154.5076   7.4447423412e+01   2.9869149023e+01    0.2562203    0.2442123 -25.83  0.001655295    1.332    0.249
       242 -10.3012    141.4043    152.3489   6.6101449368e+01   2.3739505301e+01    0.2948159    0.1986298  59.28  0.001028873    1.554    0.357
       243 -10.0516      3.6577    153.3098   9.5301222054e+01   4.1981317953e+01    0.1812124   0.09906272  53.64  0.001245717    1.733    0.423
       244 -10.1870     30.4985    152.0016   8.9876546423e+01   3.9930609402e+01    0.1717326     0.165025 -10.13  0.001209246    1.575    0.365
       245 -12.0774     23.2572    148.8253   9.1058229757e+01   4.1253680889e+01    0.3539509     0.229447 -48.77  0.001736569    1.974    0.493
       246 -10.2996     65.6289    149.8200   8.2206904819e+01   3.6470066185e+01    0.3164675    0.1758306  17.32  0.001329785    4.175    0.760
       247 -11.0018     46.5983    147.4573   8.6022412769e+01   3.9213676596e+01     0.422462    0.2566227 -47.28  0.002453477    2.073    0.518
       248 -11.0466     16.1491    147.9537   9.2426552791e+01   4.2049818762e+01    0.2290695    0.1703598  67.13  0.000583177    1.248    0.199
       249 -10.2507      3.1680    147.6491   9.4990447394e+01   4.3140913161e+01    0.1394701    0.1090398  88.02  0.001121577    1.110    0.099
       250  -9.7768     74.0352    146.0175   7.9833021813e+01   3.6166585519e+01    0.1772575    0.1450732 -39.07 0.0005152692    1.595    0.373
       251 -11.1856     33.1628    144.4780   8.8563443246e+01   4.1222466572e+01    0.2345112      0.17805  84.06 0.0006688937    1.097    0.088
       252 -11.0440      5.8586    142.1319   9.4031936476e+01   4.4047508192e+01    0.1925057    0.1323614 -89.52  0.000273622    1.079    0.073
       253 -11.2648      2.0223    140.3821   9.4673912886e+01   4.4682050484e+01    0.3556429    0.1476876 -79.87  0.001387018    1.847    0.459
       254  -9.7140    217.1911    138.8200   4.7989640620e+01   1.0315509935e+01    0.2015119    0.1577485  15.26 0.0004682776    1.303    0.233
       255 -10.3232     40.4900    138.0710   8.6250462656e+01   4.1834067158e+01    0.2226797    0.1462913  76.65   0.00084678    1.477    0.323
       256  -9.8737     79.2529    137.9875   7.7428292928e+01   3.7151111408e+01    0.1852251    0.1523277 -76.23 0.0008691097    1.088    0.081
       257  -9.9016     31.5613    137.4195   8.8148375034e+01   4.2851239162e+01    0.2817774    0.1457124  50.17  0.001550253    1.983    0.496
       258 -11.3372     22.4936    135.9884   8.9978076227e+01   4.3970933977e+01    0.4336881     0.250823  46.77  0.002805071    1.817    0.450
       259 -10.9754     29.8011    133.2033   8.8068040288e+01   4.3903755952e+01    0.2678232    0.2145416 -42.40 0.0007657819    1.629    0.386
       260  -9.6787     47.2353    134.9805   8.4347255553e+01   4.1778895190e+01    0.1607844   0.08455463 -69.29 0.0006379512    1.612    0.380
       261 -10.1007     73.2678    133.6194   7.8121722941e+01   3.8911338415e+01    0.2430671    0.1435631 -73.77  0.001263182    1.690    0.408
