#   1 NUMBER                 Running object number                                     
#   2 MAG_AUTO               Kron-like elliptical aperture magnitude                    [mag]
#   3 X_IMAGE                Object position along x                                    [pixel]
#   4 Y_IMAGE                Object position along y                                    [pixel]
#   5 X_WORLD                Barycenter position along world x axis                     [deg]
#   6 Y_WORLD                Barycenter position along world y axis                     [deg]
#   7 A_WORLD                Profile RMS along major axis (world units)                 [deg]
#   8 B_WORLD                Profile RMS along minor axis (world units)                 [deg]
#   9 THETA_WORLD            Position angle (CCW/world-x)                               [deg]
#  10 FWHM_WORLD             FWHM assuming a gaussian core                              [deg]
#  11 ELONGATION             A_IMAGE/B_IMAGE                                           
#  12 ELLIPTICITY            1 - B_IMAGE/A_IMAGE                                       
         1 -10.5204     57.9862     41.7805   5.9105879354e+01   6.1519700336e+01    0.2943728    0.1714136 -58.66  0.001403085    2.433    0.589
         2 -12.0967      5.0757     39.3948   8.0357490145e+01   6.6890243998e+01    0.6258819    0.1400823 -61.15  0.002549013    3.484    0.713
         3 -10.8714     12.7366     29.1773   7.3932068998e+01   6.8346541726e+01    0.2739019   0.07166123 -53.72   0.00121107    2.873    0.652
         4 -10.7420     40.8272     14.0094   5.4982623278e+01   6.8186092097e+01      0.19255    0.1455421   5.96 0.0003222407    1.203    0.169
         5 -10.8548    161.9022    225.1136   7.1907498420e+01   4.9619018701e+00    0.3318683    0.2423957  20.04  0.001889515    1.677    0.404
         6 -10.1028     99.2007    225.0829   8.4049321723e+01   1.5609861145e+01    0.1761231    0.1534379  59.97 0.0005736278    1.193    0.162
         7 -10.5183     60.2617    223.1663   9.1204172886e+01   2.1657589210e+01    0.2490748    0.1048942  59.84  0.001250725    2.110    0.526
         8 -10.8728    126.2541    220.4850   7.8246712101e+01   1.1996315327e+01    0.2389314     0.182541  75.49 0.0007533262    1.332    0.249
         9 -10.3225    143.9570    216.9827   7.4273742749e+01   9.5234882407e+00    0.2128085    0.1445558  69.21  0.001134705    1.690    0.408
        10  -9.3297     99.3447    215.6723   8.2991929285e+01   1.7361052468e+01    0.1384663   0.08057076  67.70  0.000705062    1.747    0.428
        11 -10.0347     74.8225    219.3035   8.8137735508e+01   2.0381533030e+01     0.205223    0.1182717  58.84 0.0009467245    1.424    0.298
        12 -10.1054     76.8131    212.5822   8.7106314671e+01   2.1409325368e+01    0.2228655   0.08455368 -64.27  0.001022544    2.685    0.628
        13 -10.0308    116.8151    210.5936   7.8873696788e+01   1.5449819724e+01    0.2018909   0.09983809  52.31 0.0009501539    1.775    0.437
        14  -9.9409    139.6805    207.3598   7.3765256487e+01   1.2029695209e+01    0.1410335   0.09514353  72.22 0.0007043525    1.766    0.434
        15 -10.1315     99.1863    205.9910   8.1897186599e+01   1.9283637478e+01    0.2188586    0.1287182  79.08  0.000867774    2.029    0.507
        16 -12.3854    165.0387    202.3108   6.7809476626e+01   8.2427156766e+00    0.5431465     0.363735  80.83  0.002505222    2.441    0.590
        17 -13.6897    177.7302    197.4237   6.4421298976e+01   6.6870433945e+00    0.6671069    0.5375375   9.60  0.003740273    1.474    0.322
        18 -10.6268    112.5560    194.4632   7.7602808107e+01   1.9379430347e+01    0.2247375    0.1973741 -67.97 0.0005714393    1.264    0.209
        19  -9.9973     88.5152    198.0376   8.3156076939e+01   2.2598314550e+01    0.1901841    0.0993467  85.85 0.0008100162    2.656    0.623
        20 -12.7415    163.7650    194.2680   6.6734035105e+01   9.9333095256e+00    0.5128793    0.3226647  64.86  0.002370584    2.017    0.504
        21 -12.8002    172.8360    195.7254   6.5120265523e+01   7.9233346498e+00    0.3879428    0.3134262 -59.43  0.002198072    1.463    0.317
        22  -9.6529     66.3163    193.9931   8.7333822778e+01   2.6717035983e+01    0.2053031   0.08605182  87.66 0.0007042761    4.220    0.763
        23  -9.8288     43.7996    193.1993   9.1861340764e+01   2.9795267374e+01    0.2192458   0.08918861  67.92 0.0009495124    2.820    0.645
        24 -11.7013    149.4386    198.1227   7.0344572958e+01   1.1949702816e+01    0.3886172    0.2626439 -83.31  0.001867327    2.145    0.534
        25 -12.0726    139.3542    188.8335   7.0989189823e+01   1.5651727228e+01    0.4140059    0.2624103 -66.53   0.00199874    1.889    0.471
        26 -11.6244    129.9427    188.3381   7.2945077879e+01   1.7513951111e+01     0.371437    0.2332653  71.43  0.001405694    1.986    0.496
        27 -10.5627      7.5792    188.2448   9.8578999643e+01   3.4639798414e+01    0.2131564   0.08465503 -84.49  0.001135868    2.072    0.517
        28 -11.8687    125.1331    197.3303   7.5334561212e+01   1.6582761552e+01    0.3359958    0.2449083  51.07  0.001864763    1.189    0.159
        29 -10.0953     87.3230    188.6693   8.2266297882e+01   2.4758847777e+01    0.1427385   0.08698735  71.08  0.000375573    1.699    0.412
        30 -11.0943    203.9796    187.5022   5.7425827247e+01   3.3308245684e+00     0.219543    0.1244666  43.48   0.00104135    1.617    0.382
        31 -11.3620    165.8299    186.6411   6.4980289919e+01   1.0944047490e+01    0.2830892     0.207356  71.35  0.001413956    1.683    0.406
        32 -12.0586    156.2951    186.2682   6.6928978565e+01   1.2888628429e+01    0.3491139     0.253704 -78.03  0.001736337    1.810    0.447
        33 -11.4575     94.5275    182.0213   7.9811458682e+01   2.5044923806e+01    0.6899524    0.3893229  80.64  0.003025339    2.372    0.578
        34  -9.9790     34.5160    187.0182   9.3211783261e+01   3.2178892849e+01    0.1801944   0.07732231  79.94 0.0008104745    2.621    0.618
        35 -11.5022    120.3585    184.0844   7.4380316727e+01   2.0149105511e+01    0.4409248    0.1681231 -63.63   0.00155362    3.462    0.711
        36 -10.8250    109.6321    185.4969   7.6959222158e+01   2.1755179020e+01    0.3189017    0.1908394  69.22  0.001478609    1.934    0.483
        37  -9.9714     54.4885    185.9839   8.8988174190e+01   3.0009736436e+01    0.1850483   0.08731013  82.05 0.0008104785    2.570    0.611
        38 -11.5396    183.2579    184.3649   6.0959921706e+01   7.9123083259e+00     0.260009    0.1738223  51.55  0.001115346    1.461    0.315
        39 -11.7940    174.9409    183.8672   6.2578531119e+01   9.6543842412e+00    0.3539411    0.2202189  55.02   0.00166248    1.663    0.399
        40 -10.2111     74.4042    183.1663   8.4400040619e+01   2.7898453203e+01    0.2936338    0.1175962 -76.31  0.001138178    3.098    0.677
        41 -10.9673      4.6628    184.0605   9.8883775377e+01   3.5762690775e+01    0.1896617    0.1580322  51.96  0.001484499    1.418    0.295
        42 -11.0990    197.6488    182.3559   5.7688715013e+01   5.4235204144e+00    0.2070871    0.1702964  81.83 0.0009883703    1.658    0.397
        43 -13.4586    148.3381    178.1219   6.7215533195e+01   1.6061891719e+01    0.7633817    0.3776336 -59.17  0.003089799    2.491    0.599
        44  -9.7004     44.3123    181.6768   9.0714093394e+01   3.2200464516e+01    0.1315563   0.07397734  70.38 0.0005059961    1.656    0.396
        45 -11.5441    138.4996    179.0379   6.9542178347e+01   1.7798596135e+01    0.3002031     0.228074  85.09  0.001069958    1.530    0.347
        46 -11.6312    192.9855    178.4766   5.7871720673e+01   7.0230586623e+00    0.3277544    0.1985935  59.25   0.00145412    2.036    0.509
        47 -10.2747    129.4800    176.9882   7.1203334965e+01   1.9951462251e+01    0.2005822    0.1216747 -84.24 0.0008100521    2.539    0.606
        48 -10.2894     12.7782    175.5107   9.6732733048e+01   3.6833850251e+01    0.3417611    0.1183264  87.00  0.001445514    3.206    0.688
        49 -11.1269    183.9677    175.7840   5.9184514703e+01   9.3256966656e+00    0.2376257    0.1633437  69.02   0.00108179    1.985    0.496
        50 -11.9244    159.8520    174.9656   6.4129999414e+01   1.4387949995e+01    0.3777588    0.2710419 -71.70  0.001632249    1.780    0.438
        51 -10.8907     77.7288    175.2541   8.2674210440e+01   2.9156131165e+01    0.3933221    0.2036671  80.08   0.00163222    2.692    0.629
        52  -9.9736    105.9676    174.8055   7.6180094693e+01   2.4698103440e+01    0.2472819    0.1400053  64.94  0.001080821    2.040    0.510
        53 -10.8792      2.7727    172.2378   9.8526717221e+01   3.8395042970e+01    0.4172788    0.1141319  87.20   0.00140193    5.264    0.810
        54 -12.1420    177.7068    170.9082   5.9534992122e+01   1.1518873200e+01    0.3565735    0.2877837  88.71  0.001535895    1.596    0.373
        55 -11.7786    135.1051    170.9169   6.8882953523e+01   2.0154750977e+01    0.4350294    0.2599188 -70.80  0.001862322    2.189    0.543
        56 -12.2964    122.1155    167.9266   7.1335653825e+01   2.3287452357e+01    0.6672706     0.370619 -66.35  0.002876352    2.094    0.522
        57 -10.3925    206.8311    169.8290   5.3412718383e+01   5.7605532759e+00    0.1908904    0.1724568  76.38 0.0009133617    1.341    0.254
        58 -12.4244    168.2690    168.1407   6.1001169320e+01   1.4009148942e+01    0.5506752    0.2760142 -53.47  0.002214843    2.334    0.571
        59 -12.1160    150.0546    169.3489   6.5231975040e+01   1.7508075210e+01    0.4196096    0.2901791  86.02  0.001811633    2.065    0.516
        60 -11.3024    148.1364    163.8308   6.4611993338e+01   1.9045793741e+01    0.2696187    0.2083042 -76.98 0.0007681656    1.513    0.339
        61 -10.1631     55.1761    169.0366   8.7018934800e+01   3.3664584808e+01    0.2253992    0.1218184  79.94  0.001082076    2.042    0.510
        62  -9.7189     88.4476    168.2357   7.9241046273e+01   2.9082187822e+01    0.1934094    0.1220152 -80.76 0.0009447309    1.675    0.403
        63 -12.9990    139.8058    163.8033   6.6505296937e+01   2.0739699994e+01    0.7361681    0.4332742 -69.93  0.003022532    2.314    0.568
        64 -11.1017     18.3547    166.2470   9.4870576785e+01   3.8321145219e+01    0.3184595    0.2281865   5.06  0.001967949    2.463    0.594
        65 -10.7205    192.9611    166.0066   5.5393186241e+01   9.2745853239e+00    0.2314847    0.1828587  85.03  0.001139168    1.748    0.428
        66 -10.2694     98.9661    165.7874   7.6398707262e+01   2.7906977021e+01    0.2455772    0.1403823  64.75  0.001076752    2.011    0.503
        67 -10.1585    217.6812    165.3063   5.0406266259e+01   4.3666614330e+00    0.1335876    0.1134225 -87.67 0.0002373661    1.633    0.388
        68 -10.6580     79.8146    163.3307   8.0560640698e+01   3.1538248777e+01    0.5060583    0.2489738  86.37  0.001785382    3.640    0.725
        69 -12.1266    160.0613    162.8493   6.1748296228e+01   1.6780961991e+01    0.4667462    0.2230231 -43.84  0.001846181    2.281    0.562
        70 -10.9058    205.7955    162.1891   5.2040847501e+01   7.3100482750e+00    0.2367591    0.1635547 -85.78 0.0009545563    2.861    0.650
        71 -12.5790    178.1982    160.4735   5.7323929572e+01   1.3424711941e+01    0.4651611    0.3552008 -71.43  0.002113083    1.673    0.402
        72 -11.5937    152.0285    161.0096   6.3180345178e+01   1.8834731714e+01    0.3140456      0.23054  80.39  0.001323737    1.731    0.422
        73 -10.4659      8.7352    159.6930   9.6416975232e+01   4.0595854947e+01    0.3438915    0.1168985  77.05  0.001290507    4.177    0.761
        74 -11.6634    144.4170    159.6511   6.4647590685e+01   2.0691588543e+01    0.2832756    0.2489529  72.62 0.0003491681    1.125    0.111
        75 -10.6627     93.2359    159.5603   7.6774207440e+01   3.0281803305e+01    0.3393212    0.2271121  88.33  0.001657435    1.677    0.404
        76  -9.3525     62.2919    160.6261   8.4343946050e+01   3.4651954737e+01    0.1418511   0.08644667  75.87 0.0007023316    1.730    0.422
        77 -10.6870    128.5123    158.5159   6.8137636286e+01   2.4128408533e+01    0.3301752    0.2356783 -88.40  0.001539747    1.728    0.421
        78 -11.9931    196.9573    157.0946   5.2722867131e+01   1.0078720308e+01    0.3802886    0.2604636 -62.73  0.001720938    1.970    0.492
        79 -12.0640    189.0256    156.8771   5.4297083129e+01   1.1807451180e+01    0.4129228    0.3176749 -65.85  0.002024036    1.617    0.382
        80 -12.7589    168.0959    156.6126   5.8704581013e+01   1.6347868205e+01    0.5469813    0.3745141 -62.44  0.002378354    1.763    0.433
        81 -10.5939    105.8332    157.5415   7.3391404435e+01   2.8587567841e+01    0.3633492    0.2241372  71.58  0.001532202    2.022    0.505
        82 -12.1342    157.7524    155.5359   6.0782005984e+01   1.8775784521e+01    0.4271342    0.2640566 -61.20  0.001683137    1.948    0.487
        83 -11.1782    119.6727    154.8127   6.9552914898e+01   2.6661050435e+01     0.432143     0.249181 -79.39  0.001654235    2.666    0.625
        84 -11.1947    145.2024    154.4152   6.3423867719e+01   2.1651342393e+01    0.3055974    0.2516422 -84.20  0.001548622    1.348    0.258
        85 -10.3601     49.5184    154.2684   8.6580865694e+01   3.7728908198e+01    0.3880502    0.1897958  75.26  0.001664924    2.676    0.626
        86 -11.6447    204.8743    154.1635   5.0517738607e+01   8.9412951875e+00    0.2229317    0.2054379 -89.12  0.001061102    1.270    0.213
        87 -11.9647    133.5304    152.5217   6.5787887897e+01   2.4454887570e+01     0.508516    0.3290567 -82.96  0.002096382    2.251    0.556
        88 -10.5052     81.7612    153.9579   7.8683451961e+01   3.3404193243e+01    0.2666505    0.1790052 -88.50 0.0008317514    1.577    0.366
        89 -10.7002     68.0564    153.1198   8.1928090253e+01   3.5603409501e+01    0.4071074    0.2340823  71.91  0.001710757    2.044    0.511
        90 -12.7144    189.7771    149.5844   5.2568805042e+01   1.3037562149e+01     0.476717    0.3465097 -55.54  0.001891373    1.557    0.358
        91 -11.7514    162.6641    150.0497   5.8524535446e+01   1.8863108877e+01    0.3564918    0.2620914 -69.31  0.001245941    1.655    0.396
        92 -10.2514     91.2846    150.9376   7.5832848532e+01   3.2594830733e+01    0.2278138    0.1081026 -81.33 0.0007018492    4.115    0.757
        93  -9.9271     22.5938    157.7979   9.3213369014e+01   3.9790706151e+01    0.1785167   0.09184404 -87.69 0.0009598264    1.704    0.413
        94 -10.7487     28.3097    148.4434   9.0975187505e+01   4.1352649360e+01      0.43649    0.1569393  89.64  0.001475572    4.496    0.778
        95 -11.7029    200.4950    148.6777   5.0190571957e+01   1.0882539843e+01    0.2963605    0.2289034  77.39 0.0009663698    1.713    0.416
        96 -10.9146    142.8477    148.5384   6.2768783654e+01   2.3414814316e+01    0.3111438    0.2003206 -68.64  0.001320241    1.945    0.486
        97 -10.8085     39.1733    146.3630   8.8123984884e+01   4.0723191115e+01    0.4740657    0.2033098 -85.31  0.001989036    2.720    0.632
        98 -13.1559    149.6235    143.7924   6.0167251310e+01   2.3007004308e+01    0.8816448    0.5420604 -67.88  0.003492523    2.194    0.544
        99 -11.2715    107.5466    144.7356   7.0637143835e+01   3.1222505098e+01    0.6903998     0.416321  88.26  0.002702318    2.605    0.616
       100 -10.9645     55.7830    144.6730   8.3779059169e+01   3.9193584191e+01    0.5243299    0.2729382  82.68  0.002245447    2.579    0.612
       101 -11.3284    175.8603    146.0939   5.4750348728e+01   1.6781499130e+01     0.241911    0.2111182  88.42  0.001098113    1.296    0.228
       102  -9.8612     78.3153    146.6442   7.8379201849e+01   3.5636060873e+01    0.1487916   0.09691803  76.78 0.0007045073    1.744    0.427
       103 -10.6376     13.0136    144.7957   9.4216469380e+01   4.3534893152e+01    0.3539116    0.1310397 -84.53  0.001587817    2.579    0.612
       104 -12.1397    166.1843    143.4498   5.6297222823e+01   1.9461587488e+01    0.4246155    0.2855536 -56.08   0.00189897    1.638    0.390
       105 -10.7257    138.1594    143.7609   6.2882312034e+01   2.5443033701e+01    0.2750681    0.2085607 -66.40  0.001319062    1.418    0.295
       106 -11.6648    125.0581    141.9452   6.5701299276e+01   2.8522111138e+01    0.6860771      0.37312 -69.43   0.00256299    2.577    0.612
       107 -10.4472     87.9164    142.8656   7.5290470419e+01   3.5029973387e+01    0.3978498    0.1919783 -67.52  0.001626479    2.216    0.549
       108 -11.3548    182.3014    141.1109   5.2251282305e+01   1.6344687933e+01    0.4002873    0.2552768 -70.01  0.001556763    2.474    0.596
       109 -11.3208      2.4253    139.5810   9.6228626438e+01   4.5494733551e+01    0.4617664     0.134145 -81.54  0.001920138    3.096    0.677
       110 -11.9209    172.4791    137.6413   5.3588507747e+01   1.9252369574e+01    0.4836119    0.2757757 -58.64  0.001880457    2.220    0.550
       111 -10.9901     22.7995    135.7589   9.0944086030e+01   4.4752301765e+01    0.6909266    0.2485854 -81.75   0.00284079    2.932    0.659
       112 -10.4549    198.3239    138.6766   4.8383186997e+01   1.3235662185e+01    0.1523287    0.1202063 -83.41 0.0005248184    1.684    0.406
       113 -10.8565    138.7140    137.5867   6.1415564825e+01   2.6694343091e+01    0.2729253    0.1893222 -73.46  0.001187319    1.791    0.442
       114 -11.4645    162.8855    135.8888   5.5335835419e+01   2.1775141764e+01    0.3615421     0.223954 -59.58  0.001411989    1.920    0.479
       115 -11.0185     38.9017    134.8730   8.6748080615e+01   4.3414639891e+01    0.3666609    0.1571431 -76.43  0.001632749    2.248    0.555
       116 -11.2613    182.1518    150.4844   5.4363211069e+01   1.4526889705e+01    0.3090063    0.1997084 -60.60  0.001325465    1.965    0.491
       117 -11.5825    180.0484    133.4928   5.0980960224e+01   1.8375726233e+01    0.4562147    0.2477087 -57.89  0.001694787    2.429    0.588
       118 -11.3473    132.1130    130.4498   6.1451899176e+01   2.9677860097e+01    0.6843536    0.3393743 -62.86   0.00239852    2.726    0.633
       119 -10.5408    112.8829    132.6274   6.6834742548e+01   3.3032169738e+01    0.3134783    0.1998083 -74.53   0.00133425    1.951    0.487
       120 -11.5585    143.3143    130.5792   5.8718196526e+01   2.7255646898e+01    0.5584497    0.2732991 -51.97  0.002115772    2.142    0.533
       121 -11.0836     83.2568    129.4357   7.4053448811e+01   3.8938939341e+01    0.8591033     0.271798 -61.24  0.002857923    3.246    0.692
       122 -10.8593    193.1837    130.1908   4.7453956593e+01   1.6021511028e+01    0.2150227    0.1855314 -79.62  0.001078561    1.335    0.251
       123 -11.7577    168.7784    128.8512   5.2359174614e+01   2.1906003727e+01    0.4367647    0.2461555 -53.17  0.001733624    1.964    0.491
       124 -11.4671    153.1163    128.5540   5.5895370688e+01   2.5529413281e+01     0.559928    0.2740058 -56.04  0.002009066    2.442    0.591
       125 -11.7644     12.5781    125.5359   9.2410688489e+01   4.7903463448e+01    0.7977412    0.1969297 -72.57  0.003139132    3.175    0.685
       126 -11.5859     98.8065    126.1173   6.9181088671e+01   3.7131939520e+01    0.8097186    0.3531606 -64.34  0.002867535    2.808    0.644
       127 -10.1821     72.8195    128.3872   7.6692568317e+01   4.0755365409e+01    0.3389363    0.1797403 -78.29   0.00140163    2.365    0.577
       128 -11.1538    117.7713    124.3509   6.3742965843e+01   3.3988800712e+01     0.591154    0.3683573 -71.36   0.00244062    2.053    0.513
       129 -10.8781     59.0984    123.2007   7.9550494047e+01   4.3835658707e+01    0.6297994     0.307137 -88.18  0.002229115    3.696    0.729
       130 -11.4016    180.1999    124.2906   4.8758362010e+01   2.0189358779e+01    0.3815849    0.2497222 -54.10   0.00157918    1.675    0.403
       131 -11.5434     43.0129    120.2788   8.3548265389e+01   4.6390768380e+01    0.9453848    0.3804488 -83.46  0.003085321    4.482    0.777
       132 -11.4178     27.8192    121.0014   8.7834777916e+01   4.7700488860e+01      0.75974    0.3201444  79.49   0.00255517    4.921    0.797
       133 -11.6701    158.6026    120.4043   5.2640095992e+01   2.6020762937e+01    0.4538523    0.2685202 -58.50  0.001695671    2.011    0.503
       134 -11.7817    141.7474    117.5037   5.5979501558e+01   3.0471367405e+01    0.8240793    0.3243955 -53.70  0.002632065    2.999    0.667
       135 -10.4811     70.8258    119.1384   7.5513159626e+01   4.3226965797e+01    0.3618817    0.1808549 -72.06  0.001487975    2.318    0.569
       136 -10.9698    130.7150    117.8135   5.8840828655e+01   3.2806351900e+01    0.4670478    0.2916496 -77.29  0.001739249    2.571    0.611
       137 -11.7131      2.6812    114.8767   9.3854290128e+01   5.0967168313e+01    0.7404642    0.2162856 -82.16  0.002828779    3.683    0.728
       138 -10.9987    186.1569    115.4822   4.5333774713e+01   2.0534030121e+01    0.3019294    0.1767556 -59.89  0.001143873    2.250    0.556
       139 -11.2675    108.9245    112.4174   6.3330613653e+01   3.8447545360e+01    0.8047757    0.3371907 -58.33  0.002778216    2.760    0.638
       140 -11.0515     78.6647    111.1678   7.1630763060e+01   4.3950280738e+01    0.6160102    0.3085416 -74.48  0.002243088    3.059    0.673
       141 -11.2875     92.2536    109.6536   6.7363565949e+01   4.2107309080e+01    0.9198506    0.2701515 -55.50  0.002884939    3.414    0.707
       142 -10.6001    172.8615    120.7802   4.9496891084e+01   2.2618962287e+01    0.3094323     0.205211 -68.64  0.001241819    2.069    0.517
       143 -10.5435    122.0233    111.5600   5.9574073090e+01   3.6031320985e+01    0.3705653    0.1925932 -54.92  0.001444962    2.021    0.505
       144 -10.4086    174.7431    110.5016   4.6502830859e+01   2.4255602086e+01    0.3502378    0.1834951 -53.22  0.001292948    2.201    0.546
       145 -10.8446     66.3667    109.4740   7.4878574480e+01   4.6114945071e+01    0.4443082    0.2228623 -71.24  0.001854492    2.311    0.567
       146 -10.0731    133.4256    108.7234   5.5868914571e+01   3.4230782703e+01     0.308726    0.1484509 -51.76  0.001134437    2.180    0.541
       147 -10.3600    139.9621    104.2760   5.3042282762e+01   3.3736814184e+01    0.4064103    0.2549223 -72.19   0.00151637    2.464    0.594
       148 -11.7261     44.6706    100.8917   7.9717985057e+01   5.0722633670e+01    0.7480235    0.3967224  81.68  0.002918945    3.563    0.719
       149 -10.5329     43.3538     93.0943   7.8597280195e+01   5.2642670994e+01     0.347816    0.1436481 -45.03  0.001502764    2.425    0.588
       150 -12.3218     22.0419     99.3685   8.6357324392e+01   5.3130717544e+01     1.020415    0.4187578 -82.27  0.004169865    3.142    0.682
       151 -10.9391    150.3241    102.0270   4.9884596460e+01   3.1819818764e+01     0.688441    0.2376466 -53.37  0.001825707    4.321    0.769
       152 -11.8289      6.7658    100.6741   9.1068940336e+01   5.3885108701e+01    0.5676699     0.133391 -67.32  0.002354325    2.876    0.652
       153 -10.8724    128.5159    100.6408   5.5028931384e+01   3.7061207801e+01    0.4732317      0.25172 -52.94  0.001851317    1.992    0.498
       154 -11.5291    108.5580     96.8646   5.9495315018e+01   4.2015093383e+01    0.7942702    0.4035355 -60.79  0.002951284    2.503    0.600
       155 -10.6632     81.8580     98.2363   6.7713440040e+01   4.6439366220e+01    0.5548335     0.189469 -57.16    0.0018972    3.007    0.667
       156 -10.7657     94.9534     94.6919   6.2880620264e+01   4.5036761509e+01    0.6350196     0.194657 -48.91  0.002079092    3.071    0.674
       157 -11.5331     63.2903     93.3867   7.2313941268e+01   5.0235361040e+01    0.8468479    0.3231795 -61.88  0.003211335    2.728    0.633
       158 -10.2276     57.9958     92.0069   7.3681191445e+01   5.1225379698e+01    0.1938597    0.1743186 -65.78  0.001203828    1.053    0.051
       159 -11.8537      4.5808     89.6614   9.0243018144e+01   5.6447824525e+01    0.4404991    0.1820576 -73.62  0.002256493    1.979    0.495
       160  -9.9899    138.4366     91.2368   4.9866151068e+01   3.6825022712e+01    0.2291338    0.1457382 -54.52 0.0009556749    1.712    0.416
       161 -10.8504    124.5039     88.5856   5.2770046113e+01   4.0496986566e+01    0.6362703    0.2844473 -44.10  0.002355608    2.227    0.551
       162 -11.2652     86.2282     84.2281   6.2727277100e+01   4.8840694629e+01    0.7132077    0.2600452 -52.75  0.002558045    2.733    0.634
       163 -11.7878     48.2850     81.6683   7.4474030947e+01   5.4674887817e+01    0.7910204    0.3072055 -61.67  0.003280001    2.472    0.595
       164 -11.3520     14.1700    108.9642   9.0021556550e+01   5.1538762597e+01    0.4642019    0.2231814 -74.00  0.002487129    1.691    0.409
       165 -12.1528     25.4655     75.7447   8.0976367033e+01   5.8119561982e+01      1.06498    0.2648197 -50.47  0.004264128    2.975    0.664
       166 -10.2710     74.2258     78.9947   6.5123020377e+01   5.1877775491e+01    0.4180399    0.1553764 -57.28  0.001479163    3.057    0.673
       167 -11.2285      8.8482     80.1835   8.7437892002e+01   5.8278912058e+01    0.1761823     0.142038 -86.29  0.001244678    1.247    0.198
       168 -11.1700     34.7864     86.8476   8.0105829004e+01   5.4883549190e+01    0.7959321    0.2022397 -60.49  0.003011462    3.020    0.669
       169 -10.5934    128.0393     73.1836   4.7247738456e+01   4.2801120592e+01    0.6191379    0.2198907 -39.17  0.002042794    2.893    0.654
       170 -11.2140     62.5056     70.2861   6.6629507480e+01   5.5390064970e+01    0.9227192    0.1249598 -48.03  0.002422306    5.688    0.824
       171 -10.5779      9.9165     74.7585   8.6149029196e+01   5.9390304773e+01    0.1799445    0.1257389 -49.35  0.001201755    1.224    0.183
       172 -11.0830     82.1554     71.9986   6.0507142611e+01   5.2098908491e+01    0.3604189    0.2242136 -61.36  0.001657121    1.930    0.482
       173 -11.2145    104.2425     81.1620   5.6358899472e+01   4.6228029631e+01     0.625648    0.2517087 -49.10   0.00227086    2.509    0.601
       174 -10.5379    105.5543     69.8386   5.2527966896e+01   4.8257993474e+01    0.3753749    0.1385166 -45.40  0.001317926    2.703    0.630
       175 -10.6440     94.7444     68.8487   5.5512674474e+01   5.0533839396e+01    0.6298406    0.1791673 -49.99  0.001852966    4.155    0.759
       176 -11.2705     51.1046     67.4522   6.9857667111e+01   5.7410987202e+01    0.6835074    0.2230635 -60.31  0.002341451    3.830    0.739
       177 -10.5457      5.6226     70.0455   8.6793081868e+01   6.0635246984e+01    0.2736467   0.08682013 -67.25     0.001252    2.457    0.593
       178 -11.4990     17.6209     63.5743   8.1175259918e+01   6.1285487408e+01    0.4811368   0.08118496 -52.52  0.001833411    3.376    0.704
       179  -9.6793    138.6852     65.3560   4.2079989930e+01   4.1771081035e+01    0.1592368    0.1194759 -75.31 0.0007044857    1.743    0.426
       180 -10.5965     10.2168     64.7492   8.4147888034e+01   6.1501341249e+01    0.2197585    0.1180426 -66.28  0.001279333    1.539    0.350
       181  -9.8179    121.3889     63.4044   4.5948930009e+01   4.6124148303e+01    0.2965409    0.1380052 -25.45 0.0009583139    3.397    0.706
       182 -10.8958     37.3900     61.6179   7.3297729064e+01   6.0080804985e+01    0.5564947    0.1532174 -51.37   0.00223758    2.758    0.637
       183 -10.4133    110.0087     61.2876   4.8460156820e+01   4.8966694396e+01    0.4204794    0.1839487 -32.70  0.001534399    2.653    0.623
       184 -10.9641     73.2535     56.4812   5.8614347823e+01   5.6596532062e+01     0.773702    0.1871198 -44.38  0.002490815    3.817    0.738
       185 -10.3010    100.1433     57.1481   5.0018028341e+01   5.1722698554e+01    0.5684342    0.1757738 -39.96  0.001899685    3.211    0.689
       186 -10.3883     25.1247     57.4197   7.6864515166e+01   6.2013231752e+01    0.3911466    0.1276263 -49.34  0.001785218    2.305    0.566
       187 -12.2236      7.7488     53.7032   8.2733237951e+01   6.3919948928e+01    0.7448511     0.108665 -58.71  0.002864254    3.549    0.718
       188 -11.7368     45.0268     50.0903   6.6981654975e+01   6.1589208738e+01    0.5658062    0.1906186 -44.08  0.001980572    2.542    0.607
       189 -10.6142     53.7074     51.0113   6.3932148141e+01   6.0384909245e+01    0.6222206    0.1610074 -53.06  0.001985312    4.500    0.778
       190 -10.8501     30.7659     49.0050   7.2317869002e+01   6.3225880753e+01    0.5505825      0.14192 -55.80  0.002113186    3.357    0.702
       191 -10.2998     20.8687     49.2325   7.6388555383e+01   6.3982703390e+01    0.4611513    0.1678441 -33.64  0.001932978    3.378    0.704
       192 -10.5754     91.8676     47.9489   4.9407319215e+01   5.4934443803e+01    0.5554093    0.1547595 -42.90  0.001814366    3.650    0.726
       193 -10.1296     82.0000     45.0860   5.1623659393e+01   5.7211661890e+01    0.4684506   0.07278008 -40.93  0.001184704    6.221    0.839
       194 -10.8689     16.7564     41.2553   7.5861471353e+01   6.5828259101e+01    0.3366792   0.08044402 -48.40  0.001445117    2.816    0.645
       195 -10.7073     62.8001     50.8097   6.0459478841e+01   5.9213288276e+01    0.6638514    0.1545716 -46.15  0.002194701    3.866    0.741
       196 -10.2597     92.3226    230.6421   8.5918555004e+01   1.5655915707e+01    0.1325505   0.07394118  68.01 0.0007044648    1.769    0.435
       197 -10.1880     69.3567     39.4338   5.3974619736e+01   6.0258267563e+01    0.4445266    0.1138445 -43.62   0.00150179    3.847    0.740
       198 -10.2978     36.7881     38.6850   6.6536935491e+01   6.4601819558e+01    0.3617096    0.1065142 -44.90  0.001516117    2.756    0.637
       199  -9.7862     72.6780    228.3509   8.9352932180e+01   1.8968027069e+01    0.1304793   0.06915423  67.78 0.0007048244    1.748    0.428
       200 -11.1258     27.6652     29.3913   6.7199652417e+01   6.7135802572e+01    0.4704487    0.1044175 -41.93  0.001776039    3.719    0.731
       201 -10.3730     60.5511     30.3060   5.3735774426e+01   6.3077673434e+01    0.3379958    0.1064414 -35.30  0.001281886    3.246    0.692
       202 -10.1563     72.0000     29.4285   4.9107204965e+01   6.1424953678e+01    0.2781001   0.06833887 -37.62 0.0009341998    3.930    0.746
       203 -10.8582     85.1964    227.4113   8.6940653642e+01   1.7324664542e+01     0.181926   0.08623302  52.09 0.0009505907    1.690    0.408
       204  -9.0913    110.3264     24.3476   3.5139140192e+01   5.4649362625e+01    0.1477004   0.09705573  22.77 0.0007049675    1.751    0.429
       205  -9.6179    113.8891     41.6369   4.0581938518e+01   5.1444428792e+01    0.2256528    0.1636609  29.96  0.000577474    1.452    0.311
