#   1 NUMBER                 Running object number                                     
#   2 MAG_AUTO               Kron-like elliptical aperture magnitude                    [mag]
#   3 X_IMAGE                Object position along x                                    [pixel]
#   4 Y_IMAGE                Object position along y                                    [pixel]
#   5 X_WORLD                Barycenter position along world x axis                     [deg]
#   6 Y_WORLD                Barycenter position along world y axis                     [deg]
#   7 A_WORLD                Profile RMS along major axis (world units)                 [deg]
#   8 B_WORLD                Profile RMS along minor axis (world units)                 [deg]
#   9 THETA_WORLD            Position angle (CCW/world-x)                               [deg]
#  10 FWHM_WORLD             FWHM assuming a gaussian core                              [deg]
#  11 ELONGATION             A_IMAGE/B_IMAGE                                           
#  12 ELLIPTICITY            1 - B_IMAGE/A_IMAGE                                       
         1 -14.6055     45.3249     92.8795   1.1629482094e+02   5.4457297855e+01     3.405492     2.880302  36.32   0.01827597    1.197    0.164
         2 -14.0878     54.1668     70.3535   1.0614096388e+02   5.8737660828e+01     3.166615     2.084835  62.10   0.01375852    2.111    0.526
         3 -15.3576    244.5765     66.8386   6.1660771511e+01   1.7573372573e+01     5.689811    0.8005386 -32.08   0.01594272    6.290    0.841
         4 -14.7198     74.3072     28.1891   7.9999108663e+01   6.2869790471e+01     1.854391     1.281307 -85.96  0.008205555    2.385    0.581
         5 -13.8701     57.3011     27.6673   8.6826148032e+01   6.6656936876e+01    0.8319382     0.660348  61.52  0.004521967    1.463    0.316
         6 -14.4274     58.3285     40.3811   9.2544083360e+01   6.4293087749e+01     1.578755       1.0055 -62.79  0.006851417    2.416    0.586
         7 -12.8897     45.5963     36.1529   9.7053923869e+01   6.7390765897e+01     1.139411    0.8338872 -87.59  0.005208552    2.597    0.615
         8 -13.6592     64.7174      3.9696   7.0531983660e+01   6.7987313810e+01     1.178995    0.5891662  61.52   0.00547114    1.805    0.446
         9 -13.2470     59.1229     13.8820   7.8443298963e+01   6.8197426953e+01    0.6301168    0.5594547 -35.61     0.003403    1.281    0.219
        10 -13.8102     50.1536      6.0342   7.7622708946e+01   7.1060856811e+01    0.8674012    0.7437042  56.34  0.004577199    1.216    0.178
        11 -12.8426     91.7190     23.7281   7.2304515488e+01   5.9246038926e+01    0.8093349    0.5074288 -77.61  0.003407571    2.448    0.591
        12 -10.9951     33.1463     14.5869   9.2703239338e+01   7.3185340987e+01    0.2214268    0.1500594 -28.70  0.001220921    1.503    0.335
        13 -11.2508      2.0686     13.1949   1.1742435484e+02   7.7146038752e+01    0.4683093      0.14924 -59.62  0.001973954    2.944    0.660
        14 -12.3249      9.2650      4.7736   1.0534423985e+02   7.8097585647e+01    0.5381726    0.4119935  41.38  0.003296061    1.657    0.397
        15 -11.0402      2.4611      3.1635   1.1127729474e+02   7.9032781383e+01    0.3993935     0.227066 -37.75   0.00229367    1.560    0.359
        16 -12.5938     90.7912      7.2200   6.4909521623e+01   6.1241097195e+01    0.7487639    0.5257854  86.39  0.003887291    1.509    0.337
        17 -13.2688     84.2627      6.0628   6.5920984551e+01   6.3008366287e+01    0.8920343    0.5299028  53.18  0.003875341    1.450    0.310
        18 -11.7985     22.2111     10.5305   9.7918966591e+01   7.5516207224e+01    0.3499747    0.2498553  36.32  0.002067659    1.431    0.301
        19 -11.9465    140.7417      8.3984   5.7077016111e+01   4.8007766232e+01    0.4796531    0.2367468  86.01  0.002092347    2.005    0.501
        20 -11.9332    196.0004      3.8175   5.0968845818e+01   3.4775206153e+01    0.4304607    0.2259698 -69.39  0.002249638    1.744    0.427
        21 -12.4796     33.8884      2.7865   8.4126979036e+01   7.4698542213e+01     0.450347    0.2780597  35.73  0.002471558    1.445    0.308
        22  99.0000     12.9143    135.1935   1.3523340584e+02   4.6484785991e+01     1.211371    0.4701475  53.81  0.004796555    2.636    0.621
        23 -11.0207     61.1153    249.3444   1.3066406149e+02   1.6061111038e+01     1.023715    0.2484862  28.42   0.00393627    3.354    0.702
        24 -12.2553      6.0811    162.2248   1.3915867335e+02   4.0169905243e+01      1.39736      0.20857  49.23  0.004164019    4.963    0.799
        25 -11.9696     11.3807    152.4490   1.3698998226e+02   4.2197761206e+01     1.961525    0.2780009  44.42  0.005883298    4.682    0.786
        26  99.0000      8.1368    192.9263   1.4000504908e+02   3.2818221815e+01     1.732009    0.4901191  38.69   0.00754484    2.458    0.593
        27 -12.0105     31.4114    162.3209   1.3158206815e+02   3.7963496813e+01    0.8464034    0.5014959  55.43   0.00304159    1.586    0.369
        28 -12.0918     84.5768    191.1389   1.1960035274e+02   2.4526304904e+01     2.811912    0.7600268  36.10  0.009796933    2.878    0.653
        29  99.0000     30.1917    179.0825   1.3330407627e+02   3.4012662299e+01     1.944366    0.5013459  39.71  0.007319252    2.822    0.646
        30 -13.2672     48.5613    180.3410   1.2824289829e+02   3.1715357452e+01     2.285586     1.289879 -85.59   0.01086962    1.981    0.495
        31 -12.9297     65.4320    238.3386   1.2893229679e+02   1.7527170226e+01     2.357447    0.4669819  46.60  0.007884793    4.411    0.773
        32 -12.6576     70.4698    226.5195   1.2682315018e+02   1.9135049557e+01     3.269938    0.1063023  38.53  0.009533311    4.967    0.799
        33 -13.3419     89.9130    224.1042   1.2202221500e+02   1.7106674576e+01     1.156512    0.5852737  41.42  0.004896007    1.622    0.383
        34 -13.5634     94.8376    208.6225   1.1912458292e+02   1.9429687412e+01     1.089675     1.014829 -53.28   0.00518243    1.271    0.213
        35  -9.2781     17.3424    209.3941   1.3843099527e+02   2.8426856110e+01     1.762925    0.4891572  29.87  0.007514046    2.691    0.628
        36  99.0000     66.2828    204.1435   1.2580508985e+02   2.4189216436e+01     5.334409          nan  40.94   0.01258156    6.987    0.857
        37 -12.2965     10.4146    230.3803   1.4083444767e+02   2.4789726654e+01     1.345812    0.8315529  76.33  0.008693371    1.524    0.344
        38 -14.2818     31.4296    232.1848   1.3622827197e+02   2.2438476742e+01     2.097713     1.092511  58.61   0.01195236    1.686    0.407
        39 -13.0319     51.0346    238.1564   1.3215788360e+02   1.9214118457e+01    0.8108991    0.2407842  45.09  0.003561939    2.490    0.598
        40 -10.4830     46.4461    250.6369   1.3390108167e+02   1.7457661413e+01    0.3543406   0.07353221  30.53  0.001395526    3.226    0.690
        41 -10.1274     22.7214    250.5763   1.3890874877e+02   1.9885727223e+01    0.1848229   0.08580965  30.33 0.0009448944    1.698    0.411
        42 -11.4336      2.4325    248.7390   1.4302133713e+02   2.2060625974e+01    0.3296583    0.1409419  60.73  0.001578983    1.865    0.464
        43 -13.9096     96.7581    133.7913   1.0663791858e+02   3.5900363336e+01      2.59508     1.653751  18.93   0.01071016    1.998    0.500
        44 -11.7153     29.3729    143.7492   1.3045127314e+02   4.2875613022e+01     1.629368    0.6322952  60.44  0.005683338    3.266    0.694
        45 -12.4845     60.5927    146.8795   1.2053969468e+02   3.8424961707e+01     1.007888    0.5870334  29.51  0.003781114    1.670    0.401
        46 -14.1214    184.0638    245.1457   1.0461900110e+02   1.4020132911e+00     1.338965     0.626151  27.77  0.007623732    1.708    0.414
        47 -12.3623     29.9981    126.0950   1.2821473713e+02   4.7428499913e+01     1.760462     0.895538  76.40  0.007042622    2.459    0.593
        48 -13.8080     47.5793    131.9097   1.2268584753e+02   4.3975999480e+01     2.432674     1.264206  71.49  0.009077247    2.745    0.636
        49 -14.3775     59.9757    124.5071   1.1702784885e+02   4.4265785062e+01     2.929981     1.125136  44.45    0.0102275    2.645    0.622
        50 -11.1756     83.7671    154.1623   1.1445368755e+02   3.3181822839e+01     0.849434    0.3521509  54.12   0.00268892    3.474    0.712
        51 -11.9527     95.7085    149.6314   1.1009182682e+02   3.2299502111e+01    0.6652224    0.4036852 -59.44  0.002932561    1.779    0.438
        52 -11.3863     71.6740    144.8591   1.1664766257e+02   3.7346190715e+01    0.7043675    0.3378054  49.97  0.002700982    2.237    0.553
        53 -10.6682      9.7763    245.4350   1.4143089484e+02   2.2014206857e+01    0.4816851    0.1164991  45.64  0.002316589    2.421    0.587
        54 -11.2432      4.1244    137.3559   1.3836416811e+02   4.6521875206e+01     0.500542    0.2253695  40.11  0.002026009    2.035    0.508
        55 -12.0349    121.0632    129.2935   9.8547004688e+01   3.2274432573e+01    0.6135843    0.4715721  79.10  0.002811209    1.735    0.424
        56 -10.3186     82.5130    242.9990   1.2548729463e+02   1.4631625553e+01    0.3872472    0.1401287  50.37  0.001634946    2.988    0.665
        57 -11.1893     32.5045    107.4176   1.2455429159e+02   5.2121913952e+01    0.5583344    0.3344534  51.36  0.002467526    1.788    0.441
        58 -12.4515     88.1840     99.4130   1.0118524343e+02   4.5776500136e+01     1.255685     0.654162  46.51  0.004881435    1.930    0.482
        59 -10.5958     12.7633     91.7191   1.3067138274e+02   5.7886060414e+01    0.4361253    0.2743086  -8.14  0.002150733    1.879    0.468
        60 -11.4526    114.6580     89.3524   8.9857895038e+01   4.2374920852e+01    0.6782026    0.1491373 -42.29  0.001687378    4.846    0.794
        61 -13.2042     45.1433    150.3510   1.2601666764e+02   3.9496229043e+01     1.442372     1.120518 -79.90  0.006734157    1.285    0.222
        62 -11.3802     81.8695     69.1793   9.4126530853e+01   5.3857191485e+01     0.893338     0.384272  54.60  0.002917505    3.046    0.672
        63 -13.5106     73.4510     60.1021   9.4111611736e+01   5.7475343796e+01    0.8764886    0.6888716 -89.25   0.00416907    1.772    0.436
        64  -9.2650     83.8867    239.0507   1.2483701864e+02   1.5154453953e+01    0.6178578    0.2542473  48.75  0.002878069    2.345    0.574
        65 -10.5392    106.2621    232.5392   1.1915672089e+02   1.3408198612e+01     0.306997     0.205998  51.76  0.001479623    1.561    0.359
        66 -10.5590      1.3272    221.9537   1.4259702435e+02   2.7228974356e+01    0.1844455   0.09142476  83.14  0.001007693    1.942    0.485
        67 -10.3071    109.4667    206.0083   1.1522728668e+02   1.7843808322e+01    0.5636051     0.314025 -87.83  0.002038314    4.544    0.780
        68 -11.5334    113.2829    195.5512   1.1285076508e+02   1.9333339920e+01    0.6482607    0.4500859  48.18  0.002815014    1.434    0.303
        69 -11.3538      9.3845    184.9104   1.3933380412e+02   3.4533918385e+01    0.5915411    0.2042026  39.83  0.002367704    2.200    0.546
        70 -10.0765     17.6461    184.5962   1.3711150355e+02   3.3903255060e+01    0.3119243    0.2437292  64.89  0.001629256    1.101    0.092
        71 -10.6298     40.3870     41.4605   1.0240203761e+02   6.7192817960e+01    0.2604763    0.2574272  40.50  0.001376165    1.176    0.150
        72  -8.4746    105.1456    179.9768   1.1260038419e+02   2.3843162121e+01      1.20642    0.5098472  35.63  0.004835242    2.066    0.516
        73 -12.5703     72.1984     45.3107   8.8658004492e+01   6.0574354368e+01    0.5476751    0.3603413 -39.54  0.002599977    1.600    0.375
        74 -11.0030    100.5017    177.4797   1.1344852589e+02   2.5123947549e+01    0.3928151    0.2906882  44.94  0.001401355    1.255    0.203
        75 -13.7211     41.0331    205.1189   1.3231635506e+02   2.6966000916e+01     2.220007     1.325827  57.45   0.01212933    1.515    0.340
        76  -9.6077      6.2842    174.3740   1.3969051666e+02   3.7235417267e+01    0.1840973   0.09213234  38.07 0.0009265312    1.698    0.411
        77 -12.8501     66.0571    165.1022   1.2141628792e+02   3.3143895659e+01     1.094068    0.6426597  51.33  0.003856659    1.674    0.403
        78 -12.3022     55.9243    164.6867   1.2439870288e+02   3.4586005450e+01     1.047114    0.7537878  62.42  0.003905495    1.382    0.276
        79 -11.3838     80.7988    167.0217   1.1735643731e+02   3.0561926532e+01    0.7538043    0.3603705  48.85  0.003022069    2.137    0.532
        80 -12.7343    116.4214    148.8431   1.0404451223e+02   2.8791394317e+01     1.559957    0.7155012  49.29  0.005704046    2.433    0.589
        81 -12.6317    103.5693    161.0192   1.0989760342e+02   2.8310922170e+01     1.042318     0.886016  43.88  0.004865939    1.103    0.093
        82 -12.1974    106.7646    152.9200   1.0752215824e+02   2.9609435995e+01    0.6922458    0.4959242  76.18  0.003114143    1.928    0.481
