#   1 NUMBER                 Running object number                                     
#   2 MAG_AUTO               Kron-like elliptical aperture magnitude                    [mag]
#   3 X_IMAGE                Object position along x                                    [pixel]
#   4 Y_IMAGE                Object position along y                                    [pixel]
#   5 X_WORLD                Barycenter position along world x axis                     [deg]
#   6 Y_WORLD                Barycenter position along world y axis                     [deg]
#   7 A_WORLD                Profile RMS along major axis (world units)                 [deg]
#   8 B_WORLD                Profile RMS along minor axis (world units)                 [deg]
#   9 THETA_WORLD            Position angle (CCW/world-x)                               [deg]
#  10 FWHM_WORLD             FWHM assuming a gaussian core                              [deg]
#  11 ELONGATION             A_IMAGE/B_IMAGE                                           
#  12 ELLIPTICITY            1 - B_IMAGE/A_IMAGE                                       
         1 -13.9420    167.4478     37.6256   7.7056580421e+01   3.9183599881e+01     1.286584     1.029176  -0.94  0.004517538    1.486    0.327
         2 -13.4820    182.2472      5.9374   6.5026825522e+01   3.8960698268e+01     1.003857    0.7840579  73.08  0.004184911    1.171    0.146
         3 -10.7141    196.9995    245.9201   1.1910563235e+02  -2.1905975244e+00    0.1829715    0.1422446  32.01  0.001294109    1.007    0.007
         4 -19.8803     64.2555    168.1770   1.3485068387e+02   3.3090238990e+01     18.58613     4.163695 -67.07   0.05989875    4.479    0.777
         5 -10.8606    159.0111    205.5322   1.2012217642e+02   1.0051788156e+01    0.2939209    0.2054491  59.79  0.001370698    1.506    0.336
         6  -9.5222     28.6345    238.4388   1.4748609167e+02   2.3403274693e+01    0.1027177   0.07247157  72.57 0.0002495398    1.056    0.053
         7  99.0000     20.5848    202.4448   1.4682141407e+02   3.0952891021e+01    0.1086952   0.08151834  80.90 0.0002183424    1.086    0.079
         8 -10.6349    140.7103    199.6684   1.2285223544e+02   1.4345110989e+01    0.2361141    0.2082494  62.11  0.000457716    1.056    0.053
         9 -10.9968    137.5214    198.5110   1.2332196848e+02   1.5122080771e+01    0.4127773    0.2597133  77.70  0.001930923    2.357    0.576
        10 -10.8906    176.1421    234.1134   1.2111349272e+02   2.6993254068e+00    0.1951375    0.1425989 -30.28   0.00124374    1.722    0.419
        11 -11.0185    208.1810    196.8076   1.0931843671e+02   2.5729087004e+00     0.191638    0.1719578  44.97 0.0008919074    1.223    0.182
        12  -9.4277      7.6848    196.6779   1.4883010571e+02   3.3340407975e+01   0.09636232   0.07303925 -63.90 0.0007041282    1.660    0.398
        13 -10.7723    175.2819    194.2602   1.1509709887e+02   8.9900542481e+00    0.2503613    0.1861209  80.70  0.000796832    1.989    0.497
        14 -11.0709    180.1108    192.4286   1.1383598105e+02   8.3986907033e+00    0.3166018    0.2570616  84.86 0.0004496725    1.681    0.405
        15 -10.6717    176.4433    188.2759   1.1381966314e+02   9.7900183177e+00    0.2639798    0.1363139 -43.86   0.00104994    2.141    0.533
        16 -10.1385    153.2308    194.3887   1.1950297893e+02   1.3043945651e+01    0.1905569    0.1128126  51.69 0.0003947779    1.592    0.372
        17 -11.7536    167.3011    191.5944   1.1621431501e+02   1.0933796793e+01    0.3635206    0.2305834  29.87  0.001702352    1.724    0.420
        18  -9.4716     22.1215    233.1945   1.4826932113e+02   2.5030666021e+01    0.1304951   0.09807364  78.98 0.0004204258    1.175    0.149
        19 -10.7906    184.6863    186.7967   1.1193546454e+02   8.4815465381e+00    0.2353118    0.1875481  41.88 0.0006982259    1.145    0.127
        20 -11.4078    154.3461    185.8612   1.1785415500e+02   1.4396112080e+01    0.2513571    0.1758616  53.40  0.001155798    1.361    0.265
        21 -12.4374    206.5044    180.0589   1.0649804617e+02   5.4517697060e+00    0.8385875    0.4039863  35.47  0.003294572    2.109    0.526
        22 -12.0694    197.0400    173.0462   1.0691605499e+02   8.4179942774e+00    0.7428385    0.4031226 -49.43  0.002413657    2.211    0.548
        23 -12.5493    144.4313    168.8855   1.1693353033e+02   1.9572704691e+01    0.5018507    0.3869236  89.85  0.002584769    1.579    0.367
        24 -10.9999    177.6907    171.0275   1.1034319966e+02   1.2595503133e+01    0.4167268     0.170274 -51.07  0.001528937    3.050    0.672
        25  -9.8668     22.5660    166.6817   1.4386687167e+02   3.8182956635e+01    0.1646165    0.1381752  21.69 0.0008011566    1.729    0.422
        26 -13.4735    137.7584    171.0556   1.1878194892e+02   2.0411313690e+01    0.7605786    0.5577406  52.82  0.004006789    1.283    0.220
        27  -9.6355     26.1682    230.1696   1.4744886834e+02   2.5136855946e+01    0.3196708    0.1283424 -69.22  0.001712506    2.440    0.590
        28 -10.2025    223.9615    164.4148   1.0015771967e+02   4.6076314258e+00    0.2454931    0.1818717 -47.34 0.0006000518    1.569    0.363
        29 -10.2371    192.5220    222.9625   1.1653609843e+02   1.5269793136e+00    0.1641898    0.1221141 -36.95   0.00102941    1.583    0.368
        30 -10.9795    129.6600    161.3018   1.1881212018e+02   2.3970249975e+01    0.3035863    0.1948577  40.86  0.001088868    1.554    0.357
        31 -10.3196    237.6065    159.7650   9.6812632349e+01   2.7522342082e+00    0.1889512    0.1178631 -41.19 0.0008123787    1.682    0.406
        32 -11.5096    164.3502    156.8659   1.1026935477e+02   1.7978502385e+01     0.297037    0.2566676 -29.28 0.0008709553    1.267    0.211
        33 -12.7325    134.4955    148.5085   1.1521189242e+02   2.5768518256e+01    0.8666999    0.3614165 -59.55  0.002935283    3.172    0.685
        34 -12.5915    134.0000    143.9851   1.1439078836e+02   2.6843602586e+01    0.8795117    0.2954256 -56.77   0.00260587    3.982    0.749
        35  -9.7028     25.7470    222.7747   1.4711142293e+02   2.6529728279e+01    0.1384345   0.09117339 -51.23 0.0008949173    2.504    0.601
        36 -11.0148    174.4940    149.1479   1.0647440109e+02   1.7358509240e+01    0.2773917    0.2691414 -41.58  0.000805024    1.061    0.058
        37 -12.2397    144.3443    145.6918   1.1235081630e+02   2.4383774293e+01     0.496533       0.3501  67.52   0.00230196    1.671    0.402
        38 -10.3830    128.2507    143.0704   1.1556110577e+02   2.8180576683e+01    0.2052361    0.1925448 -85.08  0.000589033    1.028    0.027
        39 -12.5022    115.9401    138.1127   1.1752027304e+02   3.1646961078e+01    0.5867583    0.3821927 -39.90  0.002695405    1.776    0.437
        40 -11.4358     13.6656    244.6894   1.5013205925e+02   2.3919266866e+01    0.2663324    0.0692019 -74.13  0.001390889    3.411    0.707
        41 -12.2362    106.0147    137.8705   1.1994418639e+02   3.3518180552e+01    0.3499785      0.30441  67.14 0.0005669262    1.127    0.112
        42 -12.7064      5.9992    139.2941   1.4525028669e+02   4.5636062175e+01    0.4636944    0.4022008  58.45  0.002854498    1.328    0.247
        43 -12.4969      2.9125    126.3087   1.4483368720e+02   4.8756284609e+01     1.012766    0.2432525 -79.12  0.003747207    3.795    0.737
        44 -11.8694      2.9834    112.9900   1.4348286691e+02   5.1748737662e+01    0.4245377     0.221276 -57.22  0.002504783    1.677    0.404
        45 -10.4569     20.8424    219.1451   1.4774435766e+02   2.7722360448e+01     0.132759   0.09221808  71.31            0    1.023    0.023
        46 -12.5673    105.7660    130.4926   1.1849045238e+02   3.5252204503e+01    0.6287381    0.4328066  80.30   0.00226716    1.886    0.470
        47 -11.3249    109.1860    124.9769   1.1640966381e+02   3.5890151265e+01    0.3016865    0.2850032 -40.09 0.0005975367    1.162    0.139
        48 -11.9384    120.0632    129.3011   1.1459680047e+02   3.2842072599e+01    0.3854913    0.3528881  70.74  0.001259658    1.078    0.072
        49 -12.1340    125.3959    126.9907   1.1273936417e+02   3.2305267091e+01    0.5982431    0.3876877 -86.09  0.002359885    2.483    0.597
        50 -11.7628    135.8560    123.5144   1.0934237800e+02   3.0920901518e+01    0.6421102    0.2650639 -54.32  0.002176353    2.766    0.639
        51 -12.9367     19.7999    127.3193   1.4065091869e+02   4.7264295150e+01    0.4212528    0.3100597 -59.89  0.002267956    1.315    0.240
        52 -10.7633    160.9033    128.1413   1.0460485882e+02   2.4505979662e+01    0.2472003    0.2148455 -85.26  0.001250054    1.292    0.226
        53 -10.9032    163.1171    210.3760   1.2007205476e+02   8.5173431733e+00    0.2218982    0.1937312 -63.79 0.0008931773    1.360    0.265
        54 -10.9914    114.0575    118.4807   1.1364669367e+02   3.6445822690e+01     0.283337    0.2153649 -54.21  0.000359153    1.267    0.211
        55 -10.7645    168.4462    114.0893   9.9433373759e+01   2.5636959995e+01    0.4943829    0.2912426 -64.09  0.000933975    2.549    0.608
        56  -9.6805    135.0000    112.9960   1.0694623096e+02   3.3385733097e+01    0.2574389    0.0860962 -45.64 0.0008020062    2.939    0.660
        57 -10.9258    126.2154    209.5730   1.2714018571e+02   1.5047417122e+01    0.2411945    0.1633813  45.33  0.001105121    1.285    0.222
        58 -10.0766    205.6681    110.1227   9.0970757472e+01   1.7700073593e+01     0.283068    0.2200935  41.90 0.0006908439    1.346    0.257
        59 -13.4089    193.9454    193.8480   1.1143296216e+02   5.6049632571e+00      1.08478    0.5959785 -55.13  0.003151355    2.692    0.629
        60 -10.0282    179.3530    206.1723   1.1630928810e+02   6.3053009987e+00    0.1592906    0.1220326 -57.30 0.0003809142    1.641    0.391
        61 -10.8137    151.2813    149.7745   1.1164604325e+02   2.2104473080e+01    0.3220497     0.239232 -85.11   0.00114594    1.784    0.440
        62  -9.6584     13.6368     59.9154   1.3155031904e+02   6.2897351930e+01    0.1709491    0.1180234 -59.86 0.0004324856    1.142    0.124
        63 -13.4868    155.2579     53.2229   8.4438196721e+01   4.0042434559e+01     1.168461    0.9739354  35.86  0.003060326    1.269    0.212
        64 -11.5715    163.6132    204.2708   1.1902880041e+02   9.4396650402e+00    0.3669965    0.2605587 -53.25  0.001576988    1.652    0.395
        65 -11.9645    171.2714     30.3096   7.4080947410e+01   3.9137353143e+01    0.4212921    0.3487965   3.65 0.0009583758    1.424    0.298
        66  -9.8249    137.9035     31.3691   8.0562474248e+01   4.7532697684e+01    0.3048661    0.1765143  73.78  0.001036724    2.112    0.527
