#   1 NUMBER                 Running object number                                     
#   2 MAG_AUTO               Kron-like elliptical aperture magnitude                    [mag]
#   3 X_IMAGE                Object position along x                                    [pixel]
#   4 Y_IMAGE                Object position along y                                    [pixel]
#   5 X_WORLD                Barycenter position along world x axis                     [deg]
#   6 Y_WORLD                Barycenter position along world y axis                     [deg]
#   7 A_WORLD                Profile RMS along major axis (world units)                 [deg]
#   8 B_WORLD                Profile RMS along minor axis (world units)                 [deg]
#   9 THETA_WORLD            Position angle (CCW/world-x)                               [deg]
#  10 FWHM_WORLD             FWHM assuming a gaussian core                              [deg]
#  11 ELONGATION             A_IMAGE/B_IMAGE                                           
#  12 ELLIPTICITY            1 - B_IMAGE/A_IMAGE                                       
         1 -11.8430      5.1314     39.2053   9.0305184195e+01   6.8941665042e+01    0.5957948    0.1674949 -58.04  0.002342605    3.341    0.701
         2 -10.5316     69.3045     39.4001   5.7205683056e+01   6.0300218046e+01    0.4504152    0.1782532 -32.89  0.001807241    2.858    0.650
         3 -11.0914     27.2775     30.8118   7.3666048621e+01   6.8433766414e+01     0.662036    0.1635141 -37.22  0.002182117    4.572    0.781
         4 -10.2838     40.9288     14.0023   5.8360339936e+01   6.8836395250e+01     0.194603    0.1474415  20.27 0.0003202426    1.044    0.042
         5 -10.6239    192.1884    226.0574   6.9526494625e+01   1.7867557739e+00      0.20599    0.1426211  -8.69 0.0007320922    1.260    0.206
         6 -11.3307    162.4278    224.7891   7.5721819459e+01   5.8730598240e+00    0.3840477    0.2537564   3.16  0.001249134    1.472    0.321
         7  -9.9832     99.1766    225.0839   9.1012179076e+01   1.4415367683e+01    0.2073972    0.1733382   0.27 0.0005862423    1.189    0.159
         8  -9.9854    149.3217    223.6529   7.8546223482e+01   7.8652109186e+00    0.1299218    0.1053466  53.77 0.0005786197    1.737    0.424
         9 -10.5738     60.3166    223.0082   1.0063274826e+02   1.9645837723e+01    0.3037279    0.1130522  46.54  0.001175435    2.753    0.637
        10 -10.7823    126.0572    220.4847   8.3647912680e+01   1.1708321223e+01    0.2005795    0.1827774  -9.16 0.0005759202    1.122    0.108
        11 -10.3442     74.7133    219.1526   9.6539317499e+01   1.8802317878e+01    0.2491078    0.1655006  37.53 0.0009852102    1.355    0.262
        12 -10.1225    132.2891    213.6509   8.1055634184e+01   1.2205725237e+01    0.1343509    0.1094497  58.67 0.0003916926    1.664    0.399
        13 -10.6181    143.9984    217.0237   7.8748186211e+01   9.8696336131e+00     0.209999    0.1703945  55.25  0.001139802    1.705    0.413
        14 -10.2933    116.9839    210.5006   8.4418446235e+01   1.5048839861e+01    0.2141249    0.1008636  46.63 0.0008104551    2.631    0.620
        15 -10.4305     99.7827    206.1925   8.8266997064e+01   1.8409905189e+01    0.2476474    0.1404622  59.79 0.0009571794    2.838    0.648
        16  -9.9662     57.3115    205.6469   9.9619815842e+01   2.3925828507e+01    0.1474259   0.09424331  57.92 0.0004089469    1.727    0.421
        17 -12.8345    165.8828    202.3610   7.1140188814e+01   9.5334346884e+00     0.515374    0.4151334  74.64  0.002615256    2.286    0.563
        18 -13.6853    177.8324    197.9477   6.7684338773e+01   8.6159475333e+00    0.5628371    0.3939393  22.89  0.003055878    1.346    0.257
        19 -10.7456     88.7687    198.4849   9.0128312330e+01   2.1676139061e+01    0.3289526    0.2081385 -89.71  0.001380051    2.532    0.605
        20 -12.1322    125.0563    197.2086   8.0193574012e+01   1.6712533516e+01    0.3609759    0.2979432  31.54  0.001945533    1.184    0.155
        21 -11.3852    113.4744    197.9602   8.3358938459e+01   1.8279038573e+01    0.3908738    0.2041117  48.29  0.001551501    2.384    0.581
        22 -13.1314    163.7000    194.3284   7.0188806322e+01   1.1403379684e+01    0.5063431    0.3576659  52.32  0.002467765    2.032    0.508
        23 -10.1328    133.3199    195.6473   7.7802213259e+01   1.5789820641e+01    0.1434633    0.1150462  62.68 0.0007047282    1.747    0.428
        24 -10.2679     66.8058    194.5002   9.5697770090e+01   2.5456695418e+01    0.2854705    0.1649104  63.53  0.001189938    2.363    0.577
        25 -13.0963    172.7386    195.8030   6.8413498388e+01   9.7644068571e+00    0.4067771    0.3061926 -23.46  0.002246651    1.226    0.185
        26 -10.3570     78.4355    193.1302   9.2242816648e+01   2.4315335575e+01    0.2888528    0.1622931  55.59  0.001183767    2.290    0.563
        27 -10.1765     43.8448    193.2298   1.0198439051e+02   2.8342859770e+01    0.2538233    0.1136082  57.09 0.0009551388    2.887    0.654
        28 -12.0228    149.6578    198.3191   7.4223170475e+01   1.2743930394e+01    0.4139393    0.3213887  89.17  0.001963534    2.380    0.580
        29 -12.6159    149.0874    188.2799   7.2537593478e+01   1.4878901991e+01    0.4238132    0.2670992 -47.88  0.002003023    1.688    0.407
        30 -12.4589    139.3943    189.2393   7.5119780245e+01   1.6205970355e+01    0.3729532    0.3284214 -64.23  0.001806531    1.447    0.309
        31 -11.7985    129.9043    188.3417   7.7387030323e+01   1.7890490684e+01    0.3731411    0.2723237  60.65   0.00172898    1.982    0.495
        32 -10.8773     87.2723    189.1239   8.9163592917e+01   2.4080678124e+01    0.2942815    0.1684267  50.41  0.001210792    2.057    0.514
        33 -12.4856     95.3410    184.6864   8.6178465839e+01   2.3991362292e+01    0.7905152    0.5384341  70.91  0.003414458    2.231    0.552
        34 -11.5617      9.6525    187.4619   1.1085312063e+02   3.2718435542e+01    0.2700107    0.2299185   1.97 0.0005175392    1.333    0.250
        35 -11.5343    165.8909    186.7857   6.8279422940e+01   1.2541187752e+01    0.2484146    0.2015771 -79.53  0.001247238    2.071    0.517
        36 -12.3003    156.3935    186.2897   7.0403468481e+01   1.4131465451e+01     0.331452    0.2800079 -66.57  0.001624854    1.635    0.388
        37 -11.9686    120.6148    184.3738   7.9129751667e+01   2.0227536109e+01    0.5914658    0.2996147 -62.15  0.002234553    2.712    0.631
        38 -11.3049    110.2047    185.3232   8.2128971873e+01   2.1625105582e+01    0.3957771    0.3712752  69.61  0.001778211    1.273    0.215
        39 -10.5133     55.2942    186.7276   9.8004193391e+01   2.8702334894e+01    0.3581552    0.1518907  58.15  0.001142275    3.933    0.746
        40 -11.7059    183.6319    184.2767   6.3886871098e+01   1.0290357552e+01    0.2462832    0.1679775  41.02  0.001270473    1.688    0.408
        41 -11.5611    175.4641    183.9914   6.5597238795e+01   1.1595093576e+01    0.2680317    0.1949877  44.35  0.001388656    1.665    0.399
        42 -10.6288     74.8774    183.7660   9.1925157592e+01   2.7042929223e+01    0.2841488    0.1887421  73.27   0.00124276    2.110    0.526
        43  -9.7667     66.3175    184.6694   9.4544097638e+01   2.7907682267e+01    0.1523084    0.1046012  58.60 0.0004015356    1.686    0.407
        44 -11.6525    197.9970    182.9873   6.0693754435e+01   8.3873957052e+00    0.1895854    0.1749176 -88.59 0.0009072167    1.708    0.414
        45 -13.0391    148.3318    179.8227   7.1122083817e+01   1.6758459363e+01    0.4323257    0.3973776  88.03   0.00189822    1.494    0.331
        46 -12.0302    138.7179    179.0559   7.3388872818e+01   1.8492442018e+01    0.3484092    0.2613035  58.88  0.001643482    1.862    0.463
        47  -9.9984     44.3936    182.1604   1.0062437020e+02   3.1013578475e+01    0.1974324    0.1303856 -88.67  0.000947725    1.719    0.418
        48 -11.0345    129.7711    177.1419   7.5349871871e+01   2.0375307685e+01    0.3235123    0.2250319 -75.08  0.001378933    2.323    0.570
        49 -11.8132     78.3304    175.6215   8.9672985438e+01   2.8586988519e+01    0.5115749    0.2829539  60.81  0.001892794    2.821    0.646
        50 -10.2479     60.1952    176.7902   9.5275049773e+01   3.0607948807e+01    0.2571658    0.1315691  58.87 0.0009477733    2.795    0.642
        51 -11.2932    184.4995    176.3368   6.2169723237e+01   1.1638819601e+01    0.2401597    0.1245774  33.99  0.001086389    1.962    0.490
        52 -12.0046    160.0369    175.4069   6.7437743650e+01   1.5751433450e+01    0.3286121    0.2761742  74.45  0.001532589    1.828    0.453
        53 -10.5279    106.2340    175.1313   8.1439343796e+01   2.4612500080e+01     0.302336    0.1821901  51.89   0.00123455    2.105    0.525
        54 -12.0418    135.3957    171.5285   7.2783199112e+01   2.0683158954e+01    0.3567058    0.2998612 -78.54  0.001788903    1.647    0.393
        55 -11.8684    178.0512    171.4025   6.2570790286e+01   1.3599907790e+01     0.244076    0.2333442  54.62  0.001437639    1.368    0.269
        56 -12.6989    122.4639    168.3305   7.5613321224e+01   2.3568290877e+01    0.6853018    0.4894654 -71.56  0.003048611    1.987    0.497
        57 -12.4520    169.0133    169.0973   6.4105351952e+01   1.5533110709e+01    0.4048573    0.3297909  73.46  0.002038867    1.962    0.490
        58 -12.7194    150.3997    169.3248   6.8539908534e+01   1.8620425867e+01    0.4089123    0.3162032  59.02    0.0019845    1.783    0.439
        59 -10.4858     55.0194    169.0345   9.5775753468e+01   3.3174413724e+01    0.2463131    0.1665321  61.39  0.001139662    1.760    0.432
        60 -13.3466    139.8384    164.3047   7.0175336873e+01   2.1507699610e+01     0.650942    0.4748082 -70.89  0.002927666    2.038    0.509
        61 -11.0737     99.2352    165.7457   8.1742735853e+01   2.7948738835e+01    0.4345896    0.2418954  50.20  0.001689569    2.243    0.554
        62 -11.0063     80.0144    163.5059   8.7156346337e+01   3.1371374019e+01    0.5731752    0.3317336  76.74  0.001890571    3.701    0.730
        63 -11.9836    160.2285    163.5419   6.4992723750e+01   1.8139907373e+01    0.3383377    0.2692848 -76.37  0.001642398    1.935    0.483
        64  -9.9824     37.6164    163.8089   1.0050206708e+02   3.6343132101e+01    0.2025069    0.1315093 -85.97 0.0009517054    1.712    0.416
        65  -9.9279     69.6014    162.7753   9.0279098357e+01   3.2976647902e+01    0.2074284    0.1462745 -78.19 0.0009470701    1.696    0.410
        66  -9.6767     47.3229    163.6587   9.7435728751e+01   3.5402267219e+01    0.1538438    0.1037023  59.79  0.000705071    1.726    0.421
        67 -12.5510    178.4510    160.6975   6.0312442788e+01   1.5596186969e+01    0.3721731    0.3214214  74.34  0.002022149    1.694    0.410
        68 -12.5289    152.7652    160.8466   6.6217068098e+01   1.9994666696e+01    0.3601195    0.3018384  52.08  0.001502677    1.441    0.306
        69 -11.0938     93.4044    159.9457   8.2399113428e+01   3.0269610851e+01    0.4220183    0.3145641  73.78  0.001818986    1.904    0.475
        70 -10.1119     61.8562    160.0185   9.2287204885e+01   3.4667053566e+01    0.2483084    0.1678262  74.00    0.0010816    2.008    0.502
        71  -9.8993     31.4007    159.6241   1.0195256520e+02   3.7991379881e+01    0.2788088    0.1244886  89.26 0.0009604579    3.345    0.701
        72 -10.1382      8.7920    159.7883   1.0897859209e+02   3.9645406005e+01    0.3302289    0.1250402  72.51  0.001064815    4.254    0.765
        73 -13.0464    168.6474    157.0276   6.1696787177e+01   1.7996573806e+01    0.4789801    0.3735075 -64.15  0.002405466    1.732    0.423
        74 -11.4058    128.8352    158.7994   7.1943436239e+01   2.4643986878e+01    0.3303365    0.2763961  76.31  0.001606322    1.662    0.398
        75 -11.3465    106.0110    157.6578   7.8173419753e+01   2.8805300714e+01    0.4734499    0.3626194  74.51  0.001940466    1.889    0.471
        76  -9.9145     23.0000    158.9977   1.0452632960e+02   3.8849856685e+01    0.2279283   0.07401825 -72.17 0.0007998121    2.924    0.658
        77 -11.5582    198.0176    158.0342   5.5798020543e+01   1.2867553276e+01    0.2037105     0.174186 -75.88  0.001146485    1.725    0.420
        78 -11.6992    189.3560    157.7469   5.7441457219e+01   1.4333509286e+01    0.2485559    0.1733576  46.96  0.001278119    1.706    0.414
        79 -10.0982    111.8538    167.0369   7.8326919431e+01   2.5621436792e+01     0.249699    0.1864295  81.02  0.001083992    2.100    0.524
        80 -12.1386    158.3270    156.0002   6.3858510337e+01   2.0021300091e+01    0.3579714     0.259835 -71.53  0.001502741    2.202    0.546
        81 -11.7714    119.5934    154.4588   7.3590180803e+01   2.7249360508e+01    0.5422755    0.2978049 -64.65  0.001966057    2.744    0.636
        82 -11.7346    145.2808    154.6316   6.6754396287e+01   2.2641436461e+01    0.3129939    0.2596925  77.63  0.001314737    1.747    0.428
        83 -10.9570     81.8204    154.2445   8.4921757817e+01   3.3434076422e+01    0.3979669    0.3030494  62.86  0.001741236    1.645    0.392
        84 -10.7250     49.6514    154.4768   9.5379371150e+01   3.7522208727e+01    0.4053311    0.2314371  62.36  0.001622132    2.439    0.590
        85 -12.5821    133.8621    152.5608   6.9268514560e+01   2.5148273944e+01    0.5433152    0.4084424  86.65  0.002336677    2.267    0.559
        86 -11.2950     69.1296    153.3879   8.8839834198e+01   3.5430433077e+01     0.537632    0.2790501  39.74  0.002179582    1.954    0.488
        87 -10.8689     91.2398    151.0085   8.1329314036e+01   3.2807701205e+01    0.3459454    0.2013821 -73.34  0.001279445    2.619    0.618
        88 -12.6292    190.5620    150.5074   5.5704219579e+01   1.5474817099e+01    0.3066281    0.2864887 -47.65  0.001270454    1.233    0.189
        89 -11.5955    182.3195    150.8763   5.7447974745e+01   1.6816976943e+01    0.2247262    0.1772041 -53.34  0.001195455    1.454    0.312
        90 -11.8703    162.9122    150.3181   6.1568090373e+01   2.0361597918e+01     0.328888    0.2152478 -57.83  0.001467976    1.955    0.489
        91 -10.0988     98.5120    150.5050   7.8976226892e+01   3.1764041196e+01    0.2641869    0.1577002 -67.24  0.001028966    2.235    0.553
        92 -11.2974    142.8779    148.7817   6.6092985811e+01   2.4336003429e+01     0.278919    0.2084757 -75.65  0.001232082    2.070    0.517
        93 -10.9190     39.2191    146.6516   9.7697063782e+01   4.0638092659e+01    0.5023182    0.2759811  73.41  0.001922827    2.810    0.644
        94 -13.5661    149.7154    143.8407   6.3282488971e+01   2.4121892475e+01    0.8447076    0.5420127 -62.86  0.003523363    2.241    0.554
        95 -12.2034    107.7667    144.9420   7.4994380156e+01   3.1539226556e+01    0.7278388    0.4902861  74.33  0.002748558    2.757    0.637
        96 -11.3375     55.9300    144.6681   9.1713811418e+01   3.9345065523e+01    0.6086546    0.3746973  82.27  0.002414932    2.525    0.604
        97 -12.0981    175.9940    146.0250   5.7740694113e+01   1.8860388051e+01    0.2831148    0.2390444 -83.42   0.00148703    1.703    0.413
        98 -10.0842     78.0197    146.1893   8.4609457916e+01   3.6017417204e+01    0.2251502    0.1772516 -89.47  0.001052368    1.644    0.392
        99 -12.4915    166.2776    143.7072   5.9359260629e+01   2.1077252286e+01     0.414121    0.2788039 -59.88  0.001865275    1.961    0.490
       100 -12.3592    125.1908    142.1213   6.9326237009e+01   2.9066752796e+01    0.7353951    0.4604477 -71.65  0.002711105    2.845    0.649
       101 -10.3564     12.8956    144.4558   1.0623127293e+02   4.3314924691e+01    0.3479396    0.1531611 -79.77  0.001430598    2.308    0.567
       102 -11.0330     88.0442    143.2342   8.0761508328e+01   3.5232512064e+01    0.3839642    0.2655575 -78.60  0.001618755    2.052    0.513
       103 -11.5727    182.8692    141.7553   5.5388918763e+01   1.8447094637e+01    0.2645489    0.1869764 -65.57  0.001242944    2.075    0.518
       104 -11.0031      2.2649    139.6719   1.0925830291e+02   4.5141990792e+01     0.427054    0.1141071 -85.16  0.001200172    5.195    0.808
       105 -12.0709    172.9717    138.2276   5.6680980919e+01   2.0919767966e+01    0.3889193    0.2832826 -80.25  0.001726068    2.418    0.587
       106 -10.4997     68.6254    138.3720   8.6224821918e+01   3.9331880187e+01    0.3807987    0.2068699 -79.19  0.001312414    3.107    0.678
       107 -11.0426     22.6876    135.8823   1.0189689622e+02   4.4865677903e+01    0.7001426    0.3042311 -84.78  0.002547452    3.026    0.669
       108 -11.0175    197.8026    138.1985   5.1740403941e+01   1.6476374713e+01    0.2199756    0.1532541 -79.71 0.0009582342    2.876    0.652
       109 -12.0801    163.0711    136.1561   5.8395692607e+01   2.3180489363e+01    0.3543797    0.2451366 -58.14  0.001644355    1.783    0.439
       110 -12.0098    180.2057    133.7669   5.4185660576e+01   2.0434238222e+01    0.2951716    0.2578397 -74.10  0.001639885    1.447    0.309
       111 -10.8077    113.3045    133.2432   7.0702797427e+01   3.3284132169e+01    0.3828081    0.2686332  82.95  0.001470697    2.670    0.626
       112 -12.1731    132.2239    130.4530   6.4690340308e+01   3.0319841084e+01    0.6600744    0.3552109 -58.96  0.002430235    2.591    0.614
       113 -11.7904     83.4450    129.7334   7.9366558465e+01   3.9292363589e+01    0.8367267    0.3680117 -60.75  0.002864894    2.778    0.640
       114 -11.8260    143.3670    130.7941   6.1866470354e+01   2.8076543444e+01    0.4701697    0.2825487 -52.62   0.00199537    1.869    0.465
       115 -11.0769     38.6784    134.7508   9.6077509821e+01   4.3791965220e+01    0.3110079    0.1872194 -76.73  0.001377746    1.856    0.461
       116 -12.3572    169.0244    129.4392   5.5552682973e+01   2.3363718454e+01     0.365632    0.2854161 -62.33  0.001853917    1.571    0.363
       117 -12.0734    153.2942    128.7925   5.8963537931e+01   2.6545804306e+01    0.4418564    0.2820731 -55.15  0.001945866    1.847    0.459
       118 -11.0330     12.1388    127.9713   1.0463118583e+02   4.7619416149e+01    0.5052465    0.2736777  84.74  0.002205606    2.276    0.561
       119 -11.1845     12.4953    123.0053   1.0388190953e+02   4.8878252072e+01    0.6150259   0.09898867 -53.40  0.001910509    3.775    0.735
       120 -11.7205     98.8965    126.6999   7.3590596430e+01   3.7416701621e+01    0.7202277    0.4245663 -68.58  0.002651111    2.663    0.624
       121 -10.5228     73.0167    128.5398   8.2681454678e+01   4.1187676100e+01    0.3767538    0.2573144 -89.31  0.001535576    2.326    0.570
       122 -11.5055    118.1918    124.9470   6.7282953694e+01   3.4243864439e+01    0.4879708    0.3521545  69.60  0.002059959    2.116    0.527
       123 -11.4011     58.9531    122.3159   8.6396820713e+01   4.4700090708e+01    0.8270046     0.427275 -79.15   0.00269969    3.642    0.725
       124 -11.7406    180.5954    124.8870   5.2127165502e+01   2.2015720722e+01    0.2642355    0.2232268 -63.72  0.001455885    1.383    0.277
       125 -11.7172     27.9596    121.1843   9.7836111685e+01   4.8267089866e+01    0.8661933    0.4132051  71.72  0.002654142    4.755    0.790
       126 -11.9396    159.2000    121.1684   5.5792717264e+01   2.6893766018e+01     0.375178    0.2634416 -68.03  0.001673963    2.061    0.515
       127 -11.7510     43.0168    120.1310   9.1928911201e+01   4.7130872464e+01     1.040948    0.4883324 -83.37  0.003160489    4.388    0.772
       128 -12.3101    141.7755    117.9271   5.9156162576e+01   3.1056803417e+01    0.7291342    0.3386468 -55.09  0.002508092    2.983    0.665
       129 -10.7918     70.9745    118.9812   8.1272846459e+01   4.3858081804e+01    0.3797815    0.2242097 -71.51  0.001468805    2.425    0.588
       130 -11.3438    131.2418    118.4898   6.2033063648e+01   3.3072545249e+01    0.4004725    0.2996181 -87.34  0.001721003    2.174    0.540
       131 -11.5707      2.5528    114.5591   1.0654150173e+02   5.1543703902e+01    0.7635292    0.2728643 -82.30  0.002764481    3.216    0.689
       132 -11.3426    109.0041    112.4031   6.6859413164e+01   3.8798050181e+01    0.7793594    0.3228052 -55.45  0.002480322    3.293    0.696
       133 -10.4662    186.3190    115.6673   4.8951463834e+01   2.2592449948e+01    0.1384742    0.1073734 -73.26 0.0007048571    1.694    0.410
       134 -11.3605     78.6540    110.9438   7.6573117122e+01   4.4599148979e+01    0.7391383    0.3850086 -69.20  0.002411721    3.530    0.717
       135 -11.4050     92.4116    110.7724   7.1758080396e+01   4.2274910138e+01    0.7481162    0.3491413 -57.57  0.002615412    2.746    0.636
       136 -11.0194    159.4293    111.1751   5.3334475004e+01   2.8767701175e+01    0.3432529    0.1280533 -49.05  0.001144273    3.115    0.679
       137 -10.8180    122.0084    111.7966   6.2872503683e+01   3.6348393056e+01    0.2825222    0.2073423 -59.96   0.00128814    1.660    0.398
       138 -11.3919     14.2066    108.7538   1.0122873821e+02   5.2421035280e+01    0.5971007    0.2951562 -69.18  0.002677166    1.896    0.473
       139 -10.2959    174.6888    111.3379   5.0185453427e+01   2.5644095236e+01    0.1421495    0.1108015 -74.96 0.0007045144    1.688    0.408
       140 -11.0734     66.2794    109.4507   8.0748655800e+01   4.6871184317e+01    0.4890177    0.2835356 -71.35  0.001871561    2.586    0.613
       141 -11.0669    139.9798    104.0205   5.6077016674e+01   3.4199333025e+01    0.4300672    0.2577686 -62.27  0.001677508    2.529    0.605
       142 -12.0045     44.7854     99.8361   8.6946020984e+01   5.2009443352e+01     1.075985    0.5908755 -79.89  0.003908051    3.262    0.693
       143 -12.6117     21.9590     98.8721   9.6349734665e+01   5.4387747398e+01     1.114172    0.5483445 -82.48  0.004281024    2.989    0.665
       144 -10.5612    167.0000    103.9785   4.9976349859e+01   2.8535256267e+01    0.2362925   0.07882117 -40.17 0.0006654487    2.933    0.659
       145 -11.5539    150.4303    102.1575   5.3107003175e+01   3.2341987620e+01     0.565861    0.2140905 -51.16  0.001800359    3.550    0.718
       146 -11.8782      6.9073    100.7089   1.0297822312e+02   5.4838472835e+01    0.6029939    0.1885671 -64.96  0.002326736    2.562    0.610
       147 -11.2517    128.6730    101.5888   5.8345954752e+01   3.7063742247e+01    0.3614621    0.2167843 -55.29   0.00149428    2.058    0.514
       148 -11.3899    108.4640     97.1351   6.2903399543e+01   4.2156220279e+01    0.6769862    0.4142802 -61.83  0.002681212    2.405    0.584
       149 -10.6415     81.7537     98.6225   7.2213435193e+01   4.6908620003e+01    0.4982344    0.2153368 -55.41  0.001728886    2.833    0.647
       150 -10.6907     94.8192     95.6693   6.6850839516e+01   4.5157898435e+01    0.4010423    0.2028287 -49.23  0.001571042    2.144    0.534
       151 -11.6821     63.2940     93.4598   7.7786387177e+01   5.1071085921e+01    0.8721264     0.381599 -57.59  0.003175551    2.706    0.630
       152 -10.0454     57.9738     91.9951   7.9532676698e+01   5.2179812212e+01    0.2116987    0.1765989  57.29  0.001083479    1.538    0.350
       153 -12.2885      5.4274     88.4041   1.0166762656e+02   5.7941682550e+01    0.7917458    0.2565655 -56.84  0.003240869    2.292    0.564
       154 -12.0992      9.2988     78.4292   9.8050073205e+01   6.0143527403e+01    0.6656962    0.2083026 -63.63  0.002567921    2.754    0.637
       155 -10.2383    138.6693     91.3506   5.3042409372e+01   3.6872569522e+01    0.2319112    0.1822717 -84.17  0.001022375    1.732    0.422
       156 -11.5858    124.4539     89.7934   5.6243440398e+01   4.0247423796e+01    0.4870824    0.2543797 -48.72  0.001933855    2.158    0.537
       157 -10.9848     86.1850     84.8480   6.6653628986e+01   4.9052986350e+01    0.5963802    0.2745225 -52.23  0.002198071    2.662    0.624
       158 -11.6524     48.2787     81.8702   8.0835946393e+01   5.5786246673e+01    0.7703263     0.377345 -58.15  0.003149581    2.323    0.569
       159 -11.1747    104.4056     81.1615   5.9504003790e+01   4.6147326123e+01      0.56952    0.2715131 -46.13  0.002225989    2.316    0.568
       160 -12.3851     25.6394     75.7352   8.9596961974e+01   5.9627637425e+01     1.195872    0.3407305 -46.15  0.004323872    2.873    0.652
       161 -10.1500     74.2476     79.0182   6.9264122193e+01   5.2417928203e+01    0.4661919    0.1322263 -51.22  0.001307956    4.621    0.784
       162 -11.6887     62.4497     70.5610   7.1293671773e+01   5.6121907171e+01    0.9688049      0.15016 -44.84  0.002378241    6.171    0.838
       163 -11.4855     34.8222     86.9435   8.8144882121e+01   5.6165732157e+01      0.84905    0.2768192 -57.44  0.003056229    2.834    0.647
       164 -10.9976     82.0247     69.7668   6.3393588531e+01   5.2792747419e+01     0.701411    0.2159342 -42.26  0.002300313    3.448    0.710
       165 -10.4369     42.5530     71.2825   8.0325380496e+01   5.8830006784e+01    0.3419808     0.126442 -50.48  0.001304536    2.592    0.614
       166 -10.3925     94.9218     70.0394   5.9043075782e+01   5.0166159477e+01    0.3832831    0.1862532 -51.87  0.001433838    2.838    0.648
       167 -11.4113     51.1903     67.0554   7.5035390302e+01   5.8553548496e+01    0.7527313     0.256216 -54.02  0.002497579    3.770    0.735
       168 -11.0732      5.7348     69.8183   9.8009698812e+01   6.2329784915e+01    0.3588718     0.135233 -57.52  0.001572216    2.126    0.530
       169 -12.0265     17.0905     66.3302   9.1416801894e+01   6.2432380865e+01    0.8390137     0.128101 -53.27  0.002721094    3.822    0.738
       170 -10.6337     10.2971     64.5587   9.4478212400e+01   6.3277370955e+01    0.2691233    0.1434565 -55.60  0.001348713    1.660    0.398
       171 -11.0874     37.4802     61.9747   7.9838691577e+01   6.1400991126e+01    0.5363261    0.2208145 -47.39  0.002241914    2.298    0.565
       172 -10.1305    110.0000     61.9879   5.1889888269e+01   4.8285664103e+01    0.2298202   0.08340459 -36.79 0.0008102276    2.997    0.666
       173 -11.0070     73.1441     56.1620   6.2038416860e+01   5.6915178718e+01    0.7981653    0.2224871 -38.52   0.00255844    3.961    0.748
       174 -10.5846     24.9847     57.3910   8.4748230088e+01   6.3693801959e+01    0.3809158    0.1725225 -50.22  0.001730214    2.043    0.511
       175 -12.1409      7.9048     53.6568   9.2959211341e+01   6.5800654907e+01    0.7627644    0.1653123 -55.37  0.002824666    3.240    0.691
       176  -9.9361     99.9997     56.1503   5.2874448895e+01   5.1410182095e+01    0.3545722     0.163518 -23.70  0.001267878    3.304    0.697
       177 -11.5730     44.8440     50.8488   7.2369242500e+01   6.2595854300e+01    0.6454235    0.2371822 -37.77  0.002479893    2.875    0.652
       178 -10.8713     53.7894     51.2508   6.8325727289e+01   6.1161981077e+01    0.5824468     0.184312 -47.94  0.001969781    3.930    0.746
       179 -10.6283     20.3873     50.0124   8.4873748639e+01   6.5628524139e+01    0.4631279    0.2037109 -40.20  0.002127996    2.014    0.503
       180 -11.0734     30.8570     48.7854   7.8738893367e+01   6.4794648375e+01    0.5400565    0.1871504 -52.35  0.002073684    3.189    0.686
       181 -10.3977     92.1362     47.9724   5.2469623709e+01   5.4352144826e+01    0.5047173   0.07040799 -39.07  0.001212085    7.355    0.864
       182 -10.4637     82.5088     43.0016   5.3807326881e+01   5.7115567783e+01    0.5848163    0.1927931 -26.05  0.001665232    5.660    0.823
       183 -10.4774     63.2466     48.5035   6.3174908548e+01   6.0022714941e+01    0.4623349    0.2161152 -23.73  0.001713615    3.228    0.690
       184 -10.9245     16.8396     42.0690   8.4199055225e+01   6.7509201958e+01    0.4854324    0.1097789 -47.45   0.00177712    3.428    0.708
       185  -9.6846     85.3014    233.6547   9.5509834977e+01   1.4406297430e+01    0.1374418   0.09222751  54.64 0.0004958141    1.683    0.406
       186  -9.5635    113.8437     41.4091   4.4222004764e+01   5.0380370002e+01    0.1956023    0.1105916  45.76  0.000287218    1.604    0.377
       187 -11.0452     92.3838    230.4180   9.3378329064e+01   1.4185907851e+01    0.2485193    0.2026941  40.76  0.001458449    1.189    0.159
       188 -10.1713     49.7081     31.1296   6.2089890129e+01   6.5076744882e+01    0.2900644    0.1146909 -34.10  0.001219208    2.769    0.639
       189 -10.5871     36.6989     38.9330   7.1865757742e+01   6.5844133820e+01    0.3789969    0.1335255 -37.83  0.001502924    2.931    0.659
       190 -10.8657     12.6455     28.1599   8.1497813943e+01   7.0449511018e+01    0.4755945   0.08574922 -49.40  0.001615699    4.597    0.782
       191 -10.1564     72.4083    228.2146   9.8121571306e+01   1.7112973349e+01    0.1767811    0.1275935  89.24 0.0009509759    1.735    0.424
       192 -10.4511     57.7849     40.9043   6.2532575727e+01   6.2211169037e+01    0.3458236    0.1590546 -47.98  0.001404031    3.056    0.673
       193  -9.4441     40.8346     21.3721   6.1983560858e+01   6.7912295160e+01    0.1781947   0.09878841  27.10 0.0003493703    1.594    0.373
