#   1 NUMBER                 Running object number                                     
#   2 MAG_AUTO               Kron-like elliptical aperture magnitude                    [mag]
#   3 X_IMAGE                Object position along x                                    [pixel]
#   4 Y_IMAGE                Object position along y                                    [pixel]
#   5 X_WORLD                Barycenter position along world x axis                     [deg]
#   6 Y_WORLD                Barycenter position along world y axis                     [deg]
#   7 A_WORLD                Profile RMS along major axis (world units)                 [deg]
#   8 B_WORLD                Profile RMS along minor axis (world units)                 [deg]
#   9 THETA_WORLD            Position angle (CCW/world-x)                               [deg]
#  10 FWHM_WORLD             FWHM assuming a gaussian core                              [deg]
#  11 ELONGATION             A_IMAGE/B_IMAGE                                           
#  12 ELLIPTICITY            1 - B_IMAGE/A_IMAGE                                       
         1 -11.2780     20.2796     15.9547   7.5842619711e+01   7.1682748901e+01    0.5928863    0.3371608 -20.78  0.003202787    1.968    0.492
         2 -12.2445    128.7972     18.9055   3.9808835137e+01   5.0254994208e+01    0.3150915    0.2550401  14.02 0.0003578853    1.373    0.272
         3 -12.2112    165.3383     23.1649   3.5394738230e+01   4.0532408216e+01    0.4389174    0.3080698 -86.22 -0.000275831    1.551    0.355
         4 -10.9254     99.2621     22.7055   4.7886651310e+01   5.6880791774e+01    0.5138597    0.3635203  26.14  0.002406529    1.540    0.351
         5 -11.6671    107.1917     18.2748   4.4066441284e+01   5.5574738177e+01    0.5619667    0.2656271  41.47  0.001970376    2.213    0.548
         6 -10.9010     12.1433      2.1841   7.3192820108e+01   7.4795666493e+01    0.2640424    0.1693088 -15.31  0.001195721    1.508    0.337
         7 -10.0752     15.0918     13.8551   7.7765171888e+01   7.2584838642e+01    0.2004372    0.1625037 -24.02 0.0008231314    1.021    0.020
         8 -10.4686     15.9937      6.5368   7.3342055330e+01   7.3701201296e+01    0.5077525    0.2315672 -43.46  0.002704602    1.952    0.488
         9 -11.5639     22.0659      6.9556   7.0030314077e+01   7.2933614158e+01    0.4454425    0.3627031  70.19  0.002469371    2.363    0.577
        10 -10.9909     26.8243      2.7205   6.4883981940e+01   7.2934009395e+01    0.2421797    0.2198586  35.99  0.001741044    1.448    0.309
        11 -10.3407     21.5446      1.5207   6.7097536668e+01   7.3796594146e+01    0.3024843    0.1505151  34.49  0.001654975    2.107    0.525
        12 -12.1715      4.6868     18.1671   8.5951806389e+01   7.2710778112e+01     0.462805     0.366429  72.21  0.002564313    2.051    0.512
        13 -10.7958      9.5399     16.0488   8.2105462458e+01   7.2713342194e+01    0.3140104    0.1734622 -27.65  0.001329518    1.774    0.436
        14 -11.7122    237.9346     17.9556   2.6547053559e+01   2.3759310718e+01    0.2887816    0.2230232 -70.69  0.000340203    1.208    0.172
        15 -10.9527     33.4194     16.3850   6.9095718804e+01   7.0008427924e+01    0.5202699    0.2555099  20.66  0.002042389    2.847    0.649
        16 -11.2888     48.2559     15.7177   6.1820673745e+01   6.7898513650e+01    0.5456142    0.4388191  23.34  0.003192574    1.213    0.175
        17 -11.7950     40.7861     16.8871   6.5789331114e+01   6.8886536719e+01    0.5349709    0.3615552 -47.55  0.002390137    1.704    0.413
        18 -10.9246     39.8354     11.1057   6.3161196751e+01   6.9884289995e+01    0.3184329    0.2111675  44.22 0.0006772488    1.712    0.416
        19 -10.4638     43.9636      8.6295   5.9892149479e+01   6.9577618356e+01    0.3258457    0.2664799  81.73  0.001926353    2.165    0.538
        20 -10.1928     74.4951      2.3549   4.5242668654e+01   6.4561841842e+01    0.2358938    0.1981611  86.59 0.0009074964    1.553    0.356
        21 -10.4755     72.8777      5.9892   4.7595098118e+01   6.4532426322e+01    0.3347102    0.2382527 -53.26 0.0003236003    1.896    0.473
        22 -10.8365     71.0806     13.2301   5.1826433169e+01   6.4076798225e+01    0.4509848    0.2650406   0.36  0.001938028    2.253    0.556
        23 -10.6634     77.3949     11.1372   4.8776777493e+01   6.3032766833e+01    0.3907301    0.2174437  49.25  0.001954008    1.696    0.411
        24 -10.5266    118.1958     11.0741   3.8781374183e+01   5.3693799089e+01    0.4999653    0.1745747 -30.34  0.001927834    2.742    0.635
        25 -12.3212    128.6602     11.4808   3.7021320751e+01   5.1064036508e+01    0.4129404    0.3027318 -85.74  0.002149487    1.556    0.357
        26  -9.7760    100.0530     12.5349   4.3295357741e+01   5.7875807015e+01    0.2730221    0.1496745  -5.51 0.0009473896    2.331    0.571
        27 -11.7017      8.1616      9.0196   7.9524807364e+01   7.4072098419e+01    0.4310465    0.2916665  18.71  0.001712836    1.594    0.373
        28  -9.9044    138.1905     11.1846   3.5333470255e+01   4.8696900553e+01    0.1915824    0.1542358 -64.03 0.0004081549    1.334    0.250
        29 -10.2498    241.0082      9.6763   2.4387482505e+01   2.3963997743e+01    0.1695387    0.1394721 -72.68 0.0003988066    1.122    0.109
        30 -10.4325    177.8412     10.0396   2.9786293155e+01   3.8749360961e+01    0.2786233    0.1456033  46.50  0.001244301    2.150    0.535
        31 -10.6763    164.0148      9.0179   3.1039282917e+01   4.2340079441e+01    0.2590011    0.1871069 -33.68 0.0003253275    1.396    0.284
        32 -10.3035    164.5535      5.5058   2.9854249275e+01   4.2530333287e+01    0.2343458    0.1802442 -44.14 0.0006116172    1.295    0.228
        33 -12.6065    213.6625      5.8342   2.5373902440e+01   3.0461099417e+01    0.7977333    0.4402435 -63.39  0.004022557    1.792    0.442
        34 -11.1544    146.3972      6.8036   3.2565445252e+01   4.7028253856e+01     0.387203     0.269493  27.62    0.0014892    1.682    0.406
        35 -11.5611    148.4380      2.2558   3.0720845317e+01   4.6910257610e+01    0.4396444    0.3830517 -74.01  0.001687761    1.146    0.127
        36 -11.0665    190.3515      6.8601   2.7607286676e+01   3.5948218809e+01    0.4309608    0.3422487 -88.99  0.002529708    1.188    0.158
        37 -11.2933    194.5652      1.9610   2.5862283808e+01   3.5375524366e+01    0.3838197    0.2136586  86.75  0.001891085    1.789    0.441
        38 -10.1714    156.0982      6.4046   3.1156440961e+01   4.4596539252e+01     0.239578    0.1855678  16.97 0.0007812828    1.535    0.348
        39 -10.8455     89.9412      6.9354   4.3257008390e+01   6.0756121325e+01    0.5267618    0.1711695  54.91  0.002060688    2.640    0.621
        40  -9.7741     35.7216      6.8928   6.2769405745e+01   7.1092101742e+01    0.3081409    0.1272881  28.05   0.00127347    3.331    0.700
        41  -9.5630     81.5440      5.9492   4.5023627789e+01   6.2705034666e+01    0.1890965    0.1237916 -20.46 0.0005222662    1.538    0.350
        42 -10.8086     67.9301      4.0458   4.8157748927e+01   6.5743577567e+01    0.2481079    0.2188635 -22.67 0.0006195874    1.203    0.169
        43 -10.2637    234.3113      5.3431   2.3806347900e+01   2.5845904614e+01      0.11729   0.09295009  32.34 0.0007045869    1.701    0.412
        44 -11.5814    178.9995      4.1298   2.7898562175e+01   3.9017060857e+01    0.2462935    0.2209062 -52.26 0.0003199957    1.094    0.086
        45 -10.9278     98.4198      3.8754   3.9832267924e+01   5.9105554128e+01    0.3363854    0.2889954  32.71  0.001388809    1.090    0.082
        46  -9.2685     61.5567      5.4382   5.1071938959e+01   6.6846990287e+01    0.1265453    0.1098436  11.71 0.0001317846    1.005    0.005
        47 -10.8511    223.6391      3.8400   2.4153145260e+01   2.8365146658e+01    0.2482379    0.1748108  48.02 0.0006357947    1.734    0.423
        48 -10.4192    126.5764      2.8139   3.4051355482e+01   5.2378859937e+01    0.2510893    0.1941708  18.05  0.000505661    1.427    0.299
        49 -10.9529    243.0058      3.0202   2.2729954188e+01   2.4202579977e+01    0.1910007     0.155741 -55.98 0.0006393137    1.007    0.007
        50 -10.4874    157.2104     11.8967   3.2834363447e+01   4.3792238753e+01    0.3012884    0.1650095 -39.11  0.001298652    1.806    0.446
        51 -10.6314    237.2266      2.3794   2.2927332178e+01   2.5501738903e+01    0.1741053    0.1021511 -82.00 0.0009551616    1.698    0.411
        52 -10.5251    230.9238      1.4757   2.3102994663e+01   2.6965280363e+01    0.1747564    0.1133805  81.68 0.0004052945    1.527    0.345
        53  -9.3191    108.2796      1.3315   3.6670943811e+01   5.6991789396e+01    0.1398049   0.09063954  31.85 0.0002646277    1.605    0.377
        54  -9.8613     81.6151      1.4238   4.2775338528e+01   6.3123130172e+01    0.2502407   0.08665445  48.75  0.001017779    2.482    0.597
        55 -10.0766     32.5935      1.4531   6.1088953461e+01   7.2280479561e+01    0.2277775    0.1113003  42.30  0.001197221    2.148    0.534
        56  -9.3216     99.0537    164.7472   8.7910760922e+01   2.8469500615e+01    0.1687956     0.108379  42.75 0.0003976767    1.471    0.320
        57  -9.5548    239.6811    250.6750   7.4171650043e+01  -6.1938888040e+00    0.1082176   0.06116442  10.06 0.0007045554    1.676    0.403
        58 -12.5398    226.4774    245.4210   7.5481103600e+01  -4.0243904407e+00    0.5631033    0.3100026   6.90  0.003421518    2.076    0.518
        59 -12.3827    232.6625    245.0793   7.4461265127e+01  -4.7774560721e+00    0.4544783    0.2143903 -22.79   0.00274743    2.346    0.574
        60 -10.1776     72.5398    250.2075   1.0270653182e+02   1.6263567871e+01    0.1844244    0.1302365  23.37 0.0009259441    1.847    0.459
        61 -11.6175      5.3759    236.0422   1.1363785949e+02   2.5949183561e+01    0.5069607    0.2407719  43.83  0.003468217    1.621    0.383
        62 -12.0049     28.8374    247.9776   1.1014842861e+02   2.1621768543e+01    0.4551671    0.2268759  79.43  0.003003326    1.904    0.475
        63 -12.7122     19.0971    237.1721   1.1132518773e+02   2.4434407996e+01    0.5927231    0.2587332  51.15  0.003804461    1.645    0.392
        64 -13.2674      6.0429    245.2510   1.1385050933e+02   2.4331084475e+01    0.8316599    0.4758357  36.86  0.005026169    1.675    0.403
        65 -12.1051     22.0747    249.0457   1.1133457506e+02   2.2142720233e+01    0.4202992    0.1900677  42.14  0.001549621    1.684    0.406
        66 -11.2353     17.2649    247.4066   1.1206969790e+02   2.2893820300e+01    0.2163159    0.1418923  51.70 0.0006626818    1.162    0.140
        67 -12.8289     21.1584    157.5021   1.0598911650e+02   4.0076169475e+01    0.5596973    0.4103598  23.26 0.0008220861    1.714    0.417
        68  -9.4973    216.3932    155.2168   6.1664543400e+01   8.9754131388e+00    0.1699727    0.1160772 -40.70 0.0002594348    1.531    0.347
        69 -10.2638     11.4702    153.6160   1.0802846768e+02   4.1802901309e+01    0.2190315    0.1352059  37.04  0.001343203    1.684    0.406
        70  -9.8899    177.1686    150.7275   6.7961007098e+01   1.7009790297e+01    0.2200914    0.1795501  67.05  0.001185448    1.519    0.342
        71  -9.3927     33.2887    147.6998   1.0200397212e+02   4.1109375429e+01    0.1289368   0.08075972  69.27 0.0002447851    1.560    0.359
        72 -10.7539     18.3289    146.7804   1.0574918392e+02   4.2755269617e+01    0.2806076    0.1874997 -18.85  0.001192373    2.537    0.606
        73 -10.0228    207.0501    146.5147   6.1466344779e+01   1.2017178817e+01    0.1939587    0.1296102  43.62 0.0005357434    1.527    0.345
        74  -9.2663     41.0120    146.2212   9.9829193570e+01   4.0622695257e+01    0.1488654    0.1014085  35.87 0.0008438253    1.566    0.361
        75  -9.8003    220.4534    143.9843   5.8638201695e+01   9.9354218679e+00    0.1982235    0.1202414 -32.72 0.0006317876    1.542    0.352
        76  -9.8419      9.5953    144.5735   1.0778044401e+02   4.3993821774e+01    0.3011363    0.1262283   8.43  0.001153386    5.288    0.811
        77  -9.4756     49.3040    142.2713   9.7134973747e+01   4.0583499515e+01    0.1201054   0.09735647 -39.02 0.0002426929    1.536    0.349
        78 -10.0234     14.0123    140.0113   1.0624908308e+02   4.4675812215e+01    0.1905476    0.1248473  30.42 0.0009425362    1.738    0.425
        79  -9.7680     17.4219    137.6920   1.0512964901e+02   4.4922491951e+01    0.1748767   0.09492883 -66.70 0.0006717068    1.600    0.375
        80  -9.6135    230.3412    139.6811   5.6125040652e+01   8.7904275932e+00    0.1250548    0.1022125 -63.66 0.0007049541    1.715    0.417
        81 -10.3772     55.0965    138.8324   9.5091937085e+01   4.0675031917e+01    0.3081007    0.2128455  69.23   0.00166934    1.501    0.334
        82 -10.7784      9.1335    136.7681   1.0724370071e+02   4.5813137878e+01    0.2318941    0.1375351 -75.74  0.000703558    1.397    0.284
        83  -9.3066    143.7045    137.3380   7.2209429270e+01   2.6125684935e+01    0.1455574    0.1150309 -88.88 0.0007030041    1.652    0.395
        84 -10.3277      2.5240    136.5088   1.0895896969e+02   4.6364395091e+01    0.2563554   0.09591863 -78.34  0.001216484    2.189    0.543
        85  -9.3788    122.7109    135.3211   7.6728915599e+01   3.0630592594e+01    0.1453039    0.1128748  85.49 0.0002684399    1.602    0.376
        86  -9.6613     20.6946    135.1601   1.0399338674e+02   4.5224282709e+01    0.1808555   0.08975573 -66.72 0.0009306257    1.720    0.419
        87  -9.8311    249.1788    134.1769   5.2135949294e+01   6.2848542088e+00    0.1638422    0.1400412 -40.61 0.0004303703    1.295    0.228
        88 -10.5869     54.1962    132.6107   9.4403425206e+01   4.2248478072e+01    0.3036215    0.2176681  55.09  0.001089808    1.405    0.288
        89 -10.0244    112.0000    132.0478   7.8704761626e+01   3.3340691954e+01    0.2405011   0.08107018 -51.40 0.0008054004    2.963    0.663
        90  -9.5355     79.6846    132.7151   8.7375973924e+01   3.8666831375e+01    0.1325842    0.1090112 -23.79 0.0003675062    1.582    0.368
        91 -11.3466     36.1900    130.5092   9.9154710330e+01   4.4817614469e+01    0.4542398    0.2459306 -49.96  0.002271725    1.974    0.493
        92 -11.1805     73.8969    129.2263   8.8329165758e+01   4.0350440690e+01    0.3049269    0.2779946 -86.75 0.0009615573    1.010    0.010
        93  -9.1474      9.2959    129.3157   1.0652510328e+02   4.7522031379e+01    0.1187372   0.07908018 -52.46  0.000244943    1.605    0.377
        94 -11.0486     24.2057    126.0427   1.0198946792e+02   4.7046705817e+01    0.2382727    0.1792579  47.38 0.0005050777    1.388    0.279
        95 -10.7816     21.0558    121.4665   1.0234561676e+02   4.8407676466e+01    0.2727577    0.1947091   3.50  0.001593042    1.981    0.495
        96 -11.5131     12.0996    124.3494   1.0525045940e+02   4.8464642675e+01    0.5071694    0.2367317  63.51  0.001719291    2.391    0.582
        97 -10.6556     17.8106    125.2538   1.0372291157e+02   4.7791609954e+01    0.2833165    0.1868695 -53.06 0.0008998779    1.560    0.359
        98  -9.6021     48.3736    125.1668   9.4897407481e+01   4.4721465333e+01    0.1944168    0.1143869 -80.12 0.0009428988    1.738    0.425
        99  -9.9151    220.0129    124.2979   5.4389979447e+01   1.3022615883e+01    0.1845555    0.1716868   0.25 0.0004473223    1.060    0.057
       100 -10.0865      2.8487    122.8527   1.0772337800e+02   4.9484748864e+01    0.1733185    0.1340063 -62.41 0.0003622332    1.275    0.216
       101 -11.1453     15.1282    117.0899   1.0356964842e+02   4.9933945351e+01    0.3936885     0.223533 -59.28  0.001992886    1.577    0.366
       102  -9.8691      1.4117    118.9899   1.0778006645e+02   5.0476925638e+01    0.1812124   0.09515841 -78.47 0.0003374779    1.535    0.349
       103 -10.0786     72.4745    117.7143   8.6520764503e+01   4.3257663483e+01    0.2688468    0.1326136 -63.62  0.000826155    2.027    0.507
       104  -9.6052    179.2173    116.4080   5.9765135324e+01   2.2712878908e+01    0.1943988    0.1414582  61.07 0.0005806013    1.568    0.362
       105  -9.6650     85.5845    116.4988   8.2476911698e+01   4.1479664630e+01    0.1418216    0.1322789 -68.56 9.151452e-05    1.025    0.025
       106  -9.7447    214.0253    115.4945   5.3331438388e+01   1.5577883538e+01    0.1933907    0.1362896  47.67 0.0004628945    1.512    0.339
       107 -11.0670    249.4611    112.4427   4.7409008081e+01   9.2414865012e+00    0.2481555    0.1994643 -42.90 0.0005993301    1.256    0.204
       108 -10.1738     94.9886    112.2415   7.8846726240e+01   4.0843354004e+01    0.2601041    0.2079031 -56.00  0.001010283    1.206    0.171
       109 -11.7069     37.0379    110.3773   9.5924324676e+01   4.9519869476e+01    0.4175054    0.2791093  66.54  0.002250299    1.667    0.400
       110 -11.8657     55.1148    109.5477   9.0130783032e+01   4.7604839881e+01    0.4230981    0.2462038 -54.76  0.001297893    1.569    0.363
       111 -12.2299     13.9421    109.2695   1.0298072433e+02   5.1875005232e+01    0.4688255    0.3313032   3.96  0.002812746    1.936    0.484
       112 -10.0544     70.5004    108.3683   8.5151668274e+01   4.5744249192e+01    0.2808502    0.1299424 -58.05  0.001068498    2.015    0.504
       113 -10.8529      1.9442    107.4027   1.0647891734e+02   5.3146218229e+01    0.3905954     0.105744 -65.19  0.001655322    2.640    0.621
       114 -11.2755     23.7123    106.2150   9.9484393820e+01   5.1798740658e+01    0.2959277    0.2421038  76.69 0.0009466684    1.210    0.174
       115 -10.0353    243.5495    104.5146   4.6427338071e+01   1.1442351248e+01    0.1317852    0.1135213 -24.91 9.801838e-05    1.010    0.010
       116 -11.1960    120.2761    101.1437   6.9166729127e+01   3.8402970258e+01    0.6911103    0.2855772 -31.80   0.00195142    4.432    0.774
       117  -9.6944     31.7610    103.5935   9.6477471413e+01   5.1675805243e+01    0.1628229    0.1171082  45.34  0.000394982    1.513    0.339
       118  -9.5959     25.9699    102.4749   9.8180255060e+01   5.2488324422e+01    0.1629669    0.1264007  32.58 0.0003735834    1.482    0.325
       119 -10.9392     21.1490     92.6131   9.8183444369e+01   5.5249485783e+01    0.6433095   0.06803492 -64.90  0.001831436    5.148    0.806
       120 -10.9139     19.3206    101.2740   1.0017024410e+02   5.3346435985e+01    0.2218447    0.1703212 -34.19 0.0007120616    1.530    0.346
       121  -9.2395     23.9840     99.0000   9.8276963184e+01   5.3492040166e+01    0.3213128    0.1732612  21.19  0.001121919    2.286    0.563
       122 -10.7674     25.4569     91.1857   9.6437771748e+01   5.5215232933e+01     0.276117    0.1914596 -68.79  0.001601834    1.230    0.187
       123 -11.3933     21.9308     87.1017   9.6942453458e+01   5.6484858634e+01    0.2947858    0.2622464  88.79 0.0009572675    1.141    0.124
       124 -11.5016    143.4467     98.4625   6.2737068313e+01   3.3958044225e+01    0.6330343    0.3985544  57.29  0.002775484    1.732    0.423
       125 -11.1207     62.2727     98.9324   8.5628002393e+01   4.9147658974e+01    0.3291497     0.298971  22.30  0.001489725    1.256    0.204
       126 -10.4994     66.5506     98.4529   8.4145857654e+01   4.8644925182e+01    0.2408509    0.2158254 -54.20 5.662883e-05    1.062    0.058
       127  -9.6522     50.9336     99.2995   8.9393916979e+01   5.0565531050e+01    0.1753023    0.1692799  74.56 0.0005086749    1.116    0.104
       128  -9.9697    173.4740     83.4983   5.2266147934e+01   2.9788038687e+01    0.2666231     0.179051 -45.33 0.0007894764    1.471    0.320
       129 -12.6088    158.1329     89.6648   5.7051667856e+01   3.2282757269e+01     1.334467    0.4963419 -50.43  0.004052776    3.603    0.722
       130 -12.2310    166.4104     84.0067   5.3771991990e+01   3.1359473097e+01    0.8118265     0.530789  61.53  0.002822319    1.662    0.398
       131 -11.4304     14.3803     97.5055   1.0125028987e+02   5.4627065718e+01    0.4361669    0.1994787 -67.28  0.002172975    1.753    0.430
       132 -11.5893     10.8336     90.8606   1.0147835007e+02   5.6451536911e+01    0.3320509    0.2565326  45.07 0.0007464875    1.469    0.319
       133 -10.0476      5.1752     98.2368   1.0439743733e+02   5.5092899155e+01    0.1818241    0.1435339 -37.13  0.001015849    1.460    0.315
       134  -9.4461      1.2118     96.0266   1.0543329934e+02   5.5853831635e+01    0.1630972   0.07927186 -73.99 0.0004966481    1.639    0.390
       135  -9.2361    250.2975     95.6863   4.3560234246e+01   1.1407749654e+01      0.12948   0.09002765 -53.94 0.0003900847    1.604    0.377
       136 -11.1112     37.3592     94.6756   9.2991431613e+01   5.3226730499e+01    0.2694631    0.2259853  86.14  0.000254413    1.218    0.179
       137  -9.3653    113.2843     93.3588   6.8895328032e+01   4.1478321584e+01    0.1516697     0.118539 -10.36  0.000302036    1.675    0.403
       138  -9.4362     46.5327     92.5403   8.9419837979e+01   5.2697243872e+01    0.1343535    0.1192765 -72.52 7.229426e-05    1.051    0.049
       139 -11.7019    157.3009     82.6208   5.5226089951e+01   3.3744912396e+01    0.9337499    0.5050488  33.28  0.003481434    2.606    0.616
       140 -10.5609     96.5650     89.7092   7.2599595513e+01   4.5559114761e+01    0.3032433     0.183163  29.60  0.001290243    2.075    0.518
       141 -10.1528     37.7074    103.1993   9.4476495305e+01   5.1162972406e+01    0.2617942    0.1818677  83.76  0.001413554    1.583    0.368
       142  -9.9456     83.0565     88.9056   7.6481590457e+01   4.8183370712e+01    0.2154813    0.1994984 -42.57 0.0005565513    1.060    0.056
       143 -10.7021     78.5945     87.8324   7.7598164796e+01   4.9180673667e+01    0.3364522    0.2378974 -66.24  0.001388896    1.538    0.350
       144 -11.4201      4.5081     85.4953   1.0291362985e+02   5.8120772130e+01    0.5842848    0.1596094 -62.59  0.002476394    2.541    0.607
       145 -10.3690     65.1451     87.6455   8.1946709047e+01   5.1344421339e+01    0.2498659    0.2156697 -47.87 0.0008026692    1.092    0.084
       146 -10.9631     66.7339     83.4946   8.0313160827e+01   5.2046847242e+01    0.3598754    0.2667316  48.25  0.001904866    1.487    0.328
       147  -9.4117     62.4851     82.5863   8.1516002449e+01   5.2884504532e+01    0.1802995    0.1385506  14.35 7.257322e-05    1.603    0.376
       148 -10.2013     46.8256     87.7186   8.8237546105e+01   5.3791522860e+01    0.2603026    0.1692105  88.61  0.001238575    2.075    0.518
       149 -10.8031     57.3977     90.0995   8.5166330971e+01   5.1880190894e+01    0.3763827     0.255933  18.52  0.001831218    1.877    0.467
       150  -9.8199    120.9020     86.8031   6.4988175820e+01   4.1223649184e+01    0.2223133      0.20349  -2.61 0.0007684132    1.203    0.168
       151 -10.0149     42.9399     82.8087   8.8469766652e+01   5.5392882110e+01    0.2175292    0.1374439  57.78  0.001071883    2.027    0.507
       152 -11.2042     30.8579     81.8917   9.2667551168e+01   5.6895549187e+01    0.3288806    0.2693699 -34.03  0.001229094    1.304    0.233
       153  -9.3766     79.4981     82.5165   7.5820602670e+01   5.0203492375e+01    0.1434118    0.1333153 -38.84 -6.517237e-05    1.054    0.052
       154 -11.9149     20.9386     78.9628   9.5755196567e+01   5.8473299047e+01    0.6803104    0.3891003 -61.72  0.003692568    1.435    0.303
       155 -12.1905     12.1201     49.0348   9.2473742774e+01   6.5901668268e+01      1.10355    0.5510707 -58.15  0.005907297    1.604    0.377
       156 -11.9469      6.1238     42.5708   9.3557743929e+01   6.7700732654e+01     1.652183          nan -57.77  0.004382675    6.729    0.851
       157 -14.0763     16.6453     67.4831   9.5028093015e+01   6.1460877407e+01    0.5580498      0.36906 -47.09  0.001196526    1.343    0.255
       158 -10.8119     15.0783     59.9074   9.3937461826e+01   6.3289946875e+01     0.187435    0.1652767 -37.86  0.000325867    1.142    0.124
       159 -11.3940     10.0630     63.3636   9.6850056302e+01   6.2870927744e+01    0.4047799    0.2965823  74.04  0.001431121    1.649    0.394
       160 -11.4817     13.0545     77.3301   9.8426286762e+01   5.9461216345e+01     0.377279    0.2205339 -57.71  0.001484988    1.396    0.283
       161 -12.6770      8.2181     73.7941   9.9641898292e+01   6.0608003493e+01    0.6965423    0.4559689  -6.47  0.004092471    1.997    0.499
       162 -11.9882      6.1708     67.9194   9.9370585096e+01   6.2085176045e+01    0.2449743    0.1714545 -64.19 0.0003237159    1.148    0.129
       163 -12.7196      2.9893     62.7981   9.9701110741e+01   6.3436022831e+01    0.5394855    0.3029312 -68.47  0.002102257    1.453    0.312
       164  -8.9969    124.2951     79.2650   6.1855599062e+01   4.1967325469e+01    0.1450451    0.1182042  10.77 0.0006913528    1.509    0.337
       165 -11.0635     61.0400     78.0563   8.0778130892e+01   5.4112861948e+01    0.5661025    0.3141129  66.12  0.002042326    3.786    0.736
       166 -10.6251     61.8306     72.8331   7.8996748765e+01   5.5151650933e+01    0.4719639    0.1563611 -48.09   0.00171762    2.707    0.631
       167 -11.4930     51.6517     62.7523   7.9702076505e+01   5.8785902280e+01    0.4219402     0.349855  83.74  0.002414505    1.557    0.358
       168 -10.4551     54.0079     74.3091   8.2249084538e+01   5.5937989760e+01    0.2540877    0.2087946 -72.36 0.0004736455    1.288    0.224
       169 -12.1882     50.2824     68.6023   8.2001107784e+01   5.7700595589e+01    0.4363249     0.326644 -49.77 0.0007515247    1.188    0.158
       170 -12.7643     44.6702     75.2039   8.5942201337e+01   5.6932798424e+01    0.2659452    0.2492459 -79.53 0.0004523529    1.127    0.112
       171 -10.6638     90.7598     74.9344   6.9972051732e+01   4.9789440370e+01    0.5316867    0.2089233 -37.35  0.001812868    2.975    0.664
       172 -10.1820     93.9798     74.0370   6.8698949736e+01   4.9355826228e+01    0.2229547    0.2118619 -34.22 0.0004273564    1.020    0.020
       173 -11.3054     75.1196     75.1859   7.5100084125e+01   5.2535991420e+01    0.3663391    0.2857403   4.23  0.001886674    1.638    0.390
       174 -11.5365     78.0701     70.1535   7.2546995389e+01   5.3096674075e+01    0.4220704    0.2715867  38.34  0.002044615    1.662    0.398
       175  -9.9132    145.6522     74.4412   5.5302826926e+01   3.7947386743e+01    0.2995282    0.1893438 -32.65  0.001087383    1.611    0.379
       176 -10.6530    207.5049     73.4296   4.3888266289e+01   2.3493473651e+01    0.2282877    0.2167182 -29.17 0.0002365799    1.052    0.050
       177  -9.8136    137.4892     73.5383   5.6873468606e+01   4.0027744391e+01    0.2656554    0.1475255 -25.25 0.0005658003    2.241    0.554
       178 -10.8114    103.1665     73.1708   6.5692387663e+01   4.7692781818e+01    0.6180384    0.2510498  57.02  0.001961449    3.666    0.727
       179 -12.0144    163.8788     88.8767   5.5642936938e+01   3.1092727791e+01    0.5901929    0.3530661 -22.69  0.001989176    2.071    0.517
       180  -9.6145    128.9500     71.5156   5.8277598330e+01   4.2373328700e+01     0.221229    0.1476174  49.94 0.0004378876    1.517    0.341
       181 -10.8930     37.1427     69.2636   8.7255536601e+01   5.9141874345e+01    0.5170954    0.2684645  59.27  0.002069339    3.489    0.713
       182 -10.5605    167.8240     69.8976   4.9436505271e+01   3.3401112324e+01    0.2275937    0.2081992  56.08 0.0003110607    1.119    0.106
       183  -9.7508    122.9923     69.2424   5.9036699255e+01   4.4148909873e+01    0.2039389    0.1975422 -33.12 0.0002448599    1.016    0.016
       184 -10.2186     42.6686     68.4377   8.4874901853e+01   5.8693227830e+01    0.2232418    0.1912807 -31.87 0.0007676747    1.168    0.144
       185 -11.7523     43.6069     38.1336   7.4234726139e+01   6.4845178620e+01    0.5319045    0.3048291  48.73   0.00261756    2.333    0.571
       186 -10.6877     29.1486     66.3785   8.9685121502e+01   6.0620053285e+01    0.3576439    0.2494029  70.55  0.001933071    1.968    0.492
       187 -11.5626     31.2452     62.3659   8.7760138477e+01   6.1306296337e+01    0.7056454    0.4459311  57.90  0.003606464    2.243    0.554
       188 -10.8157     26.8748     56.0412   8.7821653148e+01   6.3128752140e+01    0.2285458    0.1937072 -29.70 0.0004457699    1.166    0.142
       189 -11.9768     26.9148     49.9395   8.5965468175e+01   6.4435363547e+01    0.5365192    0.3520935 -64.58  0.002133452    1.539    0.350
       190 -13.1574     37.3654     50.0316   8.1385753741e+01   6.3282681408e+01    0.7766173    0.6509721 -34.01  0.003406973    1.077    0.071
       191 -11.7155     35.3972     42.4124   7.9559775175e+01   6.5062885849e+01    0.6214131    0.3730235  -2.53   0.00297315    2.505    0.601
       192 -11.3050     94.6093     66.1624   6.5940739947e+01   5.0806512269e+01    0.4956703    0.3268345  25.91   0.00113284    1.927    0.481
       193  -9.2338    127.5061     66.4892   5.7017429472e+01   4.3614300354e+01    0.1476753    0.1455746 -37.86 3.955617e-05    1.003    0.003
       194 -11.4133    122.8516     64.1596   5.7407955159e+01   4.5100347830e+01    0.2668497    0.2413381 -41.05 0.0002526452    1.091    0.084
       195  -9.9946    119.7743     61.1382   5.7176324460e+01   4.6338283437e+01    0.3015631    0.2113958  50.30 0.0007345754    1.440    0.306
       196 -10.4523    153.2161     63.7154   5.0402107674e+01   3.7957998888e+01    0.2506487    0.1808948  60.01 0.0004408218    1.417    0.294
       197  -9.4576    143.9209     64.4930   5.2590298765e+01   4.0080562640e+01    0.2128279    0.1478311  56.50  0.000362411    1.459    0.315
       198 -10.6376     76.5196     63.7304   7.0964447828e+01   5.4688573229e+01    0.2899492     0.276281  56.51  0.001719514    1.156    0.135
       199 -10.8691    201.8322     61.4690   4.1518674576e+01   2.6548060852e+01    0.2483833    0.2264199 -39.30  0.000439043    1.040    0.038
       200  -9.2469    113.4534     61.4701   5.8943638210e+01   4.7703403857e+01    0.1463453    0.1415183 -56.47 0.0008072924    1.062    0.059
       201 -10.6295     85.7784     61.5856   6.7154911247e+01   5.3419505400e+01    0.2875775     0.143315  45.41 0.0007514263    2.108    0.526
       202 -10.5828     85.6809     58.6589   6.6161444310e+01   5.4002460516e+01    0.3126253      0.19068 -24.97   0.00136367    2.020    0.505
       203  -9.4201     98.4057     60.4571   6.2843287758e+01   5.1124192950e+01    0.1433095    0.1366274 -33.01 -1.488537e-05    1.023    0.022
       204  -9.9596     69.1938     59.9823   7.2247232597e+01   5.6700492207e+01    0.2937283    0.1524515 -30.22  0.001058209    2.492    0.599
       205 -10.4730     55.6277     53.8059   7.5170133656e+01   6.0081801323e+01    0.2820317    0.2003357  -3.14  0.001442844    1.843    0.457
       206 -11.8147     59.1569     58.3883   7.5398549318e+01   5.8621048710e+01    0.4481881    0.3280296 -25.07  0.001912927    1.482    0.325
       207 -10.3232     61.8114     53.0864   7.2532418657e+01   5.9277733796e+01    0.2370043     0.174463 -52.96 0.0006029211    1.377    0.274
       208 -10.7266    147.4092     57.3324   4.9563766828e+01   4.0404576260e+01     0.378655    0.2367871 -56.49  0.001486142    1.903    0.474
       209  -9.4125    124.4727     58.0194   5.4940917314e+01   4.5793236720e+01    0.2172606    0.1444048 -35.04 0.0003965286    1.493    0.330
       210 -11.1883     75.2427     56.1530   6.8767514624e+01   5.6415251006e+01    0.2220041    0.2124334 -45.05 0.0002829484    1.089    0.082
       211  -9.3849     48.3709     56.2270   7.8880817846e+01   6.0608155526e+01    0.1290291    0.0962967 -11.03 0.0006883622    1.595    0.373
       212  -9.6908    230.9570     55.1888   3.6253791506e+01   2.0829969879e+01    0.2092194    0.1260114 -49.73  0.001049874    1.574    0.365
       213 -12.8011    105.3926     52.6083   5.8028914695e+01   5.1040664653e+01    0.4159394    0.3298264  43.71 0.0005013968    1.275    0.216
       214  -9.5987     82.3603     54.3194   6.5686549768e+01   5.5455527228e+01    0.1872966    0.1270646 -47.00 0.0009166973    1.468    0.319
       215  -9.9150    120.1788     52.5635   5.4111288252e+01   4.7704781022e+01    0.2770485    0.1992432  26.83 0.0008499811    1.660    0.397
       216 -10.0469    168.8831     51.9417   4.3861335370e+01   3.5912013838e+01    0.2371349    0.1670126 -66.87 0.0008298871    1.666    0.400
       217 -10.4214     87.9004     51.4069   6.2807877616e+01   5.4913350105e+01     0.286905    0.1979531 -30.77  0.001057598    1.454    0.312
       218  -9.8608    237.4757     51.4970   3.4655896214e+01   1.9909069927e+01    0.1320834    0.1144508 -45.17 0.0003417796    1.001    0.001
       219 -11.8698    129.0412     49.2225   5.0822969584e+01   4.6144074146e+01    0.4859214     0.387437  -7.59  0.001901279    1.437    0.304
       220 -10.5046     78.7579     47.1210   6.4183843759e+01   5.7452773740e+01    0.2270074    0.1852516 -37.71 0.0003906128    1.175    0.149
       221 -10.6113     52.9325     50.0373   7.4887099967e+01   6.1231233034e+01    0.2052717    0.1864387 -32.84 0.0008618793    1.028    0.027
       222  -9.4097    205.8200     48.6489   3.7522428650e+01   2.7382001149e+01    0.1777399    0.1281452  85.43 0.0001289085    1.536    0.349
       223 -10.4620     45.7474     49.8129   7.7747157684e+01   6.2276291103e+01    0.3814419    0.2362365 -29.94  0.001937376    1.737    0.424
       224  -9.0824     62.3974     47.2650   7.0141055031e+01   6.0308071343e+01    0.1385657    0.1008175  -0.55 0.0006975062    1.722    0.419
       225 -10.5910    142.9704     45.1944   4.6455297239e+01   4.3346736630e+01    0.2571054     0.226331 -52.91  0.000394521    1.160    0.138
       226 -10.5663    139.1121     43.1588   4.6539619814e+01   4.4596455526e+01    0.2833012    0.2580729 -25.35 0.0007286632    1.118    0.106
       227 -10.3855    112.8213     46.0995   5.3644169681e+01   5.0448782885e+01    0.2783481    0.2005002  46.06 0.0008892848    1.385    0.278
       228 -10.7486     83.8277     45.4493   6.1842989759e+01   5.6769322188e+01    0.3636782    0.2375431  76.81  0.001493435    2.908    0.656
       229 -10.3208     97.9121     39.2287   5.5065836630e+01   5.4863572181e+01    0.3147041    0.2163449  44.26  0.001427359    1.450    0.310
       230 -10.3024     95.6595     43.3596   5.7346319878e+01   5.4692691302e+01    0.3360434    0.1939962 -21.76  0.001393135    2.080    0.519
       231 -10.8893     91.3323     41.9845   5.8105676363e+01   5.5829216257e+01    0.5566818    0.3180982 -58.36   0.00223056    2.730    0.634
       232 -12.3549     72.6016     43.1339   6.4752906131e+01   5.9300787999e+01    0.3127266    0.2792955 -64.95 0.0005163688    1.342    0.255
       233 -11.1709     67.4317     41.7162   6.6056984877e+01   6.0473608750e+01    0.4528525    0.2785657  31.80  0.002232519    1.791    0.442
       234 -10.9834     70.1071     36.4181   6.2879150270e+01   6.0906658765e+01    0.5718204    0.3646066 -18.23  0.002774341    1.844    0.458
       235 -11.2503     81.1075     35.5682   5.8724266755e+01   5.8944300815e+01    0.5044327    0.2396546 -40.39  0.001947116    2.082    0.520
       236 -10.2185    131.1212     41.9964   4.7814194989e+01   4.6727760736e+01    0.2989725    0.2230714 -51.08 0.0009749411    1.438    0.305
       237 -11.0978    199.9187     49.5884   3.8537092575e+01   2.8654192834e+01     0.248836    0.2189696 -51.92 0.0003403958    1.062    0.058
       238  -9.7341    107.0361     42.7660   5.3914990148e+01   5.2289594256e+01    0.1990032    0.1802006  44.79 0.0003880341    1.103    0.093
       239 -10.8686     23.9420     41.4910   8.4555285506e+01   6.6486443315e+01    0.6079965    0.3663476  64.33  0.002715368    3.511    0.715
       240 -10.0651     18.4486     42.5311   8.7536828924e+01   6.6778309483e+01    0.4205002    0.1439002 -51.93  0.001650028    2.251    0.556
       241 -12.8165     27.6362     38.1037   8.1570751611e+01   6.6791704683e+01    0.4801119    0.3319407 -34.71 0.0003569406    1.295    0.228
       242 -11.7067     24.4034     35.1504   8.2028953219e+01   6.7711645967e+01    0.2781367    0.2215542 -11.31 0.0008340845    1.281    0.219
       243 -11.5524     53.0705     40.8600   7.1314798279e+01   6.2974094522e+01    0.3858722    0.2856652  37.58 0.0009369638    1.467    0.319
       244 -12.9878     57.5799     34.5782   6.6862455185e+01   6.3387847244e+01     0.343943    0.2830298 -29.95 0.0003753733    1.112    0.101
       245 -10.6546    152.5852     39.1014   4.2602449555e+01   4.1795651530e+01    0.2534899    0.2326275  79.02  0.000513198    1.087    0.080
       246 -12.1557     75.0254     35.8283   6.0887122065e+01   6.0086791750e+01     1.090284    0.4503964  32.34   0.00374422    3.730    0.732
       247 -11.0789    225.2506     38.2437   3.2622057786e+01   2.4234742864e+01    0.2395026    0.2102734 -72.09 0.0003624258    1.107    0.097
       248  -9.5301     85.8801     38.8598   5.8546762177e+01   5.7458745090e+01    0.1680472    0.1610045 -81.20 0.0009949929    1.218    0.179
       249  -9.0353    160.2953     38.2732   4.1012008110e+01   3.9962225167e+01    0.1422068    0.1081902  31.57 0.0001724974    1.523    0.343
       250  -9.9961      1.5573     37.8596   9.4528092934e+01   6.8975921567e+01     0.188483    0.1068562 -50.37 0.0006165391    1.371    0.270
       251  -9.6324    172.0764     36.1353   3.8498863528e+01   3.7269361433e+01    0.2461921    0.1414982  41.07  0.001061336    2.059    0.514
       252  -9.6477    134.4886     35.9472   4.4952940748e+01   4.6746858448e+01    0.2240638    0.1416607 -29.36  0.001037333    1.604    0.376
       253 -10.5028    100.7945     36.0623   5.2993938847e+01   5.4708496352e+01    0.2794482    0.1860677  87.56  0.001183813    2.553    0.608
       254 -11.0630      8.0752     33.5018   8.9792795956e+01   6.9458861838e+01    0.4186276    0.3763735  87.54  0.003001286    1.412    0.292
       255 -10.6817      1.7624     25.6899   9.0571333952e+01   7.1455299165e+01    0.2528587     0.136007 -42.31 0.0009626089    1.498    0.332
       256 -11.5617     17.4689     31.2191   8.4044163623e+01   6.9152585337e+01      0.39305    0.2583094   5.66   0.00183429    1.764    0.433
       257 -12.0094     37.0495    243.8034   1.0852909799e+02   2.1437419442e+01    0.5595479    0.2525567  88.38  0.003041673    2.398    0.583
       258 -10.8891      8.2876     24.9082   8.6582390727e+01   7.1152773120e+01    0.4185107    0.1670797  20.05  0.002052845    2.920    0.658
       259 -10.4514     14.6810     22.7997   8.2137302820e+01   7.1017065536e+01    0.3526084    0.1727463 -27.33   0.00137757    2.340    0.573
       260 -11.6154     22.7120     25.6614   7.9031210082e+01   6.9695715873e+01    0.3274992    0.2555595 -30.45  0.001261221    1.077    0.072
       261 -10.5212     24.2905     20.8761   7.6035008726e+01   7.0385706848e+01    0.2534719    0.1868916 -48.83  0.001325291    1.377    0.274
       262  -9.5583    201.7991     34.3625   3.4112150912e+01   3.0159005035e+01    0.1826406    0.1215968  59.52 0.0003153554    1.550    0.355
       263 -10.2837    108.3204     34.0871   5.0213780029e+01   5.3287709815e+01    0.1967369    0.1772528 -24.52 0.0003679839    1.111    0.100
       264  -9.9141     93.8943     34.5630   5.4342677145e+01   5.6443779939e+01    0.2141061    0.1346809  51.76  0.001028619    1.603    0.376
       265 -11.1467    221.7865     32.1579   3.1419896036e+01   2.5746834382e+01    0.2379269    0.1899797 -51.59 0.0002962962    1.116    0.104
       266 -10.5695    205.8830     32.4835   3.3142155570e+01   2.9410039196e+01    0.2057121    0.1695996 -36.79 0.0005422741    1.158    0.136
       267  -9.7366    178.0000     32.9809   3.6695479652e+01   3.6177317123e+01    0.2267389   0.07877667 -27.35 0.0005108823    2.876    0.652
       268  -8.9833    123.6832     33.3168   4.6276388004e+01   4.9751422831e+01     0.147003    0.1092314 -66.15 0.0004631144    1.652    0.395
       269 -10.1045    166.5846     32.2389   3.8097684573e+01   3.9143701405e+01    0.1909062    0.1393152 -11.40  0.000516911    1.593    0.372
       270 -10.4118     48.3868     31.3729   6.9285251920e+01   6.5383513096e+01     0.240412    0.1976033  -3.14 0.0006173016    1.205    0.170
       271 -10.6349     50.2509     27.7454   6.6847615672e+01   6.5713793088e+01    0.2923864    0.1880999   3.47  0.001245865    2.102    0.524
       272  -9.9233     44.1434     31.3583   7.1140991074e+01   6.6006150773e+01     0.213124    0.1506174 -32.15 0.0004817588    1.275    0.216
       273 -12.5899    101.5091     28.8523   4.9871646956e+01   5.5570052960e+01    0.5834836    0.3917529  56.30 0.0009374541    1.495    0.331
       274  -9.5725     88.9521     31.5380   5.4547594559e+01   5.7946455054e+01     0.204173    0.1332714  50.42 0.0009484628    1.541    0.351
       275 -10.8447    236.6096     30.0850   2.9557094873e+01   2.2697059509e+01    0.2486802    0.1502445  51.02  0.001267074    1.972    0.493
       276 -10.4819    198.1061     27.9913   3.2765467565e+01   3.1808890811e+01    0.3300049    0.1857509   6.31  0.001265065    3.336    0.700
       277 -11.0897    193.5246     26.0022   3.2719278136e+01   3.3155524373e+01     0.419814    0.1891975 -52.24   0.00138881    2.368    0.578
       278 -10.9429    111.2078     27.8923   4.7042940601e+01   5.3453834470e+01    0.3387076    0.2587375   9.26  0.001033381    1.498    0.332
       279 -10.7729     67.4859     21.6101   5.7160054932e+01   6.3674969913e+01    0.4071776    0.2040346  52.89  0.001230309    2.225    0.551
       280 -10.9301     60.0489     27.0868   6.2533290154e+01   6.4205814182e+01    0.2563061     0.177381 -41.99            0    1.474    0.322
       281 -11.3528     59.5975     21.9940   6.0302394118e+01   6.5060293187e+01    0.3765542    0.3092622 -89.16  0.001804217    1.965    0.491
       282  -9.1149    148.6814     27.3777   3.9330579908e+01   4.4275697857e+01    0.1564341    0.1010703 -60.64 0.0007026988    1.814    0.449
       283 -10.8001    132.5560     25.8226   4.1669811161e+01   4.8520814356e+01    0.2944692    0.2274333  -3.01  0.001036662    1.478    0.323
       284 -10.2634    128.4397     26.5403   4.2742857001e+01   4.9455558212e+01    0.2649212    0.2629795  32.14 0.0005921149    1.024    0.024
       285 -10.3664    128.7959     23.4153   4.1504280873e+01   4.9741978882e+01     0.336768    0.1965341  52.63  0.001565649    1.619    0.382
       286 -10.5063    250.0056    246.6971   7.2042484369e+01  -7.0637023965e+00    0.1496927    0.1015538  16.78 0.0009042784    1.083    0.077
       287 -10.8967     69.5893     26.4279   5.8657718244e+01   6.2579963160e+01    0.4234311    0.2187513  33.07  0.001429162    2.226    0.551
       288 -10.2271    214.4878     25.7877   3.0479488446e+01   2.8164894299e+01    0.2185236    0.1786146  81.13 0.0005226756    1.235    0.191
       289  -9.9400    204.4141     26.2162   3.1599033280e+01   3.0494152153e+01    0.2020587    0.1072871 -40.95 0.0008154364    1.699    0.411
       290 -13.1461     74.7839    237.3659   1.0132636695e+02   1.8062463085e+01    0.6852049    0.4989832  65.15  0.004948074    1.196    0.164
       291 -10.0247     90.2143     20.5933   4.9420930705e+01   5.9162937341e+01     0.294275    0.1911576  38.87  0.001336122    1.522    0.343
       292  -9.9494    106.3587     23.1373   4.6282421986e+01   5.5192732141e+01    0.2445494    0.1952647 -72.77 0.0006496834    1.571    0.363
       293 -10.7053     88.8068    241.2952   9.9076717887e+01   1.5604934299e+01    0.1831952    0.1387737 -32.48  0.001226883    2.128    0.530
       294 -10.3628     94.0098     22.5017   4.9203613562e+01   5.8085792025e+01    0.2753193    0.2499855  54.15 0.0008238091    1.143    0.125
       295 -10.4008     61.2239    242.0008   1.0414067870e+02   1.8969094787e+01    0.3597547   0.06841329  45.30  0.001521663    3.330    0.700
       296 -10.2719    185.8864     22.9190   3.2706662727e+01   3.5389462506e+01    0.2118723     0.188082 -71.48 0.0006173561    1.062    0.058
       297  -9.6871    226.2223     22.0239   2.8463270484e+01   2.5899824803e+01    0.1760987    0.1249605  54.78 0.0006151837    1.600    0.375
       298  -9.6380    120.4858     20.9649   4.2236857158e+01   5.2073139079e+01    0.1972645    0.1378969 -23.32 0.0003960161    1.484    0.326
       299  -9.8866    195.2054    238.8142   7.9679352021e+01   9.1477091364e-01    0.1577735    0.1116137  11.01  0.001076984    1.361    0.265
       300 -10.9400    244.1186    237.3398   7.1559264561e+01  -5.4438764217e+00    0.1859159    0.1413723  14.78  0.001072819    1.105    0.095
       301  -9.3994    134.6909    238.6636   9.0382947782e+01   9.6450948103e+00    0.1094686   0.08281282   9.58 0.0003922243    1.680    0.405
       302 -11.9373     30.7851    234.0474   1.0911533695e+02   2.3772996732e+01    0.4309944    0.1718847 -83.54  0.002409365    2.615    0.618
       303 -10.2864    159.8263    236.1505   8.5514261718e+01   6.3452479074e+00     0.153564      0.11828  17.70 0.0004011522    1.298    0.230
       304 -11.5765     89.0005    249.4378   9.9728261232e+01   1.4299899718e+01    0.2633022    0.1887918  45.78 0.0008048225    1.093    0.085
       305  -9.8345    147.6854    245.6702   8.8842814308e+01   6.7961566705e+00    0.1093342   0.07854969  12.04 0.0005750266    1.677    0.404
       306 -10.0969     38.2368    232.8393   1.0770746139e+02   2.3179681706e+01    0.1569275    0.1083001  65.28 0.0004785793    1.122    0.109
       307 -10.1123     23.9672    232.5523   1.1025441697e+02   2.4743874769e+01    0.1641656    0.1288519 -77.45 0.0006233141    1.468    0.319
       308  -9.8876    172.9592     20.4605   3.3535519439e+01   3.8901862996e+01    0.2122862    0.1325693  75.02  0.001022084    1.590    0.371
       309  -9.9244    139.4447     19.8299   3.8247569106e+01   4.7482176157e+01    0.2342308    0.1582337  57.34  0.001127082    1.398    0.285
       310  -9.8410    177.3765    234.8915   8.2224437851e+01   3.9513076252e+00    0.1472462    0.1007907 -21.53 0.0009448981    1.769    0.435
       311  -9.5381    170.0020    229.0179   8.2739584322e+01   5.8196265406e+00     0.140545    0.1167699  27.86 0.0004703911    1.029    0.028
       312 -10.9882      4.5947    226.6519   1.1342486479e+02   2.7664974113e+01    0.2708398    0.1386223  57.20  0.001863358    1.422    0.297
       313 -11.2409    120.8206    226.3122   9.1562427379e+01   1.3558634729e+01    0.1842055    0.1558935  83.42 0.0007651669    1.355    0.262
       314 -10.5984    159.6111     22.9320   3.6134089417e+01   4.2014641107e+01    0.4496447    0.2663844 -13.14    0.0020257    2.036    0.509
       315  -9.9087     65.9685    226.3209   1.0209514030e+02   2.1069848570e+01     0.160174    0.1199513  49.96 0.0006076535    1.111    0.100
       316 -10.0610     82.4107     17.7633   5.0411768760e+01   6.1193312107e+01    0.1891793    0.1553393 -32.30  0.000382948    1.259    0.206
       317  -9.8215    195.0640     17.0620   3.0030317364e+01   3.3765005586e+01    0.1850675    0.1739648  45.55 0.0003380176    1.205    0.170
       318 -10.5036     21.2147    222.0377   1.1022849395e+02   2.6903164542e+01    0.1853035   0.08350836  67.65 0.0007376394    1.941    0.485
       319 -10.0221     74.9443     16.1657   5.1992169870e+01   6.2937845971e+01    0.4110311    0.1591461  46.19  0.001707194    2.449    0.592
       320  -9.3600    190.4863    226.4808   7.8742504681e+01   3.1200791418e+00    0.1175243   0.09276877  21.05  0.000147422    1.049    0.047
       321 -11.0362      9.8842    217.3904   1.1209273415e+02   2.8856478802e+01    0.2827867    0.1521644  53.31  0.001624862    1.409    0.290
       322  -9.8862     37.9888    217.5274   1.0681408437e+02   2.5967343712e+01    0.1618909   0.09246403  39.97 0.0008211554    1.558    0.358
       323  -9.5094    116.3538     15.3039   4.0846766690e+01   5.3708085548e+01    0.1972752    0.1377769   6.47 0.0009730972    1.692    0.409
       324 -11.5622     29.6391    215.8757   1.0830994480e+02   2.7175377730e+01    0.2795149    0.2277931  21.72  0.001396177    1.704    0.413
       325 -10.0863     61.5898     14.5886   5.5863787333e+01   6.5731875911e+01    0.2247556    0.1612523  43.33  0.000746499    1.401    0.286
       326 -10.2087    109.5390    242.8944   9.5432584975e+01   1.2559601262e+01     0.214395    0.1171962  50.97 0.0006542262    1.571    0.363
       327 -11.6495    235.9342    214.3130   6.9246331151e+01  -1.9143409560e+00    0.3493992    0.1857066  16.87  0.001735186    2.027    0.507
       328  -9.4571     84.3739     12.7531   4.7490827133e+01   6.1367153192e+01    0.1861968    0.1210326  -8.38 0.0007046745    1.686    0.407
       329  -9.7621     31.0707     12.6721   6.8334772426e+01   7.0906035929e+01    0.1602663    0.1344439   1.79 0.0005729874    1.110    0.099
       330  -9.5927    136.6362    215.7076   8.7199635907e+01   1.2891529612e+01      0.12075   0.08931505  11.94 0.0007028301    1.706    0.414
       331 -10.4514     21.5680    212.7219   1.0967187923e+02   2.8597819472e+01    0.2097239   0.08661604  52.03  0.001191566    1.876    0.467
       332  -9.6385    208.6956    211.8677   7.3346438720e+01   2.2952506317e+00     0.180806    0.1271743  -5.06 0.0008415842    1.465    0.317
       333 -12.0791      4.9099    207.8496   1.1259940385e+02   3.1102831837e+01    0.4395614    0.2465867  78.86  0.002958302    1.445    0.308
       334 -10.4018     10.7931    208.5215   1.1151294002e+02   3.0437707878e+01    0.1875087    0.1576461 -56.30 0.0005549592    1.671    0.402
       335 -11.1343     20.0320    199.4253   1.0921768865e+02   3.1323257050e+01    0.4149154     0.163858 -77.52   0.00220438    2.326    0.570
       336  -9.2777    107.4807     10.4959   4.0731007221e+01   5.6340549540e+01     0.135551    0.1251644  37.45 2.191507e-05    1.014    0.014
       337 -10.8507    244.8977    202.6436   6.5891924024e+01  -1.8150164523e+00    0.2858612    0.1310365  45.90  0.001475814    2.633    0.620
       338 -10.4362    175.3720    202.6654   7.7851925729e+01   8.7791138500e+00    0.2109861    0.1689975  38.01 0.0005004617    1.143    0.125
       339 -10.9707     16.9000    193.1602   1.0948270986e+02   3.2878731068e+01     0.272377    0.1992676  36.35  0.001716425    1.491    0.329
       340  -9.3253    222.4648    192.5310   6.7747069704e+01   2.7131074289e+00    0.1228919   0.09889034   7.64  5.48208e-05    1.053    0.050
       341 -10.2109    244.8114    188.4342   6.3416301071e+01  -1.1637577345e-01    0.1867844    0.1220428 -18.35 0.0005438082    1.387    0.279
       342  -9.4063    212.4647    188.4753   6.8724550445e+01   4.8293069292e+00    0.1230043    0.1056562   9.95 0.0002196855    1.031    0.030
       343  -9.5293      2.1682    187.6167   1.1220155810e+02   3.5322754563e+01    0.1290359    0.1035738  19.86 0.0009419014    1.724    0.420
       344 -11.0003     16.5766    184.2508   1.0900342154e+02   3.4732721165e+01     0.332989    0.1874805  89.38  0.001385463    1.541    0.351
       345 -10.2313     15.2958    180.6615   1.0904911497e+02   3.5600290186e+01    0.1916178    0.1399958  37.84 0.0007926539    1.466    0.318
       346  -9.6112     61.6388    184.8496   9.9188257076e+01   2.9608672170e+01    0.1741172    0.1048811 -86.62 0.0009430567    1.736    0.424
       347 -10.3673    167.9630    183.8099   7.6134365097e+01   1.3011082697e+01    0.2123498    0.1462632  62.03  0.001088805    1.941    0.485
       348  -9.7847     58.7872    182.1786   9.9547069681e+01   3.0530156421e+01    0.1554165    0.1453034 -55.61  0.001011708    1.346    0.257
       349  -9.3091      1.5441    180.5286   1.1197604607e+02   3.6826978022e+01    0.1122563   0.08475092  76.01 0.0001709053    1.010    0.010
       350  -9.8267    244.4704    178.4982   6.1652713215e+01   1.1661931378e+00    0.2150261    0.1000748 -20.68  0.001027333    2.353    0.575
       351 -10.7459     46.4574    177.8486   1.0190085891e+02   3.2946774568e+01    0.2795276    0.2037267  86.42  0.001191144    1.230    0.187
       352  -8.9846     69.3449    178.2897   9.6718516486e+01   2.9973461947e+01    0.1160733    0.1000455 -21.20 0.0004351583    1.655    0.396
       353 -10.7898     34.0920    174.0859   1.0437458026e+02   3.5134993115e+01    0.2011312    0.1567878  89.59  0.000368895    1.116    0.104
       354 -10.8551     18.2556    173.2713   1.0789735642e+02   3.6892021961e+01     0.328034    0.1610805  62.22  0.001489176    1.850    0.459
       355 -12.2567     36.4844    164.7653   1.0296120450e+02   3.6917173950e+01    0.6733289    0.4932251 -79.23  0.004110262    1.230    0.187
       356 -13.1257     49.4613    161.6837   9.9500561333e+01   3.6129766569e+01    0.4944518    0.3466593  47.71  0.002946402    1.354    0.261
       357  -9.2818    177.2822    168.7010   7.1537200679e+01   1.3890151402e+01    0.1233195    0.1072686  85.19 0.0002187054    1.545    0.353
       358 -10.0732      4.6818    168.9730   1.1065501511e+02   3.9002845127e+01    0.1629653    0.1190602  83.99 0.0005217299    1.081    0.075
