#   1 NUMBER                 Running object number                                     
#   2 MAG_AUTO               Kron-like elliptical aperture magnitude                    [mag]
#   3 X_IMAGE                Object position along x                                    [pixel]
#   4 Y_IMAGE                Object position along y                                    [pixel]
#   5 X_WORLD                Barycenter position along world x axis                     [deg]
#   6 Y_WORLD                Barycenter position along world y axis                     [deg]
#   7 A_WORLD                Profile RMS along major axis (world units)                 [deg]
#   8 B_WORLD                Profile RMS along minor axis (world units)                 [deg]
#   9 THETA_WORLD            Position angle (CCW/world-x)                               [deg]
#  10 FWHM_WORLD             FWHM assuming a gaussian core                              [deg]
#  11 ELONGATION             A_IMAGE/B_IMAGE                                           
#  12 ELLIPTICITY            1 - B_IMAGE/A_IMAGE                                       
         1 -15.0045    167.6517     43.7621   7.3543224562e+01   3.7868308442e+01     1.243081     1.110536  -0.51  0.004077749    1.364    0.267
         2 -15.1554    187.7623      9.9270   6.1840313774e+01   3.7021666196e+01      2.60264     1.012998  65.71  0.007938094    2.114    0.527
         3 -12.6325    125.0744    241.6623   1.2696976673e+02   6.7008218084e+00    0.5003802    0.1719559 -55.08  0.002020002    3.292    0.696
         4 -15.0431    100.7152    243.5675   1.3201486497e+02   1.0335737002e+01    0.7937905    0.5589412 -54.68  0.004699558    1.694    0.410
         5 -19.8904     62.7578    168.5234   1.3057458149e+02   3.2680187780e+01     18.74097     6.888061 -66.10      0.07218    2.575    0.612
         6 -10.9994    152.0215    196.8787   1.1429223225e+02   1.0781394826e+01     0.320143     0.294522  23.41 0.0009026168    1.152    0.132
         7 -12.2204    151.6940    191.0655   1.1329690891e+02   1.2080385356e+01    0.5566434    0.4167611  84.10  0.002632248    1.759    0.431
         8 -13.0786    142.3330    165.2033   1.1038121300e+02   1.9705610279e+01    0.6185247    0.4243322  88.53  0.002059065    2.189    0.543
         9 -13.8807    145.2193    173.7735   1.1144393948e+02   1.7173210696e+01     1.142406    0.7339072 -48.86  0.004381418    1.588    0.370
        10 -13.8448    137.9995    171.7852   1.1275092465e+02   1.9069988935e+01    0.8344614    0.5845487  52.83  0.003237622    1.439    0.305
        11  -9.6866    135.2491    198.3040   1.1829545472e+02   1.3671970242e+01    0.1335426    0.1145553 -14.81 0.0002292134    1.500    0.333
        12 -10.2051    121.2103    197.7741   1.2137608944e+02   1.6379735265e+01    0.1721175    0.1591018 -39.47 0.0003165353    1.264    0.209
        13 -10.5293    112.6864    196.3674   1.2308409634e+02   1.8220192579e+01    0.4024677    0.2721419  -4.93  0.001542253    3.425    0.708
        14  -9.6748    160.3969    243.4962   1.2015754701e+02   3.2439822915e-01    0.1288584    0.1125039  42.01 -6.084669e-05    1.025    0.024
        15 -13.1203    164.3636    186.4783   1.0958944346e+02   1.0552840142e+01    0.5390189    0.4162117 -49.16  0.002023767    1.346    0.257
        16  -9.9170    151.1413    241.8138   1.2176383947e+02   2.2123399214e+00    0.1657757    0.1427082  19.23 0.0005764533    1.284    0.221
        17 -10.6779     37.7396    185.9785   1.3856804488e+02   3.1656105962e+01    0.2238803     0.151193  53.85 0.0007978915    1.451    0.311
        18  -9.7633    242.2808    184.6648   9.3493590698e+01  -3.8455467682e+00    0.1255275    0.1053009 -64.39 0.0002843896    1.615    0.381
        19 -11.3988     12.7272    241.3466   1.4781907314e+02   2.2567307880e+01    0.1711503    0.1313719 -61.17  0.001247446    1.771    0.435
        20 -10.0790     22.3765    183.2404   1.4159412490e+02   3.3924080762e+01    0.1087658   0.08760478 -45.12 0.0006587678    1.627    0.385
        21 -12.0732    188.3855    176.1705   1.0227930076e+02   7.8515320600e+00     0.647235     0.304824 -58.81  0.002129544    3.455    0.711
        22 -11.8014      4.0521    180.3456   1.4515981962e+02   3.6257369439e+01    0.2246023    0.2013157  20.30  0.001681259    1.610    0.379
        23 -12.4175    155.0692    187.4791   1.1186090556e+02   1.2186194949e+01    0.3829543    0.3194453 -88.99   0.00112748    1.403    0.287
        24 -12.7959    204.3823    175.5783   9.8843083437e+01   4.7742946596e+00    0.4798109    0.4522471 -70.65  0.001117021    1.207    0.172
        25 -12.3017    196.7239    176.3504   1.0057057990e+02   6.1403591938e+00     0.598815    0.4147207 -66.78  0.002676209    2.031    0.508
        26 -12.4739    189.4478    155.3361   9.7559251857e+01   1.1925225790e+01    0.5156794    0.4867905  17.51  0.001458576    1.099    0.090
        27 -12.4625    192.9733    165.0399   9.8948653300e+01   9.1816388079e+00    0.4674659    0.3386472 -46.12 0.0009166498    1.379    0.275
        28 -11.8859    189.9806    160.9996   9.8698570101e+01   1.0636520007e+01    0.3819507    0.3304631  76.68  0.001577877    1.350    0.259
        29 -10.6359    129.0463    175.4611   1.1560001686e+02   1.9978761946e+01     0.256952    0.2349876 -74.76  0.001009705    1.084    0.078
        30 -12.1437    125.0210    172.0166   1.1590750534e+02   2.1551877804e+01    0.3857158    0.3061014  51.88 0.0008332868    1.236    0.191
        31 -11.2738     10.4466    174.8908   1.4335161912e+02   3.6937486375e+01    0.1704459    0.1479683 -89.89 0.0004071055    1.175    0.149
        32 -11.0898    109.0779    239.9812   1.2994676721e+02   9.6782064413e+00      0.18579    0.1530408  65.58  0.000334513    1.056    0.053
        33 -11.5611    176.9025    168.7867   1.0320169950e+02   1.1741785545e+01    0.2954277    0.2019852 -72.20  0.001232808    2.113    0.527
        34 -11.0755     28.6239    238.9104   1.4496580423e+02   2.1275275082e+01    0.1673451    0.1075375  84.53   0.00110103    1.241    0.194
        35 -11.2940    229.9966    166.9753   9.2085304063e+01   1.4743181506e+00    0.3739675     0.167444 -56.74  0.001153911    4.383    0.772
        36 -10.5941     21.5989    237.6236   1.4609094543e+02   2.2332336266e+01     0.107421   0.08494919  82.72 0.0004690707    1.164    0.141
        37 -11.3188     15.0779    164.0620   1.4127976769e+02   3.9012170379e+01    0.3579488    0.2384121  -9.11  0.001990464    2.665    0.625
        38  -9.8997      2.4860    164.5342   1.4412694263e+02   3.9936828118e+01    0.1197385   0.09010252 -85.12 0.0003337414    1.018    0.017
        39 -11.7426    151.1902    183.1667   1.1191117563e+02   1.3890771812e+01    0.4308351    0.3015692 -82.45 0.0003990276    2.032    0.508
        40 -12.3300    166.3046    154.6329   1.0248757998e+02   1.7048096419e+01    0.4787155    0.3331388  75.12  0.001985197    2.039    0.510
        41 -10.7951    131.0465    234.9528   1.2486240151e+02   6.9472092584e+00    0.2060145    0.1667635 -65.82 0.0009463277    1.379    0.275
        42 -11.3336    174.1849    148.6340   9.9356696961e+01   1.6647837238e+01    0.3920511    0.3146203 -64.70  0.001333692    1.373    0.272
        43 -13.0001      6.6098    138.1842   1.4044139777e+02   4.5649762256e+01    0.4740015    0.3608739 -86.36  0.002186324    1.153    0.132
        44 -10.5468    141.3454    230.1051   1.2205010519e+02   6.0717165786e+00    0.2309448    0.1667734  65.47 0.0007072748    1.513    0.339
        45 -11.7801    150.9276    137.7052   1.0219666278e+02   2.4168064109e+01    0.3740293    0.1855888  57.87  0.001280315    2.605    0.616
        46 -10.0532    167.0615    133.7172   9.7463958837e+01   2.1469259963e+01    0.2243887    0.2016328  54.84 0.0006545949    1.123    0.110
        47 -13.1627      5.8371    120.1697   1.3836803819e+02   4.9808858105e+01    0.5129695    0.3317391  -3.35  0.003080329    2.187    0.543
        48 -12.6175      2.3659    126.1106   1.4006872681e+02   4.8685170827e+01    0.4204447    0.2057735 -65.59  0.001799829    1.521    0.343
        49 -12.3305    160.4045    127.6062   9.7510876736e+01   2.4300882518e+01    0.4768602    0.3613536 -60.73  0.001343201    1.420    0.296
        50 -14.2999    118.4087    110.2703   1.0368417918e+02   3.7240512520e+01     1.311005    0.6601422  57.59   0.00464564    2.753    0.637
        51 -11.9748      2.6650    112.6711   1.3820865680e+02   5.1688524853e+01    0.2825284    0.1746645 -50.91  0.001313219    1.378    0.274
        52 -11.9825      6.5123    111.5092   1.3695092789e+02   5.1714092504e+01    0.2054376    0.1749061 -45.50 0.0009618282    1.209    0.173
        53 -10.9103    204.9026    110.2917   8.3945239021e+01   1.7624491896e+01    0.3862472     0.231059  46.34  0.001238781    1.793    0.442
        54 -11.9990     18.7711    108.6550   1.3292021104e+02   5.1511816552e+01    0.2436324    0.1934399 -24.93 0.0008064784    1.422    0.297
        55 -10.7094    138.6190    250.5299   1.2544944317e+02   2.8187150566e+00    0.1940734     0.129956  35.84  0.001086562    1.396    0.284
        56 -10.0156     25.6715    223.8550   1.4439901758e+02   2.4679791251e+01    0.2733333    0.1003504 -64.34  0.001345674    2.507    0.601
        57 -10.7415    167.9739    112.9749   9.2116355320e+01   2.5677775113e+01    0.3819863    0.2558372 -83.27  0.001461336    2.383    0.580
        58 -10.3172     22.1662    221.3947   1.4485496352e+02   2.5580970233e+01    0.1080357   0.06661775 -67.10 0.0002974782    1.599    0.374
        59  -9.4532    138.9598    243.2379   1.2440430010e+02   4.0528434500e+00    0.1902473    0.1708967 -67.41  0.000755973    1.275    0.215
        60 -10.7811    146.6304     81.1026   8.8415843367e+01   3.6959822503e+01    0.2099351    0.1979587 -32.60 0.0009316007    1.099    0.090
        61 -11.5988    106.3133    206.0921   1.2600052511e+02   1.7158588211e+01    0.2989419     0.258854 -55.65  0.001191824    1.288    0.224
        62 -10.7526    122.1261     79.8810   9.4188726158e+01   4.2689423498e+01    0.2273912    0.2067632 -85.52  0.001224669    1.272    0.214
        63 -14.5315    155.5301     58.3193   7.9938465446e+01   3.8694889987e+01     1.353393     1.140126  48.37  0.003094239    1.153    0.133
        64 -12.2691    104.2417    202.3077   1.2590237676e+02   1.8350478287e+01    0.3517917    0.2618504  35.12 0.0007666893    1.461    0.316
        65 -12.9386    171.9427     36.0398   7.0721267110e+01   3.7841844541e+01    0.3660904    0.3352703  21.64  0.000916437    1.309    0.236
        66 -10.9133     13.5225     59.8386   1.2437753653e+02   6.2113365535e+01    0.1820387    0.1726258 -29.03 0.0004183461    1.278    0.218
        67 -13.1140     11.7599    206.0188   1.4564609396e+02   2.9922927236e+01    0.3888983    0.2582139  29.92  0.002215003    2.002    0.500
