#   1 NUMBER                 Running object number                                     
#   2 MAG_AUTO               Kron-like elliptical aperture magnitude                    [mag]
#   3 X_IMAGE                Object position along x                                    [pixel]
#   4 Y_IMAGE                Object position along y                                    [pixel]
#   5 X_WORLD                Barycenter position along world x axis                     [deg]
#   6 Y_WORLD                Barycenter position along world y axis                     [deg]
#   7 A_WORLD                Profile RMS along major axis (world units)                 [deg]
#   8 B_WORLD                Profile RMS along minor axis (world units)                 [deg]
#   9 THETA_WORLD            Position angle (CCW/world-x)                               [deg]
#  10 FWHM_WORLD             FWHM assuming a gaussian core                              [deg]
#  11 ELONGATION             A_IMAGE/B_IMAGE                                           
#  12 ELLIPTICITY            1 - B_IMAGE/A_IMAGE                                       
         1 -14.7364     68.4204    144.8513   9.2056283294e+01   3.7346541467e+01     5.527131     3.142556  82.38  0.002677423    3.620    0.724
         2 -13.7522    231.2231     27.4487   2.9051509629e+01   2.6519699705e+01    0.8107929    0.7370886 -80.37  0.002600564    1.296    0.228
         3 -14.1868    213.5549     42.1198   3.3569523849e+01   2.8160987152e+01     1.732997     1.470323  13.88  0.008154361    1.914    0.478
         4 -11.5764    250.0901      6.1943   2.3980880555e+01   2.5457733412e+01    0.4999121    0.1451336 -37.69  0.002531046    3.032    0.670
         5 -11.7319    101.7978    246.8604   9.8595229638e+01   7.8834290933e+00    0.5720526     0.200076 -60.90   0.00224006    3.349    0.701
         6 -13.0560     59.6766    170.2105   9.9060564003e+01   3.1819146084e+01     1.492844    0.7229785 -24.25  0.003236529    5.146    0.806
         7 -16.3697     33.7839    185.2845   1.0822151164e+02   3.0856835113e+01     11.11618     4.826905  77.07    0.0368716    3.900    0.744
         8  -9.9664     87.1815    206.3470   9.6854680458e+01   1.8900821505e+01    0.2435999    0.2226763  88.36 0.0003621442    1.126    0.112
         9 -13.5344     26.1794    197.4555   1.1138527794e+02   2.8551752595e+01    0.7685555    0.4894591  39.94  0.002253004    1.543    0.352
        10 -10.2992    197.5100    203.9984   7.0365691736e+01   2.2770535328e+00    0.4584394    0.2499524 -60.14  0.001775113    3.423    0.708
        11 -10.8336    193.6853    196.0411   6.9653487617e+01   4.3610795346e+00    0.5376527    0.2819047 -58.91   0.00205633    3.209    0.688
        12 -10.2317    191.3446    192.0100   6.9365466121e+01   5.5069532140e+00    0.4747275     0.280092 -65.35  0.001792146    3.464    0.711
        13 -10.3555    123.2830    201.7566   8.6946936090e+01   1.4457225218e+01    0.3518328     0.253527  74.70  0.001584791    2.049    0.512
        14 -10.6873    202.8260    200.1721   6.8583250599e+01   2.2143840266e+00    0.3073163    0.1560779  21.86  0.001337509    2.382    0.580
        15  -9.6276    109.3018    199.3672   9.0100587482e+01   1.7236450792e+01    0.1558545    0.1113813 -22.29 0.0007033995    1.738    0.425
        16 -16.5144     17.7590    243.2448   1.1667923156e+02   1.8817290093e+01     8.571073     2.744079  18.81    0.0268729    6.647    0.850
        17  -9.4721    115.6384    186.2340   8.6193854054e+01   1.9363191713e+01    0.2136979    0.1361154 -45.40 0.0003524651    1.581    0.367
        18  -9.6603     99.3426    181.0634   8.9640865386e+01   2.3283475251e+01     0.239758     0.210197   7.93 0.0005371423    1.224    0.183
        19 -10.9212    226.4085    179.5583   6.0222408734e+01   2.5755703330e+00    0.2674489    0.2054876 -51.57  0.001552341    1.476    0.322
        20 -12.0336    230.5937    169.3002   5.7515784481e+01   3.8170001801e+00    0.5324349    0.3135995 -46.42  0.002765461    1.570    0.363
        21 -12.7734    240.4773    169.3741   5.5898904589e+01   2.3859878223e+00    0.7926708    0.4775631   9.64  0.003421934    2.605    0.616
        22 -13.6071     59.6955    154.5509   9.6539654834e+01   3.5955317408e+01    0.6099929    0.4521273 -45.88  0.001471088    1.323    0.244
        23 -12.1453     34.6583    158.9457   1.0480641089e+02   3.7635173009e+01     0.856753    0.4160744  62.42  0.003222142    2.945    0.660
        24 -11.3100    140.1327    249.2947   9.0304139224e+01   2.0626348207e+00    0.3948025    0.2052211  38.34  0.001922855    1.772    0.436
        25  -9.4456    174.8685    149.2300   6.4026098708e+01   1.7190662334e+01    0.2230153     0.205283 -69.54 0.0006608079    1.224    0.183
        26 -10.3306    133.9082    145.7695   7.3049470497e+01   2.5873663542e+01    0.9415208    0.2130821 -54.19  0.001834046    7.701    0.870
        27 -12.1949     72.7736    159.0282   9.3347675160e+01   3.3000785748e+01    0.4859442    0.4096393 -36.27 0.0003647154    1.228    0.185
        28  -8.8314    169.3761    236.5224   8.1964446530e+01   2.9874102024e-01    0.1318434    0.1124897  -1.99  0.000112674    1.032    0.031
        29 -12.4731     83.6043    138.2020   8.5898000396e+01   3.6798169784e+01      0.36685    0.2967877 -50.92 0.0004888687    1.181    0.153
        30 -10.3849     95.7490    139.9848   8.2541424950e+01   3.4329900938e+01    0.3506545    0.3066732 -40.72 0.0008252774    1.110    0.099
        31  -9.6741     99.0151    136.9849   8.0876513579e+01   3.4516924542e+01    0.4414279    0.2891299 -15.41  0.001716182    2.258    0.557
        32 -12.7336     80.4982    152.8429   8.9862558096e+01   3.3486295425e+01     1.000069    0.6013549 -34.18  0.001649126    1.980    0.495
        33 -11.0008    106.8664    130.3924   7.6980124039e+01   3.4723975622e+01    0.4744748    0.3653542   9.54  0.001303021    1.547    0.354
        34 -11.1270     67.1634    126.7016   8.8727633915e+01   4.2236969377e+01    0.5439211    0.2823219 -61.79  0.002159955    1.981    0.495
        35 -10.4838    241.5009    126.9994   4.7494612068e+01   9.6600568013e+00    0.1904995   0.09147672 -56.82  0.000810627    2.576    0.612
        36  -9.2472    115.0074    124.0218   7.3039491532e+01   3.4697890061e+01    0.2548058    0.1929272  -5.99 0.0007384282    1.697    0.411
        37  -8.7650     95.9638    124.7639   7.8924333759e+01   3.8082140905e+01    0.1914649    0.1320658  33.19 0.0002932828    1.492    0.330
        38 -12.1202    118.3933    211.8543   8.9816585386e+01   1.2933378980e+01     0.498914    0.2777304  42.90  0.002202011    1.792    0.442
        39 -10.1899    249.4903    120.4892   4.5144083728e+01   9.4985091367e+00    0.1270069    0.1011684 -44.87 0.0008105056    1.008    0.008
        40  -9.1963    162.3123    119.9826   5.9996737196e+01   2.5890215737e+01    0.2120061    0.1825357 -45.42 0.0003031986    1.108    0.097
        41 -10.0929    244.3177    119.6674   4.5666772736e+01   1.0462841221e+01    0.1292855   0.08683319 -64.00 0.0005151198    1.691    0.409
        42  -9.8050    105.4096    118.6197   7.4495751864e+01   3.7817023316e+01    0.2456035     0.231761 -23.15 0.0003228511    1.035    0.034
        43 -10.5984    231.1482    114.0961   4.6364271013e+01   1.3629589172e+01    0.2663009    0.2331178 -41.63 0.0008106822    1.094    0.086
        44  -9.6156    110.7551    167.8049   8.4032760249e+01   2.4720919121e+01    0.2687493    0.2109697 -80.19 0.0006586122    1.553    0.356
        45 -10.1636    205.2978    110.5488   4.9551502794e+01   1.9016381320e+01    0.2932226     0.245605  27.78  0.001063522    1.493    0.330
        46  -8.8397    224.0524    206.9685   6.5778678333e+01  -1.9333546740e+00    0.1525904    0.1220869 -18.25            0    1.007    0.007
        47  -9.6955     70.7111    106.9767   8.2813033212e+01   4.6602102180e+01    0.2610147    0.2032054  59.38 0.0006715938    1.634    0.388
        48 -10.1841    245.3224    106.3241   4.2925109543e+01   1.2532865517e+01    0.1181445   0.09372372 -14.85  0.000704714    1.682    0.405
        49  -9.6873     64.5017    101.9238   8.3721477515e+01   4.8733154418e+01    0.2254575    0.1397037 -51.40 0.0004617381    1.541    0.351
        50 -10.9313    249.5063     99.9908   4.1189469902e+01   1.2870918265e+01    0.2913375    0.1053125 -36.76  0.001219078    2.682    0.627
        51 -10.4388     44.5976     90.4884   8.8288903029e+01   5.4037033364e+01    0.2839266    0.2418748  53.43  0.001382544    1.480    0.324
        52  -9.7518     72.4923     87.4942   7.6806064876e+01   5.0754132505e+01    0.3065875    0.2216466  73.37  0.001288555    2.395    0.582
        53  -9.8477    234.0180     86.4924   4.0382023039e+01   1.7721480713e+01    0.1647138    0.1221548  68.83 0.0004056564    1.519    0.342
        54  -9.8671    162.2260     84.7732   5.1163953318e+01   3.2742751346e+01    0.1940709    0.1726719  19.25 0.0007150848    1.342    0.255
        55 -10.5288     57.4444     76.6790   7.9231354686e+01   5.5376524485e+01    0.4490522    0.3228689  62.24  0.002122003    2.239    0.553
        56 -10.9873     50.4485     72.0358   8.0608747212e+01   5.7318417038e+01    0.4784836    0.2576002  47.65  0.002026655    2.632    0.620
        57  -8.8629    184.5045     77.4759   4.5338531192e+01   2.9088887964e+01    0.1365902    0.1254549 -70.73 -1.234301e-05    1.016    0.015
        58  -8.9073     39.3483     65.6755   8.3318258230e+01   6.0026099691e+01    0.1261206    0.1071556  62.39 0.0007049389    1.748    0.428
        59 -15.1229      8.9635    207.9774   1.1633384381e+02   2.7581605472e+01       2.1239      1.08364 -71.75  0.008649876    1.742    0.426
        60 -12.5146    222.3617     35.0857   3.1286735029e+01   2.7300992779e+01     0.415298    0.3406609  59.82  0.001147605    1.504    0.335
        61 -13.0987    204.9294     48.0163   3.5762161602e+01   2.9148231844e+01     1.014543    0.4379188  55.61  0.002085045    2.468    0.595
        62 -12.5377    115.9135    247.9903   9.5544086487e+01   5.7002276991e+00     0.553304    0.3253076  34.04   0.00285968    1.479    0.324
        63 -11.4416     11.3996     52.4021   9.2323710489e+01   6.5366326434e+01    0.3533615     0.219786  30.94  0.001825724    1.891    0.471
        64  -9.0682     23.6983     44.3030   8.3400002543e+01   6.5820639381e+01    0.1075429   0.09964602  45.77 0.0002173694    1.590    0.371
        65 -10.1124     30.1240     53.4187   8.3480402002e+01   6.3466918019e+01    0.2044375     0.185699 -27.57  0.000531913    1.237    0.192
        66 -10.0699    197.9436     24.1081   3.1316352443e+01   3.3600146129e+01     0.230888    0.1693523 -33.11  0.001144906    1.588    0.370
        67  -9.2172    189.4831     15.1105   3.0175099643e+01   3.6383903143e+01    0.1600107    0.1098574 -40.63 0.0005571406    1.524    0.344
