#   1 NUMBER                 Running object number                                     
#   2 MAG_AUTO               Kron-like elliptical aperture magnitude                    [mag]
#   3 X_IMAGE                Object position along x                                    [pixel]
#   4 Y_IMAGE                Object position along y                                    [pixel]
#   5 X_WORLD                Barycenter position along world x axis                     [deg]
#   6 Y_WORLD                Barycenter position along world y axis                     [deg]
#   7 A_WORLD                Profile RMS along major axis (world units)                 [deg]
#   8 B_WORLD                Profile RMS along minor axis (world units)                 [deg]
#   9 THETA_WORLD            Position angle (CCW/world-x)                               [deg]
#  10 FWHM_WORLD             FWHM assuming a gaussian core                              [deg]
#  11 ELONGATION             A_IMAGE/B_IMAGE                                           
#  12 ELLIPTICITY            1 - B_IMAGE/A_IMAGE                                       
         1 -12.9250    248.4633    134.2692   8.5969231605e+01   3.5835366196e+00     1.239544    0.8873177 -28.65  0.006454106    1.366    0.268
         2 -14.3420    201.2182     17.3993   6.5165190292e+01   3.2946116491e+01     2.553759     1.490008  32.29   0.01142906    2.798    0.643
         3 -12.4153      2.0982     13.4385   1.1831733554e+02   7.0404992372e+01     1.097272    0.1870059 -49.81   0.00394473    5.749    0.826
         4 -12.7810      2.0593      4.3527   1.1468941595e+02   7.1690102763e+01    0.7886919    0.3944242  16.35  0.005351399    2.019    0.505
         5 -11.7627    103.2691    240.6712   1.3440897664e+02   1.1376508598e+01    0.6961488    0.4260176 -67.67  0.004001274    1.784    0.439
         6 -10.2774    193.0954    249.4185   1.1860014184e+02  -5.3006768073e+00    0.2270911    0.1805714 -23.51 0.0008404098    1.474    0.321
         7  -9.9802    184.1215    250.2120   1.2039378531e+02  -3.9046236092e+00    0.1905448    0.1505138  21.59 0.0005971831    1.259    0.206
         8 -11.8037    136.1632    227.8410   1.2643155847e+02   8.2073572675e+00    0.5327024    0.3344972 -34.87  0.002612473    2.415    0.586
         9 -11.7082    149.9129    248.5455   1.2659356548e+02   2.2055293172e+00    0.5456017    0.3181081  57.97  0.002881993    1.758    0.431
        10 -11.2796    143.1999    248.9865   1.2791414840e+02   3.2799598821e+00    0.5345871    0.3180062 -83.62  0.002496727    3.040    0.671
        11 -11.5533    135.5513    241.0526   1.2833757916e+02   5.9366028689e+00    0.3788743     0.261727  33.71 0.0003878006    1.524    0.344
        12 -12.0482    135.1124    236.9113   1.2787733482e+02   6.7429167339e+00    0.4904426    0.3814426  41.50  0.001311671    1.206    0.171
        13 -10.3403    135.7114    250.6689   1.2952698313e+02   4.2682810932e+00     0.269386    0.1814421 -62.35 0.0009555838    1.781    0.439
        14 -11.0339    132.0061    248.5354   1.2995537653e+02   5.2503398325e+00    0.3532244    0.2139016  64.23  0.001210121    1.767    0.434
        15 -11.6654     96.6958    239.2863   1.3548297146e+02   1.2674783478e+01    0.5495133     0.311219 -86.27  0.002767365    2.166    0.538
        16 -12.7210    113.2676    248.1118   1.3338653202e+02   8.4227244135e+00     1.319682    0.4974284  50.44  0.005976405    2.243    0.554
        17 -12.4743    125.4118    242.8784   1.3050007258e+02   7.3394941228e+00    0.7578525    0.5987216 -57.84  0.004835612    1.501    0.334
        18 -11.4371     98.8322    247.4524   1.3595793537e+02   1.0840039786e+01    0.6772633    0.2874007  55.32  0.003250084    2.126    0.530
        19  -9.7554     93.9817    217.2903   1.3348072346e+02   1.7417184491e+01    0.3418224     0.188653 -89.95    0.0015651    2.399    0.583
        20 -11.9573     99.3762    231.2584   1.3407938276e+02   1.3777086449e+01    0.7153319     0.384033  30.23  0.003287484    2.686    0.628
        21 -11.5149    111.6962    230.1160   1.3155871798e+02   1.1986288967e+01    0.5772897    0.3300153  44.05  0.001480567    1.552    0.356
        22 -10.8249     92.6381    225.9957   1.3477396497e+02   1.5874420104e+01    0.3435905    0.1820142  56.33    0.0011522    1.696    0.410
        23 -11.7326     98.7902    223.5380   1.3328345568e+02   1.5385600654e+01    0.5175122    0.3012191  43.98  0.001304486    1.575    0.365
        24 -10.1537     88.2550    250.6671   1.3817820896e+02   1.1883010862e+01    0.4566306    0.1862231  40.57  0.001733104    2.298    0.565
        25 -10.6508     88.7369    247.3570   1.3777041097e+02   1.2409336026e+01    0.3119097    0.1419023  44.37  0.001617548    1.873    0.466
        26 -11.0742     80.9677    245.6979   1.3899852858e+02   1.3873509426e+01    0.5442083    0.2841212  85.16  0.002777583    2.346    0.574
        27  -8.9795     74.8212    250.5690   1.4052372422e+02   1.3874380695e+01    0.2201615    0.1006483  40.53  0.001149302    2.118    0.528
        28 -14.1469     21.9734    153.5523   1.4131997431e+02   4.0818759330e+01     1.360626     1.081455  21.88  0.009203899    1.713    0.416
        29 -12.9354     12.4744    186.6464   1.4648758578e+02   3.4368480217e+01    0.9320892    0.8063209 -24.60  0.006824491    1.889    0.471
        30 -14.8090     30.5485    246.4168   1.4760907632e+02   2.0417956152e+01     2.492077     1.195124  49.18   0.01562537    1.735    0.424
        31 -13.8915      2.6636    222.0636   1.5063794275e+02   2.8036140362e+01     2.380801    0.3723072 -72.27   0.00948259    4.420    0.774
        32 -13.6361      8.8909    206.9637   1.4864550819e+02   3.0452339071e+01     1.322631    0.8684411  39.79  0.009237692    1.782    0.439
        33 -13.7106     13.3536    238.2913   1.4985320950e+02   2.3850893071e+01     1.046355    0.4467221  73.91  0.005995539    2.068    0.516
        34 -12.9680     42.5800    228.3916   1.4429463605e+02   2.2421906545e+01    0.3684811    0.3497458 -78.10   0.00127122    1.556    0.357
        35 -14.6603     48.5060    219.1059   1.4244552634e+02   2.3549995496e+01      1.74508     1.451429  52.99  0.009682951    1.352    0.260
        36 -10.6759    115.8172    239.8816   1.3195493599e+02   9.4790292998e+00    0.2275065    0.1982599  70.70 0.0006731926    1.101    0.092
        37 -10.7851    144.5266    240.4779   1.2653804907e+02   4.4847800922e+00    0.2911703    0.1070508  44.04  0.001229204    2.258    0.557
        38 -11.2438     89.9687    237.4848   1.3654166122e+02   1.4058269312e+01    0.3959969    0.2704936  70.94  0.001701241    1.304    0.233
        39  -9.6998     83.6224    238.2732   1.3779419384e+02   1.4870662353e+01    0.3023607    0.1397631  42.95  0.001541814    1.943    0.485
        40  -9.6856     86.0000    237.0086   1.3722754364e+02   1.4753677281e+01    0.2656977    0.1334475 -81.20   0.00129652    2.419    0.587
        41 -11.5641    128.8540    233.7393   1.2867441854e+02   8.3973343086e+00    0.5126931    0.3203034 -76.18  0.002657232    2.069    0.517
        42 -11.3667    122.4938    232.5804   1.2976410267e+02   9.7016285671e+00    0.4002224     0.356955 -72.02  0.001695972    1.264    0.209
        43 -10.4077    165.8515    235.2764   1.2166048651e+02   1.6077573932e+00    0.2311721    0.1947723 -37.71  0.001382221    1.414    0.293
        44 -10.5549    162.0650    232.8341   1.2203428097e+02   2.6950541870e+00    0.3278041    0.2200748  80.12  0.001530471    2.387    0.581
        45  -9.9214     77.7818    233.0441   1.3834593171e+02   1.6743245215e+01     0.370453    0.1827013  89.53  0.001717463    2.665    0.625
        46 -10.5780     84.7409    229.5728   1.3668334894e+02   1.6385015245e+01    0.2551796    0.2242604  37.21 0.0009406249    1.475    0.322
        47 -10.7646     77.7655    221.0750   1.3710536324e+02   1.9130442873e+01    0.3044441    0.1775367  64.80  0.001219337    1.603    0.376
        48 -10.7141     80.3665    227.5972   1.3730260270e+02   1.7432593035e+01    0.3045956    0.2709164 -28.60 0.0007605201    1.823    0.451
        49  -9.9544     78.9711    224.5452   1.3724530773e+02   1.8249846950e+01    0.2116159    0.1906116  23.65  0.000648912    1.629    0.386
        50 -13.2987      2.8589    247.5581   1.5195580190e+02   2.3228284819e+01    0.6399996    0.3571469 -77.54  0.003376748    1.585    0.369
        51 -11.0798    156.6397    231.5996   1.2291698392e+02   3.8793516626e+00    0.2536578    0.2385357   2.26 0.0004691337    1.257    0.204
        52 -11.1600    141.7204    230.3675   1.2568520239e+02   6.7605198134e+00    0.4456983    0.2704534 -43.53  0.001603218    2.061    0.515
        53 -10.6722    148.9421    223.4075   1.2322477245e+02   6.7334034576e+00    0.4404182    0.3027453   5.92   0.00200361    2.711    0.631
        54 -11.6511    142.0411    221.7146   1.2436574773e+02   8.2992336919e+00    0.3822183    0.3406889  38.48 0.0003088129    1.163    0.140
        55 -11.3473    137.3466    214.6093   1.2425875080e+02   1.0512747883e+01     0.622519    0.3852235  38.63  0.001916406    1.562    0.360
        56 -11.7295    244.9950    240.7916   1.0773127914e+02  -1.2428383214e+01    0.3077275    0.1895712   7.56  0.001754965    1.755    0.430
        57 -12.3172      1.4619    241.1724   1.5184967103e+02   2.4532401266e+01    0.2527936    0.1130002 -85.17 0.0003997151    1.774    0.436
        58 -10.4812    165.4234    226.7594   1.2043948595e+02   3.1337822748e+00    0.3801551    0.2385432 -67.03  0.001512857    2.327    0.570
        59 -11.2259    161.0052    223.3382   1.2078609852e+02   4.5428009790e+00    0.5989619    0.3180411  32.01   0.00186484    2.091    0.522
        60  -8.9860    190.8143    228.1527   1.1566602721e+02  -1.6846983076e+00    0.1711712    0.1393399  15.51 0.0002664688    1.259    0.206
        61  -9.2417    179.2714    227.8369   1.1787179926e+02   4.3892468417e-01    0.2008828    0.1364536  78.47 0.0006473411    2.620    0.618
        62  -9.6587    197.5638    226.8187   1.1413385791e+02  -2.6721362452e+00    0.2622345    0.1978117  71.36  0.001408887    1.977    0.494
        63 -10.8811    132.8509    224.2021   1.2658120328e+02   9.4750855243e+00    0.3120052    0.2094663  32.22  0.001403889    1.659    0.397
        64 -10.8738    117.4136    224.3508   1.2969357114e+02   1.2133596532e+01    0.2429129    0.2058452  64.77 0.0002310884    1.013    0.013
        65  -8.6525    219.7800    223.3617   1.0929496817e+02  -6.0062426411e+00    0.1113546    0.1009663 -67.99 0.0002711522    1.568    0.362
        66 -10.0163    110.8681    221.8806   1.3067831693e+02   1.3727120131e+01     0.317056    0.1957498 -54.56  0.001098881    1.823    0.451
        67 -10.5013    105.6600    219.6563   1.3143568736e+02   1.5040113757e+01    0.3890546    0.2192864  75.56 0.0008138419    2.362    0.577
        68 -11.0631     70.4309    219.2286   1.3832350956e+02   2.0572602014e+01    0.5783569    0.3154208 -80.95  0.003059567    1.863    0.463
        69 -11.0226     72.6846    210.0707   1.3689352043e+02   2.2158140036e+01    0.3540655    0.2609866  48.08  0.002161617    1.342    0.255
        70  -9.3774    129.3150    220.8012   1.2681299724e+02   1.0751839521e+01    0.2091922    0.1618657  85.64   0.00118587    1.408    0.290
        71 -11.3340    249.4319    241.0051   1.0698757527e+02  -1.3110865094e+01    0.2854032    0.2047411 -50.39  0.001719151    2.257    0.557
        72 -10.6059    165.3943    241.9327   1.2273065620e+02   5.9627260751e-01    0.2930633    0.1655102  34.86 0.0006241926    1.668    0.400
        73  -9.1562     83.8114    242.1866   1.3814910693e+02   1.4104393549e+01    0.1477692    0.1335762  63.72 0.0006088191    1.302    0.232
        74  -9.3911    177.9807    220.4920   1.1692161255e+02   1.9177322408e+00    0.1955354    0.1072283  60.01 0.0008103439    2.550    0.608
        75 -10.1342    246.1707    218.8383   1.0363824600e+02  -9.6883324700e+00    0.1799609    0.1305131   4.14 0.0008685015    1.324    0.245
        76  -8.5494     72.3097    231.6041   1.3921501762e+02   1.7818755877e+01    0.1349173   0.07411296  72.41  0.000700361    1.841    0.457
        77  -8.4682     89.5088    218.4868   1.3451470831e+02   1.7876475521e+01    0.1310558    0.1067071  71.66 -1.330343e-06    1.012    0.012
        78  -9.8150     22.9570    216.5311   1.4684368858e+02   2.7071247305e+01     0.349904    0.1386723 -89.41  0.001386706    2.571    0.611
        79  -8.6710     24.6296    212.6902   1.4626268711e+02   2.7672452120e+01    0.1453936    0.1370047 -80.18  0.000843355    1.516    0.340
        80  -9.0876    183.2385    213.9911   1.1475973898e+02   2.0699677352e+00    0.1630273    0.1168059 -43.42 0.0004106654    1.555    0.357
        81  -9.9268     88.1582    213.0851   1.3413966896e+02   1.9202433115e+01    0.2282397    0.1625791  88.43 0.0006608853    1.356    0.262
        82  -9.5208     68.4313    211.4980   1.3789417837e+02   2.2464055751e+01    0.1949439    0.1580043  85.83  0.000582956    1.066    0.061
        83 -10.0032    102.3551    212.1450   1.3113156105e+02   1.7119751632e+01    0.3503615    0.1876577  63.81   0.00160148    2.087    0.521
        84  -8.9222    152.0282    211.8492   1.2078425366e+02   8.3318753444e+00    0.1928506    0.1501108 -88.48 0.0006553296    1.580    0.367
        85  -9.8098     33.4570    211.4773   1.4456525793e+02   2.6938416240e+01    0.1732043    0.1435525  56.27 0.0003597423    1.340    0.254
        86  -9.5331    174.4329    211.4750   1.1610756575e+02   4.1738648634e+00    0.1376605    0.1244131  44.19 2.334509e-05    1.031    0.030
        87  -9.7090    134.9019    208.2395   1.2378810132e+02   1.2221979301e+01    0.2896093    0.2068987  21.36  0.001149058    1.925    0.481
        88  -9.3868    119.9383    208.7419   1.2700798949e+02   1.4816226524e+01    0.1937611    0.1592291  56.17 0.0003279197    1.083    0.077
        89 -10.0130    109.0582    207.5547   1.2911802990e+02   1.6950315380e+01     0.291368    0.1876095 -70.74 0.0008664653    1.651    0.394
        90  -9.8204     96.7274    207.3506   1.3166185347e+02   1.9045475750e+01    0.2620632    0.1979917  79.58  0.000686208    1.253    0.202
        91 -11.9383     93.0055    202.9292   1.3185467076e+02   2.0588834113e+01    0.4875816    0.4300413 -29.64  0.001606867    1.631    0.387
        92 -11.3987    246.3464    206.3449   1.0127294723e+02  -7.9184379101e+00    0.3761135    0.2442398  10.81  0.002006621    1.720    0.419
        93 -10.3652    175.4046    205.4769   1.1485652514e+02   5.0860222481e+00     0.357586    0.2603917   6.22   0.00174524    1.913    0.477
        94  -9.3995    178.2796    204.6966   1.1412494056e+02   4.6772711573e+00    0.2094853    0.1835134  52.31 0.0002159069    1.127    0.113
        95 -11.1325    172.9571    239.9371   1.2098419402e+02  -4.0829387176e-01     0.346417    0.2374663 -57.35  0.001958618    1.869    0.465
        96  -9.5704    125.8521    205.8237   1.2532558616e+02   1.4361321490e+01    0.1990892    0.1799248  45.30 0.0004405582    1.163    0.140
        97  -8.5953    114.2768    206.6677   1.2789603254e+02   1.6237282414e+01    0.1398918   0.09642136  76.56 0.0002504035    1.601    0.376
        98  -9.0625    149.1977    205.1866   1.2028138076e+02   1.0160838894e+01    0.2371213    0.1618076  -2.28 0.0009690133    2.973    0.664
        99 -10.7997    102.5359    202.5620   1.2979317041e+02   1.9107628335e+01    0.4135784    0.2533367  54.51  0.002101918    1.512    0.339
       100 -10.7402     98.7086    196.7571   1.2979245391e+02   2.0998439264e+01    0.5538018    0.3051817  50.16  0.001871701    1.690    0.408
       101  -9.9376    166.9588    203.2315   1.1621169035e+02   7.1357371026e+00    0.1950068    0.1658738  43.90  0.000301882    1.072    0.067
       102  -9.5507    133.0767    202.8469   1.2332397893e+02   1.3654386535e+01    0.2148205    0.1751051  72.96 0.0004647456    1.230    0.187
       103 -10.3502    138.1066    201.5434   1.2203754383e+02   1.2985586578e+01    0.2356053    0.2169735 -70.77 0.0001297425    1.153    0.133
       104  -9.1022     76.4983    202.5573   1.3524610754e+02   2.3209554155e+01    0.1327548    0.1071567  76.75 0.0001514123    1.041    0.040
       105  -9.9373     63.9357    202.1064   1.3776415552e+02   2.5096053797e+01     0.245408    0.1737007  42.13  0.001056486    1.514    0.340
       106  -9.0645     32.8757    201.8699   1.4385821677e+02   2.9020977191e+01    0.1596659    0.1304933 -85.87 0.0003140585    1.175    0.149
       107 -10.1063    197.4602    200.8348   1.0951263749e+02   1.6942425008e+00    0.2848976    0.1889774  35.10 0.0009263623    1.429    0.300
       108 -10.4811    112.7987    193.4542   1.2623427830e+02   1.9313542717e+01    0.4654853    0.2633457 -62.87  0.001263551    1.846    0.458
       109 -11.1948    115.2669    200.2093   1.2673234073e+02   1.7424662861e+01    0.2574367    0.2322928 -67.99 0.0002367087    1.191    0.161
       110 -10.4723    119.9944    199.1140   1.2554639558e+02   1.6817743345e+01    0.3414265    0.2244381  61.19 0.0003575122    1.531    0.347
       111 -11.5346     53.2031    198.0479   1.3949614984e+02   2.7402336310e+01    0.5800071    0.2140404  46.16  0.002656337    2.481    0.597
       112 -10.1682     56.5752    194.2024   1.3838967731e+02   2.7808897265e+01     0.314157    0.1937864 -77.33 0.0009223477    1.445    0.308
       113  -9.9301     44.1283    199.2995   1.4143654755e+02   2.8260201399e+01    0.2790928     0.203436  46.01  0.001008282    1.460    0.315
       114  -8.7514    158.5395    199.4693   1.1732222032e+02   9.4972404035e+00    0.1427948    0.1305093  52.55 0.0001080896    1.012    0.012
       115 -10.2224    134.1400    197.8987   1.2229244323e+02   1.4481289645e+01    0.2701608    0.2007439 -75.43 0.0003384224    1.519    0.342
       116  -9.6795     82.9394    193.7052   1.3276771157e+02   2.4181370860e+01     0.331975     0.245901   6.47 0.0009656334    2.520    0.603
       117  -8.9179     86.2165    199.0168   1.3277003258e+02   2.2507889726e+01    0.2254375    0.1648022 -52.17 0.0003134889    1.587    0.370
       118  -9.4779     85.7211    195.7010   1.3243718154e+02   2.3311823862e+01    0.1935334     0.158428  63.70 0.0001869837    1.108    0.097
       119 -11.6899     67.4430    195.1111   1.3623446515e+02   2.6139227327e+01    0.3886733    0.2800177 -49.12  0.001458256    1.734    0.423
       120  -9.8020     72.9335    193.2392   1.3484654173e+02   2.5773047388e+01    0.1955547    0.1651564  84.15 0.0002830665    1.025    0.025
       121  -9.4043     77.1764    188.8351   1.3336595884e+02   2.6135455114e+01    0.2003149     0.155142  76.62 0.0002838378    1.169    0.144
       122 -11.9115     72.8852    187.4199   1.3411235146e+02   2.7080952070e+01    0.3756317    0.2418905 -51.54 0.0009352646    1.753    0.430
       123  -9.0152    107.4103    196.2382   1.2783408537e+02   1.9645040379e+01     0.186229    0.1256776 -76.76 0.0004973676    1.587    0.370
       124  -9.4388     31.0930    195.1792   1.4360725591e+02   3.0650686341e+01    0.2279058    0.1228214  59.06 0.0009853785    1.722    0.419
       125 -10.0430    159.4705    193.9958   1.1614429991e+02   1.0404327713e+01    0.3395139    0.1959468  51.02 0.0009311761    1.692    0.409
       126 -10.7534    119.3401    191.6588   1.2450977670e+02   1.8536750773e+01    0.5494481    0.3707761  86.83  0.001842988    1.857    0.461
       127 -10.5953     38.7899    192.3681   1.4181950539e+02   3.0396166843e+01    0.2289665    0.1577991 -63.71 8.471264e-05    1.451    0.311
       128  -9.1627     42.0354    188.9996   1.4082175117e+02   3.0758816362e+01    0.1732706    0.1495278 -83.74 0.0003248919    1.186    0.157
       129  -9.5037    172.7203    192.6928   1.1307837045e+02   8.0390397738e+00     0.271238    0.1789093 -26.79  0.001144691    1.995    0.499
       130  -9.7032     26.0995    193.0677   1.4439140850e+02   3.1641301461e+01    0.1787361    0.1343419 -89.20 0.0005980472    1.043    0.041
       131  -9.5935     20.7288    192.1968   1.4535513751e+02   3.2380683286e+01    0.2337208    0.1347352  69.89  0.001409628    1.560    0.359
       132 -10.2513    191.4226    191.3811   1.0892767667e+02   4.5784524926e+00    0.2753084    0.2453893  13.40 0.0006118267    1.138    0.121
       133  -9.2692    135.3010    190.1065   1.2072259315e+02   1.5905578875e+01    0.1937685    0.1765997  89.08 0.0003916103    1.089    0.081
       134 -10.3337     32.4343    189.4679   1.4281311268e+02   3.1743381083e+01    0.3564322    0.2834762  35.24  0.002415342    1.614    0.380
       135 -10.1971     29.8478    183.7889   1.4279059220e+02   3.3267767846e+01    0.3514221    0.1805267 -66.86  0.001959404    1.657    0.397
       136 -10.5455     25.4315    184.4617   1.4374807261e+02   3.3579433193e+01    0.2349761    0.1659452  82.94 0.0008967241    1.155    0.134
       137 -11.8284    249.8607    187.6302   9.6996141684e+01  -5.6495274457e+00     0.887024    0.2146433 -35.66  0.002848316    4.181    0.761
       138 -10.8652    236.4004    145.9729   9.0604852042e+01   3.9083586232e+00    0.7944379    0.3684134  30.16  0.002648745    3.800    0.737
       139 -12.6695    248.1928    101.5630   7.8709982263e+01   9.3481855646e+00    0.8952499    0.5171113 -38.23  0.004222518    1.591    0.371
       140 -12.6453    248.2844    171.7826   9.4045139303e+01  -2.8171605237e+00    0.8448889    0.5111811 -32.66  0.004257001    1.549    0.354
       141 -12.3186    245.1970    163.1084   9.2766778765e+01  -7.9651017783e-01    0.5797155    0.5011886 -35.70  0.003413925    1.131    0.116
       142 -12.6142    244.9125    156.1296   9.1328513178e+01   4.5559406031e-01     1.342706    0.9255346 -77.26   0.00583254    2.795    0.642
       143 -10.1725    169.6205    248.6372   1.2288912204e+02  -1.1946307369e+00    0.2961839    0.1962714  12.93 0.0008049911    2.260    0.558
       144  -9.8364     86.0932    183.4156   1.3064649955e+02   2.6002994797e+01    0.3295637    0.2259431  30.22  0.001326122    1.822    0.451
       145  -9.3179     37.5826    184.3065   1.4125408457e+02   3.2309316489e+01    0.2169656    0.1436491  39.22  0.001314475    1.703    0.413
       146  -9.8884     53.9894    182.1096   1.3754245419e+02   3.0841058072e+01    0.2268855    0.2062724  -2.98  0.001083903    1.645    0.392
       147  -9.6895     65.9582    181.9773   1.3491899680e+02   2.9289304583e+01    0.1953792    0.1647059  83.91 0.0003147226    1.023    0.023
       148 -13.0990    248.4623    114.1172   8.1488404376e+01   7.1160935893e+00     1.451709    0.9216985 -23.32  0.006748129    1.884    0.469
       149  -9.3741    170.0348    180.0236   1.1120703910e+02   1.1106636870e+01    0.2136824    0.2057925  38.57            0    1.027    0.026
       150  -8.8706    104.4009    180.5903   1.2607149394e+02   2.3637374464e+01    0.1400036      0.12543  81.69  0.000169426    1.004    0.004
       151  -9.2121     48.0307    179.6059   1.3853286233e+02   3.2144227117e+01    0.1648546    0.1161711  44.54 0.0004050446    1.511    0.338
       152  -9.0889    109.3548    178.1977   1.2454117906e+02   2.3315450261e+01    0.1993137    0.1297352 -68.70 0.0009436195    1.600    0.375
       153 -11.5104     82.2219    175.6362   1.3037784063e+02   2.8381823685e+01    0.3859995    0.3436196  47.88  0.001190427    1.242    0.195
       154  -9.8446     77.1781    175.6094   1.3152859888e+02   2.9146386739e+01    0.2185128    0.1685339 -75.33 0.0005178967    1.175    0.149
       155  -9.3551    114.8611    176.5519   1.2298995369e+02   2.2702464249e+01    0.2383973    0.1641766 -65.94 0.0005420941    1.483    0.325
       156 -11.7595     68.8703    173.5131   1.3312617168e+02   3.0825781862e+01    0.5193846    0.2599866 -53.35  0.001562287    2.020    0.505
       157 -10.8917     68.9638    166.8728   1.3215169729e+02   3.2354645033e+01     0.261005    0.2017778 -58.83 0.0003655437    1.282    0.220
       158 -10.3067     95.3620    172.8172   1.2689315354e+02   2.6943202994e+01    0.2488049    0.1772144  63.46 0.0005177275    1.423    0.297
       159 -11.3843     95.9397    157.2010   1.2406411133e+02   3.0493811836e+01    0.5613683    0.3223571 -59.31  0.001445065    1.659    0.397
       160 -11.0843    101.0477    150.8694   1.2160749846e+02   3.1115609682e+01    0.4673716    0.4464643  29.80   0.00268576    1.202    0.168
       161  -9.7024    103.9165    145.1529   1.1974977915e+02   3.1959293309e+01    0.4956515    0.1890486 -49.53  0.001779215    2.543    0.607
       162 -12.5825     87.8945    166.9971   1.2770092551e+02   2.9505285410e+01    0.8167551    0.6694226 -60.90  0.004622432    1.201    0.167
       163 -11.2709     28.3132    171.6324   1.4188810486e+02   3.6130537137e+01    0.3664067    0.2369203 -68.55  0.001568518    1.315    0.240
       164  -8.6698    167.2143    170.0373   1.0980254324e+02   1.3755189944e+01     0.202279    0.1230341 -45.87 0.0008708593    1.703    0.413
       165  -8.9072    100.5471    170.5027   1.2529089852e+02   2.6608315850e+01    0.1433667    0.1294595  87.85 -4.417275e-06    1.006    0.006
       166 -10.9000     45.0433    168.9137   1.3791536090e+02   3.4932567854e+01    0.5569453    0.3002799  33.92  0.002913352    2.157    0.536
       167  -9.6459    107.3504    168.1998   1.2328139145e+02   2.5960042092e+01    0.2232228    0.1909425  41.11 0.0003696218    1.252    0.201
       168  -9.1746    126.3656    167.6933   1.1868810857e+02   2.2561428800e+01    0.1586646    0.1118131  76.03 0.0007037219    1.747    0.427
       169  -9.0857     58.4989    167.4856   1.3467077749e+02   3.3615545879e+01    0.1328742    0.1113273 -86.50 0.0008105185    1.004    0.004
       170 -10.7333     89.9185    160.4971   1.2612169843e+02   3.0706032190e+01    0.3303286    0.2600912 -67.77 0.0004076055    1.183    0.155
       171  -9.2487    136.2336    165.4225   1.1592675394e+02   2.1139019980e+01    0.2036482    0.1374838  55.43 0.0002292862    1.512    0.339
       172  -9.2990     53.9307    164.7857   1.3535945296e+02   3.4819355481e+01     0.177879    0.1472755 -86.86 0.0003801121    1.022    0.021
       173  -9.9510     80.9315    163.9734   1.2887071405e+02   3.1292790988e+01    0.2123507    0.1850377 -84.74 0.0007696826    1.016    0.016
       174 -11.5753    248.2716    142.5100   8.7808100015e+01   2.1795452414e+00    0.7174178    0.4731871 -16.57  0.003136733    1.860    0.462
       175  -9.5925     46.8691    163.1539   1.3677445985e+02   3.6046248393e+01    0.1910804    0.1439133  82.89 0.0003122324    1.223    0.182
       176  -9.0958    154.6154    161.7889   1.1091656141e+02   1.8169484693e+01    0.2038583    0.1442842 -60.77  0.000300369    1.551    0.355
       177 -12.2165     51.7300    238.0245   1.4346830998e+02   1.9383951463e+01    0.9544386    0.6099559 -86.85  0.005283024    1.373    0.272
       178 -11.0396     73.7479    157.7753   1.2960642909e+02   3.3811852739e+01     0.434009    0.3309196 -73.03  0.002429178    1.185    0.156
       179  -9.4609     78.9862    158.9576   1.2852326198e+02   3.2765107564e+01    0.2114895    0.1826288 -88.63 0.0004326736    1.053    0.050
       180  -8.9777     52.4820    158.4991   1.3483490813e+02   3.6459607069e+01    0.1315389    0.1104254 -79.76 0.0008103214    1.022    0.021
       181 -11.5717     42.6212    237.1795   1.4496838793e+02   2.0703236418e+01    0.3796999    0.2143353  66.71  0.001244701    1.445    0.308
       182  -9.7947    134.1763    155.8251   1.1446024631e+02   2.3721077848e+01    0.2324988    0.2034865  80.27  0.000416918    1.180    0.153
       183  -9.3286    228.4433    155.1414   9.4059117423e+01   3.8501261015e+00    0.2193253    0.1349892 -38.07 0.0007135191    1.554    0.356
       184 -10.6317    113.6830    151.1122   1.1849906941e+02   2.8788360145e+01      0.40373    0.3145785 -49.80 0.0008022563    1.292    0.226
       185  -9.3162    132.4381    152.4530   1.1417122296e+02   2.4839894662e+01    0.1527649    0.1434645  86.30 6.375526e-05    1.034    0.033
       186  -9.4903     52.9798    146.2971   1.3292086272e+02   3.9256156159e+01    0.2252529    0.1729275 -75.29 0.0006079903    1.129    0.114
       187  -9.9805     60.2763    151.0017   1.3183742788e+02   3.7243819816e+01    0.2792329    0.1645973  54.83 0.0009877492    1.861    0.463
       188 -10.7897     56.0067    150.1487   1.3276030167e+02   3.7982996049e+01    0.3361863    0.2916411 -80.70  0.001271352    1.027    0.027
       189  -9.4688     90.1832    149.8112   1.2414113973e+02   3.3185993081e+01    0.2105037    0.1813185  87.49 0.0004846516    1.134    0.118
       190 -11.0213    133.5915    142.4920   1.1172325484e+02   2.6880460201e+01    0.8989952    0.3034384 -52.18   0.00281378    3.107    0.678
       191 -13.0327     67.6282    144.3160   1.2889223544e+02   3.7849743428e+01    0.9198679    0.5802563  79.73  0.003763073    2.056    0.514
       192 -11.9089     73.9992    139.4526   1.2637828617e+02   3.8110762144e+01     0.647254    0.4811125  87.88  0.003423063    1.489    0.328
       193  -9.0117    122.0309    148.0268   1.1578736774e+02   2.7919115874e+01    0.1763777    0.1677895 -88.53            0    1.004    0.004
       194 -12.2764     62.0094    245.8764   1.4233517831e+02   1.6529942722e+01    0.8742526    0.5172825  44.03  0.004034042    1.620    0.383
       195 -12.3710      7.9198    142.2218   1.4329623218e+02   4.4520937908e+01    0.4740711    0.3479891  60.76   0.00326105    1.462    0.316
       196 -11.6246      2.1953    144.6250   1.4485713678e+02   4.4399921461e+01    0.4235584    0.1724855 -68.65  0.002264967    1.801    0.445
       197  -9.3888    159.0168    145.2400   1.0626705401e+02   2.0844668553e+01    0.2096797    0.1955664  61.33            0    1.063    0.059
       198  -8.6042     93.4789    145.4739   1.2247921105e+02   3.3672787860e+01    0.1464708    0.1313208 -85.69 0.0002321116    1.062    0.058
       199 -10.6965     37.0396    143.7190   1.3650074971e+02   4.1626279442e+01    0.1676256    0.1516148 -85.79 0.0004656493    1.128    0.114
       200 -10.9214     42.3750    140.8705   1.3475962572e+02   4.1728964354e+01    0.3227457    0.1595684  58.68   0.00145347    2.647    0.622
       201 -11.7611     32.5084    140.4982   1.3717355466e+02   4.2821225543e+01    0.3787749    0.1725283 -73.60  0.001335798    1.992    0.498
       202 -11.9512     17.9835    140.0819   1.4067051180e+02   4.4215611061e+01    0.2828239    0.2319654 -87.64  0.001972747    1.105    0.095
       203 -14.1733     15.9256    168.5140   1.4420264888e+02   3.8008136215e+01     1.682197     1.308267 -42.76   0.01146267    1.721    0.419
       204 -10.9621     47.5585    138.3979   1.3306166101e+02   4.1736356718e+01    0.3870044    0.2050929  14.93  0.001692978    3.259    0.693
       205 -11.1189     13.1819    137.3273   1.4149475209e+02   4.5219723824e+01    0.2158709    0.1255723 -63.91 0.0009970171    1.356    0.263
       206 -10.6413    111.6888    136.1545   1.1585020247e+02   3.2653277492e+01    0.3797459    0.3057121  10.06  0.001513975    1.652    0.395
       207 -11.0906     21.0040    133.9463   1.3915114941e+02   4.5356726024e+01    0.1809618    0.1651814 -82.89            0    1.172    0.147
       208 -11.9929      2.4342    130.7274   1.4332287721e+02   4.7455613198e+01    0.4774617    0.1708394 -67.49  0.002395025    2.002    0.501
       209 -10.5582     32.9861    132.4386   1.3589880854e+02   4.4632089521e+01    0.1670919    0.1245522  32.76  0.000497108    1.619    0.382
       210  -9.2650     47.7720    192.8235   1.4004754383e+02   2.9227517466e+01    0.1812025     0.139611 -68.44  0.001063672    1.295    0.228
       211 -12.0080     67.6900    128.2905   1.2594962748e+02   4.1619680088e+01    0.4469124    0.4057022  70.29 0.0003895103    1.171    0.146
       212 -12.3709     45.8040    131.7899   1.3245360606e+02   4.3472097235e+01    0.5861676    0.3952381  52.38  0.003305332    1.676    0.403
       213  -9.4185    105.9843    127.8480   1.1548929828e+02   3.5636977748e+01    0.3723842     0.177928 -56.17 0.0008846878    2.111    0.526
       214 -10.4101    209.8519    125.7838   9.0843909631e+01   1.3368532185e+01    0.2989467    0.2453659 -36.17 0.0004662067    1.200    0.167
       215 -11.9482     38.0831    123.8999   1.3321309123e+02   4.6101807376e+01    0.5532412    0.2294843 -65.33  0.002511204    2.049    0.512
       216 -11.8744     31.1302    127.0422   1.3557014856e+02   4.6044897339e+01    0.3097179    0.2225395  31.80  0.001512711    1.683    0.406
       217 -10.8206      9.2078    127.2197   1.4123810391e+02   4.7775999984e+01      0.16497    0.1180016  84.67  0.001077709    1.370    0.270
       218  -8.7438     85.3279    126.7258   1.2081705601e+02   3.9407680828e+01    0.1417832    0.1079332  77.48 0.0006986793    1.587    0.370
       219 -11.1418    249.5954    150.9632   8.9417825036e+01   4.6175177925e-01    0.5216936    0.3257362 -43.04  0.002592024    1.523    0.344
       220 -13.0901     20.3428    121.3871   1.3757595341e+02   4.8253415958e+01     0.566415    0.2858749 -60.00   0.00288707    1.538    0.350
       221 -11.7673     24.5924    121.2918   1.3642980334e+02   4.7928697503e+01    0.2960824     0.213121   9.17  0.001839679    1.899    0.473
       222 -10.3595     54.8292    120.8279   1.2805904761e+02   4.4990417093e+01    0.2486681    0.1921901   2.54   0.00140722    1.731    0.422
       223 -12.0485      9.1376    118.7312   1.4015532104e+02   4.9668677464e+01    0.3781844     0.172497 -40.63  0.001920196    2.531    0.605
       224 -11.6518     30.9603    117.3685   1.3407605585e+02   4.8265760243e+01    0.3805057     0.217749 -49.14  0.001537646    1.569    0.363
       225 -11.9740     15.2603    114.9416   1.3799032573e+02   5.0082586938e+01     0.369531    0.1594052 -70.28 0.0009210524    1.927    0.481
       226 -11.1655    168.0976    113.2707   9.6391997836e+01   2.5616967417e+01    0.3958065    0.3184488 -88.71 0.0007630137    1.503    0.335
       227 -11.2086      2.2218    111.6390   1.4103053907e+02   5.1665656710e+01    0.4417484    0.0482874 -66.80  0.001417987    4.810    0.792
       228  -9.8875     50.1700    112.8587   1.2783230629e+02   4.7357975697e+01    0.1937254    0.1641518 -81.76 0.0005178225    1.216    0.178
       229 -10.6013     64.9970    111.9853   1.2336516152e+02   4.5753534321e+01    0.2069467    0.1805527 -53.08 0.0003288176    1.024    0.023
       230 -10.3974    140.8684    183.6198   1.1833212300e+02   1.6219830752e+01    0.4473326    0.2560727  60.78  0.001147952    2.097    0.523
       231  -9.4616    203.7750    111.4245   8.8523140964e+01   1.7537152872e+01    0.2178936    0.1427586  41.57 0.0009477654    1.673    0.402
       232 -11.2901     61.1602    137.6534   1.2941258623e+02   4.0276853541e+01    0.3837035    0.2141781  56.53  0.001208147    2.182    0.542
       233 -10.1331     69.9692    111.0235   1.2171150328e+02   4.5303087714e+01    0.2027698    0.1827759 -53.82  0.001213933    1.010    0.010
       234 -10.9320     56.8624    110.2468   1.2535978962e+02   4.7173625804e+01    0.3853182    0.2372152   7.22  0.001811653    2.537    0.606
       235 -10.7221     31.6857    110.8944   1.3276524470e+02   4.9662847375e+01    0.2112045    0.1848102  45.82 0.0007166694    1.364    0.267
       236  -9.4744    231.5602    116.5004   8.4756435559e+01   1.0280034129e+01    0.1461378    0.1354894 -46.10 8.711818e-05    1.008    0.008
       237  -9.3461    114.4267    107.1677   1.0815361326e+02   3.8712458151e+01    0.2057759    0.1408759 -59.08 0.0003792517    1.583    0.368
       238 -10.0119     62.3256    107.0787   1.2307138737e+02   4.7211933667e+01    0.1988499      0.16123 -57.11  0.001128286    1.098    0.089
       239 -11.2806     27.7066    106.3596   1.3310499058e+02   5.1022036479e+01    0.2630712    0.2141741 -36.84  0.001754834    1.281    0.219
       240  -9.5212     33.0012    100.0327   1.3035822267e+02   5.1963020965e+01    0.1557858    0.1177891 -57.70 0.0003835114    1.082    0.076
       241  -8.7488     21.6950     98.2750   1.3341749735e+02   5.3283044035e+01    0.1106726   0.08589375  80.93    0.0001454    1.544    0.352
       242  -8.8866     72.1631     90.3439   1.1603501092e+02   4.9553105387e+01    0.1687088     0.125183  44.41 0.0001431145    1.540    0.351
       243  -9.8940    143.4895    181.4868   1.1735227230e+02   1.6163221949e+01     0.248981    0.2245599   9.94 0.0009061411    1.330    0.248
       244  -8.5028     50.4994     67.4450   1.1681437377e+02   5.6990303835e+01    0.1272769    0.1063805 -29.85 4.961652e-05    1.017    0.017
       245  -9.1182    124.1383     51.1368   8.8921057858e+01   4.7222586511e+01    0.1808266     0.166891 -78.01 -0.000430966    1.286    0.222
       246  -9.7223    199.9296    245.6824   1.1675067041e+02  -5.9116401746e+00    0.1761485    0.1347692  35.94 0.0003675765    1.095    0.087
       247 -10.4015    152.4735    243.7265   1.2545760982e+02   2.5556708512e+00    0.2130013    0.1282964 -57.96  0.001141139    2.057    0.514
