#   1 NUMBER                 Running object number                                     
#   2 MAG_AUTO               Kron-like elliptical aperture magnitude                    [mag]
#   3 X_IMAGE                Object position along x                                    [pixel]
#   4 Y_IMAGE                Object position along y                                    [pixel]
#   5 X_WORLD                Barycenter position along world x axis                     [deg]
#   6 Y_WORLD                Barycenter position along world y axis                     [deg]
#   7 A_WORLD                Profile RMS along major axis (world units)                 [deg]
#   8 B_WORLD                Profile RMS along minor axis (world units)                 [deg]
#   9 THETA_WORLD            Position angle (CCW/world-x)                               [deg]
#  10 FWHM_WORLD             FWHM assuming a gaussian core                              [deg]
#  11 ELONGATION             A_IMAGE/B_IMAGE                                           
#  12 ELLIPTICITY            1 - B_IMAGE/A_IMAGE                                       
         1 -14.4608    208.7043     91.3233   3.0527173144e+01  -4.2945552024e+01     0.124129   0.07694633  48.31    0.0086503    1.640    0.390
         2 -14.0246    244.0536     55.5032   2.9670531296e+01  -4.3096966198e+01    0.1757088    0.1160015 -20.41   0.01839317    1.605    0.377
         3 -13.4606    236.2246     65.0506   2.9875009930e+01  -4.3046779454e+01   0.08330167     0.047849 -16.17  0.005844466    2.110    0.526
         4 -10.4076    250.0750     13.6365   2.9199735716e+01  -4.3501974247e+01   0.04977955   0.01790934  43.20  0.003662505    3.334    0.700
         5  -9.7763    245.9485     12.0411   2.9247991845e+01  -4.3546380684e+01   0.01468427   0.01194564 -22.14  0.001135319    1.224    0.183
         6  -9.5912    247.4932      8.4928   2.9192051719e+01  -4.3573730444e+01   0.01394132   0.01193263 -82.74  0.001128706    1.360    0.265
         7  -9.4322    243.9603      4.1400   2.9206089586e+01  -4.3643437708e+01   0.01914402  0.009434173  40.74  0.001424083    2.345    0.574
         8  -9.3291    238.9547      5.8559   2.9298157254e+01  -4.3658556014e+01    0.0101778  0.008650784  10.08 0.0005273129    1.284    0.221
         9  -9.5329    240.5573     19.0854   2.9394326163e+01  -4.3507432675e+01   0.01275151    0.0085105  44.13 0.0009924016    1.557    0.358
        10 -10.5864    249.1245    231.5452   3.1131449519e+01  -4.1179271017e+01   0.03854165   0.02065446  40.28  0.003577667    2.109    0.526
        11 -11.0821    241.4743    248.5672   3.1389052601e+01  -4.1044771351e+01   0.07030688   0.01923492 -35.63  0.005041569    3.213    0.689
        12  -8.7820    215.4953    250.4872   3.1792615621e+01  -4.1188539368e+01   0.01037764  0.007995515 -64.13 0.0007517996    1.535    0.348
        13  -7.8886    202.7635    250.4023   3.1982530616e+01  -4.1269601971e+01  0.009227483  0.006190498 -14.42 0.0009453822    1.643    0.391
        14  -7.8506    180.9581    249.4594   3.2302328966e+01  -4.1416389061e+01   0.01275633  0.008548314  40.20  0.001083541    1.593    0.372
        15  -8.3664    215.2180    240.0641   3.1709386975e+01  -4.1302907289e+01   0.01482478  0.009049429  59.99  0.001104895    1.700    0.412
        16  -8.2068    193.7542    238.7523   3.2020465312e+01  -4.1452301079e+01   0.02423532  0.005243371  47.00  0.001402001    5.178    0.807
        17  -7.5378    186.3874    240.8391   3.2148766478e+01  -4.1475900072e+01  0.009366648  0.005703032  46.84 0.0009378095    1.682    0.406
        18  -7.7925    202.0679    239.8955   3.1905112561e+01  -4.1387659521e+01   0.01032812  0.007468018  23.99  0.000689785    1.626    0.385
        19  -9.3489    238.3811    238.2692   3.1348303320e+01  -4.1175395577e+01   0.01239261  0.008161251 -15.52  0.001267914    1.678    0.404
        20  -7.9412    167.0060    237.5140   3.2413552463e+01  -4.1633045948e+01   0.01012704  0.008711968  56.36  0.000651582    1.195    0.163
        21  -7.9424    147.8731    236.2466   3.2692978167e+01  -4.1765689513e+01    0.0134877  0.007588182  35.80  0.001244046    2.136    0.532
        22  -8.4891    176.0025    245.2871   3.2342332844e+01  -4.1492583199e+01   0.01921549  0.008502726  51.88  0.001688235    2.226    0.551
        23  -8.7241    233.1279    235.2689   3.1401313095e+01  -4.1241137753e+01   0.01422909  0.008204083   2.42  0.001170195    2.906    0.656
        24  -8.4963    229.7845    233.7142   3.1438104597e+01  -4.1279144863e+01   0.01239489  0.005202089  62.60  0.001008815    2.641    0.621
        25  -8.0806    170.5080    246.9949   3.2439432981e+01  -4.1508289012e+01  0.009908315  0.004710138  38.51 0.0008106371    2.612    0.617
        26  -9.1271    159.9407    234.3904   3.2494518476e+01  -4.1710957275e+01   0.01222319   0.01034345 -26.60   0.00146247    1.144    0.126
        27  -7.6184    219.6030    232.7309   3.1582056649e+01  -4.1354345029e+01  0.008818164  0.006376558  75.89 0.0009391739    1.635    0.388
        28  -8.3127    214.0087    231.7489   3.1657582696e+01  -4.1400363058e+01   0.02042288    0.0100529  44.33  0.001838724    2.176    0.540
        29  -8.0683    153.1830    233.1803   3.2586925882e+01  -4.1766106322e+01  0.009002803  0.007625004 -62.64 0.0008123958    1.310    0.237
        30  -9.3445    236.2204    230.7898   3.1317319312e+01  -4.1269724397e+01    0.0165825   0.00960485  66.78  0.001601508    1.969    0.492
        31  -7.8999    193.5975    230.6629   3.1955063969e+01  -4.1540854092e+01   0.01739048  0.009859399  60.64  0.001702433    1.840    0.457
        32  -7.9911    183.2952    231.2752   3.2115446128e+01  -4.1598913514e+01   0.01197028  0.007201348  47.06 0.0006818049    1.701    0.412
        33 -10.2470    244.1362    223.9103   3.1140957896e+01  -4.1293286664e+01   0.02326452   0.01244354  46.35  0.001733758    1.932    0.482
        34 -10.4331    246.2815    240.1083   3.1246214956e+01  -4.1105271561e+01   0.03080062   0.01863657  86.03  0.002742324    2.631    0.620
        35  -7.8056    144.0075    228.7849   3.2689807788e+01  -4.1870821592e+01   0.01099778  0.007318146  10.96  0.001011866    2.000    0.500
        36  -8.8725    222.4359    225.7873   3.1481052009e+01  -4.1411297779e+01   0.02000305   0.01726146   5.22  0.001887502    1.230    0.187
        37  -7.2361    172.7020    228.3158   3.2250695993e+01  -4.1697316921e+01  0.006639407  0.004935293 -62.90 0.0007016605    1.609    0.379
        38  -7.7499    211.1400    226.0681   3.1652743520e+01  -4.1479864145e+01   0.01118056  0.006834111  31.97 0.0008357533    2.001    0.500
        39  -7.6093    161.8277    224.7615   3.2385673571e+01  -4.1803787300e+01   0.01145363  0.006322756  25.37 0.0009457898    2.783    0.641
        40  -7.3788    175.2859    221.3709   3.2153481035e+01  -4.1756451124e+01  0.006919936  0.004789912  27.42 0.0007019028    1.708    0.414
        41  -7.2410    180.6486    220.6874   3.2066664825e+01  -4.1730228773e+01  0.006918491  0.004902625  19.65 0.0004120185    1.725    0.420
        42  -8.5565    243.7602    199.2067   3.0935920469e+01  -4.1561318982e+01   0.02439783   0.01354656  71.86  0.002218978    2.332    0.571
        43  -7.8875    248.4267    214.4940   3.0996875027e+01  -4.1367086354e+01   0.01100771  0.009607826  75.80 0.0006704731    1.257    0.204
        44 -10.0120    244.9783    211.4553   3.1022400780e+01  -4.1421852086e+01   0.04319019   0.02328737  32.18  0.002637217    2.512    0.602
        45  -8.6494    247.4880    205.5005   3.0934091330e+01  -4.1469758815e+01   0.01744338   0.01503352  38.56  0.002114642    1.191    0.161
        46  -9.7868    250.3575    201.3043   3.0855352683e+01  -4.1496398649e+01   0.01957637  0.009273741  61.52  0.001734436    2.271    0.560
        47  -8.1506    234.3436    216.0463   3.1220341321e+01  -4.1440468900e+01    0.0211035   0.00598066  52.50  0.001522138    3.290    0.696
        48  -7.8252    143.4209    215.7673   3.2590380769e+01  -4.2016059549e+01  0.009260099  0.005813829  46.79 0.0007145833    1.631    0.387
        49  -7.2775    215.9120    214.7407   3.1485387537e+01  -4.1571882884e+01  0.007995591  0.005532445 -24.64 0.0003251613    1.434    0.303
        50  -7.2505    194.3026    214.3384   3.1807114247e+01  -4.1713019821e+01  0.006838905  0.004868056  24.28 0.0007038108    1.669    0.401
        51  -7.7459    229.8288    212.8158   3.1260429254e+01  -4.1504062455e+01   0.01386771  0.009283591 -50.46 0.0006611404    1.639    0.390
        52  -8.3646    227.2560    209.5470   3.1271165839e+01  -4.1555679628e+01   0.01651209   0.00972139 -10.45  0.001323984    2.199    0.545
        53  -7.2462     37.5061    209.5101   3.4170131348e+01  -4.2731215098e+01  0.006493753   0.00621627 -37.17 4.291748e-05    1.046    0.044
        54  -7.8355    237.2654    207.5857   3.1104627293e+01  -4.1512854646e+01   0.01384254  0.006768598  45.90 0.0009007399    2.138    0.532
        55  -7.1169    214.3094    207.2865   3.1446236081e+01  -4.1662474143e+01  0.006594596  0.004930901  18.96 0.0002654495    1.574    0.364
        56  -7.4004    218.6008    206.1947   3.1372492173e+01  -4.1646949847e+01  0.009177926  0.005827463  46.86 0.0009294454    1.611    0.379
        57  -7.9282    207.2909    203.6849   3.1521238207e+01  -4.1745912290e+01   0.01136106  0.008076386  74.91  0.001154335    1.661    0.398
        58  -8.4873    197.1144    203.4515   3.1672654607e+01  -4.1812929187e+01   0.01328134  0.009437512  77.30 0.0008672306    1.699    0.411
        59  -7.9034    167.2963    201.3704   3.2106477187e+01  -4.2023337478e+01   0.01236946  0.007361033  45.89  0.001014434    1.735    0.424
        60  -9.9646    218.6899    198.6878   3.1307254517e+01  -4.1727292977e+01   0.01311868   0.01104691 -54.03 0.0002718741    1.265    0.210
        61  -8.0333    150.7009    200.6318   3.2352746663e+01  -4.2135200848e+01  0.006971377  0.004803866  26.43 0.0007031831    1.734    0.423
        62  -8.1601    231.1312    198.3045   3.1117245451e+01  -4.1651963894e+01   0.01397265  0.009829362   1.03  0.001321426    1.764    0.433
        63  -7.7354    186.6616    196.9135   3.1775216508e+01  -4.1949685040e+01  0.008578785  0.008239243 -85.66 0.0004345102    1.113    0.102
        64  -8.8671    235.6943    194.9245   3.1019955868e+01  -4.1659097577e+01   0.01694444    0.0101971 -21.98 0.0003807607    1.743    0.426
        65  -7.8539    201.2903    195.2826   3.1540298726e+01  -4.1874688195e+01  0.009095727   0.00750768 -25.29  0.001010887    1.180    0.153
        66  -7.8881    198.9561    191.9912   3.1547539062e+01  -4.1925032321e+01     0.017941   0.01128529  73.14  0.001657781    1.946    0.486
        67 -12.9819    247.4633    181.0279   3.0724345714e+01  -4.1732699103e+01    0.1402134   0.07858482 -62.73   0.01177028    2.883    0.653
        68 -10.7939    247.0701    248.9545   3.1309126906e+01  -4.1005004433e+01   0.07289699   0.02856871 -48.97  0.005278157    3.480    0.713
        69  -9.2484    196.0450    243.9284   3.2029300808e+01  -4.1381875383e+01    0.0217487   0.01076216  47.77  0.001997509    2.063    0.515
        70 -13.7899    225.2748    123.7919   3.0560969296e+01  -4.2490060185e+01   0.05616331   0.03810799 -17.75 0.0005159911    1.582    0.368
        71 -14.2759    237.6191     85.9510   3.0040271014e+01  -4.2814574146e+01   0.04594977   0.04098881  74.00  0.004229189    1.216    0.177
        72 -13.8627    244.4596     72.6898   2.9818453807e+01  -4.2911176830e+01   0.06991069   0.03210638 -15.84    0.0051718    3.427    0.708
        73 -14.4840    228.8593    114.5978   3.0426084422e+01  -4.2565330023e+01   0.09459269   0.05477801 -36.94  0.003475341    1.655    0.396
        74 -13.6975    241.6941    150.4812   3.0546298869e+01  -4.2097591833e+01     0.040066   0.02672464 -28.27  0.002805207    1.463    0.317
        75 -14.0060    226.1788    138.6478   3.0677045644e+01  -4.2324869007e+01     0.111608   0.02494295 -34.44  0.007366389    3.787    0.736
        76 -14.8210    244.2692     96.7918   3.0035903606e+01  -4.2655259681e+01   0.07166245   0.02022833  53.91  0.005189772    3.323    0.699
        77 -14.9247    248.1512     87.6863   2.9896370076e+01  -4.2726989791e+01   0.05549889   0.02807155  65.66  0.004959688    2.336    0.572
        78 -14.6745    241.2313    140.4844   3.0466125263e+01  -4.2207715934e+01   0.09077226   0.05109576   4.23  0.007065908    3.387    0.705
        79 -13.6098    236.4275    105.5757   3.0232136896e+01  -4.2612629334e+01   0.02966363   0.01775715  32.65  0.002069841    2.066    0.516
        80 -13.5781    232.1501    132.5359   3.0533559123e+01  -4.2351774389e+01   0.02561421   0.01890634  33.64  0.002021147    1.484    0.326
        81 -14.7177    237.7899    126.3264   3.0394109593e+01  -4.2381698412e+01   0.04461148   0.03839641 -11.34  0.005245728    1.187    0.158
        82 -13.8538    248.1523    118.1403   3.0165981895e+01  -4.2401782012e+01   0.03523286   0.01735945 -41.27  0.002130065    2.011    0.503
        83 -14.3316    239.0306    112.9107   3.0257483232e+01  -4.2517203189e+01   0.03201159   0.02785355  35.59  0.003907996    1.186    0.157
        84 -14.6388    249.5700    110.5036   3.0077265503e+01  -4.2474120765e+01   0.05877988   0.02213324  52.32  0.004823351    2.586    0.613
        85 -14.4764    247.2774    129.2608   3.0276910966e+01  -4.2288568039e+01   0.02973831   0.02255113 -84.03  0.003247654    1.701    0.412
        86 -13.4130    249.2902    124.6543   3.0206170170e+01  -4.2324716563e+01   0.01746994   0.01426796 -56.38 0.0006167871    1.336    0.251
        87  -7.4112    167.5766    192.1891   3.2024718921e+01  -4.2121066568e+01  0.009081042  0.005827465  45.82 0.0009317414    1.603    0.376
        88  -7.8654    160.8378    189.9465   3.2108298033e+01  -4.2187687866e+01   0.01529079  0.008870348 -87.54  0.001177996    3.217    0.689
        89  -7.8936    224.0404    190.1781   3.1154177116e+01  -4.1784781780e+01    0.0125909  0.007417002  -7.39  0.001126102    2.339    0.572
        90  -6.7851    219.4334    190.4494   3.1225755245e+01  -4.1811302799e+01  0.006411446  0.006204143 -31.45 3.604757e-05    1.029    0.028
        91  -7.1040    238.3204    189.2773   3.0932204422e+01  -4.1702954165e+01  0.006585792  0.004945072  16.59 0.0003643643    1.578    0.366
        92  -8.8570    230.3905    186.4637   3.1026984349e+01  -4.1784087191e+01   0.01305533  0.009635453 -43.05 0.0001630091    1.360    0.264
        93 -10.1924    224.0922    184.2051   3.1102238149e+01  -4.1848737132e+01   0.01159193   0.01009155 -36.87 0.0002764226    1.124    0.110
        94  -7.7211    211.0444    182.9782   3.1288198873e+01  -4.1945335945e+01   0.02572655  0.004922452  48.39  0.001473837    5.254    0.810
        95  -7.8291    201.2865    182.0755   3.1427790824e+01  -4.2017232866e+01     0.013221   0.00506551  52.53  0.001077806    2.535    0.606
        96  -7.9494    193.0084    178.7538   3.1524660630e+01  -4.2105694464e+01  0.008524092  0.008226284 -26.87 0.0003617407    1.020    0.019
        97  -7.4080    137.4962    179.4860   3.2376495794e+01  -4.2447256233e+01  0.006468082  0.006244861 -15.74 0.0001105666    1.000    0.000
        98  -7.9082    223.2321    176.9653   3.1053028351e+01  -4.1932143591e+01   0.01929484   0.00815314 -31.44  0.001059724    2.242    0.554
        99 -10.5450    101.0026    175.9992   3.2908478116e+01  -4.2711668514e+01  0.009132887  0.008817086 -16.18            0    1.001    0.001
       100 -10.5647    223.4205    170.8671   3.0997729503e+01  -4.1996526757e+01   0.01204401   0.01139461 -34.25 0.0002748296    1.042    0.041
       101  -7.9102     47.8058    171.8983   3.3700300007e+01  -4.3081924187e+01   0.00977402  0.008548485  24.23 0.0004885428    1.194    0.163
       102 -10.9847    212.5202    169.4358   3.1149774146e+01  -4.2081774859e+01   0.01214541    0.0116338  78.67 0.0003838607    1.110    0.099
       103  -8.2967    217.0119    167.5120   3.1065431428e+01  -4.2073716508e+01   0.02056438   0.01266074 -62.70  0.001914106    2.289    0.563
       104  -9.8895    191.8680    167.5643   3.1446233388e+01  -4.2233708438e+01   0.01255831    0.0110152  87.11 0.0003561433    1.283    0.220
       105  -8.0900    183.0479    168.9333   3.1591847856e+01  -4.2274954571e+01  0.009677708  0.008848331  11.08 0.0004669715    1.124    0.110
       106  -8.6525    221.7256    162.5573   3.0951613719e+01  -4.2096759506e+01   0.01803225  0.009224142 -43.95  0.001061445    2.026    0.506
       107  -7.6603    207.7384    162.7341   3.1164368136e+01  -4.2184528015e+01  0.008087472  0.007105017 -57.88 0.0002818202    1.220    0.180
       108  -7.3388    195.1165    163.1801   3.1359354910e+01  -4.2260315068e+01  0.008792959  0.007101985 -52.64 0.0004591248    1.321    0.243
       109  -7.1409    106.9748    162.7866   3.2705176503e+01  -4.2818683494e+01  0.008423615  0.005145845 -27.43 0.0004065078    1.594    0.373
       110  -8.6346    216.5812    159.3163   3.1001258642e+01  -4.2164643488e+01   0.01861196   0.01110805  26.97 0.0008227177    2.282    0.562
       111  -9.2007    158.2007    159.3489   3.1888700569e+01  -4.2535734330e+01   0.01132235   0.01085096   5.06 0.0002619057    1.040    0.038
       112  -8.4185    196.9722    158.0188   3.1286840591e+01  -4.2304123843e+01   0.01210391  0.008907567  54.67 0.0008799683    1.383    0.277
       113  -8.7559    190.6722    158.8946   3.1389985408e+01  -4.2334849883e+01   0.01151971  0.009609266  20.11 0.0005021033    1.302    0.232
       114  -7.1576    131.2902    158.6872   3.2295724951e+01  -4.2711881303e+01  0.006585907  0.004943875 -63.32 0.0004025484    1.588    0.370
       115  -8.2713    207.5201    157.1527   3.1119568493e+01  -4.2246015912e+01    0.0100894  0.008938692 -29.31  0.000481262    1.093    0.085
       116  -8.7775    212.1465    148.6088   3.0975708539e+01  -4.2308270533e+01   0.01737327   0.01251772  -6.54   0.00128522    1.605    0.377
       117  -8.2608    161.7362    148.2241   3.1739452681e+01  -4.2633774115e+01   0.01192493  0.009242882 -57.49 0.0008596669    1.447    0.309
       118  -9.2920    189.3117    148.0379   3.1317209540e+01  -4.2460597632e+01   0.02352509   0.01349069 -11.73  0.001793869    2.257    0.557
       119  -8.1783    186.4569    145.5416   3.1339120639e+01  -4.2505722517e+01   0.01090134  0.009541401  73.97 0.0008624217    1.242    0.195
       120  -8.3976    133.3296    147.6908   3.2170802899e+01  -4.2818447942e+01   0.01223062  0.008028608  56.93 0.0007392898    1.551    0.355
       121  -7.8942    155.2251    140.9688   3.1776927657e+01  -4.2753420729e+01  0.008794197  0.008331532  46.27 0.0003782836    1.080    0.074
       122 -13.1691    250.2852    141.7016   3.0340645431e+01  -4.2135875487e+01   0.02900817   0.01213342  53.96 0.0006276284    2.351    0.575
       123  -9.3277    186.5931    136.2882   3.1257101829e+01  -4.2604604036e+01   0.01443611   0.01157111  59.63  0.000604576    1.294    0.227
       124  -7.2141    177.5172    137.4284   3.1405384765e+01  -4.2650207920e+01  0.006461295   0.00618394 -16.23 0.0001334894    1.012    0.012
       125  -8.2826      8.5635    135.3637   3.4013426920e+01  -4.3719859173e+01   0.01393693  0.009192053 -51.93 0.0007362314    1.700    0.412
       126  -9.1934    192.2367    128.9030   3.1107096251e+01  -4.2648038015e+01   0.01401645   0.01090283  60.46 0.0007127565    1.339    0.253
       127  -9.1039    141.4001    127.4635   3.1873331306e+01  -4.2986880215e+01   0.01314564   0.01172057  27.67 0.0001797141    1.161    0.138
       128  -8.8671    150.7987    121.2497   3.1675112133e+01  -4.2994671908e+01    0.0113437   0.01014139 -38.83 0.0003847542    1.104    0.094
       129  -8.1397    188.8220    119.5317   3.1077661364e+01  -4.2770803681e+01    0.0170669  0.009196275  64.61  0.001594335    2.074    0.518
       130  -8.3428    146.2448    111.7408   3.1663011452e+01  -4.3126317240e+01   0.01095502  0.008884504  50.65 0.0005583424    1.254    0.203
       131  -8.7641    168.2253    107.4080   3.1287295143e+01  -4.3033224776e+01   0.01655937   0.01114434  12.91  0.001640896    1.985    0.496
       132  -9.0200    153.8415    107.1824   3.1506453921e+01  -4.3127332648e+01    0.0149009   0.01382665  50.54  0.001872796    1.105    0.095
       133  -9.0472    192.8934    103.0299   3.0871348835e+01  -4.2922110185e+01   0.01329684   0.01097811  75.30 0.0006583802    1.354    0.261
       134  -9.1196    192.9699     98.4890   3.0830350713e+01  -4.2970408912e+01   0.02242975   0.01169423 -48.47   0.00160088    2.183    0.542
       135  -9.6876    186.7494    101.8335   3.0954775609e+01  -4.2974515299e+01   0.02272221   0.01575652  64.15  0.001458053    1.549    0.355
       136  -8.1582    178.8407    102.8401   3.1084653313e+01  -4.3014480285e+01  0.009658392  0.008351086  21.28 0.0003893235    1.228    0.186
       137  -8.5427    179.9549     97.6517   3.1022181873e+01  -4.3063163346e+01   0.01979128  0.009740718  33.74  0.001595518    2.900    0.655
       138  -7.3272    171.2817     95.6975   3.1138141587e+01  -4.3139836722e+01  0.006478386  0.004959569 -64.10 0.0002166352    1.551    0.355
       139 -13.1430    231.8510     98.3346   3.0237429348e+01  -4.2719923252e+01   0.03726225   0.02794777  28.15  0.004144401    1.505    0.336
       140  -9.1140    180.5701     88.6565   3.0933834870e+01  -4.3155952896e+01   0.01287797   0.01101005 -50.62 0.0005853008    1.217    0.178
       141  -8.7241    185.1474     86.0611   3.0840822023e+01  -4.3154364925e+01   0.01151753  0.008959056 -35.81 -0.0006383859    1.245    0.197
       142  -7.6024    142.5564     89.2448   3.1524509247e+01  -4.3392768612e+01  0.009254797  0.005875215  46.13 0.0007657987    1.619    0.383
       143  -9.0970    190.1506     81.3815   3.0722908818e+01  -4.3172325770e+01   0.01245959    0.0104286 -57.12 0.0006795283    1.297    0.229
       144  -8.3374    184.4965     82.4313   3.0818830807e+01  -4.3197557779e+01   0.01103122  0.009765051 -34.71 0.0005687611    1.100    0.091
       145  -9.1041    185.1838     78.3971   3.0772708589e+01  -4.3236451486e+01   0.01599523   0.01317071 -34.22 0.0006802073    1.176    0.149
       146  -8.3819    164.1714     80.0624   3.1110443768e+01  -4.3353752174e+01   0.01057945  0.009023904 -25.50 0.0003100837    1.140    0.123
       147  -8.2616    175.1126     75.7150   3.0903743692e+01  -4.3330206681e+01    0.0104449  0.009012178  82.84 0.0004173171    1.306    0.234
       148  -7.9577    170.3467     70.5611   3.0931636126e+01  -4.3416294399e+01   0.01483152  0.008392767  66.28  0.001329237    2.018    0.505
       149  -8.3089    162.1033     71.3838   3.1065989380e+01  -4.3460431645e+01    0.0112832  0.009588093   3.15  0.001002158    1.263    0.208
       150  -7.6421    181.2822     66.9971   3.0731843097e+01  -4.3384051379e+01  0.008643742  0.008472605   4.56  0.000429924    1.024    0.023
       151  -7.1924    176.3306     66.6968   3.0805350414e+01  -4.3419252795e+01  0.006762135  0.004897838 -60.77 -3.713634e-05    1.653    0.395
       152 -10.8389    188.3163     60.6489   3.0567441142e+01  -4.3406618848e+01   0.01376076   0.01300036  45.12 0.0002571527    1.082    0.076
       153  -8.9870    171.5305     62.1102   3.0838693184e+01  -4.3499487676e+01   0.01137206   0.01044748 -24.75 0.0002882362    1.054    0.051
       154  -8.4569    194.8495     58.4751   3.0447821401e+01  -4.3387498349e+01   0.01138294  0.008774986 -28.24  0.000816738    1.260    0.206
       155 -10.5824    193.3860     53.6388   3.0427191147e+01  -4.3448813563e+01   0.01253161    0.0113632  56.08 0.0002491868    1.138    0.122
       156  -9.9025    204.2960     55.1807   3.0273662299e+01  -4.3361254001e+01   0.02203901   0.01344611 -28.75  0.001736207    1.602    0.376
       157  -7.7646    212.4538     52.4388   3.0124329239e+01  -4.3337279176e+01  0.006436395  0.006193846 -29.37 5.496656e-05    1.022    0.022
       158  -7.5495    182.9784     51.7612   3.0570459097e+01  -4.3536518938e+01  0.008971682  0.008204312 -21.32 0.0003628945    1.064    0.060
       159  -7.2875    167.6955     50.7000   3.0796690387e+01  -4.3646788457e+01  0.006636469   0.00493577  20.22 0.0002513377    1.590    0.371
       160  -7.0269    188.6659     47.6804   3.0446565692e+01  -4.3543320577e+01  0.006857629  0.004933398  19.70 0.0007049196    1.699    0.412
       161 -10.3128    220.0419     45.1451   2.9942962034e+01  -4.3365426466e+01   0.02572464    0.0163184   7.52  0.002376505    2.356    0.575
       162  -9.6720    226.8118     40.4254   2.9797149628e+01  -4.3371243045e+01    0.0189605   0.01278953   0.09  0.001890145    1.955    0.489
       163  -7.4417    151.0000     44.9018   3.1003695063e+01  -4.3816653675e+01   0.01064171  0.003726088  59.12 0.0008028683    2.945    0.660
       164  -7.7210    187.9647     42.0064   3.0406656355e+01  -4.3608643157e+01  0.008026158   0.00765687 -21.50  0.001010139    1.014    0.014
       165 -13.3324    223.1867     92.1566   3.0314211285e+01  -4.2842490835e+01   0.04653616   0.02587625 -22.79   0.00287598    1.920    0.479
       166 -13.5527    245.6354    159.8204   3.0568274141e+01  -4.1971965464e+01   0.06102693   0.04037654  -1.36  0.001855809    1.987    0.497
       167  -9.5472    223.6727     31.4121   2.9763764854e+01  -4.3487966923e+01   0.02157975   0.01151716  74.15  0.001828021    2.756    0.637
       168  -7.9622    163.2478    246.9746   3.2548949383e+01  -4.1553661700e+01  0.008667384  0.005592161  60.47 0.0008915052    1.608    0.378
       169  -9.6206    235.5506     28.0314   2.9551874693e+01  -4.3445520607e+01   0.01508187   0.01065807   8.25 0.0008504995    1.828    0.453
       170  -7.2663     99.7979     28.9660   3.1662336426e+01  -4.4315356377e+01  0.008366915  0.005158183  58.22  0.000393543    1.662    0.398
       171  -8.0301    156.3645    244.9033   3.2635942795e+01  -4.1618901437e+01   0.01211328  0.006606355  17.43 0.0009159509    3.403    0.706
       172  -7.5453    150.2877    244.3617   3.2723542911e+01  -4.1662442415e+01  0.006895297  0.004798021  27.30 0.0003712897    1.690    0.408
       173  -8.9683    209.6461    242.2697   3.1811346300e+01  -4.1314243255e+01    0.0151297   0.01071099  10.81  0.001573191    1.772    0.436
       174  -7.4473    206.4946    240.1049   3.1840444370e+01  -4.1357513571e+01   0.01264411  0.008284998  66.13 0.0008534454    1.675    0.403
       175  -9.6191    250.1387    243.6680   3.1218947527e+01  -4.1042361724e+01   0.04253858     0.010085  58.29  0.002773857    4.137    0.758
