#   1 NUMBER                 Running object number                                     
#   2 MAG_AUTO               Kron-like elliptical aperture magnitude                    [mag]
#   3 X_IMAGE                Object position along x                                    [pixel]
#   4 Y_IMAGE                Object position along y                                    [pixel]
#   5 X_WORLD                Barycenter position along world x axis                     [deg]
#   6 Y_WORLD                Barycenter position along world y axis                     [deg]
#   7 A_WORLD                Profile RMS along major axis (world units)                 [deg]
#   8 B_WORLD                Profile RMS along minor axis (world units)                 [deg]
#   9 THETA_WORLD            Position angle (CCW/world-x)                               [deg]
#  10 FWHM_WORLD             FWHM assuming a gaussian core                              [deg]
#  11 ELONGATION             A_IMAGE/B_IMAGE                                           
#  12 ELLIPTICITY            1 - B_IMAGE/A_IMAGE                                       
         1 -14.6158     25.2453     94.4547   1.1145020289e+02   5.4112574223e+01       1.2493      1.12968   9.91  0.008492826    1.338    0.253
         2 -13.9188     86.0816     66.4573   8.2799915662e+01   5.2669865493e+01       1.8229     1.053527 -13.04  0.006674286    3.181    0.686
         3 -14.3330     60.9558     75.7584   9.4499574464e+01   5.4648996243e+01     1.879009     1.091644 -62.39  0.004959262    1.959    0.490
         4 -15.2490      6.3125     69.1617   1.1342699238e+02   6.1105937524e+01     1.615176    0.7225032 -57.89  0.006307448    1.626    0.385
         5 -14.6889    119.6896     54.5618   6.8462954346e+01   4.7993263935e+01     1.143987    0.8775566  25.02  0.002341643    1.410    0.291
         6 -14.3593    121.7840     37.6394   6.1910965602e+01   5.0103421107e+01     1.046409    0.5875837  31.38  0.002704101    2.148    0.535
         7 -13.5185    131.8631     32.7249   5.7771176907e+01   4.8361596571e+01     0.945017    0.5161205 -32.67  0.004246524    1.903    0.475
         8 -15.5647    218.3853     16.3242   3.9900395649e+01   2.8735273125e+01     2.094013     1.627743 -31.09    0.0124637    1.408    0.290
         9 -14.0091    189.3946     26.7092   4.5888513060e+01   3.4615936801e+01     1.703906    0.7380327 -55.95  0.006379302    2.913    0.657
        10 -13.9584    187.5031     11.7396   4.1993004767e+01   3.6777032682e+01       1.1512    0.6271867 -50.24  0.005527496    1.875    0.467
        11 -13.8513    242.0034     34.6807   4.1932332388e+01   2.1061609883e+01    0.8680057    0.6043071  83.77  0.003106856    1.438    0.304
        12 -12.9647      7.8350      2.6699   9.1281029639e+01   7.3692521294e+01    0.4170572     0.388784 -56.76  0.002566675    1.836    0.455
        13 -13.3491      2.6831     10.7168   9.8061503206e+01   7.2794237250e+01    0.6747879    0.3302793 -54.23  0.003921225    2.066    0.516
        14 -13.3256     17.0128     10.6837   8.9986799103e+01   7.1697806515e+01    0.4339406    0.3064065 -59.94  0.001331253    2.399    0.583
        15 -15.9583     11.6694     22.7295   9.8043947758e+01   7.0141089364e+01      1.79446    0.9972068 -25.08  0.009790423    1.612    0.380
        16 -14.1512     24.4598     13.9349   8.7571784294e+01   7.0480247270e+01    0.6482366    0.3306338  25.57  0.002537449    2.021    0.505
        17 -14.6496    166.5963     29.7761   5.0142489524e+01   4.0029547886e+01     1.154311    0.9966341  69.52  0.003950178    1.078    0.072
        18 -13.1710    139.8231     22.1498   5.2431582325e+01   4.7685045066e+01    0.6514603    0.3417323  60.04  0.001437257    1.719    0.418
        19 -12.8650    120.1743     26.4607   5.8200419020e+01   5.1938304398e+01    0.7791194    0.4734351  36.55  0.003706368    1.676    0.403
        20 -14.8175    147.1307     29.8191   5.3608868420e+01   4.4956644566e+01     1.441711    0.9133972  57.65  0.004727743    1.445    0.308
        21 -12.4721     71.5728     17.7389   6.8808452389e+01   6.3210432961e+01    0.4615057    0.3284005 -39.30  0.001693121    1.650    0.394
        22 -15.4576     97.6152     12.3592   5.8344057314e+01   5.8614442458e+01     1.686146    0.7634667  50.68   0.00547229    1.918    0.479
        23 -14.4901     42.5612      6.2950   7.4924096674e+01   6.9314694783e+01     1.013507    0.6624741 -10.81  0.004992477    1.379    0.275
        24 -11.7137     60.0505     16.9265   7.2756349734e+01   6.5298615988e+01    0.3110248    0.1736301 -33.03  0.001662977    1.764    0.433
        25 -11.6542    153.3682      8.5404   4.5585224570e+01   4.5696584481e+01    0.2525561    0.2133027  50.44 0.0006311799    1.142    0.124
        26 -11.3097     68.2973      5.2864   6.4130656049e+01   6.5215966265e+01    0.2400025    0.1334366 -43.88  0.001177063    2.609    0.617
        27 -12.2270    118.6618      2.8279   4.9633024056e+01   5.4708843574e+01    0.5188883    0.2871679  84.30  0.002275573    2.540    0.606
        28 -11.3354    112.3181      1.8652   5.0565378129e+01   5.6272933477e+01    0.2574022    0.1682815  59.33  0.001401155    1.357    0.263
        29 -12.2562     79.3917      2.1488   5.9037930933e+01   6.3390536811e+01     0.606627    0.1863574  48.54  0.002517476    2.618    0.618
        30 -12.1672     61.5975      2.0080   6.4911198892e+01   6.6750346499e+01    0.3126839    0.2002907  48.45  0.001267782    1.607    0.378
        31 -12.0351    232.8395      1.9592   3.5335453527e+01   2.6963885732e+01    0.3744252    0.2040742  72.00  0.001362109    1.716    0.417
        32 -13.2986     73.8935    153.4425   1.0716102554e+02   3.4353316535e+01    0.6642528    0.4974426  37.97  0.002662603    1.425    0.298
        33 -12.7453     57.1188    246.9840   1.2080902662e+02   1.6668323717e+01     0.465937    0.1520398  39.54  0.002271551    2.537    0.606
        34 -13.6950     28.3108    246.1704   1.2572939614e+02   2.0221269849e+01    0.4501817    0.2730929  66.11  0.003132918    1.219    0.180
        35 -11.9480      2.8386    249.7795   1.3001833273e+02   2.2216753316e+01    0.2728779    0.1490467  50.16  0.001656226    1.435    0.303
        36 -13.8894      8.9860    245.5755   1.2887715244e+02   2.2355716890e+01    0.7206153    0.3420909  58.05  0.003294311    1.518    0.341
        37 -11.2130    154.8377    157.6135   8.7687148427e+01   1.8907470798e+01    0.2275346    0.1369519  52.71 0.0009552047    1.781    0.439
        38 -12.0108    111.8036    156.0446   9.7855825502e+01   2.7590531230e+01    0.4454821    0.2372624 -78.28  0.001468243    3.567    0.720
        39 -12.6855    208.9688    154.7844   7.5480006293e+01   8.4251515718e+00    0.6103981    0.3753683  43.60    0.0028593    1.659    0.397
        40 -10.7971     56.2999    156.3164   1.1210266283e+02   3.6008660407e+01    0.1298453   0.09754722 -42.31 0.0007019818    1.614    0.381
        41 -11.7216     85.8733    152.5906   1.0390211285e+02   3.2770125252e+01    0.4103037    0.1850865 -54.64  0.001678406    2.110    0.526
        42 -11.4326    133.0573    152.7673   9.1887381687e+01   2.4338409417e+01    0.2442694    0.2123833 -57.00 0.0002798924    1.167    0.143
        43 -11.8427    103.2800    150.1908   9.8930499881e+01   3.0474968627e+01    0.4154701     0.292947 -34.24  0.001862067    1.778    0.438
        44 -11.4774     24.3624    150.4952   1.1942636850e+02   4.0815745313e+01     0.276113    0.1832056 -56.90  0.001632788    1.497    0.332
        45 -10.9467     60.3253    149.2876   1.1006854576e+02   3.7196443616e+01    0.1309273    0.1015986 -36.50 0.0002863967    1.608    0.378
        46 -12.7036     40.5872    195.4215   1.1998020919e+02   2.8906742855e+01    0.3628925    0.1592455 -88.64   0.00166878    2.477    0.596
        47 -11.4571     88.4934    140.0452   1.0093088905e+02   3.5387823740e+01    0.2672835    0.2182905   9.92  0.001028593    1.587    0.370
        48 -12.8068    246.0605    133.6773   6.4204642788e+01   4.9064826151e+00    0.4296075     0.314652 -37.90  0.002358612    1.240    0.194
        49 -14.5038    232.8871    129.5798   6.5445198925e+01   8.1275440872e+00     1.053613     0.803323 -38.39  0.005663616    1.212    0.175
        50 -11.8618     45.4711    134.7519   1.1191488444e+02   4.2500708573e+01    0.3142481    0.2586724  55.08  0.001903502    1.284    0.221
        51 -10.2210     10.6644    134.2640   1.2123077973e+02   4.5756107836e+01    0.1210877   0.07713041  67.87 0.0005937249    1.584    0.369
        52 -10.8399    137.3245    133.3322   8.6527605579e+01   2.7872876310e+01    0.1595296    0.1252737  -5.55 -0.0001503669    1.707    0.414
        53 -11.9016    132.9612    128.3236   8.6453790726e+01   2.9916384853e+01    0.8040818    0.2880938 -40.27  0.002442729    3.279    0.695
        54 -13.8002     83.3206    114.4909   9.7069191383e+01   4.2410264521e+01      2.20213     1.404359  -5.78   0.00849775    3.020    0.669
        55 -14.4682    105.2460    121.8767   9.2401643287e+01   3.6876240427e+01     1.740585     1.112094  36.83  0.007788339    1.660    0.398
        56 -14.9682    106.5582    105.8096   8.8032944548e+01   4.0385347717e+01     1.566231     1.270338 -30.04  0.005782439    1.321    0.243
        57 -11.1367     25.7412    127.2345   1.1635167313e+02   4.6245324385e+01    0.1778032    0.1288965 -52.74  0.001063644    1.349    0.259
        58 -10.9433     59.6647    125.4447   1.0634457102e+02   4.3107408687e+01     0.173781    0.1390477  10.27 0.0009467457    1.598    0.374
        59 -12.8676     28.6528    122.2392   1.1484675804e+02   4.7196273827e+01    0.3469934     0.238751 -78.44  0.002009714    1.264    0.209
        60 -11.6869    182.1453    122.0634   7.3278349168e+01   2.0412091447e+01    0.5000944    0.3146066  80.47  0.001731879    3.175    0.685
        61 -11.8930      3.9761    119.8204   1.2151873690e+02   4.9590643280e+01    0.4303327    0.1757046  16.16  0.002084211    3.333    0.700
        62 -13.9902     17.9026    111.0993   1.1643624097e+02   5.0726251791e+01    0.8226135    0.5463994 -48.44  0.004275814    1.446    0.309
        63 -14.1792     10.9231    101.8233   1.1726366905e+02   5.3387271454e+01    0.7881019    0.7015376 -74.66  0.005593034    1.127    0.113
        64 -13.4349      2.1898     97.2044   1.1936183468e+02   5.4958739136e+01    0.8029159    0.2022392 -73.05  0.003068408    3.233    0.691
        65 -13.6689    171.4899    243.0801   9.8890412261e+01   3.2387888788e-01    0.7743649    0.4346853  31.26  0.004245284    1.579    0.367
        66 -13.6667    120.3030    102.3007   8.3172349193e+01   3.8430780372e+01    0.6636004    0.4020163  37.31    0.0023454    1.766    0.434
        67 -11.5035     45.6763    110.5522   1.0782535929e+02   4.8372447006e+01    0.2967688    0.2009435 -45.07  0.001509199    1.443    0.307
        68 -11.8605    176.7402    110.6112   7.1512875698e+01   2.3940985606e+01    0.4186652    0.2875326 -12.54  0.001712365    2.053    0.513
        69 -12.4150    136.2565    103.1052   7.9097126225e+01   3.4818125858e+01    0.8127462    0.2905895  47.65  0.002594975    2.867    0.651
        70 -12.3927     61.9874     98.4837   1.0005692179e+02   4.9328002853e+01    0.6813355    0.4091004  73.20  0.002684617    3.128    0.680
        71 -12.8109     52.4852     98.0166   1.0308328536e+02   5.0615909887e+01    0.8820499    0.4973065   0.65  0.003598354    3.189    0.686
        72 -12.7809     49.4720     94.5015   1.0330581695e+02   5.1791809144e+01    0.6633001    0.4629616  51.61  0.003543569    1.740    0.425
        73 -12.9546    249.1701     98.0818   5.5698158606e+01   1.0130031592e+01    0.5315944    0.1974512 -34.55  0.002056755    2.421    0.587
        74 -12.7591    137.0264     95.7306   7.6828714847e+01   3.6212380535e+01    0.5000111    0.3850292  67.48  0.001545788    1.527    0.345
        75 -12.2901    125.3612     92.6569   7.9050211661e+01   3.9447267728e+01    0.4185785    0.2675465 -67.79  0.001616894    2.338    0.572
        76 -11.8213     43.2139     91.2754   1.0471498603e+02   5.3225501671e+01     0.398514    0.2291289 -76.51  0.001240709    2.101    0.524
        77 -12.1630     90.2360     88.2346   8.8175062039e+01   4.7355042470e+01    0.4754016    0.3449382  50.34  0.002262993    1.554    0.356
        78 -12.3320    149.6207     85.0991   7.0597253016e+01   3.5431387591e+01    0.5813009    0.3706844  29.57   0.00234524    2.017    0.504
        79 -12.5830    129.4631     85.7626   7.5903463999e+01   3.9974014105e+01    0.7942882    0.4004008  48.05  0.003071638    2.011    0.503
        80 -13.1547    135.6931     80.0321   7.2530361522e+01   3.9695244616e+01    0.7937986    0.4661439  46.18  0.003321253    1.704    0.413
        81 -11.2053     34.4955     86.9174   1.0678830619e+02   5.5088282633e+01    0.2278682    0.1675738 -21.50  0.001032432    1.549    0.354
        82 -12.7834    188.4916     84.3347   6.2091326346e+01   2.6117090003e+01    0.7953537    0.3252075  43.24  0.002668707    2.921    0.658
        83 -13.5006    237.1772     80.2206   5.3180980308e+01   1.5501107868e+01    0.6771365    0.3806379  77.04  0.002906959    2.499    0.600
        84 -13.4917    163.6821     71.5534   6.3405334524e+01   3.4505092105e+01     1.632926     0.524367  46.22  0.004960698    3.332    0.700
        85 -12.7240    160.0202     68.2966   6.3207439694e+01   3.5981295880e+01    0.7228788    0.4316752 -48.49  0.002268451    1.787    0.440
        86 -13.6579    160.8120     80.9396   6.6796537462e+01   3.3517327625e+01    0.9209616    0.6582074  15.22  0.003043177    1.990    0.498
        87 -14.6120    169.2921     77.1450   6.3871408081e+01   3.2123512568e+01     1.422594    0.6807884  51.52  0.005348082    2.065    0.516
        88 -11.9228     40.2951    243.6769   1.2354112773e+02   1.9310069926e+01    0.2628436    0.1540544 -89.77  0.001738206    1.565    0.361
        89 -13.0675     55.1265     82.0720   9.8322187457e+01   5.3995208889e+01      0.55188    0.4248139 -40.16  0.002432408    1.176    0.150
        90 -14.0693     96.5088    238.9325   1.1284718040e+02   1.2727059934e+01    0.6098857    0.4040828  55.78  0.003003999    1.254    0.203
        91 -12.9974     69.9989     76.0447   9.1370848316e+01   5.3308377602e+01    0.4636224    0.3995078 -30.04  0.001488517    1.078    0.072
        92 -12.3891     77.1379     73.8377   8.8218872097e+01   5.2674636360e+01    0.3649817    0.3293141   4.43  0.001060005    1.133    0.118
        93 -13.0384    212.9049     78.3850   5.6294412554e+01   2.1289822858e+01     1.063141    0.6107556  75.59  0.004370037    2.327    0.570
        94 -12.2960    217.9896     74.5006   5.4522532835e+01   2.0737856936e+01    0.3270471    0.2640193  75.89  0.001381483    1.320    0.243
        95 -12.0826    214.5917     72.2173   5.4452677508e+01   2.1901978876e+01    0.3477354    0.3271188  -3.62  0.001569092    1.214    0.176
        96 -12.1820    114.0363     80.1918   7.8500594625e+01   4.4462884741e+01    0.4105053    0.3515848 -58.20  0.001051751    1.267    0.211
        97 -11.2654     90.7677     80.6118   8.5756711163e+01   4.8918636554e+01    0.3711187    0.2514061 -15.17  0.001634723    2.002    0.501
        98 -11.8423     96.5782     79.1924   8.3470483059e+01   4.8152011589e+01    0.3318396    0.2090622  41.92  0.001513505    1.654    0.395
        99 -10.7559     32.5544     80.9050   1.0615447650e+02   5.6643616268e+01    0.1999024     0.108038 -59.75  0.001012594    1.548    0.354
       100 -12.6508     16.5114     78.7638   1.1152461974e+02   5.8363296468e+01    0.4973689    0.3010474 -66.34  0.001964981    1.387    0.279
       101 -11.7352     23.0317     71.8623   1.0763482122e+02   5.9455949591e+01    0.2013728    0.1893195   2.42 0.0005208514    1.257    0.205
       102 -11.6185    147.4055    239.2061   1.0300338411e+02   4.7744807353e+00    0.1515574    0.1199199 -75.41  0.000781438    1.667    0.400
       103 -12.9961      7.7037     50.9100   1.0881572451e+02   6.4947136283e+01    0.8618733     0.365156 -20.37  0.004004347    3.105    0.678
       104 -13.1457      6.1336     43.8752   1.0766897048e+02   6.6471207939e+01    0.7506446    0.3306195  13.49  0.004026468    2.677    0.626
       105 -11.2867     42.2843     76.8837   1.0162550314e+02   5.6618493415e+01    0.2387194    0.1942312   5.15  0.001446662    1.391    0.281
       106 -11.5437    121.5219    112.3482   8.5514449730e+01   3.5921293033e+01    0.2636452    0.1471768  43.07 0.0007548088    1.832    0.454
       107 -11.9421    241.9108     71.4358   5.0478718339e+01   1.5849324093e+01    0.3955362    0.2526355 -70.34   0.00190585    1.906    0.475
       108 -13.8223    199.1343     69.7446   5.6248474650e+01   2.6014433922e+01    0.8069227    0.5428293  51.50  0.002334435    1.541    0.351
       109 -11.8260    199.8719     62.3018   5.4124014304e+01   2.7025785123e+01    0.3858728    0.2211853 -32.23  0.001145357    1.769    0.435
       110 -13.5121    133.4107     66.0457   6.8711208130e+01   4.2840225974e+01    0.9003277    0.7307987  -4.11  0.003060832    1.432    0.302
       111 -12.4883     38.7465     68.1933   1.0066904396e+02   5.8894043760e+01    0.6410679    0.3220272  22.01   0.00312314    2.334    0.572
       112 -11.7745    100.2575     64.7904   7.7651443096e+01   5.0318503367e+01    0.4132859    0.3191992 -23.40  0.002054809    1.328    0.247
       113 -12.8877    135.6048     50.3026   6.2967007904e+01   4.4948185473e+01    0.5522169    0.3413731  30.17   0.00234589    1.995    0.499
       114 -12.1997     24.7315    217.4822   1.2471891173e+02   2.6050026917e+01    0.5745376    0.2977703  67.25  0.003454039    1.615    0.381
       115 -11.5045     14.6047    224.0752   1.2692361018e+02   2.5793522604e+01    0.3582047    0.1952036  70.20   0.00158318    1.437    0.304
       116 -12.8781    109.9495     42.3727   6.6781463636e+01   5.2106674964e+01    0.6107712    0.2413096  46.66  0.001551375    2.390    0.582
       117 -12.8779    113.6653     38.0880   6.4175006526e+01   5.1905858829e+01    0.3958464    0.3593168  30.55  0.002233115    1.026    0.025
       118 -13.9614    178.0555     57.6203   5.6489102429e+01   3.3205813307e+01    0.9302329    0.7062151 -44.72  0.002850021    1.312    0.238
       119 -12.5818     79.4876     60.9786   8.3202590372e+01   5.4888390639e+01    0.5179485    0.4558322 -30.11  0.002836172    1.068    0.063
       120 -12.8717     82.4565     54.6160   7.9933445366e+01   5.5568689805e+01    0.4866741    0.3530969 -22.00  0.001629909    1.398    0.285
       121 -11.6520     77.9566     53.9909   8.1280526510e+01   5.6467058627e+01    0.2948463    0.2468143 -19.69 0.0008660554    1.108    0.098
       122 -11.9646     24.4583     59.8598   1.0409958249e+02   6.1956842901e+01    0.2969402     0.197211 -46.53  0.000869861    1.203    0.169
       123 -10.6361     38.4993     60.0056   9.8430755996e+01   6.0662238869e+01    0.1740009    0.1112788 -78.66 0.0008106396    2.593    0.614
       124 -12.4830    247.7889     54.3055   4.5816553692e+01   1.7119060710e+01     0.565492    0.3333435 -55.23  0.002877167    1.602    0.376
       125 -12.6164    249.1340     49.1092   4.4492897539e+01   1.7562607476e+01    0.3806157    0.3141021 -60.25  0.002349711    1.046    0.044
       126 -11.6109    230.5280     55.5070   4.8097484327e+01   2.0767846206e+01     0.426941     0.134405  64.05   0.00151292    3.348    0.701
       127 -13.7936     25.8048    227.4313   1.2512074275e+02   2.3983470766e+01    0.5810485    0.3300233 -62.43  0.003671099    2.041    0.510
       128 -13.5315    103.0958     50.6648   7.1820318168e+01   5.2260710748e+01    0.8033884    0.4761362 -52.86 0.0008069177    2.226    0.551
       129 -12.6162     98.2960     50.8527   7.3359754342e+01   5.3216329014e+01    0.7615726    0.3906795 -50.55  0.002231784    2.545    0.607
       130 -13.3252     66.0232     48.9566   8.3815295573e+01   5.9324698641e+01    0.5004769    0.4799623  84.69  0.003147823    1.407    0.289
       131 -10.7979     39.2003     52.6005   9.5838881588e+01   6.2103985907e+01    0.1676545    0.1135807   2.11 0.0003492615    1.672    0.402
       132 -11.8417     23.9897     49.5230   1.0135583479e+02   6.4137796109e+01    0.4645992    0.1427942 -34.14   0.00156648    4.538    0.780
       133 -13.1359    157.8295     43.8936   5.6099720154e+01   4.0385597895e+01    0.7715833    0.5190199  33.34  0.003548722    1.754    0.430
       134 -13.5273     20.7717    225.2516   1.2589425572e+02   2.4936791470e+01    0.4254588    0.3446531  82.13   0.00244821    1.202    0.168
       135 -14.9084    212.4608     41.0965   4.6749452926e+01   2.7056949035e+01     2.670626    0.7972404  71.65  0.008028853    4.454    0.775
       136 -13.2934     66.6342    223.3115   1.1715722912e+02   1.9875095596e+01    0.6818716    0.5299281  38.91  0.004510668    1.401    0.286
       137 -12.8834     94.6268    218.5696   1.1105645695e+02   1.6826808267e+01    0.3363369    0.2135172  53.29  0.001431196    1.360    0.265
       138 -11.8699    185.5108    213.5229   9.1617951416e+01   2.5707919900e+00    0.2154739    0.1278251 -54.76  0.001039043    2.358    0.576
       139 -12.5661     75.9096     37.3693   7.5662876710e+01   5.9664744999e+01    0.3470738    0.2380854  37.53 0.0009674179    1.449    0.310
       140 -12.3496     69.6430     36.8037   7.7729109857e+01   6.0828506550e+01    0.4368714    0.2235298  33.37  0.000907735    2.013    0.503
       141 -11.3324    104.4807     37.0187   6.6318549500e+01   5.4088163511e+01    0.2148796    0.1360652 -29.32  0.001038715    1.609    0.379
       142 -11.7358     58.6442     35.3230   8.1395607121e+01   6.2803699696e+01    0.4647554    0.2150008  34.66  0.002168986    2.227    0.551
       143 -12.2949     46.1859     33.8310   8.5995000931e+01   6.4777413039e+01    0.4640969    0.2818114 -28.50  0.002567514    1.497    0.332
       144 -13.0362      9.1805    211.0976   1.2721442831e+02   2.8882222807e+01    0.6179157    0.4047243  39.02  0.004307375    1.648    0.393
       145 -11.4818    136.8308    211.3413   1.0128867858e+02   1.1387028985e+01    0.2158394    0.1829691 -80.76 0.0008345481    1.362    0.266
       146 -12.7681      2.0013     21.8071   1.0280119411e+02   7.0915026891e+01    0.2321602    0.1543598 -54.94  0.001202267    1.425    0.298
       147 -14.0515     63.3050    214.6394   1.1703183592e+02   2.2053087910e+01    0.7244998    0.4055255  59.80  0.004032578    1.593    0.372
       148 -12.2686     41.8709    206.9699   1.2067545835e+02   2.6299876192e+01    0.2636618    0.1309085  84.73    0.0013554    2.058    0.514
       149 -11.0785    150.7412    206.9794   9.7682995019e+01   9.7822083622e+00    0.2652358     0.164106  29.24  0.001295637    1.691    0.409
       150 -12.4864     57.3234    203.2405   1.1719126361e+02   2.5202373392e+01    0.4724051    0.2299425 -86.69  0.002263925    2.286    0.562
       151 -12.6376     16.9599    195.0748   1.2477911216e+02   3.1459278003e+01    0.8297261     0.253564 -73.33  0.003833063    2.705    0.630
       152 -12.0250     29.3885     32.2312   9.2959530431e+01   6.6955811501e+01    0.5044821     0.290314  -8.68  0.002702871    2.050    0.512
       153 -13.4197     29.9778    169.3409   1.1995454188e+02   3.5885682335e+01     0.689785    0.4142442 -46.40  0.001904111    2.147    0.534
       154 -10.9944     89.1470     30.1777   6.8247462661e+01   5.8238372235e+01    0.2004881    0.1623415  15.65 0.0002660543    1.167    0.143
       155 -11.3342     38.2952     30.0168   8.7942088505e+01   6.6385534039e+01    0.1755826    0.1291479 -28.57  0.000351391    1.137    0.120
       156 -12.9164     56.3764     27.5113   7.9020440052e+01   6.4379439759e+01    0.5563707    0.2883257  43.96  0.001944342    2.223    0.550
       157 -12.9335     67.9131     24.6017   7.3214859021e+01   6.2949921674e+01    0.6868466    0.3298282  38.88  0.003287789    2.015    0.504
       158 -13.5269     22.3901    181.1144   1.2265103251e+02   3.3971963969e+01    0.6477754    0.4105849 -61.09  0.003018096    1.635    0.389
       159 -11.0224     97.9125     27.1570   6.4347071794e+01   5.6838166442e+01    0.2000208    0.1894736  65.32   0.00122191    1.257    0.205
       160 -12.0610     46.4372     21.0445   8.0364982273e+01   6.6776615636e+01    0.3371477    0.2408249  -9.62   0.00122054    1.260    0.206
       161 -11.0924     53.6646     20.1108   7.6830156093e+01   6.5870770805e+01    0.3698412    0.1511253  27.98  0.001536758    3.009    0.668
       162 -14.6931      8.1584    183.5650   1.2580229150e+02   3.4734964198e+01     1.057513    0.8248622  75.87   0.00769081    1.082    0.076
       163 -14.7115     15.7394    175.4451   1.2364213569e+02   3.5854767588e+01     1.969634     0.619253  55.02  0.008407297    3.213    0.689
       164 -12.8872    164.1233    194.0759   9.2670340648e+01   9.7741995527e+00    0.5986316    0.2933614 -56.17  0.002439721    2.708    0.631
       165 -12.4481    200.9595    191.9490   8.4681182835e+01   3.4211769684e+00    0.3388756    0.2679667  -1.97  0.001419377    1.299    0.230
       166 -11.7432     49.0242    181.6055   1.1684309735e+02   3.0985287566e+01    0.3498316    0.2189326 -52.18  0.001911803    1.858    0.462
       167 -13.4217    197.2682    179.8005   8.3055541534e+01   6.1914307491e+00    0.7031645    0.4550782 -69.91  0.002781077    3.308    0.698
       168 -11.5868    169.4681     43.7622   5.3909586985e+01   3.7447958683e+01    0.2842781    0.2002434  63.63 0.0008780871    1.363    0.266
       169 -12.4207     85.3018    180.4921   1.0834492549e+02   2.6321175016e+01    0.2988503    0.1949179  79.32  0.001476311    1.743    0.426
       170 -13.2228    124.6099    167.8171   9.6891214930e+01   2.2565359205e+01    0.6689094    0.2760105 -51.77  0.002521707    2.479    0.597
       171 -12.2877     14.2819    159.2129   1.2266353120e+02   3.9660894394e+01    0.4632478    0.2081591 -67.53  0.002426965    1.826    0.452
       172 -12.0077     77.3645    156.9440   1.0681728834e+02   3.3009558882e+01    0.3823758     0.296034  35.05  0.001362378    1.415    0.293
       173 -10.2384     55.5080     41.3886   8.5080272270e+01   6.2223111919e+01    0.1305253    0.1094674 -11.38 0.0001207715    1.043    0.041
