#   1 NUMBER                 Running object number                                     
#   2 MAG_AUTO               Kron-like elliptical aperture magnitude                    [mag]
#   3 X_IMAGE                Object position along x                                    [pixel]
#   4 Y_IMAGE                Object position along y                                    [pixel]
#   5 X_WORLD                Barycenter position along world x axis                     [deg]
#   6 Y_WORLD                Barycenter position along world y axis                     [deg]
#   7 A_WORLD                Profile RMS along major axis (world units)                 [deg]
#   8 B_WORLD                Profile RMS along minor axis (world units)                 [deg]
#   9 THETA_WORLD            Position angle (CCW/world-x)                               [deg]
#  10 FWHM_WORLD             FWHM assuming a gaussian core                              [deg]
#  11 ELONGATION             A_IMAGE/B_IMAGE                                           
#  12 ELLIPTICITY            1 - B_IMAGE/A_IMAGE                                       
         1 -15.3706     10.3502    152.9985   1.4428340587e+02   4.2013097146e+01     6.197137     1.942783 -80.05   0.02469004    3.310    0.698
         2 -13.5209    193.8611     29.4718   6.9774074521e+01   3.3423894577e+01     1.307058     1.250934  82.77   0.00648522    1.116    0.104
         3 -13.7828    208.9556     10.2494   6.3133824904e+01   3.1953763817e+01     1.370877    0.9882532  43.62  0.007010454    1.694    0.410
         4 -12.1258      2.3470      8.0799   1.1627992043e+02   7.1236188457e+01    0.9057242    0.1510494 -45.62  0.003648137    4.543    0.780
         5 -10.5310     81.9921    248.9993   1.3967944130e+02   1.3321847566e+01    0.1910735    0.1431766  67.24 0.0008157105    1.017    0.016
         6 -11.5928    139.2945    248.9197   1.2934812405e+02   4.1948261327e+00     0.360741    0.2559569 -55.68   0.00222371    1.689    0.408
         7 -11.2366     97.7475    247.4710   1.3675205695e+02   1.1217899661e+01    0.4134016    0.2566332 -84.33  0.002060744    1.778    0.438
         8 -10.6211    101.0209    245.9668   1.3600729965e+02   1.0977037759e+01    0.2239088     0.162743 -81.04 0.0004891236    1.425    0.298
         9 -10.4447     30.0626    250.0241   1.4834492730e+02   1.9995391735e+01    0.3007083    0.1833181  81.80  0.001237004    1.259    0.206
        10 -11.4858     35.3134    245.1869   1.4720013543e+02   2.0259491463e+01    0.5338508    0.3153989 -72.68  0.003619336    1.639    0.390
        11 -10.7299     16.8531    249.6472   1.5035396163e+02   2.1557343740e+01    0.1998461    0.1609329  86.45  0.001653085    1.352    0.261
        12 -11.5927      3.0334    246.5717   1.5225988061e+02   2.3563924408e+01    0.7717654    0.2745084 -89.68  0.004250435    2.499    0.600
        13 -10.2757     46.2967    248.4271   1.4564828853e+02   1.8310811417e+01    0.3251495    0.1359013  70.60 0.0009667057    2.501    0.600
        14  -9.5076    111.5172    250.5565   1.3461015385e+02   8.5022543951e+00    0.1234406   0.09654995  60.41 2.248617e-05    1.006    0.006
        15 -10.5391    106.6564    247.5758   1.3516233135e+02   9.7999974439e+00    0.3238168    0.1658748  76.60  0.001439402    3.007    0.667
        16 -10.4459     22.6009    244.7537   1.4918754863e+02   2.1812569630e+01    0.2369151    0.1193075  66.32 0.0009028095    1.544    0.352
        17 -11.2925     11.2987    239.1767   1.5062205012e+02   2.4068217391e+01    0.4085404    0.1301275  56.67  0.001676165    2.488    0.598
        18 -11.0900    234.7596    239.0602   1.1021550092e+02  -1.0426510966e+01    0.2963441    0.1936058 -53.68  0.001604115    2.595    0.615
        19 -10.9353    119.8395    238.1481   1.3164285695e+02   9.3375804380e+00    0.2552436    0.1691673 -81.31  0.001432038    1.787    0.440
        20 -11.3201    245.7752    246.2938   1.0949305216e+02  -1.3004913497e+01    0.3156554    0.2556668 -79.98  0.001828125    2.964    0.663
        21 -12.7735     36.7806    232.0892   1.4603632291e+02   2.2562873175e+01     0.286429    0.2345594 -86.17 0.0007847825    1.306    0.234
        22  -9.4676     34.7349    202.4927   1.4401393290e+02   2.8803369813e+01    0.1919623    0.1439865 -86.28  0.000217459    1.105    0.095
        23 -11.6997     63.0478    197.9597   1.3801128965e+02   2.6244023299e+01    0.3221085    0.2447018 -46.88  0.001151359    1.771    0.435
        24  -9.8764    192.7077    194.3922   1.1013896094e+02   3.9475983085e+00    0.5172843    0.2615541 -64.96  0.001429944    6.188    0.838
        25 -15.0410     42.6649    223.9384   1.4438653071e+02   2.3452571214e+01     6.099291     1.026901  39.95  0.005998417    4.776    0.791
        26 -11.4133    153.3168    228.8128   1.2392840635e+02   5.1839502183e+00     0.506932    0.1659462  37.99  0.001820058    3.171    0.685
        27 -11.9294     68.8632    189.9843   1.3586082389e+02   2.7194259487e+01    0.2808464    0.2253823 -65.08  0.000481712    1.289    0.224
        28 -10.2803    228.4785    227.9836   1.0943972154e+02  -7.9222841744e+00    0.3124294     0.233048 -60.25  0.001674561    2.211    0.548
        29 -10.3174    230.6739    231.9903   1.0973884849e+02  -8.8350793797e+00    0.2543779    0.1766083 -51.57  0.001307241    2.111    0.526
        30 -13.2156     65.5446    175.4066   1.3469320265e+02   3.0945345335e+01    0.4958058    0.2739645 -46.76  0.001461039    2.242    0.554
        31 -10.9254     78.6461    177.3835   1.3204185953e+02   2.8622507764e+01    0.2415671    0.2112634 -83.63 0.0002903918    1.069    0.065
        32  -9.0415     99.8549    176.3034   1.2707447721e+02   2.5502011915e+01    0.2352313    0.1340107  76.20 0.0006334076    2.624    0.619
        33 -11.9579     86.1271    167.9588   1.2889534026e+02   2.9654416042e+01    0.6774445    0.5838538  75.98  0.003990916    1.084    0.077
        34 -13.2569      8.8739    207.5921   1.4908662439e+02   3.0458197578e+01    0.8419148    0.6798775 -68.08  0.004943059    1.510    0.338
        35 -10.0473     98.5611    152.0051   1.2311538969e+02   3.1360894573e+01    0.3013971    0.2507921 -64.04 0.0008136012    1.128    0.114
        36  -9.2678    101.3087    147.9849   1.2165598928e+02   3.1833763239e+01    0.2160593    0.1921776 -35.78 0.0003543059    1.291    0.226
        37 -11.9818     87.1015    151.3347   1.2582837244e+02   3.3397363044e+01    0.2979706    0.2447633 -47.49 0.0005940303    1.299    0.230
        38 -12.6336     67.3931    144.0199   1.2947426205e+02   3.8018061238e+01    0.7694184    0.5244735  79.13  0.003496721    1.716    0.417
        39 -11.7498     57.1818    131.1881   1.2987094167e+02   4.2350923299e+01    0.7165987    0.3251886 -76.91   0.00265523    3.222    0.690
        40  -8.5136    192.2728    144.2703   9.9598290232e+01   1.3778190727e+01    0.1461573    0.1204195   5.20 0.0002205827    1.479    0.324
        41 -10.2041    173.4648    222.4874   1.1898150302e+02   2.6196864500e+00    0.2976705    0.1178073  42.98  0.001224371    2.213    0.548
        42 -10.6028     97.2027    134.4299   1.1993775399e+02   3.5723159258e+01    0.2694917    0.2212249 -40.33 0.0005030857    1.297    0.229
        43 -10.9737     34.8606    133.3929   1.3603257779e+02   4.4291936198e+01    0.2552843     0.203962  64.78 0.0004801382    1.359    0.264
        44  -9.6773     81.2619    132.9573   1.2382671803e+02   3.8636636587e+01    0.2095412    0.1957796  63.30 0.0003829189    1.140    0.123
        45  -9.8300    110.0907    137.0245   1.1716205255e+02   3.2829327702e+01    0.3867528    0.2619132 -17.96  0.001256711    2.540    0.606
        46  -9.1078    106.9183    123.8773   1.1502461587e+02   3.6456369814e+01     0.201211    0.1890486 -31.77 0.0002806489    1.134    0.118
        47  -9.1756     92.4208    214.5354   1.3406248153e+02   1.8392653434e+01    0.2239154    0.1314194  82.10  0.001090309    2.027    0.507
        48 -10.2598    167.8739    112.8908   9.7167144610e+01   2.5856509421e+01     0.358714    0.2875635 -82.99 0.0007477986    1.507    0.336
        49  -9.6502    203.3976    111.7346   8.9525229247e+01   1.7671305958e+01    0.2114642    0.1460931 -29.69 0.0004721092    1.570    0.363
        50  -8.9498    152.6835    212.9224   1.2160345353e+02   8.1992406878e+00    0.1768103    0.1647479  81.16 0.0003250144    1.116    0.104
        51  -9.8892     70.1324     84.4863   1.1568551204e+02   5.1121257739e+01    0.3673987    0.2346369  59.63  0.001597157    2.442    0.591
        52  -9.0351    157.2996     76.3417   8.9503961889e+01   3.5472354728e+01    0.1550851    0.1202603  13.39  0.000530781    1.670    0.401
        53 -10.5501     26.8476     59.9780   1.2352383294e+02   6.0816949326e+01     0.344326    0.1864047  42.40  0.001309296    2.644    0.622
        54 -10.5166     19.8330     57.2498   1.2533029598e+02   6.1885594634e+01    0.3483332     0.161138  39.74  0.001549032    3.094    0.677
        55 -11.4514    124.4335    249.6451   1.3216615545e+02   6.5572608918e+00    0.5225362    0.1387682  40.25  0.001891289    3.592    0.722
        56 -10.1760     88.5066    248.5307   1.3849622508e+02   1.2438535750e+01    0.1986677    0.1157891  67.81 0.0006495661    1.588    0.370
