#   1 NUMBER                 Running object number                                     
#   2 MAG_AUTO               Kron-like elliptical aperture magnitude                    [mag]
#   3 X_IMAGE                Object position along x                                    [pixel]
#   4 Y_IMAGE                Object position along y                                    [pixel]
#   5 X_WORLD                Barycenter position along world x axis                     [deg]
#   6 Y_WORLD                Barycenter position along world y axis                     [deg]
#   7 A_WORLD                Profile RMS along major axis (world units)                 [deg]
#   8 B_WORLD                Profile RMS along minor axis (world units)                 [deg]
#   9 THETA_WORLD            Position angle (CCW/world-x)                               [deg]
#  10 FWHM_WORLD             FWHM assuming a gaussian core                              [deg]
#  11 ELONGATION             A_IMAGE/B_IMAGE                                           
#  12 ELLIPTICITY            1 - B_IMAGE/A_IMAGE                                       
         1 -14.6969    153.4607     50.9719   8.5094433731e+01   4.0410152203e+01     1.196471     1.164787 -39.87  0.003412481    1.060    0.057
         2 -14.9231    163.3682     21.7784   7.3067935146e+01   4.1587105712e+01      1.11569      1.04381  75.80  0.003437577    1.022    0.022
         3 -13.3974    189.7813     13.9637   6.7113067501e+01   3.5253061769e+01    0.6192393    0.3719596 -39.40  0.002172459    1.592    0.372
         4 -13.6878    183.7245      8.0968   6.5913022351e+01   3.7425201604e+01     2.417037    0.7994994 -84.17  0.004652645   10.455    0.904
         5  -9.5709     43.7034      1.7122   1.0057412081e+02   7.3537533346e+01    0.1338808   0.09203202   3.25 0.0001722039    1.551    0.355
         6 -12.3134    187.4320    241.4056   1.1936361129e+02   3.6859257344e+00    0.4230956    0.1457215  35.78  0.002166402    2.104    0.525
         7 -11.6503    189.8764    250.0519   1.1999930019e+02   2.4459911400e+00    0.3164442    0.1154091  35.49 0.0007379507    1.950    0.487
         8 -20.6133     89.7845    183.8939   1.3272813726e+02   2.6497945586e+01     12.68042     6.919259 -67.07   0.06581198    2.165    0.538
         9 -13.3733    230.5058    167.3477   9.9845502908e+01   6.0573102933e+00    0.4454576    0.3238543 -39.00  0.002616106    1.811    0.448
        10  -9.9820     13.6985    238.2591   1.5226663730e+02   2.5233720395e+01    0.1045326   0.04583481  51.72 0.0006537865    1.511    0.338
        11 -11.2714    211.9354    236.7984   1.1443979850e+02   9.2868551339e-01    0.1999716    0.1189195   4.51  0.001096738    1.639    0.390
        12 -12.2834    149.4482    157.3758   1.1427402658e+02   2.1803746700e+01    0.3380132    0.2438866 -58.67  0.001470175    1.818    0.450
        13 -14.0244    160.2433    153.1008   1.1095376591e+02   2.0558138055e+01    0.8408237    0.4478595  43.01  0.003273607    1.716    0.417
        14 -11.1957    176.6998    154.8326   1.0766682745e+02   1.7178084792e+01    0.2403816    0.2024217  45.46 0.0004593307    1.295    0.228
        15 -12.7283    174.2127    148.6575   1.0694873404e+02   1.8666206936e+01    0.3979911    0.3137864 -42.65  0.001133575    1.472    0.321
        16 -12.5723     27.7937    145.6692   1.4527022619e+02   4.1906703917e+01    0.4628078    0.2955851 -78.18  0.002711379    1.478    0.323
        17 -11.6411    207.4095    220.5264   1.1292189278e+02   3.2537783656e+00    0.2016325    0.1575593  16.87 0.0006716961    1.150    0.131
        18 -12.1021    172.7713    138.9916   1.0521562950e+02   2.0584727389e+01    0.2570859    0.1966426  35.54 0.0006382822    1.192    0.161
        19 -10.7409    217.7517    218.2364   1.1075852462e+02   2.0761931639e+00    0.1736792    0.1249739 -18.43 0.0005494726    1.492    0.330
        20 -10.2749     13.4750    137.1426   1.4876352412e+02   4.4966030753e+01    0.1687156    0.1035848 -86.90 0.0003319225    1.442    0.307
        21 -12.3364    148.0180    133.9275   1.0986859320e+02   2.6467793285e+01    0.2266287     0.207729  35.50 0.0004158994    1.056    0.053
        22 -10.4609    186.5367    236.5085   1.1890002397e+02   4.3481758863e+00     0.171286    0.1087609 -32.53 0.0005918689    1.985    0.496
        23 -10.5522     17.1659    131.1408   1.4734323228e+02   4.6097383317e+01    0.1782108    0.1515323 -57.61 0.0007874054    1.325    0.245
        24 -11.1662      5.5267    131.0072   1.5073056935e+02   4.6882023352e+01    0.1716578    0.1472107  52.74 0.0004142627    1.156    0.135
        25 -13.5351    160.5230    128.1801   1.0557530471e+02   2.4996277158e+01    0.5025299    0.4495802  27.23  0.001622023    1.022    0.021
        26 -10.9837      9.7717    212.5981   1.5240217183e+02   2.9876509424e+01    0.1419869    0.1077435  76.98 0.0003458628    1.251    0.201
        27 -11.1435    165.3352    233.6500   1.2248215540e+02   7.6152265700e+00     0.174703     0.139507 -21.74 0.0005954787    1.545    0.353
        28 -10.9346     12.3331    125.5669   1.4844413448e+02   4.7730050801e+01    0.3113554    0.1529836 -39.18  0.001467442    2.850    0.649
        29 -13.1489     12.2448    206.2803   1.5173979237e+02   3.0802237598e+01    0.5842766    0.2642082  29.38  0.003229716    1.976    0.494
        30 -12.6718     40.3779    123.4769   1.3952124738e+02   4.5983208901e+01    0.4961272    0.2228755  22.11  0.002186817    2.465    0.594
        31  -9.8963     39.1858    250.6991   1.4802174018e+02   2.0918512980e+01   0.09324569   0.05106188  58.80 0.0002459729    1.441    0.306
        32 -11.9469    141.3494    120.9169   1.0859379687e+02   3.0387929413e+01    0.5016264    0.2643633  59.07  0.001780102    2.797    0.642
        33 -12.3706     39.5762    115.2804   1.3882594558e+02   4.8061248606e+01    0.3995563    0.2590263 -10.62  0.001484953    2.249    0.555
        34 -11.3360    167.7549    112.8625   1.0022336619e+02   2.6238247031e+01    0.3556037    0.2823457  85.91  0.001302987    1.874    0.466
        35 -11.5587     16.8663    192.4178   1.5032851897e+02   3.3004599358e+01    0.1658492    0.1405079  82.72 0.0003604122    1.244    0.196
        36 -11.0311    205.5231    110.1801   9.1906309964e+01   1.8517494064e+01     0.263749    0.2270257  36.54 0.0006235947    1.169    0.145
        37  -9.9939     27.6472    228.1531   1.4936956585e+02   2.5612483417e+01    0.1060951   0.08508552  76.27 0.0001809191    1.291    0.225
        38 -12.6633     18.4614    182.7069   1.4960706720e+02   3.4773944526e+01    0.3446265    0.1937923 -56.23  0.002037914    2.283    0.562
        39 -10.5186    207.6183    226.7206   1.1378307814e+02   2.5500733483e+00    0.1254043    0.1017665 -19.47 0.0009342458    1.529    0.346
        40 -14.2819    238.2084    174.9672   9.9983596675e+01   3.9676662993e+00    0.5338784    0.4826027  15.56  0.003825061    1.446    0.308
        41 -13.0561    203.9641    174.7494   1.0600687674e+02   9.4082885536e+00     0.500513    0.3884687 -61.34  0.002484887    2.449    0.592
        42 -12.1212    207.6968    171.6135   1.0472330131e+02   9.2118214207e+00    0.3088999      0.21496 -42.50 0.0008382206    1.896    0.473
        43 -12.9772    195.5254    173.0082   1.0730911120e+02   1.1063052797e+01    0.6526279    0.4104663 -48.43  0.002766024    2.321    0.569
        44 -11.6372    109.3537     83.0710   1.0773709219e+02   4.5165444912e+01    0.2755001    0.2203158  48.97 0.0003407104    1.252    0.201
        45 -14.9478    144.2654     65.2947   9.2057716253e+01   4.0446400671e+01     1.349941     1.257357  30.72  0.003150162    1.053    0.050
        46 -13.6805    157.4135     41.9427   8.1166352438e+01   4.0677223453e+01    0.5812514    0.5674821 -59.30 0.0008189068    1.055    0.052
        47 -11.7090    156.7826    247.6593   1.2570957671e+02   7.0828745823e+00    0.2185308    0.1660314 -18.34 0.0007429432    1.681    0.405
        48 -12.9832    192.5353    164.5013   1.0629755876e+02   1.2807733367e+01    0.3291165    0.2511468  13.93 0.0006481333    1.173    0.147
        49 -11.5990     13.4246     59.8755   1.4177230287e+02   6.3768260233e+01    0.2155925    0.2073745  84.93 0.0004035833    1.140    0.123
        50  -9.9088     45.2338    246.3699   1.4674565887e+02   2.0961611178e+01   0.07954419   0.07689773 -17.75 0.0004211634    1.603    0.376
        51 -12.7428      7.8164     24.7993   1.3806518163e+02   7.2438209649e+01    0.4057139    0.2180482 -15.01 0.0009901323    2.029    0.507
        52 -10.5123      3.2960    245.8642   1.5425348634e+02   2.4929411238e+01    0.1568902    0.1037047  17.23 0.0007763521    2.019    0.505
        53 -14.1834    189.8596    161.0966   1.0617400287e+02   1.3790134386e+01     1.002733    0.4736896 -35.02   0.00274821    2.273    0.560
