#   1 NUMBER                 Running object number                                     
#   2 MAG_AUTO               Kron-like elliptical aperture magnitude                    [mag]
#   3 X_IMAGE                Object position along x                                    [pixel]
#   4 Y_IMAGE                Object position along y                                    [pixel]
#   5 X_WORLD                Barycenter position along world x axis                     [deg]
#   6 Y_WORLD                Barycenter position along world y axis                     [deg]
#   7 A_WORLD                Profile RMS along major axis (world units)                 [deg]
#   8 B_WORLD                Profile RMS along minor axis (world units)                 [deg]
#   9 THETA_WORLD            Position angle (CCW/world-x)                               [deg]
#  10 FWHM_WORLD             FWHM assuming a gaussian core                              [deg]
#  11 ELONGATION             A_IMAGE/B_IMAGE                                           
#  12 ELLIPTICITY            1 - B_IMAGE/A_IMAGE                                       
         1 -13.1208     62.7806     44.7010   7.4012596358e+01   6.0748503360e+01    0.8164861    0.6158677  64.96  0.001915017    2.302    0.566
         2 -11.7079     14.1905     38.4530   9.4108556154e+01   6.7713509417e+01     0.699358    0.6369275  76.40  0.004317265    1.769    0.435
         3 -12.4634    107.6995     28.9750   5.3166789705e+01   5.3972953089e+01    0.4544763    0.4029147  31.87  0.002750705    1.044    0.042
         4 -11.9278    105.5930     21.1395   5.0774645314e+01   5.5319483351e+01    0.4583553    0.2960357  62.88 0.0004099029    1.528    0.346
         5 -11.4777     18.8497     28.1120   8.7655112746e+01   6.9162731686e+01    0.4731129    0.2618582 -48.49 0.0007576308    1.866    0.464
         6 -11.0287    218.2771     18.9789   3.3293379117e+01   2.8880898986e+01    0.5169598    0.2792278 -59.80  0.001565816    1.727    0.421
         7 -10.3474    211.7100     16.0355   3.3224453056e+01   3.0658873232e+01    0.4642522    0.1872704 -57.69  0.001489209    2.598    0.615
         8 -10.5489    206.1806     24.5570   3.5704696716e+01   3.0935572321e+01    0.4457395     0.356133 -84.50  0.001348508    1.092    0.084
         9 -11.1069    174.4320     23.2505   3.9045509757e+01   3.8546543898e+01    0.7092435     0.459216  87.40   0.00372346    1.551    0.355
        10 -10.6669    166.5032     17.5714   3.8542377642e+01   4.1072718302e+01    0.2811992    0.2581157   4.77  0.001352144    1.347    0.257
        11 -10.9449    182.4871     18.1686   3.6720845917e+01   3.7168649728e+01    0.5019991    0.3342075  33.72 0.0008883073    2.092    0.522
        12  -9.0511     70.4455     20.0219   6.0698180169e+01   6.2838232856e+01     0.376596    0.1561135 -35.46  0.001675005    2.665    0.625
        13 -11.3815     62.5091     16.5706   6.2030147803e+01   6.4703403464e+01    0.6124954    0.3282245  32.97  0.002018817    1.681    0.405
        14 -12.0041    117.0399     22.2199   4.8505056442e+01   5.2560137669e+01    0.2817859     0.222949  28.64 0.0003962697    1.285    0.222
        15 -10.3031     26.3794     21.1799   8.0582188005e+01   6.9492534133e+01    0.4465511    0.2564997  -4.80  0.002447885    1.848    0.459
        16 -10.7365     23.3806      1.7665   7.2279609275e+01   7.2441304025e+01    0.1867486    0.1278812  14.00  0.001079799    1.173    0.148
        17  -9.4518     18.4980      1.5609   7.4903736639e+01   7.3062389051e+01    0.1945511    0.1293536  13.86 0.0006077493    1.235    0.190
        18 -11.1398     13.9950     11.2014   8.2651095297e+01   7.2268073175e+01    0.2689433    0.1922762 -19.82 0.0003508223    1.123    0.109
        19 -10.5843     15.0807      4.3714   7.8449291852e+01   7.3093742280e+01    0.2881522    0.1611521 -24.91 0.0006040653    1.533    0.348
        20 -11.5882     20.0627      6.7033   7.6822784478e+01   7.2237638595e+01    0.4345991    0.2191705  14.24  0.002141365    2.033    0.508
        21 -11.2446     24.8967      6.7998   7.4202229982e+01   7.1645937354e+01    0.2846586    0.1727517 -35.65 0.0004220456    1.795    0.443
        22 -11.1296      5.9778     16.1939   8.9797309054e+01   7.2201731307e+01    0.4246913    0.3068728 -56.67  0.002585632    1.979    0.495
        23  -9.6708    199.6883     18.5958   3.4961788391e+01   3.3096464569e+01    0.2996384    0.2097637 -34.35  0.001704815    1.537    0.349
        24 -11.3258    231.1357     15.4160   3.1473420727e+01   2.6529617394e+01    0.5382856    0.2811408 -50.52   0.00258447    1.631    0.387
        25  -9.4088    225.7692     16.6902   3.2165439361e+01   2.7520971452e+01    0.3109768    0.1956638 -22.02  0.001744118    2.134    0.531
        26 -10.8152    236.4767      6.9541   2.9372672570e+01   2.6350473369e+01    0.2683628    0.2057341 -57.98 0.0009817908    1.136    0.120
        27 -10.2854    232.1663      6.2899   2.9534701525e+01   2.7309215619e+01    0.3347083    0.2127773 -36.53  0.001023516    1.618    0.382
        28 -10.8242    237.0751      2.9144   2.8536165763e+01   2.6654061819e+01    0.4893852    0.2209086  89.02  0.002587395    2.141    0.533
        29 -10.5661     16.9066     17.3106   8.3937045828e+01   7.1079052662e+01    0.5208622     0.270925   5.11  0.002485438    2.073    0.518
        30 -10.3400    116.9901     15.4796   4.6126265493e+01   5.3243840495e+01    0.2992765      0.20722  51.77 0.0004556359    1.234    0.190
        31 -11.0460    244.0179     13.6241   3.0171511828e+01   2.4092662295e+01    0.2823965    0.2400642  82.45  0.001533298    1.289    0.224
        32 -10.4044    247.1523      9.8346   2.9227386671e+01   2.3891521073e+01    0.2912985    0.2120195 -22.58  0.001597503    1.895    0.472
        33  -9.9728    248.0112      4.7571   2.8207251955e+01   2.4273376171e+01    0.2196975    0.1422985  83.85 0.0002294546    1.412    0.292
        34 -10.1128    250.0159      1.4907   2.7476403571e+01   2.4227755547e+01    0.2316145    0.1836783 -87.40 0.0006397007    1.200    0.166
        35 -10.5408    175.3298     12.9151   3.6191484502e+01   3.9418345094e+01    0.5594615    0.3044849  72.68  0.002334495    1.621    0.383
        36 -10.7212    133.1137     12.6598   4.2112364666e+01   4.9661268696e+01     0.228921    0.2224457  16.89  0.000267231    1.167    0.143
        37  -9.3713    128.6848      9.1941   4.1743560860e+01   5.1032952867e+01     0.373119    0.2655116  -5.24  0.002113729    1.729    0.422
        38 -10.5909     98.0444     12.8710   4.9469903719e+01   5.7830069780e+01    0.4264015    0.2358214  59.61  0.001227459    1.654    0.395
        39  -7.7454     84.8444      8.6293   5.1221158855e+01   6.1080206922e+01    0.1858596    0.1088568  52.86 0.0004322339    1.472    0.321
        40  -9.3628     89.1316     13.2710   5.1965381419e+01   5.9742675116e+01    0.2995685    0.2134878  50.02  0.001344543    1.227    0.185
        41  -9.6368     88.0271      6.3095   4.9388529816e+01   6.0598429141e+01    0.2646711    0.2116018  57.27  0.001145539    1.218    0.179
        42  -9.4331     90.7272      8.8540   4.9728274878e+01   5.9798520064e+01    0.3131418    0.1674248  31.05  0.001076231    1.914    0.477
        43 -10.1374     32.3164     12.7530   7.3416888305e+01   6.9936030381e+01    0.2337354    0.1996869  11.81 0.0009302899    1.292    0.226
        44  -9.5572    219.0313     11.4392   3.1590667144e+01   2.9549449902e+01    0.4244269    0.1225178 -48.05  0.001778553    2.968    0.663
        45 -10.2757    146.0456     12.3419   3.9924273736e+01   4.6558606882e+01    0.5357478    0.1831724  62.06  0.002031841    2.342    0.573
        46  -9.9005     79.0124     11.9398   5.4339375107e+01   6.1991684082e+01    0.2086939    0.1667787 -10.00 0.0004765226    1.311    0.237
        47  -8.9111     51.5022     12.4872   6.4451474012e+01   6.7078031827e+01    0.3113718    0.1789207 -36.06  0.001462379    2.039    0.510
        48 -10.0634     55.9448     11.1515   6.2003699682e+01   6.6464043047e+01    0.2656306    0.1811978 -12.69 0.0007940417    1.435    0.303
        49  -9.3296     43.6599      9.4171   6.6310723103e+01   6.8691209403e+01    0.3246916    0.1320733  38.64  0.001157702    2.175    0.540
        50  -8.7946     48.3833      8.2785   6.3677433523e+01   6.8054996724e+01    0.1762398    0.1312183  27.80  0.001140561    1.145    0.126
        51 -10.1981     42.8962     15.7060   6.9790754758e+01   6.8062243142e+01    0.4293815    0.1982728  32.21  0.002169791    1.987    0.497
        52  -9.2485    196.6044     12.4648   3.3811585893e+01   3.4463046228e+01    0.1837268    0.1500724 -39.48 0.0001389852    1.337    0.252
        53 -10.6361    195.8803      3.7239   3.1818287711e+01   3.5501619380e+01     0.653559    0.2672824  63.39  0.003151502    2.166    0.538
        54  -9.6793    195.3030      8.6929   3.3040867603e+01   3.5147520515e+01     0.232671    0.1499718 -82.35 0.0002903032    1.437    0.304
        55 -10.5069    192.0202      8.0158   3.3191662250e+01   3.5972531997e+01     0.382265    0.2549033 -24.40  0.001387494    1.820    0.450
        56  -8.9203     69.4340     11.8672   5.7395444291e+01   6.3904982765e+01    0.1751075    0.1380717   7.86  0.001101835    1.179    0.152
        57  -9.8088    224.2994      9.3202   3.0727954001e+01   2.8642696145e+01    0.2219898    0.1614169 -55.96 0.0007340264    1.200    0.167
        58  -9.7375    212.1157      9.8152   3.1805043358e+01   3.1237015953e+01    0.3146816    0.1549498  80.61  0.001626515    1.879    0.468
        59  -9.3309    165.8157      9.0410   3.6289075384e+01   4.2075734664e+01    0.2637342    0.1802541 -31.32  0.001027171    1.639    0.390
        60  -9.5476    120.0523      9.0751   4.3271534422e+01   5.3097254186e+01    0.2832859    0.1918413 -18.67 0.0006987323    1.717    0.418
        61  -9.6455    202.2110      8.5263   3.2369193139e+01   3.3587106335e+01    0.2400886    0.1851043 -63.59 0.0007393714    1.164    0.141
        62  -8.5338      6.3682      8.5299   8.5925822267e+01   7.3349912927e+01    0.2467899    0.1111401  28.36  0.001387667    2.336    0.572
        63 -10.9826      9.1872     14.8234   8.7250006420e+01   7.2162108516e+01    0.2713176    0.1937144  -8.50 0.0007269669    1.110    0.099
        64  -8.3021    159.7338      8.6796   3.6948222298e+01   4.3576040016e+01    0.1249231   0.08966585  41.37  0.000239794    1.558    0.358
        65  -9.7219    106.9108      6.5438   4.5004774818e+01   5.6370588789e+01     0.316248    0.2586668 -37.47  0.001216867    1.451    0.311
        66  -8.4612     69.4228      7.2226   5.5277977512e+01   6.4349777968e+01    0.1856746    0.1509394  42.28  0.000215518    1.174    0.148
        67  -8.5538     65.5909      4.4630   5.5274429711e+01   6.5338589028e+01    0.1926789    0.1024926  47.85 6.350478e-05    1.602    0.376
        68  -9.6474     74.6697      8.0690   5.3978225966e+01   6.3232416578e+01    0.3085827    0.1752406  46.66  0.001210451    1.471    0.320
        69 -10.7176     73.9513      2.7999   5.1835888210e+01   6.3828532376e+01    0.3030294    0.2779073  13.95  0.001225896    1.197    0.165
        70  -9.5151     69.4973      2.0438   5.2866321417e+01   6.4781380024e+01    0.2169653    0.1440939  34.24 0.0005981903    1.238    0.192
        71 -10.4954    209.0583      4.4886   3.0879349645e+01   3.2458470360e+01    0.3143507    0.2693403  16.53  0.001517561    1.733    0.423
        72  -9.6018    206.6906      1.7254   3.0456955231e+01   3.3255579142e+01    0.2286108    0.1445626  79.20 0.0003868054    1.372    0.271
        73  -9.2796    170.0262      6.9882   3.5239210268e+01   4.1255515747e+01    0.1883302    0.1586696  87.12  0.001204509    1.024    0.023
        74  -9.5855     62.2521      6.2692   5.7290415164e+01   6.5808143875e+01    0.2831417    0.2037872  64.46  0.001160848    1.906    0.475
        75  -9.5024    152.9147      4.8126   3.6729528894e+01   4.5564578112e+01    0.2576005    0.1923006 -17.13  0.001536994    1.641    0.391
        76 -10.9418    217.7909      3.0345   2.9890311434e+01   3.0691425399e+01    0.3704551    0.2529211  83.52  0.001542138    1.275    0.216
        77  -8.1744     46.0009      5.4868   6.3274364104e+01   6.8737540509e+01    0.1852633   0.07626498  27.88 0.0008103833    2.648    0.622
        78 -10.9261     40.2934      2.6720   6.4321859376e+01   6.9938121864e+01    0.3977507    0.2405437   6.05   0.00113007    1.611    0.379
        79 -10.8797    159.8767      2.7812   3.5284711767e+01   4.4061026833e+01    0.4267636    0.2573539  68.53  0.001675693    1.394    0.282
        80 -10.4827    179.9614      2.0451   3.2903357693e+01   3.9348738513e+01    0.2846224    0.1830575  82.35 0.0005815121    1.345    0.256
        81  -9.6821    167.5747      1.9325   3.4169861304e+01   4.2291248049e+01    0.3234774    0.1890805  59.46  0.001771239    1.538    0.350
        82 -10.4045     90.3558      1.9455   4.6997146570e+01   6.0438997376e+01     0.391684    0.1823307  62.73  0.001401565    2.003    0.501
        83 -10.1198    115.7582      1.9036   4.1568853066e+01   5.4680185830e+01    0.2127063    0.1579483  65.59 0.0003148335    1.176    0.150
        84  -8.8445     55.7070      1.8336   5.7517800118e+01   6.7412020974e+01    0.1759414    0.1174624   4.79 0.0008934278    1.441    0.306
        85  -9.0926     49.9462      1.9943   5.9836912845e+01   6.8414398777e+01    0.1811362    0.1409146  21.73 0.0004548285    1.026    0.025
        86 -10.4639     30.9405      3.2047   6.9095342930e+01   7.1269388363e+01    0.2228141    0.1775296 -29.69 0.0005788429    1.602    0.376
        87  -8.4132    136.0062      1.4689   3.8076297000e+01   4.9908056183e+01    0.1988922    0.1084631  68.60  0.001016261    1.547    0.354
        88  -8.4329    127.9407      1.3223   3.9274378245e+01   5.1846700081e+01    0.1994999   0.08455741  56.63 0.0009212308    1.869    0.465
        89  -8.4124    119.6448      2.2257   4.0978738558e+01   5.3743653262e+01    0.1529286    0.1170866   9.85 0.0003594932    1.529    0.346
        90  -8.2365    109.0344      1.0000   4.2523244945e+01   5.6308942921e+01    0.2144468   0.06207459  64.39 0.0006713407    2.912    0.657
        91 -10.1673     31.4924    111.0709   1.0533434210e+02   5.0162668528e+01    0.3462365    0.2055599 -67.03  0.001015911    1.510    0.338
        92  -9.3557    201.5650    249.6299   8.5628034093e+01  -6.2514407067e+00    0.2223638    0.1528498  19.50 0.0005809353    1.196    0.164
        93 -11.1298      5.3225    108.5163   1.1379436781e+02   5.2652163763e+01    0.5944132    0.4531238 -58.57  0.003732088    1.080    0.075
        94  -9.5182     13.2145     96.1630   1.0911838240e+02   5.5198531092e+01    0.3332037    0.1766122 -47.44  0.001087431    1.576    0.366
        95  -9.4055      7.4792     89.4387   1.1005582159e+02   5.7133958834e+01    0.3613014    0.2149705  45.52  0.001156131    2.188    0.543
        96  -9.3125      5.8937     93.9201   1.1140075249e+02   5.6151703955e+01    0.3543212    0.2458524 -85.25  0.002058355    1.504    0.335
        97  -9.5454      2.0487     92.3700   1.1254890517e+02   5.6709155409e+01    0.2528553     0.169362 -68.65 0.0005949571    1.240    0.194
        98 -10.0511      2.0157     87.1358   1.1171091451e+02   5.7946401054e+01     0.384264    0.1180034 -59.63  0.001671555    2.209    0.547
        99 -10.5983      2.2965     80.3998   1.1042712079e+02   5.9501895588e+01    0.4296801     0.218721 -69.87  0.002018541    1.719    0.418
       100  -9.3863      8.6099     98.7860   1.1121401096e+02   5.4837054481e+01    0.2357394    0.1949778 -68.36 0.0006766894    1.093    0.085
       101  -9.1714      4.0704     97.9786   1.1269407528e+02   5.5272021846e+01    0.2274844    0.2091018 -42.85  0.001145572    1.176    0.150
       102 -10.1877     44.4665    108.5678   1.0034142966e+02   4.9509526367e+01     0.483096    0.2332367 -51.53  0.001800451    1.765    0.433
       103 -10.6429    117.6335    105.5264   7.5549628325e+01   3.8374560540e+01    0.7691631    0.3784571 -32.01  0.002623972    2.639    0.621
       104 -10.0815     33.9603    103.0090   1.0291052213e+02   5.1935412165e+01    0.4440317    0.1944365 -36.62  0.001773368    2.584    0.613
       105 -10.1242     36.4311    107.9839   1.0303335432e+02   5.0474408737e+01    0.4464864    0.1644073 -47.02   0.00173828    2.407    0.585
       106  -9.6053     39.0333    102.9738   1.0108269272e+02   5.1455859337e+01    0.4324508    0.2560658 -73.99   0.00161389    1.897    0.473
       107 -10.5159     20.7202    108.2867   1.0854739970e+02   5.1729752538e+01    0.5145796    0.2426262 -31.28  0.002215909    2.607    0.616
       108  -8.4232     20.4898    104.0015   1.0789050279e+02   5.2802454350e+01    0.2791492    0.1723431  82.34  0.001309263    2.151    0.535
       109  -8.8774    103.4837    108.0233   8.0465722857e+01   4.0653166642e+01    0.2386802    0.1505606 -45.76  0.000567161    1.539    0.350
       110  -8.8351    183.9165    107.2892   5.9885367662e+01   2.3161634791e+01    0.1999944    0.1933207  37.29 0.0002581213    1.089    0.082
       111  -9.7497     89.1815    102.7580   8.3565316124e+01   4.4527418599e+01    0.5666094    0.2873112  52.65   0.00203535    2.743    0.635
       112  -8.9752     91.6876    106.3087   8.3716626403e+01   4.3250027988e+01      0.29943    0.1538638  36.49  0.001174117    2.018    0.504
       113  -9.4601     93.0381    103.1383   8.2416698069e+01   4.3746719314e+01    0.2754214    0.2298656 -30.57  0.001378389    1.187    0.157
       114 -10.1925     70.9753    104.5852   9.0172192270e+01   4.7071700682e+01    0.3897925    0.3293408   4.34  0.001756514    1.279    0.218
       115 -10.7790     78.3578    101.1219   8.6735561551e+01   4.6746112964e+01    0.4827296    0.4344034  -1.13  0.001791516    1.137    0.121
       116 -10.3746     63.0797    104.6776   9.2932051915e+01   4.8183216935e+01    0.3433702    0.2606165  -7.12  0.001535083    1.538    0.350
       117 -10.9012    101.5482    101.6700   7.9304848308e+01   4.2485270341e+01    0.6171632    0.4037491 -35.53  0.001230291    1.577    0.366
       118 -10.3513     50.1673    101.9221   9.6846652192e+01   5.0501149620e+01    0.4646106    0.3387178 -80.58  0.002245896    1.683    0.406
       119  -9.7969     43.1832     98.8723   9.8673593241e+01   5.2026182368e+01    0.5863836    0.3490098 -66.27  0.002770972    1.707    0.414
       120 -10.4702    109.1357     99.0558   7.6228033834e+01   4.1565092068e+01    0.4916584    0.3910291  60.46   0.00149852    1.481    0.325
       121  -9.2267     57.7975     99.8705   9.3612037009e+01   5.0051901768e+01    0.2211656    0.1759677 -36.50 0.0004575294    1.173    0.147
       122 -10.1814     17.9715     98.9432   1.0788852835e+02   5.4215532059e+01    0.5083954    0.2818962   8.25   0.00255734    2.218    0.549
       123  -9.8391     23.1919     94.3920   1.0510790125e+02   5.4937152426e+01    0.4391999    0.2035995 -49.02  0.001424909    1.759    0.432
       124 -10.8689     30.5219     85.2785   1.0030998908e+02   5.6495629074e+01    0.5227244    0.3116912 -47.95   0.00271237    1.393    0.282
       125  -9.5061     55.5482     83.8526   9.0185716310e+01   5.4081446094e+01    0.5073557    0.3234375 -26.79  0.002417638    1.685    0.407
       126 -11.1994     31.5501     92.8985   1.0165580496e+02   5.4604777186e+01    0.4609715    0.3994137  17.80  0.001718155    1.308    0.235
       127 -10.7147     22.2243     87.6899   1.0409049006e+02   5.6606479212e+01    0.4007803    0.2643429  25.26  0.002228227    1.742    0.426
       128  -9.0096     37.6222     80.5725   9.6313802258e+01   5.6907427338e+01    0.5459563    0.3476922 -18.14  0.002160452    1.759    0.431
       129  -9.7946     50.4817     82.9454   9.1882353592e+01   5.4929199412e+01    0.3301307    0.2338952 -37.85 0.0009274742    1.268    0.211
       130 -10.3376     46.1357     81.6415   9.3219787314e+01   5.5741935569e+01    0.5072886    0.3082663  34.51    0.0022211    1.829    0.453
       131 -10.0863    124.5058     97.8921   7.1425978308e+01   3.8572532512e+01    0.5025171    0.3107674  19.53  0.001863374    2.468    0.595
       132 -11.1934    117.7660     97.8778   7.3335908500e+01   4.0027391487e+01    0.3365265    0.2925245  -4.39  0.000437202    1.247    0.198
       133 -10.3249    136.9789     97.1674   6.7860603510e+01   3.5946534358e+01    0.3548775    0.3073848  34.15  0.001765962    1.177    0.150
       134  -8.3440    150.2051     97.3644   6.4616828290e+01   3.2871416580e+01    0.2101697    0.1482881  59.58 0.0002066926    1.555    0.357
       135  -8.8728     63.7471     97.0485   9.0756056164e+01   4.9919183540e+01    0.2180097    0.1747883 -45.41  0.001146769    1.139    0.122
       136  -8.7783    155.6987     95.9986   6.2943736557e+01   3.1866027743e+01    0.2188838    0.1977352 -40.96 0.0004707052    1.095    0.087
       137  -9.2042    130.1541     96.1855   6.9383422235e+01   3.7685511444e+01    0.2420284    0.2118057   1.86 0.0007794886    1.256    0.204
       138  -8.4985     87.2680     96.3394   8.2401441371e+01   4.6343576303e+01    0.1561682    0.1134153 -19.46 0.0006983376    1.599    0.375
       139  -9.0729     80.2483     94.7936   8.4337709365e+01   4.7903280521e+01    0.2453847    0.2017748  45.06 0.0005284076    1.345    0.256
       140  -8.4697    166.5501     94.4775   6.0109995282e+01   2.9623711889e+01    0.1517659    0.1488637 -35.01 5.990894e-05    1.027    0.026
       141  -9.5328     46.9268     92.8312   9.5845501913e+01   5.3059692276e+01    0.3863181    0.1838937 -50.03  0.001512725    1.796    0.443
       142 -10.6319     43.1181     88.4420   9.6189265904e+01   5.4516207854e+01     0.410759     0.246061  24.20  0.000681906    1.829    0.453
       143  -9.3712    132.9643     82.6511   6.4632895737e+01   3.9757891185e+01    0.2991526    0.2192436 -47.36 0.0008561057    1.421    0.296
       144 -11.0304    128.5066     85.7151   6.6732882703e+01   4.0180875248e+01     0.537279    0.3795539  38.39 0.0006405434    1.441    0.306
       145 -10.0875    123.4949     87.4551   6.8625262011e+01   4.0957955069e+01    0.2841145    0.2647516 -72.73 0.0006576747    1.199    0.166
       146  -8.8234    106.8314     90.9238   7.4537308496e+01   4.3799053727e+01    0.2320505    0.1997139 -14.51 0.0003302574    1.210    0.174
       147  -9.2467     52.7798     90.3119   9.3003183723e+01   5.2953743515e+01    0.2337589    0.1797092 -58.69  0.001039273    1.301    0.231
       148  -8.2175    101.6372     88.7697   7.5498629352e+01   4.5305102485e+01    0.2177703    0.1503923 -39.33 0.0002419175    1.425    0.298
       149  -9.4015    104.3536     85.7125   7.3713990159e+01   4.5399695045e+01    0.2996145    0.2338941   6.25 0.0002415393    1.498    0.333
       150 -10.2569     87.1755     88.3304   8.0084548171e+01   4.8145052311e+01    0.3930242    0.2694421  42.67  0.001839616    1.542    0.352
       151 -10.4764     65.6340     85.7576   8.6943173112e+01   5.2248632883e+01     0.376982    0.3264449 -49.81  0.002090784    1.173    0.147
       152  -9.6695     70.8641     88.0375   8.5698476072e+01   5.0946317180e+01    0.5578256    0.2487618 -56.08   0.00141561    2.500    0.600
       153 -11.2462     79.1108     83.4960   8.1397269620e+01   5.0605792355e+01    0.9019783    0.3425137  39.39  0.002672918    2.712    0.631
       154  -9.4707     73.8762     79.4888   8.2028118618e+01   5.2337190786e+01    0.2886406      0.22266   1.47 0.0009146659    1.413    0.292
       155 -10.2279     16.4001     88.1753   1.0643452187e+02   5.6901868580e+01    0.3281729    0.2710324 -63.64  0.000972151    1.132    0.116
       156  -8.9366     97.4121     87.2704   7.6386025659e+01   4.6455314593e+01    0.2031019    0.1447467 -52.41 0.0003764037    1.510    0.338
       157  -8.7163     58.1725     87.1904   9.0130510698e+01   5.2975991221e+01    0.1776671    0.1682038  69.33 0.0003621439    1.294    0.227
       158  -9.8945    116.9917     85.2041   6.9778453430e+01   4.2839761724e+01    0.5083017    0.3187421  -0.05  0.001772777    3.067    0.674
       159 -10.0591    155.1870     83.5240   5.9540878749e+01   3.4370041828e+01    0.4434221    0.2727655 -21.92  0.001591013    2.130    0.531
       160 -11.0594    150.9749     80.5214   5.9623471129e+01   3.5924346223e+01    0.5698048    0.2867019  56.17  0.002209244    2.064    0.516
       161  -8.6783    101.7088     81.1280   7.3107549803e+01   4.6876735433e+01    0.3047412      0.13096 -49.06  0.001068833    2.597    0.615
       162  -9.9816     20.7160     79.5606   1.0288800174e+02   5.8610949298e+01    0.3392812    0.1620375 -51.39 0.0003514239    1.644    0.392
       163  -9.1891     18.4781     73.5808   1.0240384985e+02   6.0130713579e+01    0.4664021    0.2239484 -56.96  0.002300883    1.699    0.411
       164  -8.9804    178.4701     81.4926   5.4195335746e+01   2.9194196292e+01    0.1473887    0.1422286 -66.41 6.381497e-06    1.011    0.011
       165  -9.8194    136.9136     78.5323   6.2382293768e+01   3.9615641093e+01    0.3210022    0.2478982 -75.16  0.001090261    1.701    0.412
       166 -10.2288    137.4734     73.0909   6.0584212134e+01   4.0470223295e+01    0.4070585    0.2626216 -26.82  0.001030554    1.752    0.429
       167  -9.1317    172.0906     77.7283   5.4392654081e+01   3.1366209737e+01    0.2302658    0.1966507 -79.58  0.001038698    1.258    0.205
       168  -9.4512    175.0008     75.0138   5.3095345462e+01   3.1135486775e+01    0.2216738     0.211799 -88.55 0.0003358121    1.020    0.019
       169 -11.0315     97.1578     63.9450   6.8870070423e+01   5.1086608566e+01    0.3600335    0.2642215  20.40 0.0002760297    1.473    0.321
       170  -9.7206     94.3276     70.0917   7.1877281945e+01   5.0522693124e+01    0.4182855    0.3410781 -24.23  0.001902936    1.217    0.178
       171  -9.7409     93.2162     74.0365   7.3553888653e+01   4.9979457459e+01    0.4834229    0.2157012 -50.12 0.0003807667    2.650    0.623
       172 -10.4176     89.7346     74.0327   7.4712423923e+01   5.0650375938e+01    0.5211456    0.3496001 -38.00  0.001520363    1.464    0.317
       173 -12.9854     53.0504     74.8628   8.8518386092e+01   5.6391676515e+01    0.5823662    0.3305181 -51.29  0.000706412    1.677    0.404
       174 -10.8920     45.2157     68.7434   8.9819238041e+01   5.8673646230e+01    0.5438802    0.3045954 -29.80 0.0002503066    1.834    0.455
       175  -8.3335     12.5311     78.4595   1.0595984259e+02   5.9409804731e+01    0.1305623    0.1025607 -46.66 0.0005706113    1.025    0.024
       176  -9.2605    110.7722     76.8031   6.8961421050e+01   4.5838597895e+01    0.2990043    0.2524462 -28.22 0.0009511046    1.190    0.160
       177  -9.0905    111.5047     71.5348   6.7041119156e+01   4.6674047006e+01    0.3284759    0.1454697 -30.00  0.001129943    2.826    0.646
       178 -10.0096     28.2294     76.2240   9.9003833817e+01   5.8772419264e+01    0.3725048    0.1878837 -46.57  0.000717513    1.622    0.384
       179  -9.1566    184.9828     75.9703   5.1543320459e+01   2.8603955045e+01    0.1748331    0.1642211 -62.27   0.00040028    1.017    0.017
       180  -8.4712     80.7570     76.3483   7.8564803714e+01   5.1826478152e+01    0.2010698    0.1330951  25.94 0.0009273791    1.599    0.375
       181 -10.7226    181.0008     73.6182   5.1622339295e+01   2.9939691169e+01    0.3667266    0.2972513  19.83 0.0006843595    1.588    0.370
       182 -10.1872     64.3746     74.2772   8.3922198267e+01   5.4929309125e+01    0.3032713    0.2351529 -31.76 0.0009059272    1.186    0.157
       183 -10.3702    170.0548     73.2816   5.3558052325e+01   3.2614758573e+01    0.3116105    0.2390338 -40.70   0.00069578    1.297    0.229
       184 -10.1691    145.7202     71.4535   5.8138105278e+01   3.8793555219e+01    0.4273323    0.2867198 -16.76  0.001726729    1.940    0.484
       185 -10.7265    143.6852     66.5912   5.7128569546e+01   4.0109027472e+01     0.463571    0.3095638  36.83  0.001927414    1.642    0.391
       186  -8.5703    152.3912     73.1797   5.7158920341e+01   3.6891440531e+01    0.2110332    0.1361605 -48.72 0.0006475347    1.640    0.390
       187 -12.0768     79.6024     70.0243   7.6890245735e+01   5.3301846988e+01    0.3383578    0.2716031  -2.30 0.0002118008    1.284    0.221
       188  -9.2503     83.3310     65.1628   7.3911938995e+01   5.3560866415e+01     0.238611    0.1851047  17.91 0.0007186485    1.304    0.233
       189  -8.8687     82.6753     61.7339   7.2940774653e+01   5.4316380169e+01    0.2118177    0.1712985 -27.71 0.0004849754    1.200    0.167
       190  -9.6447     10.2072     69.2260   1.0487927708e+02   6.1633080130e+01    0.4421261    0.1951127 -21.06  0.001081234    2.732    0.634
       191 -10.1285     15.4146     59.8957   1.0022414667e+02   6.3335554398e+01    0.2474546    0.2089426 -60.03 0.0002387631    1.289    0.224
       192 -11.6117     10.1580     51.8413   1.0041246763e+02   6.5358691891e+01    0.5861006    0.4253431  26.46  0.002527975    1.665    0.399
       193 -12.2363     31.4009     63.5439   9.4125816756e+01   6.1252957408e+01    0.8102674    0.5869495  -8.09  0.004716456    1.383    0.277
       194 -11.8204      2.3355     66.3064   1.0760866918e+02   6.2684772673e+01    0.4743359    0.2345317 -64.27  0.001089635    1.712    0.416
       195 -10.4219      8.9837     62.0013   1.0368010714e+02   6.3286428802e+01    0.5042869    0.3160785  25.24   0.00271957    1.883    0.469
       196 -10.6820      3.8156     59.9976   1.0551450458e+02   6.3990578519e+01    0.5645481    0.2671827 -26.13  0.002886244    2.103    0.524
       197 -12.5475     39.5814     57.5455   8.8609216481e+01   6.1626683829e+01    0.4733184    0.3339165 -11.68 0.0005874427    1.398    0.285
       198 -10.4639     29.6847     52.8729   9.1508543791e+01   6.3599080228e+01    0.6384625    0.2675451  26.13  0.002950939    2.493    0.599
       199 -10.0552     32.3937     48.0887   8.8589266544e+01   6.4251169391e+01    0.3416848    0.2616899  58.50  0.001241438    2.262    0.558
       200 -10.8739     24.0382     55.6809   9.5029376065e+01   6.3551175181e+01    0.9678361    0.3054467 -41.18   0.00391615    2.673    0.626
       201 -11.2290     46.2239     47.9316   8.2235862755e+01   6.2639413167e+01    0.6971962    0.4533354 -20.44  0.002059052    1.501    0.334
       202 -10.4878     38.5452     47.0330   8.5351768119e+01   6.3761916372e+01    0.6818339    0.3599677   3.13  0.003016688    2.615    0.618
       203  -9.9148     24.8555     48.1007   9.2166733057e+01   6.4988484908e+01    0.3616537    0.2185589 -19.38 0.0008999925    1.614    0.380
       204 -10.0705     27.2325     44.2172   8.9650957572e+01   6.5504220108e+01    0.2175896    0.1664907 -10.72 0.0005072369    1.145    0.126
       205  -9.0084    199.9274     70.8168   4.7768962779e+01   2.5970923800e+01    0.2107638    0.1941125  23.06   0.00080371    1.314    0.239
       206  -9.2375     68.9171     74.6381   8.2319991785e+01   5.4155040066e+01    0.2285251    0.1798031 -28.30 0.0003902844    1.190    0.160
       207 -10.2074    101.8667     70.3298   6.9551407942e+01   4.8947935447e+01    0.3645843    0.2818283  14.70   0.00179828    1.427    0.299
       208  -9.9582    105.6273     65.7672   6.6868511845e+01   4.8988757968e+01    0.5360558    0.3724922  64.15  0.002439073    1.873    0.466
       209  -8.2585    215.4828     70.5252   4.5445366567e+01   2.2525566086e+01    0.1393606    0.1210035 -62.93 0.0006133879    1.039    0.038
       210 -10.4014     18.4166     47.4812   9.5072475716e+01   6.5655890290e+01     0.439198    0.3323146 -32.79  0.002242811    1.048    0.046
       211  -9.3144    173.6713     69.0212   5.1700511439e+01   3.2452057795e+01    0.2455995    0.1955681  77.16 0.0004802621    1.317    0.241
       212 -10.2957    120.0137     67.9944   6.3481191933e+01   4.5421228645e+01    0.4606599    0.3246531  36.55  0.002179387    1.432    0.302
       213  -8.5149     37.6608     75.2070   9.4845946517e+01   5.8108872569e+01    0.1908336    0.1020819 -45.37  0.000311426    1.584    0.369
       214 -11.1482    134.5174     64.5940   5.8659314840e+01   4.2633404727e+01    0.5167666    0.4384586 -83.60   0.00266299    1.404    0.288
       215  -9.4497     75.0365     66.0207   7.7180956638e+01   5.4878217649e+01    0.2377685    0.1928843 -32.48 0.0003418855    1.181    0.153
       216  -8.8713     77.1523     62.1658   7.5064378006e+01   5.5239195825e+01    0.2397465    0.1796894  22.15 0.0005635635    1.325    0.245
       217  -8.6011    203.0073     63.2549   4.5431925121e+01   2.6447114192e+01    0.1910921     0.169454  89.26 0.0003645739    1.093    0.085
       218  -9.4334     65.7895     62.1099   7.9311809374e+01   5.7158093089e+01    0.3731667     0.357253 -87.29  0.002234245    1.409    0.290
       219  -9.7022     80.3362     55.0023   7.1337611670e+01   5.5944845804e+01    0.3528897    0.2770066 -53.60  0.000942432    1.615    0.381
       220 -10.2198    115.8282    248.4273   1.0303909795e+02   6.6087664295e+00    0.2594526     0.207226  31.14  0.000890118    1.149    0.130
       221 -10.1448     70.7706     60.0500   7.6676256281e+01   5.6733639325e+01    0.4208106    0.3543779  72.99   0.00105741    1.812    0.448
       222 -10.0695     63.9946     55.1258   7.7507101021e+01   5.8747154319e+01    0.5768308    0.4186916 -80.12  0.001999514    3.151    0.683
       223 -11.3532     51.8206     29.4737   7.2207703364e+01   6.4846213539e+01      0.36148    0.1997149 -24.63            0    1.809    0.447
       224  -9.4325    194.0151     60.9714   4.6176298588e+01   2.8877040992e+01    0.3354206    0.2009979 -34.25 0.0006783306    1.697    0.411
       225 -10.0503     53.7870     61.0440   8.3743571464e+01   5.9145743139e+01    0.3156891     0.253345 -59.06 0.0004613945    1.569    0.363
       226  -9.5014     53.7329     53.6132   8.1125314996e+01   6.0571913195e+01    0.3701204    0.2497242  -4.19  0.001916463    1.623    0.384
       227  -8.8052     54.0206     49.7401   7.9561701764e+01   6.1235269316e+01    0.2016149    0.1561411  -9.72 0.0002494089    1.183    0.155
       228 -10.1448    164.5251     51.9493   4.8563635419e+01   3.7309115975e+01    0.3106957    0.1999287  61.69 0.0006278511    1.482    0.325
       229  -9.9973    161.6685     60.5063   5.1553876540e+01   3.6722990494e+01    0.3558776    0.2271316  29.18  0.001519718    2.188    0.543
       230  -9.6695    150.9516     60.7475   5.3772745146e+01   3.9298767785e+01    0.3537981    0.1947539  53.70  0.001521757    1.726    0.420
       231 -10.9793    142.0367     59.8027   5.5411126097e+01   4.1610517736e+01    0.2926257    0.2686462   6.21 0.0002713443    1.183    0.155
       232  -8.3665    115.6778     61.3042   6.2462123204e+01   4.7551604195e+01    0.1447789    0.1188937 -82.94 0.0003469678    1.636    0.389
       233 -10.4097    167.2892     56.6329   4.9402350515e+01   3.5943346542e+01    0.2867839    0.2372464 -37.07 0.0008926698    1.253    0.202
       234 -10.3510    171.2317     59.5336   4.9513594162e+01   3.4543929941e+01    0.3167271    0.2592669 -41.06 0.0005823782    1.238    0.192
       235  -9.9484    177.7434     57.4001   4.7808442306e+01   3.3289947514e+01    0.2647075    0.1781128  63.15  0.000304138    1.448    0.309
       236  -8.1515    105.4886     59.5495   6.4784414867e+01   5.0096892139e+01    0.1462687    0.1362452  21.02 0.0001340007    1.013    0.013
       237  -8.9965    198.9656     58.0414   4.4711441236e+01   2.8163028812e+01     0.199734    0.1848414 -70.41 0.0003188475    1.040    0.039
       238  -8.8884    174.6722     57.7051   4.8409134881e+01   3.3986891988e+01    0.2070422    0.1463376 -33.10 0.0003169711    1.484    0.326
       239  -9.7908    130.2695     58.0096   5.7586259577e+01   4.4710503008e+01    0.4679233    0.2170418  61.31  0.001732592    2.490    0.598
       240  -9.2354    136.5243     55.5782   5.5330044039e+01   4.3596705266e+01    0.2635033    0.2428868 -35.76  0.001421776    1.140    0.123
       241 -11.1804    118.7743     52.2945   5.8584132979e+01   4.8287071743e+01    0.6158317    0.4140526  32.51 0.0005060678    1.584    0.369
       242 -11.1961    125.7078     46.0592   5.4746240068e+01   4.7580370720e+01    0.6047367    0.4833218 -74.11  0.002141675    1.586    0.370
       243  -9.2255    241.1311     54.6264   3.8814660901e+01   1.9476260353e+01    0.2154431     0.160023 -70.11 0.0006419478    1.241    0.194
       244  -9.6968    150.1660     53.8386   5.1851164739e+01   4.0548594035e+01    0.4276168    0.2993979 -51.81  0.001486158    1.561    0.359
       245  -9.0705    145.8116     52.2080   5.2247055354e+01   4.1852595055e+01    0.2780466    0.2255475 -36.72    0.0008965    1.295    0.228
       246 -10.8635    153.4331     48.6380   4.9641030417e+01   4.0502111174e+01    0.4494095    0.3967219  78.08  0.001278432    1.111    0.100
       247  -8.7076     98.5300     54.9314   6.5271631552e+01   5.2347308753e+01    0.2122346    0.1813693 -48.56 0.0004234665    1.357    0.263
       248  -9.5184     93.6806     54.3749   6.6600746562e+01   5.3444081662e+01     0.331447    0.2580445  -9.59 0.0007963649    1.358    0.263
       249  -9.2004    191.5298     53.7856   4.4703108130e+01   3.0527512111e+01    0.2624788    0.2132205  35.55  0.001177978    1.517    0.341
       250  -8.3309    199.0217     52.9974   4.3443185426e+01   2.8886295367e+01    0.1627769    0.1462222 -77.69 0.0003190865    1.012    0.011
       251 -10.4558    174.6549     50.4286   4.6411463328e+01   3.5056152012e+01     0.339001    0.3147772   8.88 0.0005839887    1.281    0.220
       252  -9.0716    106.8034     52.9309   6.2087915544e+01   5.0888399665e+01    0.2146414    0.1812027  16.61 0.0002489612    1.190    0.159
       253  -9.3424     87.2971     51.7302   6.7726960018e+01   5.5160496876e+01    0.2886804    0.2271662 -82.77  0.001013008    2.172    0.540
       254  -9.6607     88.4495     48.6857   6.6209254193e+01   5.5419925014e+01     0.474184    0.2500114 -47.94  0.001999232    2.444    0.591
       255  -8.2697     83.2835     51.3531   6.8952764202e+01   5.6003382267e+01    0.2282181    0.1720103 -53.31  0.001043322    1.722    0.419
       256  -8.7557    245.0285     50.6646   3.7591164289e+01   1.9246968083e+01    0.1658109    0.1379228 -72.96 0.0003837934    1.087    0.080
       257  -9.1107    181.6967     49.4420   4.5033959364e+01   3.3493071491e+01    0.3288495    0.2033077 -21.14  0.001517891    2.066    0.516
       258  -8.4752    137.2894     49.6199   5.3258820065e+01   4.4299363044e+01    0.1493556    0.1094185 -68.03 0.0007017078    1.739    0.425
       259 -10.2190    114.7840     46.6248   5.7674780227e+01   5.0046185088e+01    0.3976979    0.2970791   8.00   0.00156971    1.590    0.371
       260  -8.9582     96.2802     48.8400   6.3761090843e+01   5.3788956553e+01     0.227118    0.1779603  48.87 0.0005283806    1.288    0.224
       261  -8.0958    224.3257     48.2986   3.9217609355e+01   2.3871381667e+01    0.1188712    0.1011408  31.43 0.0007026574    1.632    0.387
       262  -8.4900    214.7578     48.4335   4.0338248551e+01   2.5949268732e+01    0.1722452    0.1175817  57.81 0.0007232681    1.564    0.361
       263 -10.0053     81.0893     44.2697   6.7015809951e+01   5.7551502992e+01    0.4748867    0.2840983  -4.38  0.002046256    2.400    0.583
       264  -9.2906    234.9106     47.0304   3.7822679601e+01   2.1804609424e+01    0.1851618    0.1554295 -66.11 0.0003486309    1.018    0.017
       265  -9.1595    202.5449     46.9429   4.1480793548e+01   2.8922241870e+01    0.2392761    0.1707852  53.84 0.0003686235    1.514    0.339
       266  -8.0726     84.2412     47.5819   6.7203880275e+01   5.6425823947e+01    0.1328297    0.1084678 -60.95 0.0006911251    1.718    0.418
       267  -8.7180    164.4653     46.4812   4.7008448826e+01   3.8096157461e+01    0.1402446    0.1311276  66.34 9.435193e-05    1.055    0.052
       268 -10.2509    244.3178     44.1138   3.6297201348e+01   2.0278830796e+01    0.3087239     0.236957  55.84  0.001693769    1.603    0.376
       269  -9.2593    158.2839     39.3609   4.6008297927e+01   4.0563356373e+01    0.3013697    0.2069793 -48.33    0.0006267    1.536    0.349
       270 -10.6711     88.6798     33.2032   6.0162244309e+01   5.7600632004e+01    0.5167593    0.3833067  30.38  0.002878301    1.232    0.189
       271  -9.7636     90.4610     39.3956   6.2023705471e+01   5.6394277490e+01    0.4892047    0.2262524 -37.69  0.002103332    2.315    0.568
       272 -10.7702    103.1285     43.0109   5.9578077444e+01   5.3180282395e+01    0.6305391    0.2224706  48.93            0    2.553    0.608
       273 -11.8275    103.6874     38.7246   5.7842623969e+01   5.3649197396e+01     0.286303    0.2659149  35.36 0.0003051697    1.066    0.062
       274  -9.0661      4.7614     45.0067   1.0105750535e+02   6.7056549616e+01    0.1834743    0.1160037 -35.62 0.0003430631    1.232    0.188
       275  -8.8414      8.6002     43.9203   9.8795960616e+01   6.7048237283e+01     0.193522     0.184557   8.69 0.0006633031    1.381    0.276
       276  -8.8905    192.4905    248.4882   8.7230925703e+01  -4.8159959618e+00    0.1264834    0.1003865  13.25 3.962874e-05    1.002    0.002
       277 -10.7898      4.5421     35.2920   9.8089377842e+01   6.8955748548e+01     0.456348     0.232608 -52.57  0.002577659    1.681    0.405
       278 -10.0147      7.5355     39.4438   9.7899351579e+01   6.7984881921e+01    0.2099601    0.1439438 -42.80 0.0005391474    1.180    0.152
       279 -10.1089      4.4683     39.5073   9.9514364828e+01   6.8154726807e+01     0.215453    0.1879514 -12.36 0.0007209657    1.236    0.191
       280  -9.4194    124.2007     29.5900   4.9503569784e+01   5.0053401641e+01    0.6827728    0.1269308  57.63   0.00198795    4.216    0.763
       281  -9.7034    141.4101     33.7938   4.7374464623e+01   4.5398843867e+01    0.3961958    0.2393709   3.75  0.001671707    2.731    0.634
       282 -10.0255    146.5179     29.4311   4.5074394532e+01   4.4665623407e+01    0.5083083    0.2676743  69.05  0.002234949    1.856    0.461
       283 -10.4968    136.4671     37.5292   4.9548417627e+01   4.6138997961e+01    0.6022437    0.3654806 -53.88 0.0009577966    2.043    0.511
       284 -10.8906    131.6285     35.2608   4.9816372014e+01   4.7593839413e+01    0.4408723     0.336399 -29.38 0.0003700408    1.431    0.301
       285 -10.9058     56.1898     34.6434   7.2587351018e+01   6.3397401345e+01    0.3601209    0.3300098 -37.14  0.002318347    1.425    0.298
       286  -8.3487    209.5603     43.5642   3.9806250796e+01   2.7780055431e+01    0.1317748    0.1146319 -73.36 5.839206e-05    1.002    0.002
       287  -9.3105     71.7723     41.0518   6.9091087324e+01   5.9780499564e+01    0.3328981    0.1726844 -23.75  0.001249219    2.191    0.544
       288 -10.5332     35.9260     41.1876   8.4342500119e+01   6.5123513471e+01     0.400871    0.2137814  11.98  0.001626793    2.147    0.534
       289 -11.4489     41.3108     38.3890   8.0708075740e+01   6.4944650226e+01    0.4079174    0.2308395  -7.68 0.0008252893    2.232    0.552
       290  -9.2368    157.7257     43.3233   4.7270337797e+01   4.0179550313e+01    0.3657621    0.1689715 -38.84  0.001454198    2.200    0.545
       291 -10.6700    228.3568     39.2541   3.6791282981e+01   2.4222011942e+01    0.4133375    0.2169746 -38.38   0.00214284    1.761    0.432
       292  -8.9646    222.7827     39.9911   3.7519778576e+01   2.5323875772e+01    0.1861648    0.1496708   7.95  0.001068647    1.955    0.489
       293  -8.3226    197.2943     40.3404   4.0520080060e+01   3.1028041829e+01    0.1277387    0.1032413  30.39 0.0006715101    1.655    0.396
       294  -8.6495    165.6283     39.5030   4.4824072673e+01   3.8742964780e+01    0.1982232    0.1502329 -65.05 -0.0002501105    1.403    0.287
       295  -9.6833    165.1900     35.9926   4.3897223538e+01   3.9296254473e+01    0.3882877    0.2108742  60.15 0.0008075446    1.672    0.402
       296 -10.4574    178.3612     36.7989   4.2143722621e+01   3.5988345363e+01    0.4208229    0.3174101 -87.59  0.001670518    1.324    0.244
       297  -8.6428    120.3446     37.9160   5.3250404472e+01   4.9946381557e+01     0.260175    0.1160227 -39.26  0.001059629    2.441    0.590
       298  -8.4469    109.9839     38.1998   5.5945562235e+01   5.2305670114e+01    0.1980893    0.1027898  53.69 0.0008679729    1.781    0.438
       299  -9.9657    238.5184     37.1613   3.5380421838e+01   2.2368845858e+01    0.2336477    0.1439935  55.26  0.001315518    1.934    0.483
       300  -9.0494    112.9771     41.1454   5.6218100620e+01   5.1228338211e+01    0.2064364    0.1851955  38.66 0.0002857474    1.014    0.014
       301  -9.4570    185.8879     36.2103   4.0951220539e+01   3.4254468553e+01    0.3045022    0.2014949 -66.71  0.001487079    1.596    0.374
       302  -9.8054    186.7140     32.5651   3.9901842434e+01   3.4511258805e+01    0.3072354    0.2336954 -83.83  0.001457053    1.264    0.209
       303 -10.2512     77.9598     34.8242   6.4347145149e+01   5.9530506975e+01    0.3608391     0.318082  35.38   0.00119312    1.174    0.148
       304  -9.7562     81.4816     31.4798   6.1787763135e+01   5.9288390284e+01    0.4355795      0.21474  32.91  0.001921422    2.105    0.525
       305  -9.5699     71.6822     30.0096   6.4574097464e+01   6.1372024277e+01    0.2689156    0.2081676  31.49 0.0006155524    1.155    0.134
       306 -10.5046     75.0474     27.1141   6.2156120031e+01   6.1106880173e+01    0.3887317    0.3229772 -58.92  0.001521207    1.796    0.443
       307  -9.4943    223.4527     34.5911   3.6251066126e+01   2.5875828012e+01    0.2255431     0.181217 -65.35 0.0006320901    1.056    0.053
       308  -8.9802    114.2112     35.3885   5.3856454775e+01   5.1699061120e+01    0.2959025    0.1649379  61.92  0.000969376    1.851    0.460
       309  -9.5436    117.5556     32.8461   5.2143879848e+01   5.1236178994e+01    0.2491206    0.1728203  45.44 0.0005370037    1.303    0.233
       310  -9.1578     95.3545     35.2431   5.8926910314e+01   5.5927207277e+01    0.2662007    0.1653167  47.07 0.0006862259    1.463    0.317
       311  -9.1849    209.2471     32.8315   3.7315496616e+01   2.9241341826e+01    0.3160947    0.1642752 -38.07  0.001582284    1.839    0.456
       312  -8.7894    123.2104     33.9220   5.1207626572e+01   4.9772552622e+01    0.1842865    0.1705823  39.34 0.0003644895    1.042    0.040
       313  -8.9628     30.3463    247.6828   1.2017141179e+02   1.8023168977e+01    0.1269814   0.06271071  61.00 0.0005804185    1.724    0.420
       314  -9.4790    163.4881    246.5303   9.2813166523e+01  -2.5930311621e-01    0.1295667    0.1064448  21.69 -5.076245e-05    1.013    0.013
       315  -9.4467    161.8877     26.8470   4.1800939652e+01   4.1194159178e+01    0.2267927    0.1947565 -52.01 0.0004581018    1.217    0.179
       316  -8.8588    153.8029     31.9461   4.4579139558e+01   4.2583830299e+01    0.2175471    0.1703991  41.51 0.0009381827    1.349    0.259
       317  -8.4554     43.2411     31.8087   7.7053753422e+01   6.5751897300e+01    0.1775175    0.1446681  76.71 0.0009434542    2.734    0.634
       318 -10.0833     31.1998     28.4074   8.1363296460e+01   6.7819991997e+01    0.4469486    0.3038757 -21.38  0.002093436    1.254    0.203
       319 -10.2135     35.0868     30.8995   8.0523675071e+01   6.6956751935e+01    0.3618163    0.2148173   2.56  0.001921869    1.837    0.456
       320  -9.8745     37.4827     26.5290   7.7437401570e+01   6.7331132898e+01    0.2452353    0.1898574  -4.33 0.0007484825    1.042    0.040
       321 -10.2973     24.6940     30.9477   8.5761445194e+01   6.8117150387e+01    0.2774642    0.2224871 -44.62  0.000682426    1.482    0.325
       322  -9.8064     25.7120     27.3035   8.3684348739e+01   6.8611745669e+01     0.217542    0.1478373  -0.67  0.001342393    1.323    0.244
       323 -10.4550    248.4015     30.2873   3.3137116352e+01   2.1247907613e+01    0.2935994    0.2106645 -21.81  0.001795594    1.903    0.475
       324  -9.3924    234.1911     30.6720   3.4404633130e+01   2.4085902620e+01    0.2879711    0.1886913  53.73  0.001675346    1.869    0.465
       325  -9.9688     94.0846     44.8969   6.2980029081e+01   5.4846099668e+01    0.3880683    0.2743892  47.96 0.0003336789    1.379    0.275
       326  -8.5020      1.3953    244.2155   1.2526484750e+02   2.1643658375e+01    0.1498087   0.07819114  80.39 0.0004295267    1.590    0.371
       327  -8.8667    189.4716     28.9224   3.8628536310e+01   3.4296871448e+01    0.2102607     0.156749  75.47 0.0005831115    1.227    0.185
       328  -9.0768    207.1126     16.8236   3.3824933176e+01   3.1601608120e+01    0.1788233    0.1415772  88.99 0.0005821349    1.101    0.092
       329 -10.2688    222.9519     26.4262   3.4503832511e+01   2.6993095159e+01     0.363115    0.2649797  33.65  0.001919953    2.147    0.534
       330  -9.8859    202.7252    242.1623   8.4208690381e+01  -5.3332232234e+00    0.2044654    0.1425479  29.05 0.0004437191    1.290    0.225
       331  -8.4275    189.3129    239.6898   8.6477118127e+01  -3.0274179205e+00    0.1156922   0.09824141  52.10 0.0007028878    1.629    0.386
       332  -8.7801    134.1129     27.7138   4.6832628746e+01   4.7885342182e+01    0.1961259    0.1611802  59.15 0.0007261899    1.087    0.080
       333  -9.0923    221.2959    237.4382   7.9852025657e+01  -7.2092127512e+00    0.2179868     0.102828  27.63 0.0006030952    1.933    0.483
       334  -9.0976    139.8551    237.0597   9.6444092541e+01   4.9987374914e+00    0.1954892    0.1611313  49.16 0.0004130217    1.235    0.190
       335 -10.3312    165.3032     20.6921   3.9570418693e+01   4.1037258341e+01    0.2944274    0.2134542 -82.09 0.0002543797    1.409    0.290
       336  -9.0477    221.5369    233.4891   7.9135236479e+01  -6.6761498141e+00    0.1271924   0.09811673   1.61 0.0001060972    1.031    0.030
       337  -8.7375     32.4316    232.5056   1.1879391420e+02   2.0835286912e+01    0.1197894   0.09400838  69.38 5.183954e-05    1.010    0.010
       338  -8.9474     49.3016     24.9942   7.1297762318e+01   6.5867567911e+01    0.2487574    0.1491219  -6.66 0.0006758965    1.869    0.465
       339  -9.3483     45.5434     25.0359   7.2990803403e+01   6.6427394150e+01    0.2430894    0.2039988 -45.46  0.001139538    1.692    0.409
       340 -10.4282     41.3421     21.8437   7.3449552177e+01   6.7480521940e+01    0.2813326     0.260404 -44.67  0.001075816    1.665    0.399
       341 -11.3292      2.0182     25.0946   9.5822249612e+01   7.0967885708e+01     0.243855    0.1523177 -47.10 0.0005514802    1.409    0.290
       342  -9.7639    241.5166     25.0424   3.2630337955e+01   2.3267755090e+01    0.2135052    0.1787309 -74.88  0.001245863    1.093    0.085
       343 -10.0644    232.8448     23.6608   3.3049631360e+01   2.5218879378e+01     0.442007    0.2175912 -80.11  0.002162627    2.289    0.563
       344 -10.1925     63.1559     23.1708   6.4778998679e+01   6.3804623215e+01    0.4850672    0.2530795  36.39  0.001880156    1.722    0.419
       345  -9.8642    187.8746    230.6442   8.5290734529e+01  -1.3749904616e+00    0.3045765    0.1448219  25.19  0.001360057    2.148    0.534
       346  -8.9342    176.7921    231.3818   8.7706809777e+01   2.0581137699e-01    0.1907777    0.1098357  24.89 0.0009438719    1.640    0.390
       347  -9.3759    125.0583     23.4968   4.7240959540e+01   5.0525917935e+01    0.1891264    0.1748261  76.76 -0.0002850064    1.125    0.111
       348  -8.5963    163.4828    226.5453   8.9748320055e+01   3.1419898370e+00    0.1357751    0.1171698  20.37 0.0001083146    1.008    0.008
       349  -9.0705    188.7947     22.4088   3.7067945447e+01   3.5210039056e+01    0.2710899    0.1756446  -4.66  0.001331341    2.501    0.600
       350 -10.0374    153.6302     23.0036   4.1949953607e+01   4.3639575943e+01    0.2491744    0.1753094  63.28 0.0003468802    1.257    0.205
       351  -9.5942     84.3702     20.7623   5.6446664745e+01   5.9984178866e+01    0.3335697    0.2051017 -43.57  0.000967168    2.117    0.528
       352  -8.8450     79.8203     22.2062   5.8480898913e+01   6.0752702778e+01    0.2178294    0.1679723 -33.46  0.001280526    1.493    0.330
       353  -9.0516    223.9580    225.0677   7.7213840330e+01  -5.7733426337e+00    0.1917833    0.1529793   3.97 0.0005668083    1.042    0.040
       354  -8.7643     10.7024     22.6916   8.9873405759e+01   7.0772433328e+01    0.1365656    0.1249843 -18.56  0.001010751    1.410    0.291
       355  -9.9185    131.8667     21.4056   4.5196674850e+01   4.9110274882e+01    0.2861514    0.2199161  45.80 0.0008749774    1.219    0.180
       356  -8.6612     94.3729     20.8166   5.3567596421e+01   5.7851552211e+01    0.4026783    0.2491309  72.17  0.001729445    2.210    0.548
       357  -9.1518    139.0807     19.9918   4.3429725725e+01   4.7507474382e+01    0.3704008    0.1574095  49.29  0.001352865    2.156    0.536
       358  -8.8295    132.0158    225.3103   9.6475151414e+01   8.4458664301e+00    0.1949747    0.1597074  36.19 0.0004388063    1.080    0.074
       359  -8.7868    196.4834    222.4671   8.2137816905e+01  -1.3519335515e+00    0.1341913    0.1111975   6.28 0.0005823254    1.013    0.013
       360  -9.2551     88.7468    221.0076   1.0566514364e+02   1.6027654926e+01    0.2279435    0.1775046  38.24 0.0005869247    1.205    0.170
       361  -8.4429    203.2417    217.6168   7.9915509765e+01  -1.5889164533e+00     0.172347    0.1109059  21.17 0.0001761017    1.464    0.317
       362  -8.9332    242.3362    209.6615   7.1056202174e+01  -5.9935972270e+00    0.1620278    0.1518548 -49.70 0.0008227635    1.690    0.408
       363  -8.8492    230.9488    209.3051   7.3050902784e+01  -4.3579816342e+00    0.1790949    0.1399249   5.88  0.000403219    1.115    0.103
       364  -8.4410    123.9974    205.9879   9.5376377327e+01   1.3709379127e+01    0.1614837    0.1527062  39.03   -0.0106749    1.022    0.021
       365  -8.1591     95.3461    205.2954   1.0210485708e+02   1.8477480111e+01    0.1361204     0.109626 -12.04 0.0003628389    1.671    0.401
       366  -9.5413     35.0786    201.0826   1.1579677884e+02   2.7426005972e+01    0.2165831    0.1241532  64.70  0.001127639    1.686    0.407
       367  -8.3234    120.4192    199.4909   9.5189167060e+01   1.5721596402e+01    0.1434704    0.1330065  54.85 0.0001213475    1.067    0.063
       368  -8.6809      6.4129    194.7731   1.2168180330e+02   3.1644523972e+01    0.1681709   0.09132925 -68.84 0.0009387778    1.649    0.394
       369  -8.9752    241.8164    193.6262   6.8119359721e+01  -3.4541786322e+00    0.1576712    0.1179176  38.37 0.0004310376    1.610    0.379
       370  -8.3433      5.5317    182.5892   1.2105599449e+02   3.4535547444e+01    0.1227168   0.09727083  82.83  5.75404e-05    1.026    0.025
       371  -8.4037    152.2691     18.3037   4.0767874108e+01   4.4463408111e+01    0.1294677   0.09341884  38.82 0.0001499547    1.531    0.347
       372  -8.8694     55.3165    181.1221   1.0882350613e+02   2.9838278389e+01    0.1948151    0.1572386 -82.60 0.0005255044    1.143    0.125
       373 -10.6310    101.0032    176.0040   9.6138503157e+01   2.4435862699e+01    0.2084993    0.2011977  71.24            0    1.004    0.004
       374  -8.4864    112.1397     14.8592   4.6936964188e+01   5.4435815675e+01    0.1884375    0.1332875  39.48 0.0008554434    1.307    0.235
       375  -9.8585      7.2549    174.3468   1.2004875784e+02   3.6350169867e+01    0.2230473    0.1558592 -86.92 0.0008763613    1.170    0.145
       376  -9.6735     18.6192    174.1123   1.1728420436e+02   3.5460026185e+01    0.2177195    0.1938787  10.92 0.0009905414    1.455    0.313
       377 -10.3315      7.3032    166.2840   1.1939528561e+02   3.8286097747e+01    0.2516901    0.1873332 -37.74 0.0009666284    1.691    0.409
       378 -12.0186     30.7375    154.8053   1.1210703652e+02   3.9141516359e+01     0.666572     0.362324  49.36  0.002693297    1.963    0.491
       379  -9.1360    154.6916     14.9077   3.9413363353e+01   4.4210918174e+01    0.1687057    0.1546396 -82.28 0.0002788086    1.101    0.092
       380  -8.5708     55.1275     18.8813   6.6003636595e+01   6.5722733376e+01    0.1951507    0.1252506  13.38 0.0002705003    1.538    0.350
       381 -10.5344     23.8753    162.9662   1.1487162279e+02   3.7730568422e+01    0.3840047     0.204737  16.78  0.001536767    2.468    0.595
       382  -9.4366     20.5574    160.5006   1.1548516735e+02   3.8636014383e+01    0.2407392    0.1803457 -58.05 0.0005486588    1.302    0.232
       383 -11.9380     36.7456    159.2964   1.1101051518e+02   3.7411022792e+01    0.8663951    0.3810528  37.93  0.003776805    2.294    0.564
       384 -10.5650      2.0575    154.9370   1.1977034797e+02   4.1416798577e+01    0.5209062    0.1593472 -74.59  0.002141114    2.573    0.611
       385  -9.4055    249.1773    153.7923   5.8912314600e+01   1.9574355961e+00    0.1853823    0.1390805 -12.54  0.000492496    1.341    0.254
       386  -9.1373     45.9115    151.3738   1.0737910575e+02   3.8445347258e+01    0.2219206    0.1733071 -82.25 0.0004651919    1.204    0.169
       387 -10.1162     19.6265    151.6785   1.1479719274e+02   4.0916604154e+01    0.2687946    0.2226145  37.02   0.00120015    1.372    0.271
       388 -10.8296      4.7758    146.8691   1.1833781810e+02   4.3214531380e+01    0.4479463     0.229778  78.51  0.002007286    2.072    0.517
       389 -10.4534      9.4581    151.5240   1.1752707532e+02   4.1741666648e+01    0.2450458    0.2405924 -18.53 0.0007882173    1.280    0.219
       390  -8.8660    250.5947     13.0431   2.9616030261e+01   2.2858228323e+01     0.162538   0.09561002 -40.40  0.000368197    1.563    0.360
       391 -10.2224     14.0492    150.4838   1.1618862838e+02   4.1658545947e+01    0.2770337    0.2263432  46.15  0.001075497    1.347    0.258
       392 -10.6222     13.7088    144.6062   1.1565935487e+02   4.3150837916e+01    0.4470159      0.21491 -42.48  0.002062496    2.391    0.582
       393 -10.7020     19.6215    141.0481   1.1357414927e+02   4.3590016470e+01    0.3923941    0.2038515  39.03  0.001909931    2.084    0.520
       394 -10.9227      8.5165    122.8205   1.1464907741e+02   4.8941086898e+01    0.4747686    0.2886203 -16.88  0.002359846    2.166    0.538
       395  -9.9558      2.1763    140.0447   1.1839691884e+02   4.5061336637e+01    0.4183044    0.2034164  82.02  0.001733529    2.210    0.548
       396 -11.0064      2.7656    131.3439   1.1735132201e+02   4.7173210616e+01    0.6061201    0.2196787 -71.17   0.00164437    2.125    0.529
       397  -8.3421     68.4141    139.9105   9.8799456003e+01   3.8572736913e+01    0.2137034     0.125893 -88.62 0.0008042706    2.581    0.613
       398  -9.2609     41.5072    139.0507   1.0682662066e+02   4.2084582343e+01    0.2539735    0.1819866  52.28 0.0008522471    1.532    0.347
       399  -9.3424    230.6693    137.0293   5.8367497740e+01   8.0094018662e+00    0.2019951    0.1598916 -33.57 0.0005192166    1.098    0.089
       400  -9.0652     75.9747    135.9219   9.5706362485e+01   3.8501157445e+01    0.3566829    0.2183327  19.56  0.001514696    2.033    0.508
       401 -10.7748     43.1430    130.7152   1.0496995394e+02   4.4049210701e+01    0.6037034    0.3397835 -34.50  0.002193136    2.158    0.537
       402  -8.8754     49.7009    135.2736   1.0370297276e+02   4.2152149136e+01    0.1391909    0.1043104  70.18            0    1.531    0.347
       403  -8.4331     74.7689     12.5896   5.5954241900e+01   6.2786050947e+01    0.1707987    0.1145164  58.47 0.0009419504    1.637    0.389
       404  -9.1109     15.1737    135.5336   1.1420262315e+02   4.5316639661e+01    0.2772225    0.1299625   0.60  0.001145564    3.513    0.715
       405  -8.7783    248.6346    134.1793   5.4909226605e+01   5.3543354175e+00    0.1966568    0.1081306 -30.61 0.0006242659    1.687    0.407
       406 -10.8612     28.7399    132.1286   1.0967411471e+02   4.5087486189e+01    0.2273276    0.2141363  66.74 0.0003462086    1.170    0.145
       407 -10.2375      9.8658    130.5631   1.1517845033e+02   4.6928042210e+01    0.4520417    0.1526808 -57.15  0.001418145    2.295    0.564
       408  -9.5363     12.9667    126.9862   1.1380656536e+02   4.7614548190e+01    0.2041676    0.1763667  60.77 0.0007518512    1.286    0.222
       409  -8.4874     38.2925     10.5547   6.9368057706e+01   6.9372909287e+01    0.1056395   0.09465614 -52.26 0.0006899893    1.941    0.485
       410  -9.0720     61.8230    131.0248   9.9131713833e+01   4.1746810199e+01    0.2171988    0.1864985  87.60 0.0003915924    1.252    0.202
       411 -10.8347     88.5622    128.0157   9.0112861036e+01   3.8504580823e+01     0.259381    0.2566969  34.09 0.0002430484    1.058    0.054
       412  -8.8095     17.2903    129.3262   1.1278969304e+02   4.6721659188e+01    0.1378961   0.08242054 -46.72 0.0003720974    1.615    0.381
       413 -10.9371     33.9116    125.3950   1.0701288425e+02   4.6330703008e+01    0.6003332    0.2621608 -78.60  0.002256849    2.803    0.643
       414  -9.7239     38.6602    123.1731   1.0510551640e+02   4.6436328098e+01    0.3210287    0.2419505  -8.15  0.001304913    1.624    0.384
       415  -9.1761     55.5330    125.9527   1.0014859361e+02   4.3845699259e+01    0.2500003    0.1623207 -47.20  0.001195187    1.444    0.307
       416  -8.9723     59.5453    125.0390   9.8670305392e+01   4.3572433122e+01    0.2097975    0.2051195  16.69 0.0009984983    1.117    0.105
       417  -8.7196     72.0253    123.6700   9.4350177010e+01   4.2199031045e+01     0.198178    0.1925501   4.32  0.000413979    1.092    0.085
       418  -9.2894    236.6888    121.6754   5.4036371933e+01   9.6139097199e+00    0.2395425    0.2044531 -12.44  0.001266753    1.262    0.208
       419  -9.0602    221.0566    121.4557   5.6497532282e+01   1.2633656441e+01    0.2229152    0.1707235 -38.62 0.0005414037    1.161    0.138
       420  -8.2009    130.9971    122.7936   7.6434101084e+01   3.1641600810e+01    0.2014482    0.1283887  41.77 0.0008292556    1.593    0.372
       421 -10.2794     28.8233    116.4594   1.0718660051e+02   4.9046207396e+01    0.3550101    0.2181555 -61.24  0.001405569    1.360    0.265
       422  -9.4112     20.2547    112.6091   1.0941570816e+02   5.0691767785e+01    0.1789802    0.1608889 -80.33 0.0005580681    1.133    0.118
       423 -10.0700     13.8018    109.7716   1.1114022313e+02   5.1841296551e+01      0.31791    0.2257427 -54.58  0.001072345    1.178    0.151
       424 -11.4429     21.4450    119.6947   1.1012712930e+02   4.8831402658e+01    0.5854653    0.4083633  65.38  0.003182555    1.692    0.409
       425 -10.7185     13.0569    113.5068   1.1194500893e+02   5.0966137571e+01    0.4333723    0.2465396  10.09  0.001780509    2.203    0.546
       426  -8.9043    123.8494    121.0898   7.7962170795e+01   3.3528485354e+01    0.2352003    0.2139918  75.13 0.0004259899    1.239    0.193
       427 -10.4573     61.8593    120.4576   9.6963021413e+01   4.4431598926e+01    0.2606524      0.22283 -55.60 0.0002520725    1.071    0.066
       428  -9.1651    144.3214     18.1144   4.1959594235e+01   4.6421351252e+01    0.3222667    0.2188981  33.38  0.001702325    1.705    0.414
       429  -9.4668     93.8236    119.1283   8.6356619958e+01   3.9794899705e+01    0.2776317    0.2433122 -17.00 0.0009488369    1.214    0.176
       430  -9.8378     43.5131    119.3698   1.0281991869e+02   4.6901138884e+01    0.3353799    0.2093989  42.14  0.001016225    1.807    0.447
       431  -9.8073     67.7989    118.6075   9.4601372185e+01   4.4082204550e+01    0.2830017    0.2428403  71.96 0.0004392656    1.358    0.264
       432  -9.6999     70.0563    115.9595   9.3251237782e+01   4.4419752299e+01    0.2879544    0.2299356  65.63 0.0009556129    1.533    0.348
       433 -10.6040      4.0858    116.9001   1.1529466519e+02   5.0662703770e+01     0.323708    0.2868072  -6.38  0.001839479    1.377    0.274
       434  -9.6604     81.9215    115.9972   8.9368460859e+01   4.2583237682e+01    0.4411034    0.1565613  44.49  0.001402838    3.303    0.697
       435  -8.0692     59.3276    112.2401   9.6008655878e+01   4.6825174956e+01    0.1429165    0.1058403 -22.29 0.0001471862    1.531    0.347
       436  -9.8985     62.9332    110.8781   9.4466318298e+01   4.6683168255e+01    0.2534251    0.2064212 -43.45 0.0002861265    1.132    0.117
       437  -9.5337     48.5641    111.9464   9.9632038922e+01   4.8212954950e+01    0.3067423     0.252641 -68.26  0.001170263    1.188    0.158
       438 -10.1467     49.1583    115.7110   1.0020954116e+02   4.7201078867e+01    0.5217421    0.2838579 -26.08  0.002091732    2.610    0.617
       439  -9.4930     62.6278    115.4751   9.5619023749e+01   4.5581234397e+01    0.4158403     0.266322  85.70 0.0008167088    2.562    0.610
