#   1 NUMBER                 Running object number                                     
#   2 MAG_AUTO               Kron-like elliptical aperture magnitude                    [mag]
#   3 X_IMAGE                Object position along x                                    [pixel]
#   4 Y_IMAGE                Object position along y                                    [pixel]
#   5 X_WORLD                Barycenter position along world x axis                     [deg]
#   6 Y_WORLD                Barycenter position along world y axis                     [deg]
#   7 A_WORLD                Profile RMS along major axis (world units)                 [deg]
#   8 B_WORLD                Profile RMS along minor axis (world units)                 [deg]
#   9 THETA_WORLD            Position angle (CCW/world-x)                               [deg]
#  10 FWHM_WORLD             FWHM assuming a gaussian core                              [deg]
#  11 ELONGATION             A_IMAGE/B_IMAGE                                           
#  12 ELLIPTICITY            1 - B_IMAGE/A_IMAGE                                       
         1 -14.1749     61.0196     75.5942   8.6343524068e+01   5.4920539225e+01     1.655223    0.4459338 -48.85  0.001722946    3.362    0.703
         2 -15.2500      6.3948     71.4242   1.0706336878e+02   6.1212591124e+01     2.169278    0.6351301 -56.58  0.008790559    2.328    0.570
         3 -13.5192      2.7782     10.6631   8.9209835868e+01   7.3070650532e+01    0.6681845    0.3359638 -47.38  0.003950994    1.988    0.497
         4 -13.2506      8.2051      2.6446   8.1871668567e+01   7.3751160020e+01    0.4514561    0.3440937  34.95  0.003208155    1.913    0.477
         5 -16.0156     11.4582     22.9662   8.9712890573e+01   7.0420235178e+01     1.783713    0.9673239 -23.03  0.009330134    1.665    0.399
         6 -13.9695     24.8851     14.0798   7.8430468777e+01   7.0413940195e+01    0.6895076    0.3073151  24.99  0.003582365    2.233    0.552
         7 -13.2121     17.4877     11.6227   8.1167131233e+01   7.1584323059e+01    0.3819144    0.3035576 -58.80   0.00132853    2.390    0.582
         8 -14.0236    122.1733     37.3021   5.3973593877e+01   4.9506837699e+01    0.9425857    0.4554607  38.20  0.002272586    2.338    0.572
         9 -14.2984    146.2701     30.0151   4.6732069074e+01   4.4655178413e+01     0.979122    0.6181272  61.07  0.003961069    1.434    0.303
        10 -13.3418    189.7450     26.9114   3.9550975473e+01   3.4570653541e+01    0.5750864    0.2037157 -48.39  0.002267578    2.900    0.655
        11 -15.0584     98.0508     12.0314   5.0452084251e+01   5.7764741746e+01     1.452952     0.666769  56.55  0.006872961    1.884    0.469
        12 -11.5880     46.7322     13.2813   6.7735233762e+01   6.7494433702e+01    0.2169575    0.2064646  60.71  0.001515414    1.657    0.397
        13 -12.4104    214.6769     10.2470   3.3110252052e+01   3.0756955779e+01    0.3130505    0.2538523  73.66 0.0009301501    1.250    0.200
        14 -10.6358    153.3010      8.6903   3.9223364568e+01   4.5162439019e+01    0.1305431   0.08936618 -69.20 0.0002867591    1.603    0.376
        15 -13.8701     41.7604      4.5978   6.5521358182e+01   6.9238873473e+01    0.6860948    0.4606289   8.57  0.003498069    1.329    0.248
        16 -12.1187     71.2700     17.5773   6.0448133264e+01   6.2727858023e+01    0.2855515    0.2391899 -35.80  0.001076638    1.456    0.313
        17 -11.9062     79.9252      2.0319   5.1009207555e+01   6.2478339516e+01    0.5366458    0.1299082  47.60  0.002085115    2.990    0.666
        18 -11.4974     61.3171      1.5108   5.6437868210e+01   6.6173140101e+01    0.3182116    0.1033817  52.42   0.00136855    2.750    0.636
        19 -11.8537    187.5988      9.7944   3.5491037885e+01   3.6925577191e+01    0.1781257    0.1021814 -44.93 0.0008801497    1.700    0.412
        20 -12.5255    248.0861    197.2166   6.9234073682e+01  -4.5385786133e+00    0.4676661    0.2677384 -44.36   0.00248287    1.963    0.491
        21 -11.9290     51.7923    246.8073   1.1645256907e+02   1.6039117699e+01    0.2674545      0.16403 -45.69     0.001503    2.474    0.596
        22 -12.8693      2.8712    248.4422   1.2548420209e+02   2.1028968634e+01    0.4827543    0.2785822  82.88  0.003236349    1.418    0.295
        23 -13.7347      9.1568    245.6794   1.2426400767e+02   2.0948124277e+01      0.72547    0.3320884  65.13  0.003403318    1.811    0.448
        24 -11.9650     16.8552    196.3767   1.1980271454e+02   3.0555227308e+01    0.3038408    0.1410703 -68.27  0.001454704    1.897    0.473
        25 -13.6490     29.9838    169.2205   1.1428898809e+02   3.5708054000e+01    0.9520471    0.8654361  57.22  0.006244886    1.189    0.159
        26 -13.1147     22.3165    181.3351   1.1734113796e+02   3.3532983529e+01    0.6081431    0.3748096 -65.18  0.002586036    1.484    0.326
        27 -15.2299      7.4110    183.7883   1.2096212860e+02   3.4281812388e+01     1.335115    0.9966096  86.58  0.008788103    1.073    0.068
        28 -15.1549     15.5115    175.4600   1.1843344454e+02   3.5548270380e+01     2.011202    0.9300755  66.96   0.00930528    2.380    0.580
        29 -11.2785    206.7057    190.9549   7.5582403423e+01   2.7837384577e+00    0.1979353     0.166552 -19.61 0.0008204514    1.084    0.077
        30 -12.7335    249.2823    182.6878   6.6249310591e+01  -2.4683410497e+00    0.2982014    0.1583094 -38.37  0.001541711    1.675    0.403
        31 -10.9177    200.4914    191.9833   7.7014202561e+01   3.6356837109e+00    0.1799991    0.1219698 -63.21 0.0008096215    2.467    0.595
        32 -12.0077     85.7937    181.0034   1.0162562468e+02   2.5786007319e+01    0.2052391    0.1671853  -1.56  0.001063838    1.625    0.384
        33 -11.5715    121.8169    181.5403   9.2692105753e+01   1.9741240384e+01    0.3552884    0.2206005  81.99  0.001295518    3.122    0.680
        34 -12.3322    206.5647    169.2928   7.1223209442e+01   6.7263648806e+00    0.2768983    0.1288171 -44.07  0.001140603    2.105    0.525
        35 -12.7968    124.1436    167.2374   8.9419604675e+01   2.2625283932e+01    0.6187298    0.4208195 -72.13   0.00271252    1.872    0.466
        36 -11.8882    178.1678    168.1670   7.6836916804e+01   1.2180870997e+01    0.2020162    0.1858978  89.76  0.001091647    1.355    0.262
        37 -11.6178    222.4751    167.0119   6.7748873401e+01   4.3673615155e+00    0.2189167    0.1228707 -37.61  0.001037134    1.606    0.377
        38 -11.2249    193.6060    165.1378   7.2933169423e+01   9.8769002251e+00    0.2510462    0.2050816  48.58  0.001326864    1.383    0.277
        39 -12.2177     76.8801    156.8810   1.0006125000e+02   3.3047857345e+01    0.4180643    0.3023241  29.06  0.001511393    1.519    0.342
        40 -13.3530     73.2425    153.7601   1.0053235933e+02   3.4360174106e+01    0.7203966    0.5014747  32.80  0.003564177    1.537    0.349
        41 -12.2487    110.1015    154.7636   9.0579201565e+01   2.8136081596e+01    0.5058563    0.2977993 -80.04  0.001773032    3.007    0.667
        42 -12.2634    246.5521    150.0282   6.0118540254e+01   3.2733206725e+00    0.3222248    0.2746931 -26.85  0.002017263    1.032    0.031
        43 -12.2077    182.8745    150.3513   7.1924874933e+01   1.4891938204e+01    0.2745507    0.2037044 -49.33  0.001327652    1.383    0.277
        44 -12.8173    189.4421    156.2672   7.1865728935e+01   1.2412054406e+01    0.2945721    0.2772731 -11.64  0.001293475    1.025    0.025
        45 -11.8477     59.2722    148.5759   1.0360631391e+02   3.7568223881e+01    0.2601376    0.1309111  36.45  0.001127014    2.063    0.515
        46 -11.7013      8.2259    144.4685   1.1736894376e+02   4.3636543356e+01    0.3579638    0.1841553 -21.54  0.001594327    3.313    0.698
        47 -12.1972    148.3068    142.3033   7.7965049897e+01   2.3656649059e+01    0.4630892     0.231771 -38.13  0.001724762    2.131    0.531
        48 -12.6264    189.1478    149.9167   7.0511709552e+01   1.3735657462e+01    0.4422347    0.2172073 -36.39  0.001753669    2.021    0.505
        49 -12.1976     40.1559    136.3651   1.0722031771e+02   4.2887758448e+01    0.3438469    0.1686748  56.35   0.00139725    2.723    0.633
        50 -13.6422     94.2246    110.4144   8.4932226712e+01   4.1713391172e+01    0.7157739    0.5389124  44.79  0.002920607    1.413    0.292
        51 -14.6712    106.8538    104.6545   7.9568041653e+01   4.0670874369e+01     1.485581     1.303411   3.89  0.007612927    1.241    0.194
        52 -13.9358    110.8934    116.5775   8.1565505685e+01   3.7149319118e+01    0.4730828    0.4490777  11.72  0.002505984    1.088    0.081
        53 -13.2423     29.2430    122.1206   1.0830298295e+02   4.7525184672e+01    0.4592915    0.2895204 -69.70  0.002401686    1.390    0.281
        54 -11.1527    180.0059    122.4901   6.5949675637e+01   2.1156413141e+01    0.3219398    0.1957957  -6.60  0.001046964    3.596    0.722
        55 -10.6935     59.4600    125.4777   9.9358471390e+01   4.3388144978e+01    0.1448751    0.1308085 -58.34 6.020503e-05    1.004    0.004
        56 -11.9559      4.0029    119.9534   1.1583814219e+02   4.9913575117e+01    0.4250955    0.1860422  17.22  0.002044497    2.833    0.647
        57 -12.4320     78.3277    110.8845   9.0065300909e+01   4.4282642068e+01    0.4224137    0.2960587  66.90  0.001882209    2.017    0.504
        58 -11.7294     86.9553    114.9878   8.8346705644e+01   4.1887768309e+01    0.3051968    0.2231926  14.85  0.001025795    1.662    0.398
        59 -12.8306     81.8131    115.6073   9.0109815034e+01   4.2585544953e+01    0.4108794    0.2888411  44.58  0.001873945    1.542    0.352
        60 -11.4298     34.4729     86.8424   9.9519102247e+01   5.5594557564e+01    0.4213138    0.2086704 -34.85  0.001879177    2.135    0.532
        61 -13.3932      2.1819     97.0577   1.1331047576e+02   5.5526185956e+01    0.8494318    0.2664227 -73.83  0.003302219    2.985    0.665
        62 -14.4348     18.1595    110.8466   1.1006708860e+02   5.1212934744e+01     1.067346    0.7222773 -37.46  0.005643256    1.508    0.337
        63 -14.4572     11.2274    104.3544   1.1134852515e+02   5.3264902510e+01     1.006465    0.6837764 -61.31  0.005681811    1.178    0.151
        64 -14.6644     21.3284     95.5281   1.0626870465e+02   5.4682387462e+01     1.171609     1.002572   4.19  0.007481968    1.347    0.258
        65 -13.4567     29.9251     89.9671   1.0195206671e+02   5.5288714185e+01      1.13589    0.6651907  72.17  0.004684437    3.325    0.699
        66 -11.8301    120.8880    112.1077   7.7566280499e+01   3.6168659615e+01    0.3250463    0.2007765  66.79  0.001190374    2.598    0.615
        67 -12.5164     31.4283    111.3527   1.0574504490e+02   5.0001079538e+01    0.2738277    0.1934914 -48.82 0.0007075406    1.255    0.203
        68 -11.8832     61.4688    109.5247   9.5274356088e+01   4.7076888996e+01    0.4180035    0.2785087 -77.86  0.001908092    1.904    0.475
        69 -12.3122    136.7160    103.5639   7.1012669492e+01   3.4652890409e+01    0.4859215    0.2984798  57.08  0.001866348    1.881    0.468
        70 -11.2495    166.7637    101.9828   6.3510060687e+01   2.8192327637e+01    0.2137012    0.1259693 -39.90 0.0008880905    1.648    0.393
        71 -13.5347    108.4244    124.2181   8.4199247045e+01   3.5825187644e+01       1.1641    0.6549807  39.26  0.004772102    1.835    0.455
        72 -12.5841     49.0255     94.1631   9.5921410868e+01   5.2325565509e+01    0.4425419    0.3243244  81.31  0.001768301    1.998    0.499
        73 -12.1262     46.5413     99.4549   9.8074188059e+01   5.1358901035e+01    0.5054059    0.3504647  85.42  0.002409368    2.102    0.524
        74 -11.8459     42.6712     91.0404   9.7472602031e+01   5.3777675521e+01    0.4461762    0.2806967 -75.83  0.001332009    2.052    0.513
        75 -12.0938     61.2175     97.8290   9.2515955060e+01   4.9911802385e+01    0.3784722    0.2855075  79.83  0.001696033    1.911    0.477
        76 -12.1278    136.1819     95.2988   6.8828010952e+01   3.6485166487e+01    0.3814559     0.205344  45.48  0.001255197    1.878    0.468
        77 -11.8262     90.0450     88.5790   8.0172351218e+01   4.7401539345e+01     0.422663    0.2750838  48.77  0.001919131    1.733    0.423
        78 -11.9488    187.4879     84.8665   5.4925420843e+01   2.6601430653e+01     0.303435    0.1861004  39.29  0.001324532    1.979    0.495
        79 -12.2168     47.2666     82.0647   9.3428071885e+01   5.5310004923e+01    0.4793367    0.2343792 -55.82  0.002127443    1.915    0.478
        80 -13.3087    160.8992     80.8594   5.8974190534e+01   3.3530697773e+01    0.9364668      0.51109  28.15  0.003189866    3.308    0.698
        81 -13.0726    169.3390     77.4968   5.6330739852e+01   3.2125750246e+01    0.4173478    0.2760134  35.65  0.001702451    1.834    0.455
        82 -10.8429     40.8141     67.9809   9.1918962299e+01   5.9113573159e+01     2.284168    0.6564187  20.06  0.006159896    6.897    0.855
        83 -12.7389     54.3449     82.1752   9.0787958477e+01   5.4406236743e+01    0.5662811    0.3281309 -41.17  0.002002797    1.573    0.364
        84 -12.4925     28.4258    245.3699   1.2076626207e+02   1.9014077020e+01     0.382385       0.2212  45.19  0.002435261    1.455    0.313
        85 -12.7938     52.1156     69.8561   8.7971258764e+01   5.7346483677e+01    0.7102762    0.5539703 -77.85  0.003764622    1.891    0.471
        86 -12.2156    136.0126     80.1092   6.4423165760e+01   3.9489245002e+01    0.5398635    0.2841102  43.84  0.002170557    1.932    0.483
        87 -11.8997    114.5273     80.3944   7.0207368280e+01   4.4215824459e+01    0.3541935    0.2744784 -61.98 0.0005935933    1.560    0.359
        88 -10.1858     69.3139     80.3147   8.4750830237e+01   5.2678089939e+01    0.1488483    0.1048213 -16.19 0.0005713911    1.641    0.391
        89 -11.7387     41.9514     77.8166   9.4309544271e+01   5.6864216053e+01     0.488475    0.1782532 -57.27  0.001651619    2.653    0.623
        90 -12.0135     59.6768    244.8312   1.1476362058e+02   1.5443593265e+01    0.3290256    0.1377021 -70.72  0.001630065    2.540    0.606
        91 -13.9296      3.6842     63.5348   1.0643850248e+02   6.3085324655e+01    0.5641576    0.4546552 -10.00  0.002788572    1.325    0.245
        92 -11.8901     27.1606     75.3287   9.9526470147e+01   5.8877600164e+01    0.4220573    0.2087768 -70.58  0.001573815    2.632    0.620
        93 -12.7514     72.4128     74.9312   8.1968315685e+01   5.3317250330e+01     0.817144    0.3180846  27.82  0.002745233    3.527    0.716
        94 -12.8602    163.6566     71.9068   5.5883611759e+01   3.4431527865e+01    0.4248846    0.2696523  43.48  0.001920411    1.689    0.408
        95 -12.4174    199.4581     69.8853   4.9122274669e+01   2.6351236425e+01    0.4085744    0.2557475  53.63  0.001616914    1.678    0.404
        96 -10.5877    117.0251     71.5078   6.6704844757e+01   4.5350179499e+01     0.219717    0.1449919  48.37 0.0005060695    1.507    0.336
        97 -11.9426     81.2278     69.9848   7.7266405994e+01   5.2810290388e+01    0.3884684    0.2995392  49.32  0.002020684    1.489    0.328
        98 -12.4661    134.6290     66.8385   6.0700432713e+01   4.2174913935e+01    0.5180588    0.2861323  47.30  0.001126288    1.766    0.434
        99 -12.3511     87.4466     65.7198   7.3731264001e+01   5.2482935683e+01    0.3719109    0.2595017  -0.54  0.001618704    1.830    0.453
       100 -12.1347     31.4710     63.5974   9.4491992240e+01   6.1013044732e+01     0.523336    0.2600681 -63.82   0.00231265    2.528    0.604
       101 -12.3440     79.1176     61.3408   7.5047262341e+01   5.4819445237e+01    0.4323828    0.3310038  28.39  0.002326017    1.290    0.225
       102 -13.4047     82.5308     55.7194   7.1872438016e+01   5.5194436462e+01    0.5854902     0.466205 -10.07  0.002498481    1.267    0.211
       103 -12.0408     24.3236     60.2688   9.6584137954e+01   6.2364029650e+01    0.2803682    0.2172986 -27.14 0.0007730777    1.118    0.105
       104 -12.6450     91.1082     57.2255   6.9581035761e+01   5.3290594589e+01    0.4497786    0.2786912  43.43  0.002152455    1.590    0.371
       105 -10.9288     38.4854     59.9668   9.0379737379e+01   6.1023735418e+01      0.20196    0.1169314 -50.06  0.001030669    1.602    0.376
       106 -14.2662    119.8873     55.0644   6.0551213829e+01   4.7497422762e+01    0.6819994    0.4010101  40.00   0.00306299    1.725    0.420
       107 -13.4501    103.2939     50.7572   6.3573010640e+01   5.1835593814e+01    0.6405107    0.4219427 -57.07 0.0009789837    2.134    0.531
       108 -12.7994     97.6833     50.4489   6.5112680039e+01   5.3067420503e+01    0.5215705    0.3237023 -46.52  0.002308205    1.869    0.465
       109 -12.9525     65.4642     49.3421   7.5647570886e+01   5.9280107724e+01    0.5128546    0.4567487   1.93  0.002125612    1.053    0.050
       110 -11.7296    136.3933     49.6695   5.4871801622e+01   4.4462257843e+01     0.268878     0.226709  40.30 0.0006254316    1.174    0.149
       111 -10.2584     23.3483     50.2911   9.3915884413e+01   6.4463264153e+01    0.1333162   0.07806243 -23.92 0.0007027797    1.666    0.400
       112 -13.0216    178.0033     58.7586   4.9620777670e+01   3.3099354503e+01    0.5125522    0.4653659 -79.99   0.00166918    1.060    0.057
       113 -13.4474    217.7446     42.6107   4.0141316945e+01   2.6215980396e+01    0.9992691    0.3082185  62.95   0.00355598    3.099    0.677
       114 -12.6536    204.8611     40.2054   4.1046648343e+01   2.9418819822e+01    0.4483241    0.2293782 -82.81    0.0018497    2.776    0.640
       115 -13.4556      6.3958     43.4082   9.9794905955e+01   6.7085805137e+01     1.120306    0.4872193   5.49   0.00554695    2.715    0.632
       116 -13.4747     91.7242    231.5770   1.0689909187e+02   1.3726211034e+01    0.4054692    0.2464334  74.83  0.002024691    2.116    0.527
       117 -12.4706     24.0310    217.4755   1.1981082422e+02   2.5180713887e+01    0.4731851    0.4039893 -64.01  0.003204846    1.405    0.288
       118 -13.2858     14.0283    223.0650   1.2215692406e+02   2.5001529804e+01    0.4412826     0.217752  78.84  0.002439559    1.863    0.463
       119 -13.5300     26.1162    226.4989   1.2000811305e+02   2.3055474269e+01    0.7362267    0.3446914 -61.04  0.003942053    2.272    0.560
       120 -13.5492     20.1712    225.3943   1.2110303705e+02   2.3903151021e+01    0.4212334    0.3972759  47.96  0.003217982    1.380    0.275
       121 -11.6551    159.0259     43.2032   4.8461543335e+01   3.9903945587e+01    0.3438048    0.1941535  62.12   0.00158904    1.671    0.402
       122 -11.9070    109.5098     42.1947   5.8808886689e+01   5.1738560123e+01    0.3985664    0.1853438  60.48  0.001280927    2.488    0.598
       123 -13.0061    131.7414     32.8434   5.0396862812e+01   4.7809663806e+01     0.409321     0.362842 -65.93  0.001806049    1.253    0.202
       124 -13.5960     64.8767    223.1912   1.1174863279e+02   1.9160719824e+01    0.6953157     0.582759  43.07  0.004501031    1.200    0.166
       125 -12.5306    113.9500     38.1350   5.6230144743e+01   5.1289832210e+01    0.3545378    0.2955669  44.08  0.001263089    1.102    0.092
       126 -10.6615     55.3967     41.1922   7.6439074461e+01   6.2229985818e+01    0.1598915    0.1176302 -39.91 0.0003022371    1.434    0.303
       127 -12.1455     75.8113     37.1733   6.7123190110e+01   5.9380072880e+01    0.2913717    0.2256775  42.11 0.0009376921    1.299    0.230
       128 -12.4390    241.8178     36.1542   3.6347973484e+01   2.1969785492e+01    0.4365108     0.189902  73.39  0.002120981    2.427    0.588
       129 -11.1818    104.6668     36.5002   5.8037679626e+01   5.3579676728e+01    0.2408868    0.1269854 -29.96  0.001095435    2.005    0.501
       130 -11.7575     69.6205     36.4539   6.9031139334e+01   6.0611038413e+01    0.3742962    0.1905004  33.93  0.001272358    1.938    0.484
       131 -12.4116     45.8417     33.6370   7.7365679362e+01   6.4833946332e+01    0.4515807    0.3191138  -5.25  0.002665252    1.352    0.261
       132 -13.7693    166.0568     31.0315   4.3818675424e+01   3.9739742434e+01    0.7515807    0.4393898  76.39  0.002791723    1.749    0.428
       133 -12.0559    171.4987     28.4899   4.2322417517e+01   3.8726508992e+01    0.2674738    0.1960349 -83.79 0.0008723094    1.399    0.285
       134 -13.0784    138.9494     21.9783   4.5503490588e+01   4.7314253476e+01    0.9270551    0.2765778  63.69  0.002844861    3.007    0.667
       135 -14.0300     63.8272    214.3401   1.1108008838e+02   2.1202991742e+01    0.5264724    0.3492877  53.75  0.002974642    1.360    0.265
       136 -12.0462    248.5811    216.0442   7.2614125223e+01  -7.3577714468e+00    0.2088706    0.1679671  35.22  0.001390743    1.600    0.375
       137 -12.9209     55.3721     27.3133   7.0630900697e+01   6.4323832398e+01    0.5601283    0.2796612  43.78  0.002766198    2.081    0.519
       138 -12.2020    120.0346     26.5156   5.0728714542e+01   5.1305187868e+01    0.4964835    0.2512588  64.43  0.002217675    1.990    0.497
       139 -11.0593     97.9145     27.1466   5.6345978862e+01   5.6213905315e+01    0.1997339    0.1819726  72.16  0.001225311    1.285    0.222
       140 -11.9524    152.4917     31.5083   4.6114050478e+01   4.2971740203e+01    0.2576283    0.1862307 -58.70  0.001097773    1.526    0.345
       141 -11.2705     65.6898     23.7929   6.5124442398e+01   6.3027852490e+01    0.3224899    0.1590632  24.29  0.001403861    2.535    0.606
       142 -11.8336     47.9031     20.4959   7.0657539555e+01   6.6416373731e+01    0.5058807    0.2265754  37.55  0.002496741    2.097    0.523
       143 -10.8926    224.0226     21.4684   3.4778271897e+01   2.7484728335e+01    0.1686687   0.08490464  50.38 0.0008097191    2.578    0.612
       144 -12.2961    237.2571    214.2618   7.4265664890e+01  -5.5917184656e+00    0.3146217    0.1949574 -59.24  0.001313923    4.292    0.767
       145 -11.3328     60.3097     17.7343   6.4410753513e+01   6.4713595800e+01    0.2185068    0.1428704 -35.31  0.001013528    1.730    0.422
       146 -11.7214    200.1196    214.6782   8.1318533605e+01  -2.1446551433e-01    0.2206541    0.1810346 -39.04  0.001331708    1.370    0.270
       147 -12.2732     72.3835    207.4535   1.0839958196e+02   2.1578928980e+01    0.4128481    0.2988142  84.45  0.002076366    1.416    0.294
       148 -10.7555    148.5005    207.4985   9.0958114215e+01   9.5738616909e+00    0.1397489     0.127802  20.01 -0.000148144    1.028    0.027
       149 -11.6133     41.5046    206.0456   1.1519910127e+02   2.5791789514e+01    0.1894572    0.1119594 -76.12 0.0007726025    1.572    0.364
       150 -10.9234    198.4910    204.5063   7.9793453571e+01   1.7624779920e+00    0.1349252    0.1190162   1.82 1.436692e-05    1.037    0.035
       151 -11.3296    185.4897    203.5195   8.2263748796e+01   4.0704594520e+00    0.1375725    0.1230279   6.14 0.0001133648    1.020    0.019
       152 -11.1361    174.6853    222.3502   8.7810600217e+01   2.4973180480e+00    0.1262148    0.1052905  68.78 0.0007046793    1.727    0.421
