#   1 NUMBER                 Running object number                                     
#   2 MAG_AUTO               Kron-like elliptical aperture magnitude                    [mag]
#   3 X_IMAGE                Object position along x                                    [pixel]
#   4 Y_IMAGE                Object position along y                                    [pixel]
#   5 X_WORLD                Barycenter position along world x axis                     [deg]
#   6 Y_WORLD                Barycenter position along world y axis                     [deg]
#   7 A_WORLD                Profile RMS along major axis (world units)                 [deg]
#   8 B_WORLD                Profile RMS along minor axis (world units)                 [deg]
#   9 THETA_WORLD            Position angle (CCW/world-x)                               [deg]
#  10 FWHM_WORLD             FWHM assuming a gaussian core                              [deg]
#  11 ELONGATION             A_IMAGE/B_IMAGE                                           
#  12 ELLIPTICITY            1 - B_IMAGE/A_IMAGE                                       
         1 -12.5033    108.7036     99.3404   9.8760299827e+01   4.1812758900e+01    0.7955626    0.5035017  68.75  0.003125748    2.580    0.612
         2 -12.4202     42.6648     20.7523   9.4670863096e+01   6.5840009458e+01    0.6419137    0.2868918  25.19  0.002542276    2.354    0.575
         3 -12.5937    216.2483     14.5399   5.6629957954e+01   3.0288459998e+01    0.5233595    0.4487049  89.12  0.001746837    1.170    0.145
         4 -13.5067    189.9522      9.0362   5.8081516291e+01   3.6764637513e+01    0.8012184    0.3462747  84.20  0.003588638    2.462    0.594
         5 -11.9547     58.2204      7.8264   8.3592933761e+01   6.4867756736e+01    0.4325547    0.2557297  32.75  0.002682925    1.396    0.284
         6 -11.6800     44.1476      8.5389   8.8961375893e+01   6.6969740564e+01    0.2373871    0.1864892  11.56 0.0008190043    1.056    0.053
         7 -11.9253    166.8095      1.8776   5.9031942101e+01   4.2731458727e+01    0.5297953    0.1504582  70.82  0.002073207    3.008    0.668
         8 -10.0989    109.4971      8.5098   7.0088751430e+01   5.5034313459e+01    0.1221644    0.1024281  52.62 0.0008102327    1.043    0.041
         9 -10.6826    149.5148    222.7156   1.1492015268e+02   5.6707951523e+00    0.4342414      0.25139 -60.90  0.001954447    2.112    0.527
        10  -9.3253    185.6737    223.3119   1.0728258538e+02  -8.3236037705e-01    0.1325178    0.1089186  71.52 0.0007041188    1.663    0.399
        11 -11.3085    226.2137    221.2387   9.8828771084e+01  -7.1125533845e+00    0.2354213     0.190963  87.18  0.001268976    2.319    0.569
        12  -9.7886    174.0000    221.9957   1.0950735158e+02   1.4522375039e+00    0.2221771   0.07959364 -47.24 0.0008080053    2.981    0.665
        13 -11.2309    238.3018    212.8703   9.5030058585e+01  -7.5672613818e+00    0.5958504    0.2950387 -55.62    0.0022796    3.893    0.743
        14 -11.3639    223.2740    213.5382   9.7963270866e+01  -5.3570726914e+00     0.340583    0.2052501   8.52  0.001560144    2.302    0.566
        15 -10.6865    116.1237    209.4208   1.2028136629e+02   1.4480469641e+01    0.3510717    0.1681448 -65.49  0.001365308    2.522    0.604
        16  -9.4640    131.3274    203.6679   1.1581858447e+02   1.3043848206e+01     0.154528    0.1114731  74.05 0.0007051495    1.714    0.416
        17 -10.3613     48.9988    201.5412   1.3459784001e+02   2.6646506765e+01    0.3415074    0.1623696 -79.76  0.001507921    2.172    0.539
        18  -9.9441     41.4756    201.9722   1.3631428593e+02   2.7477945252e+01    0.1954199    0.1120144 -72.55 0.0005657638    1.539    0.350
        19 -11.1998      5.2001    199.6137   1.4379010625e+02   3.1847340823e+01    0.3378172    0.1814355  58.63  0.001148897    1.746    0.427
        20 -10.2590    112.3132    197.9683   1.1932387095e+02   1.7784840448e+01    0.2394208    0.1201307 -79.90 0.0007046892    4.306    0.768
        21 -12.2927    159.8080    191.7978   1.0707926794e+02   1.0282229254e+01    0.7907723    0.5516157  87.92  0.002914194    2.319    0.569
        22  -9.8274    215.4715    193.9827   9.5710552638e+01  -5.5015158420e-01    0.1933698     0.120464 -63.10 0.0008098686    2.591    0.614
        23 -10.0026    109.0000    185.9897   1.1808671202e+02   2.1218538886e+01    0.2434833     0.083589 -56.46  0.000754759    2.903    0.656
        24 -10.4957    183.8217    182.8938   9.9972528205e+01   7.5092673778e+00    0.4066171    0.1948712 -35.91  0.001529138    2.379    0.580
        25 -10.2816    224.3099    183.6628   9.1956535260e+01  -1.5942421015e-01    0.1341962    0.1106947 -75.22  0.000697205    1.683    0.406
        26  -9.5442    128.9871    177.7379   1.1163509758e+02   1.9491031744e+01     0.203405    0.1318973  40.95 0.0008877527    1.536    0.349
        27 -12.0093     36.0226    173.6538   1.3433590844e+02   3.4913326490e+01    0.4976982    0.2875977  70.25  0.002422106    1.963    0.491
        28 -11.5942     55.7191    167.5748   1.2855776712e+02   3.4064980444e+01    0.5159988     0.283248 -84.76   0.00220505    2.189    0.543
        29  -9.7633     88.2481    168.2223   1.2019997584e+02   2.9139963231e+01     0.243763    0.1218972 -71.67 0.0008903801    2.493    0.599
        30 -10.0545     44.6645    167.6879   1.3140273785e+02   3.5398922797e+01     0.135993   0.09682646 -40.10 0.0006996043    1.685    0.406
        31  -9.5805    133.2843    195.6546   1.1395399741e+02   1.4493873614e+01    0.1528983    0.1149813  80.49 0.0004806181    1.645    0.392
        32 -10.4599     98.9895    165.7781   1.1694294278e+02   2.7936747740e+01    0.2874335    0.1973047 -76.16  0.001289949    1.640    0.390
        33 -10.2677     80.3201    164.9874   1.2170634978e+02   3.1211891014e+01    0.2441877    0.1181141 -82.26 0.0007049149    4.294    0.767
        34  -9.5197     69.6712    163.3399   1.2423752417e+02   3.3218858550e+01    0.1534366    0.1045598  75.16  0.000705167    1.737    0.424
        35 -10.6657    121.2423    169.2439   1.1189081303e+02   2.3015613135e+01     0.250025    0.1280702 -65.16 0.0007151693    2.444    0.591
        36 -11.1798     23.7964    159.7196   1.3564577375e+02   3.9555770832e+01    0.2436916    0.1937881  16.11  0.001496319    1.644    0.392
        37 -10.0126    128.6348    159.3165   1.0796595262e+02   2.3973497116e+01    0.1666106    0.1220466  78.33 0.0007039642    1.772    0.436
        38 -11.6424    106.0635    157.4879   1.1344775205e+02   2.8730916829e+01    0.6921644    0.4650921 -89.08  0.002860427    2.091    0.522
        39 -10.6754    167.5318    157.5396   9.8176643086e+01   1.6337816903e+01    0.3602112    0.2457389  87.06  0.001390551    2.445    0.591
        40 -11.3641    118.8748    157.0358   1.0998921361e+02   2.6438201008e+01    0.4292757    0.3098245  53.26  0.001969364    1.447    0.309
        41 -10.3241    218.4192    155.9806   8.7306594332e+01   6.2584581762e+00    0.3807432    0.1252697 -47.71  0.001252525    3.054    0.673
        42  -9.9610     81.3308    154.6601   1.1955199966e+02   3.3638866701e+01     0.156829    0.1108545  76.88 0.0006407956    1.743    0.426
        43 -10.5659     23.0236    151.5801   1.3480788587e+02   4.1602903590e+01    0.3669188    0.1622277 -75.63  0.001600285    2.113    0.527
        44 -11.6453    242.7708    150.8994   8.1979006971e+01   2.7090012050e+00    0.2677889     0.199498  58.09  0.001459457    1.630    0.386
        45 -10.1210    189.8420    150.5574   9.1743433125e+01   1.3148169263e+01    0.2961288    0.2022909 -78.38  0.001199647    2.271    0.560
        46 -10.7938    106.6874    145.2750   1.1069906778e+02   3.1619416193e+01    0.4573121    0.2702613  79.48  0.001448078    3.713    0.731
        47 -10.3321     55.9779    146.0003   1.2498940303e+02   3.9407756186e+01      0.23128    0.1616274  74.94  0.001137347    1.725    0.420
        48  -9.9038    148.3297    145.0032   9.9854908090e+01   2.3282130319e+01    0.2643549    0.1283421 -66.39 0.0007050768    4.328    0.769
        49 -10.9466     83.3345    132.2519   1.1440757870e+02   3.8860289113e+01    0.3812957    0.2423826  84.87  0.001470404    2.711    0.631
        50 -10.2015     74.1892    130.3578   1.1667577055e+02   4.0742785975e+01     0.319488    0.1611128  56.43  0.001161298    3.012    0.668
        51 -10.3760     58.8665    124.1717   1.1995606510e+02   4.4378063846e+01    0.3513266    0.1915989 -85.50  0.001202395    3.759    0.734
        52 -10.9303     43.6076    123.5469   1.2447821130e+02   4.6351462125e+01    0.4944202    0.2786521 -89.16  0.001994795    2.939    0.660
        53 -11.2018     27.5653    121.3880   1.2895536529e+02   4.8452726932e+01    0.7084583    0.3443016  85.97  0.002303115    5.039    0.802
        54 -11.6333    193.1818    118.3349   8.3624653591e+01   1.9120445498e+01    0.6009731    0.4249165 -69.11   0.00229362    1.672    0.402
        55 -10.2782     15.6013    121.1450   1.3250311357e+02   4.9486525194e+01    0.3257096    0.1278514  37.52  0.001479542    2.951    0.661
        56 -12.0762     98.9453    128.6966   1.0909234651e+02   3.7046242613e+01    0.7427869    0.4639763  86.56  0.002586493    3.258    0.693
        57 -10.9913    140.6730    117.1806   9.4964372964e+01   3.1233747008e+01     0.434514      0.14444 -49.33  0.001304976    3.184    0.686
        58 -10.3307      2.2251    115.1944   1.3557158738e+02   5.1749549078e+01    0.1612042    0.1263893 -89.06 0.0007171049    1.318    0.241
        59 -10.5880    108.1001    112.3064   1.0240956798e+02   3.9120397422e+01    0.5814213    0.1871209 -54.17  0.001647004    3.929    0.745
        60 -10.5962     78.6508    112.8444   1.1129585036e+02   4.4204007362e+01    0.3456011    0.2223202 -83.51  0.001374736    2.706    0.631
        61 -12.2171    160.1917    110.8754   8.8699573469e+01   2.8172452895e+01    0.8070654    0.5085519 -67.91  0.003180998    2.196    0.545
        62 -10.4310     91.7839    111.2287   1.0689795091e+02   4.2384667670e+01    0.4555173     0.199256 -59.68  0.001541592    3.007    0.667
        63 -10.9438    174.7261    110.5523   8.5453640919e+01   2.4890611171e+01    0.4592259    0.3121891 -36.83  0.001350788    1.542    0.352
        64 -11.0771     14.2099    109.6614   1.3103499480e+02   5.2237642484e+01    0.5630031    0.2395569 -72.11  0.002512289    2.374    0.579
        65 -11.8481     44.5633    101.1787   1.1944951255e+02   5.1429617156e+01    0.6267877    0.3858312 -85.00  0.002724003    2.814    0.645
        66 -11.9915    127.5339    100.5326   9.3929370242e+01   3.7651837962e+01    0.5710455    0.2747348 -52.24  0.002113555    2.344    0.573
        67 -11.0834    220.2746    249.0101   1.0482768041e+02  -1.0585291718e+01    0.1785684    0.1482257  -6.43  0.001183079    1.095    0.087
        68 -10.8787     62.8761     95.7696   1.1201270137e+02   5.0346728405e+01    0.4382524    0.2089336 -69.66  0.001274868    5.408    0.815
        69 -12.7321    141.7603    105.5034   9.1651561009e+01   3.3482937499e+01    0.6758525    0.3830378  66.38  0.002460637    2.580    0.612
        70 -12.9980    170.2546     91.0582   8.1440614224e+01   2.9733464362e+01    0.4510916     0.387698 -64.05 0.0009816709    1.163    0.140
        71 -10.9201     34.3779     88.2004   1.1986182175e+02   5.5313947649e+01    0.3576688     0.207001 -62.05  0.001844183    1.756    0.431
        72 -11.4567     42.2786     87.8958   1.1701007639e+02   5.4566935617e+01    0.4066783    0.2342591 -13.00  0.001564671    2.424    0.587
        73 -10.9216     46.4292     83.1406   1.1430285478e+02   5.5091964536e+01    0.5607115    0.3563542  74.17  0.002169267    4.297    0.767
        74 -11.0730     86.5852     86.7775   1.0182812108e+02   4.8517991954e+01    0.4818017    0.3233759 -74.41  0.002036853    2.643    0.622
        75 -10.2559    119.4667     87.5230   9.2434924656e+01   4.1980894862e+01    0.1462739    0.1430508  20.85 6.432411e-05    1.003    0.003
        76 -11.1736      6.9014     85.1582   1.2888190106e+02   5.8097515153e+01    0.2282172    0.1346571 -43.03            0    1.378    0.275
        77 -10.7741    104.7792     83.9050   9.5488657466e+01   4.5692030781e+01    0.4056771    0.2827598  85.71   0.00167489    2.678    0.627
        78 -10.3568     23.8137     79.7655   1.2159828986e+02   5.8024762168e+01    0.3661407    0.1657354 -69.19  0.001498009    3.302    0.697
        79 -10.8059     62.4601     72.0340   1.0543379650e+02   5.5204414997e+01    0.5902361    0.1243269 -47.54  0.001774192    4.657    0.785
        80 -11.0900     82.2075     72.9015   9.9059431665e+01   5.1930880926e+01    0.3945428    0.2482843 -65.79   0.00166124    2.850    0.649
        81 -11.6817    223.3422     71.1229   6.7827208347e+01   2.0949408893e+01    0.3230627    0.2355548 -64.40  0.001512698    1.254    0.203
        82 -10.6912     82.0288    100.6551   1.0712425895e+02   4.6388960016e+01    0.2470377    0.2076078 -80.50 0.0008260283    1.487    0.327
        83  -9.8582     94.9928     71.9893   9.4783728704e+01   4.9786684130e+01    0.2440437    0.1519192 -62.45  0.001024883    2.598    0.615
        84 -10.6351     51.8380     70.4359   1.0873553344e+02   5.6940596164e+01    0.2825184    0.1836241 -53.17  0.001000876    1.665    0.400
        85 -11.4348     20.7749     51.1923   1.1488738414e+02   6.3727440591e+01    0.5879648    0.2488042 -50.81  0.002997424    2.174    0.540
        86 -11.2370     28.0292     52.9931   1.1247756361e+02   6.2756089088e+01    0.4169013    0.2162071 -11.60   0.00202761    2.542    0.607
        87 -11.3333     19.3409     59.5574   1.1796996378e+02   6.2340020087e+01     0.269441     0.212958 -20.77  0.000966406    1.092    0.084
        88 -13.4989     30.4919     59.7045   1.1357326727e+02   6.1323287359e+01     1.250083    0.6476697  29.81  0.004381618    2.089    0.521
        89 -10.3813    196.7022     67.9439   7.0936379978e+01   2.7500605626e+01    0.3397497    0.1986539  63.44  0.001608251    1.659    0.397
        90 -11.6248    237.9805     64.0085   6.4497243202e+01   1.8931046284e+01    0.3037777    0.1607448 -85.11  0.001328238    2.573    0.611
        91  -9.8917      6.6343     53.3350   1.2140196992e+02   6.4392035912e+01    0.3369361     0.262945  67.97  0.002187077    2.289    0.563
        92 -11.3909      9.7688     58.6281   1.2156924204e+02   6.3213720024e+01    0.4812429    0.1843788  33.03  0.002353783    3.231    0.690
        93  -9.1146    113.0266     61.6830   8.6431245955e+01   4.7897911005e+01     0.225721    0.1158464  68.98 0.0007048711    4.328    0.769
        94 -10.4992     74.0054     59.7845   9.7557672149e+01   5.5596096413e+01    0.4299883    0.2890646 -72.98  0.001778415    3.645    0.726
        95 -11.4568    232.2955     59.9130   6.4314787414e+01   2.0762297482e+01    0.3141413    0.1656629  77.99  0.001493698    2.083    0.520
        96  -9.9203    119.3381     56.6643   8.3239116954e+01   4.7317335637e+01    0.1401195    0.1097994 -82.09 0.0005616763    1.751    0.429
        97 -11.1245     39.6544     51.9469   1.0748341852e+02   6.1710443886e+01    0.5300962    0.1517512 -40.34   0.00194418    3.157    0.683
        98 -10.4373    161.5531     52.9683   7.3067164999e+01   3.8124389003e+01    0.2735195     0.186713  78.97 0.0009451784    1.577    0.366
        99 -11.9064    149.4291     52.1393   7.5150160180e+01   4.1115831814e+01    0.3213796    0.2450292  61.91 0.0004358014    1.207    0.172
       100  -9.8768     92.3044     51.6542   8.9034958597e+01   5.3612721354e+01    0.1262143    0.1078311 -79.85 0.0005065823    1.691    0.409
       101 -10.5273     82.3111     46.9780   9.0508683286e+01   5.6149512205e+01    0.2275275    0.2087853  42.79 0.0005646025    1.241    0.194
       102 -10.6911    157.1108     44.9587   7.1705299159e+01   4.0290874976e+01    0.2714273    0.1748296  58.12 0.0004786708    1.394    0.283
       103 -11.1150      6.9726     43.1822   1.1827328782e+02   6.6159673483e+01    0.3999331    0.2501986  41.26  0.002449738    2.488    0.598
       104  -9.3329    149.2894     43.3246   7.2699693918e+01   4.2353710981e+01    0.1354065    0.1005483  30.82 0.0002569851    1.610    0.379
       105 -11.2650     70.1974     42.1973   9.2784208636e+01   5.8920862297e+01    0.3598714    0.2759824  67.22  0.002007562    2.154    0.536
       106 -12.2602     42.9594     37.3024   1.0101094321e+02   6.3608055890e+01    0.6811298    0.3327961  19.66  0.002927347    2.337    0.572
       107 -11.5629     46.8863     35.8356   9.8919676626e+01   6.3306079475e+01    0.3576609     0.204558  17.45 0.0005905489    1.823    0.452
       108 -10.8327     82.8083     37.8732   8.7163568962e+01   5.7302540350e+01    0.3922175    0.1992827  58.87  0.001690639    2.882    0.653
       109 -11.1346    120.1361     34.2204   7.6027788359e+01   5.0150854723e+01    0.2896127    0.2434513  60.20 0.0007250914    1.134    0.118
       110 -11.1608    104.0516     30.6749   7.8722102474e+01   5.4007421642e+01    0.4400765    0.1889546  57.24  0.001494442    2.285    0.562
       111 -12.3971     20.5231    238.3186   1.4366381008e+02   2.1823998710e+01    0.7400913    0.2429619  58.25  0.003266121    2.918    0.657
       112 -10.7847     39.5478     17.5138   9.4584141265e+01   6.6639784570e+01    0.2252098    0.1735471   9.57  0.000811998    1.043    0.041
       113 -11.0951    239.9341     20.6045   5.5727138492e+01   2.4520270701e+01    0.2521591    0.1761466  88.46 0.0005426711    1.199    0.166
       114 -12.2936    202.9347     20.9882   5.9328166942e+01   3.2519774866e+01    0.3888146    0.1704013  81.67   0.00172867    2.400    0.583
       115 -10.8570      8.3131    240.2675   1.4597741178e+02   2.2734874303e+01    0.1750791    0.1398174  33.60  0.001003152    1.706    0.414
       116 -10.6500    133.9160     18.0103   6.8274766066e+01   4.8799900314e+01    0.2293883    0.1582799  60.74 0.0006026353    1.222    0.182
       117  -9.5551     89.3202     18.6440   7.8387949436e+01   5.8253705629e+01    0.1142422   0.09611028 -75.75 0.0007045731    1.757    0.431
       118  -9.7640    158.3277    231.6604   1.1447292775e+02   2.3544034583e+00    0.1396596    0.1049693  70.29 0.0004190327    1.734    0.423
       119 -10.6896     12.8706    227.2648   1.4431064620e+02   2.4990037748e+01    0.2324239    0.1356213 -77.34  0.000606571    1.453    0.312
       120  -9.9343    104.3705    225.2056   1.2524650300e+02   1.2987200086e+01    0.1904377    0.1265661 -76.79 0.0008157049    1.685    0.407
       121 -10.8609     95.7257    224.4625   1.2704177667e+02   1.4560917914e+01    0.3585385    0.1854138 -73.09   0.00156091    2.303    0.566
