#   1 NUMBER                 Running object number                                     
#   2 MAG_AUTO               Kron-like elliptical aperture magnitude                    [mag]
#   3 X_IMAGE                Object position along x                                    [pixel]
#   4 Y_IMAGE                Object position along y                                    [pixel]
#   5 X_WORLD                Barycenter position along world x axis                     [deg]
#   6 Y_WORLD                Barycenter position along world y axis                     [deg]
#   7 A_WORLD                Profile RMS along major axis (world units)                 [deg]
#   8 B_WORLD                Profile RMS along minor axis (world units)                 [deg]
#   9 THETA_WORLD            Position angle (CCW/world-x)                               [deg]
#  10 FWHM_WORLD             FWHM assuming a gaussian core                              [deg]
#  11 ELONGATION             A_IMAGE/B_IMAGE                                           
#  12 ELLIPTICITY            1 - B_IMAGE/A_IMAGE                                       
         1 -12.0414     18.2076     25.0587   1.0733575481e+02   6.9199535102e+01    0.5676619    0.2322877 -61.79  0.002342599    2.345    0.573
         2 -12.1259      6.9451     18.8667   1.1066624248e+02   7.1217685602e+01    0.4997172    0.1623731 -51.81  0.001984634    2.081    0.519
         3 -11.7938    190.4171     20.2529   5.5921636990e+01   3.5011330182e+01    0.3628504    0.2689724  16.25 0.0003419205    1.592    0.372
         4 -12.1689    219.4944     14.9420   5.0967725578e+01   2.7967370035e+01    0.4748734    0.2016789 -41.00  0.001911354    2.158    0.537
         5 -11.1452    130.8869     17.1612   6.4673085266e+01   5.0984804309e+01    0.5376077    0.2087325  46.03  0.001961136    2.570    0.611
         6 -11.2994    114.0406     15.7464   6.7865256823e+01   5.5215736835e+01    0.5369722    0.2813327  56.35  0.001828886    1.908    0.476
         7 -12.3088     25.5962     13.1292   9.8831452572e+01   7.0796052850e+01    0.3137238    0.2657158 -40.78            0    1.162    0.140
         8 -11.6047     80.3989     14.8312   7.6948540523e+01   6.2498067978e+01    0.2899704    0.2181615 -31.26  0.000821373    1.248    0.199
         9 -11.7611    209.2267     13.6062   5.1628294797e+01   3.0757732986e+01    0.3477304    0.2290627  45.77  0.001667349    1.643    0.391
        10 -12.5727    209.8046      5.9546   4.9275218079e+01   3.1372167387e+01    0.6622254    0.3111195 -51.67  0.001011962    2.247    0.555
        11 -10.9246     62.4429     12.6553   8.2242077901e+01   6.5999272638e+01    0.2622092    0.1869446 -45.55  0.001496276    1.558    0.358
        12 -11.1024     74.8709      9.1333   7.5956127973e+01   6.4311877872e+01    0.3418092    0.2227302 -30.78  0.001617406    1.414    0.293
        13 -10.3085     66.5227     11.9439   8.0346031305e+01   6.5418551566e+01    0.2037705    0.1139093 -29.92  0.001031521    1.596    0.373
        14 -11.7080     38.6865      3.5823   8.7512582273e+01   7.0866318079e+01    0.5111803    0.2867956 -54.34  0.002472395    2.862    0.651
        15 -10.3346     50.4049      1.8285   8.1269763332e+01   6.9448020399e+01    0.2134155    0.1540092  15.71 0.0005367135    1.420    0.296
        16 -12.2428     46.6073      8.1595   8.6404063155e+01   6.9093962679e+01    0.4922601    0.2891258  46.44  0.002586165    2.170    0.539
        17 -11.3281     51.9822      5.9456   8.2903572389e+01   6.8632328507e+01     0.231511    0.1606211 -19.58 0.0003116684    1.271    0.213
        18 -10.1870     10.2512      1.4273   1.0141267231e+02   7.4226778580e+01    0.2025551    0.1543575  62.82  0.001194419    2.453    0.592
        19 -10.5057     13.8467      4.7345   1.0102012372e+02   7.3356197342e+01    0.2014001    0.1589111 -60.21 0.0006834445    1.509    0.337
        20 -10.6289     13.6916      9.0717   1.0316456803e+02   7.2594826225e+01    0.3207659    0.1240015 -55.34  0.001574261    2.311    0.567
        21 -10.8876     18.5989      7.3902   9.9721438693e+01   7.2475792466e+01    0.3781038    0.2060753   8.38  0.001295482    2.541    0.606
        22  -9.8011      6.9918      5.5240   1.0528037289e+02   7.3743466629e+01    0.2518185   0.09926307 -26.64 0.0008382712    3.738    0.732
        23 -10.9099      6.9446     10.2346   1.0736021005e+02   7.2876819856e+01    0.2331612    0.1814353  58.38  0.001449607    2.003    0.501
        24 -10.5574     87.1572      7.1851   7.1067898217e+01   6.2150491556e+01    0.2699672    0.1585941 -32.38 0.0008783081    1.632    0.387
        25 -11.8677    186.5564      8.2916   5.2504285603e+01   3.7298326215e+01    0.4125026    0.1773615  56.26  0.001115999    2.178    0.541
        26 -12.2959    190.8604      5.4797   5.1093098885e+01   3.6418800231e+01    0.4212913     0.306923 -49.86 0.0003632339    1.381    0.276
        27 -11.4802    194.6778      3.6746   5.0101837493e+01   3.5571470701e+01    0.2769577    0.2509311  59.13  0.000788243    1.112    0.101
        28 -11.2504    106.6755      8.4569   6.6393374659e+01   5.7769114351e+01    0.4214167    0.2235763  44.02  0.001915498    1.836    0.455
        29  -9.9462    201.6794      8.2751   5.0801517722e+01   3.3276602936e+01    0.1495394    0.1001065 -60.58 0.0002852544    1.574    0.365
        30 -11.7881    176.5274      7.4722   5.3469481436e+01   4.0067961142e+01    0.2964978    0.2195817  36.31 0.0006250182    1.439    0.305
        31  -9.0064     93.0000      7.9872   6.9773646684e+01   6.0836664594e+01    0.2326888   0.07252486 -26.00  3.64981e-05    3.044    0.671
        32 -11.5122     24.7000      6.8986   9.6253117210e+01   7.1971203532e+01    0.2339126    0.1576266 -45.86 0.0004834104    1.326    0.246
        33 -10.2238     62.2966      6.1982   7.8926270112e+01   6.6938515010e+01    0.2111812    0.1837744  22.41  0.001122613    1.197    0.165
        34 -10.4820    112.0064      4.7280   6.3422793276e+01   5.6932353350e+01    0.1907591    0.1686442  40.52 0.0003263342    1.095    0.087
        35 -11.9995    180.7000      2.7818   5.1366248811e+01   3.9389099834e+01    0.4223393    0.2796777  53.75  0.002049197    1.473    0.321
        36 -12.0274    160.3414      3.0746   5.4081070499e+01   4.4815290305e+01    0.5662616    0.3139646  79.96   0.00241969    1.979    0.495
        37  -9.9193     30.9868      3.9778   9.1487611617e+01   7.1760964896e+01    0.1622884    0.1362588 -56.26 0.0003516105    1.607    0.378
        38 -11.0814    232.7077      2.9913   4.6431612254e+01   2.5838020076e+01    0.2004415    0.1741691 -40.63  0.001185563    1.075    0.070
        39 -11.1554    217.8290      2.1124   4.7412907431e+01   2.9663851237e+01    0.2839745    0.2113926 -49.19  0.001521902    1.272    0.214
        40 -10.4208     91.4670      2.6219   6.7549863284e+01   6.1766478662e+01    0.2266813    0.2083442 -43.81  0.000773186    1.282    0.220
        41 -11.2561     73.9198      2.0777   7.2573992190e+01   6.5368931772e+01    0.2774617    0.2264234  25.79  0.001551076    1.178    0.151
        42  -9.8190     81.3133      2.2927   7.0332414403e+01   6.3901875267e+01     0.136683   0.09032814  18.85 0.0002759155    1.593    0.372
        43 -11.5969    154.7683    232.4701   1.1065543737e+02   9.5712334826e+00    0.3835689    0.1749176  53.36 0.0005041932    2.054    0.513
        44 -10.3738    200.2768    249.3775   1.0545773094e+02   8.5857541809e-01    0.2489059    0.1337441  26.60  0.001581409    1.871    0.466
        45 -11.3206    200.2822    244.9327   1.0491505286e+02   1.2947168121e+00    0.1901993    0.1477644  32.30 0.0003297887    1.081    0.075
        46 -11.5713    202.7468    240.2642   1.0395070362e+02   1.3968892180e+00    0.3656042    0.1424348  42.85  0.001345252    1.919    0.479
        47 -10.5842    197.4247    239.7178   1.0470663379e+02   2.2482934809e+00    0.1767594    0.1424562 -50.85  0.001371422    1.835    0.455
        48  -9.9958    149.6853    250.7125   1.1340321523e+02   8.0981960964e+00   0.09796115   0.06810402  28.71 0.0002238917    1.586    0.369
        49 -11.1519    129.1770    248.2960   1.1637768406e+02   1.1327599570e+01    0.1868262    0.1659864  19.24  0.001363946    1.565    0.361
        50 -10.3754    121.0606    247.3377   1.1756611239e+02   1.2591598608e+01    0.1814457    0.1136113  40.01 0.0007827487    1.409    0.290
        51 -12.7379    119.0336    241.8506   1.1740035448e+02   1.3600813630e+01    0.5042894    0.2441568  38.15  0.003063963    1.901    0.474
        52  -9.7395    118.6670    250.7508   1.1823439671e+02   1.2482613610e+01     0.176778   0.06873753  44.67 0.0005443834    1.856    0.461
        53 -10.9806    116.1148    248.4953   1.1844106782e+02   1.3127162023e+01     0.292818    0.2115993  28.24  0.002168147    1.818    0.450
        54 -10.8352     45.7308    248.6701   1.2921270286e+02   2.1914790217e+01    0.2150544    0.1702069  83.73  0.001548095    1.369    0.269
        55 -12.6420     46.9934    218.9707   1.2741071657e+02   2.6356412233e+01    0.3271798    0.2328101 -74.38  0.001198097    1.572    0.364
        56 -12.2333     45.3073    200.4884   1.2651968231e+02   2.9695510986e+01    0.4335544     0.265877  37.70  0.002970385    1.790    0.441
        57 -12.4021     46.7140    230.0197   1.2809416785e+02   2.4615825981e+01    0.3308972    0.1974429  80.60 0.0006019158    1.428    0.300
        58 -12.3962     20.0176    216.6443   1.3166949723e+02   2.9596163532e+01    0.2025828    0.1650614 -85.07 0.0006178438    1.473    0.321
        59 -14.1605      8.9537    215.2915   1.3337012196e+02   3.0875615223e+01    0.9913678    0.4480436  83.16  0.004311665    1.783    0.439
        60 -13.2883     31.5275    212.0425   1.2957236886e+02   2.9196982832e+01    0.9243729    0.5113407 -58.75  0.006241125    2.491    0.599
        61 -13.0527     36.0961    227.8550   1.2965256592e+02   2.6123606872e+01    0.4955175    0.4090774 -62.18  0.002171809    1.876    0.467
        62 -12.4072     28.0699    231.2590   1.3105918131e+02   2.6430674329e+01    0.2962962    0.2286492 -68.32  0.002572283    1.812    0.448
        63 -14.5833     34.8788    243.9902   1.3059987534e+02   2.3777219332e+01    0.6813827    0.5065502  70.45  0.004292856    1.189    0.159
        64 -13.8633     23.0838    243.0185   1.3229302497e+02   2.5140468269e+01     1.223974    0.3403798 -84.29  0.006666168    3.805    0.737
        65 -12.1667     44.5355    235.9521   1.2875343068e+02   2.3940690348e+01    0.3404144    0.1583496  68.31  0.001500276    1.782    0.439
        66 -14.3823     14.6208    247.4051   1.3366824257e+02   2.5326127949e+01    0.7192863    0.3784105  70.91  0.003964198    1.337    0.252
        67 -13.6787      2.8488    246.7043   1.3530158093e+02   2.6536593639e+01    0.4628966    0.2665032 -87.22  0.001207652    1.592    0.372
        68 -14.0594     11.2648    232.1082   1.3363167495e+02   2.7959285563e+01    0.6000687    0.3394535  39.96  0.002838635    1.815    0.449
        69 -12.9559      2.5717    228.6654   1.3480865000e+02   2.9301615601e+01    0.2701114    0.1589353  59.99  0.002294792    1.157    0.136
        70 -11.6652    144.7472    232.4400   1.1229572455e+02   1.1095548737e+01    0.4070597    0.1389236  46.64  0.001604816    2.238    0.553
        71 -11.8509     73.6371    226.9496   1.2355514961e+02   2.1879935920e+01    0.3991788    0.1344569  55.96  0.002068992    2.549    0.608
        72 -10.6547    242.7491    228.9403   9.6311017276e+01  -3.4318254865e+00    0.2024107    0.1903304 -62.91  0.001469875    1.929    0.481
        73 -11.4980     95.2836    228.5180   1.2010400462e+02   1.8796148766e+01    0.2863567    0.1848279  77.59  0.002016517    1.563    0.360
        74 -10.7145    107.1281    228.2034   1.1810745118e+02   1.7200988242e+01    0.1710521    0.1344584  80.92 0.0006524316    1.283    0.220
        75  -9.3685     64.6337    229.2596   1.2518294480e+02   2.2636697141e+01    0.1097308   0.05340256  60.94 0.0006976196    1.640    0.390
        76 -10.3794     74.7041    231.2943   1.2369331894e+02   2.1075268721e+01    0.1491407    0.1090201  66.92 0.0002976097    1.069    0.064
        77 -10.9105    111.3203    227.7096   1.1736207815e+02   1.6678352686e+01    0.1769611     0.145714  58.19 0.0004910398    1.120    0.107
        78 -11.2118    173.5188    228.2304   1.0708115510e+02   7.2001632352e+00    0.2120523    0.1539527  35.23 0.0002407609    1.168    0.144
        79 -11.2853    178.4377    223.6302   1.0568795319e+02   6.9840817209e+00    0.2761036    0.1855664  25.94  0.001009903    1.541    0.351
        80 -11.5653     78.9028    222.5541   1.2235020154e+02   2.1895120431e+01    0.2700797      0.15527 -76.02  0.001838382    1.875    0.467
        81 -10.6625    158.5498    222.4088   1.0884436788e+02   1.0283984353e+01    0.2114997    0.1856019 -88.20 0.0008439005    1.424    0.298
        82  -8.8474     53.4855    222.5799   1.2656622922e+02   2.5023130731e+01    0.2584122     0.232123  39.55  0.001893395    1.654    0.395
        83  -9.5193    121.9815    222.4920   1.1504930180e+02   1.5889283766e+01    0.1694043   0.06967772  57.39 0.0008105494    2.616    0.618
        84 -10.0187     84.9161    221.2699   1.2123483939e+02   2.1307832833e+01    0.1494095    0.1037871  53.35  0.000470302    1.136    0.120
        85 -10.5869    247.6057    218.3985   9.4000330016e+01  -3.1916068883e+00    0.3257414    0.2487826 -88.44  0.001622548    5.009    0.800
        86  -9.5839    188.6129    219.8269   1.0350501608e+02   5.8203323125e+00    0.1232207    0.1090133 -59.73 0.0001906916    1.568    0.362
        87 -10.1202     62.8823    219.9177   1.2483662437e+02   2.4333650760e+01    0.1575591   0.08685852  64.90 0.0004345154    1.474    0.322
        88 -10.7586    222.6940    218.4203   9.7821962284e+01   5.8341581732e-01    0.2474595    0.1541824  38.97  0.001011391    1.281    0.220
        89  -9.6034    203.6304    218.8710   1.0092308568e+02   3.5337149094e+00    0.1254254    0.1066442 -47.66 0.0004035234    1.640    0.390
        90 -10.8804    134.0645    218.9674   1.1260284245e+02   1.4576197885e+01    0.1713608    0.1350808  48.88 0.0004586563    1.059    0.056
        91 -11.2003    106.4797    218.0275   1.1725778174e+02   1.8828486683e+01    0.2628161    0.1760805 -44.98 0.0006288569    2.242    0.554
        92 -10.8305    217.6297    217.5376   9.8488917493e+01   1.4661170829e+00    0.2078044    0.1615604  42.92 0.0007760256    1.272    0.214
        93 -11.7779    173.3241    216.5367   1.0560608785e+02   8.6876002550e+00    0.3330041    0.2447872  86.59  0.001846902    2.218    0.549
        94 -11.0746    100.5662    216.4716   1.1813046709e+02   1.9915179372e+01    0.3266262    0.2059801 -89.56    0.0021265    1.823    0.452
        95 -12.3926     85.4529    215.1745   1.2062906592e+02   2.2209982962e+01    0.5521098    0.2957663  60.45  0.003469386    1.591    0.372
        96 -10.5134     80.7491    209.8506   1.2098910963e+02   2.3713910281e+01    0.2301158    0.1325857 -77.05  0.001155459    1.841    0.457
        97 -11.0008     72.7655    217.3698   1.2298429505e+02   2.3515590333e+01    0.1901258    0.1425937  53.83 0.0004422756    1.186    0.157
        98 -10.2117     76.9261    216.6912   1.2222151092e+02   2.3090772951e+01    0.1529212    0.1049785  59.58 0.0004981566    1.094    0.086
        99 -10.2473    141.8410    217.2084   1.1106281122e+02   1.3622129079e+01    0.2370609    0.1253733  39.95  0.001047526    1.623    0.384
       100 -11.0590    125.4061    216.3409   1.1380641606e+02   1.6284825114e+01    0.2338905     0.164317  38.78 0.0007775264    1.369    0.269
       101  -9.4706    236.4731    216.5186   9.5396785199e+01  -1.3458550758e+00     0.113227   0.08401978  24.05 0.0008096357    1.026    0.026
       102 -10.3943    146.8393    214.9691   1.0993169797e+02   1.3152289462e+01    0.2327923    0.1246269  61.03  0.001239318    2.191    0.544
       103 -10.5224     57.9519    211.3995   1.2507385195e+02   2.6338371131e+01    0.1647689    0.1531449 -81.99  0.001384481    1.528    0.346
       104 -10.6235    198.7804    214.5674   1.0109349044e+02   4.8030238342e+00     0.234843   0.08781549  40.13  0.001140513    2.163    0.538
       105 -10.3437    155.7887    214.0397   1.0827058715e+02   1.1851886054e+01    0.1608305    0.1300911  58.70 0.0002831484    1.190    0.160
       106 -11.2108    111.7207    213.5090   1.1589232099e+02   1.8767228146e+01    0.2320616    0.1653042  55.21 0.0008646994    1.101    0.091
       107 -10.1715    164.1326    213.1921   1.0672571917e+02   1.0617878231e+01    0.1547287    0.1142308  56.84 0.0002504629    1.311    0.237
       108 -10.9352    118.4957    212.5690   1.1460297141e+02   1.7903439689e+01    0.3574449    0.1624819  38.63  0.001890282    2.082    0.520
       109 -10.1409     70.8429    210.1434   1.2274861172e+02   2.4955273689e+01    0.2953578    0.1337255 -61.35  0.001736249    2.493    0.599
       110 -12.0226     66.9997    207.3870   1.2320271487e+02   2.5908024091e+01    0.2093005    0.1455407  65.29 0.0002492723    1.096    0.088
       111 -11.6178     39.4574    211.8409   1.2823998067e+02   2.8382908643e+01    0.2739992    0.1473567  51.54 0.0004292621    1.434    0.303
       112 -10.2709    219.6925    212.1066   9.7343099431e+01   1.7189728142e+00    0.2185492    0.1250648  53.77  0.001233584    2.100    0.524
       113 -10.5574    214.0533    210.9123   9.8064585210e+01   2.7521332293e+00    0.2341006    0.1365406 -12.38  0.001324501    2.342    0.573
       114 -10.0900     75.1527    212.3493   1.2217657172e+02   2.4033264878e+01    0.1631974     0.106564  56.68 0.0007656345    1.175    0.149
       115 -10.6391     52.3187    211.1638   1.2602171863e+02   2.7044657015e+01    0.1765275    0.1116408  77.20 0.0002723571    1.307    0.235
       116 -12.4456     52.4538    206.8174   1.2570199147e+02   2.7770295277e+01    0.4820921    0.2774868  28.79 0.0009447301    2.576    0.612
       117  -9.9436     13.7623    211.1599   1.3243688435e+02   3.1115959143e+01    0.1499757    0.1078982 -73.97 0.0005346062    1.627    0.386
       118 -11.9903     19.3291    202.1862   1.3110910583e+02   3.2121098960e+01    0.4968374    0.2408988  86.69  0.003348402    1.722    0.419
       119 -11.2609     25.4511    196.2070   1.2974551338e+02   3.2573281750e+01    0.3381339    0.1944821 -85.19  0.001653196    1.487    0.327
       120 -11.8276     21.9896    191.8910   1.3011596071e+02   3.3692715547e+01    0.1969461    0.1236232 -81.77 0.0003814186    1.418    0.295
       121 -11.6923     19.1637    210.9292   1.3154992493e+02   3.0635686108e+01    0.2522185    0.1683848  40.89 0.0002874172    1.646    0.392
       122 -11.5343     14.9150    205.9228   1.3202108141e+02   3.1897599127e+01    0.3341713    0.1227959  66.34  0.001596177    2.219    0.549
       123 -10.3486     59.7442    214.9544   1.2501823157e+02   2.5528305788e+01    0.1862122    0.1254216  44.33  0.001361662    1.444    0.307
       124 -11.9677     95.3434    209.0145   1.1833287103e+02   2.1851858077e+01    0.2591006     0.198364 -86.11  0.000315261    1.337    0.252
       125 -10.7878     98.5457    205.5107   1.1741427062e+02   2.1974135120e+01    0.2145313    0.1519929  53.16 0.0005110256    1.141    0.124
       126 -10.0302    183.7877    210.0171   1.0293761168e+02   7.8093858977e+00    0.1517457    0.1279038  37.04            0    1.057    0.054
       127 -12.0434    182.7373    204.6015   1.0233173229e+02   8.6822007203e+00    0.4013992    0.2696072  10.11  0.001368072    2.089    0.521
       128 -11.8081    128.4691    208.5910   1.1239061940e+02   1.6988159703e+01    0.3200767     0.255342  56.80  0.002277983    1.032    0.031
       129 -10.6064    238.0768    208.0061   9.3813432640e+01  -7.5031783609e-01    0.2109235    0.1361304   8.47   0.00135034    1.574    0.365
       130 -12.4058     13.3727    197.0478   1.3187487410e+02   3.3590323704e+01    0.3262693    0.1840725  51.18  0.001049933    1.446    0.308
       131 -10.1680    212.3112    207.3224   9.7795512441e+01   3.4378188275e+00     0.119141   0.07621866  18.57 0.0007038128    1.652    0.395
       132  -9.8894    192.2941    207.6164   1.0115330784e+02   6.7020875918e+00    0.1092277   0.08843475  74.78 0.0007017393    1.761    0.432
       133 -10.3139    152.4860    206.9778   1.0793323011e+02   1.3385681142e+01    0.1450656   0.09837496 -88.84 0.0006082282    2.359    0.576
       134  -9.9627    116.9756    207.4346   1.1430932637e+02   1.8937634587e+01    0.1807641   0.09096399  46.97 0.0009973423    1.601    0.375
       135 -12.7941     38.7724    218.3089   1.2872087870e+02   2.7378001811e+01    0.3240077     0.239083  37.82  0.001213982    1.694    0.410
       136 -12.9135     27.9193    218.9508   1.3051121647e+02   2.8420519369e+01    0.4212787    0.2697637  40.89  0.002488809    1.657    0.397
       137 -11.0562    195.8447    204.0563   1.0002107536e+02   6.5517656597e+00    0.1724035    0.1469968  50.93 0.0006042439    1.264    0.209
       138 -10.8108    121.4635    203.2502   1.1302310901e+02   1.8916234892e+01    0.2055508    0.1627003  51.52 0.0003893746    1.074    0.069
       139 -10.9174    121.1292    199.0621   1.1258678289e+02   1.9645623997e+01    0.2118814     0.164047  65.32 0.0005297957    1.159    0.137
       140 -10.0995     72.0051    202.7076   1.2192994401e+02   2.6074471334e+01    0.2356414   0.08499385  55.53  0.001160257    2.484    0.597
       141  -9.5317    166.6380    202.1759   1.0478072180e+02   1.1720832503e+01    0.1408586    0.1113326 -24.11 0.0004011406    1.631    0.387
       142  -9.7037    160.5757    202.4753   1.0589406670e+02   1.2695619943e+01    0.1189039   0.09837062  45.51  0.000495307    1.011    0.010
       143 -11.2846     95.9624    200.4093   1.1736285665e+02   2.3201833677e+01     0.215444    0.1529141 -72.16 0.0005820443    1.512    0.339
       144 -10.8798     53.3345    200.0858   1.2506625089e+02   2.8840629780e+01    0.3298741     0.148203  87.02  0.001789589    2.489    0.598
       145 -12.2004    240.4001    199.9458   9.2135094730e+01  -2.9311500077e-01    0.3721341    0.2991972  60.46  0.001675149    1.873    0.466
       146 -10.9688    232.4703    200.8837   9.3531716905e+01   8.7569479419e-01    0.1767478    0.1242001  33.93 0.0004831949    1.166    0.143
       147 -11.4086    207.8202    199.4960   9.7303368778e+01   5.0980220502e+00    0.2467102    0.2158573  19.34 0.0009737083    1.110    0.099
       148 -10.9809    190.8759    201.0725   1.0040840445e+02   7.7662950270e+00    0.1801551    0.1756348  78.34 0.0002931466    1.307    0.235
       149 -10.7569    188.3156    190.9979   9.9268975865e+01   9.5399940396e+00    0.2145361    0.1997835 -70.51  0.000821746    1.385    0.278
       150 -11.9743    188.7176    196.2316   1.0003023794e+02   8.7673536312e+00    0.2331727     0.183131  43.29 0.0002559434    1.110    0.099
       151 -10.9387    193.2827    194.2838   9.8932860042e+01   8.2360345329e+00    0.2462951    0.2101715  37.55 0.0004179066    1.066    0.061
       152 -11.0355    192.0307    190.5407   9.8545898893e+01   8.9507416150e+00    0.3862932    0.2432911  -3.13  0.001371577    2.555    0.609
       153 -10.3602    176.9579    199.4930   1.0257710756e+02   1.0344349909e+01     0.210292    0.1502476  51.52 0.0003784757    1.297    0.229
       154 -10.2190    173.7150    197.3475   1.0282703601e+02   1.1196162736e+01    0.1790846     0.166675 -85.52 0.0006715846    1.323    0.244
       155 -10.3717    170.0467    198.6413   1.0366774851e+02   1.1641498867e+01    0.2865843    0.2148872 -72.17  0.001762313    1.928    0.481
       156 -10.4332     89.6908    199.8666   1.1845740442e+02   2.4184014275e+01    0.2931123     0.133184  34.59  0.001177075    2.623    0.619
       157  -9.8796      4.9985    200.0137   1.3341342691e+02   3.3828851514e+01      0.11378   0.07675523  64.84            0    1.108    0.097
       158 -12.0172    109.5348    197.8760   1.1458735839e+02   2.1628540121e+01    0.2340243    0.1831193  83.43 0.0001380463    1.270    0.213
       159 -12.2978    217.5893    194.7034   9.4904912469e+01   4.0226293072e+00    0.4849661    0.2965276  40.04  0.001733353    1.372    0.271
       160 -13.2156    229.3278    195.3024   9.3101214835e+01   1.9960474308e+00    0.3963657    0.2463634  21.48  0.001389817    1.553    0.356
       161 -11.2873    227.1995    189.6357   9.2476726022e+01   2.9921514892e+00    0.2151979    0.1824594  15.35  0.000728794    1.077    0.072
       162  -9.6581    161.8393    197.8716   1.0501767022e+02   1.3148887630e+01    0.1575066    0.1271673  63.92 0.0003882836    1.303    0.232
       163 -10.2584    132.8150    198.2169   1.1033455093e+02   1.7921712528e+01    0.1552396    0.1301444  32.24 0.0004006595    1.335    0.251
       164 -13.1348     66.7964    191.1059   1.2187604514e+02   2.8802613915e+01     0.448956    0.2492473  48.40   0.00101461    1.522    0.343
       165 -12.1298     59.2303    181.6688   1.2247371760e+02   3.1499674286e+01    0.4005254    0.3193843  71.45  0.001467771    1.061    0.058
       166 -11.4311     60.9528    188.0429   1.2270588911e+02   3.0096778282e+01    0.2260601    0.2073609 -77.34  0.001538276    1.428    0.300
       167 -11.7282     57.0527    195.0993   1.2401432497e+02   2.9286546538e+01    0.2549965    0.1698835  85.47 0.0004089443    1.305    0.234
       168 -12.2551     52.5444    192.8294   1.2466281982e+02   3.0233867201e+01    0.2839807     0.178059  45.97 0.0002690169    1.466    0.318
       169  -9.9630     82.2009    195.9224   1.1945181551e+02   2.5906986509e+01    0.1742838    0.1207896  71.61 0.0006352385    1.251    0.201
       170 -10.5569     62.7497    196.0165   1.2304655111e+02   2.8425109810e+01    0.1764688    0.1227369  60.22 0.0004028286    1.135    0.119
       171 -10.9286    139.9609    194.7145   1.0855794086e+02   1.7308285519e+01    0.1774127    0.1661835  88.08 0.0008944943    1.191    0.160
       172  -9.6452    130.2781    195.3220   1.1043016246e+02   1.8797725563e+01    0.1071364   0.09227646  12.50 0.0002414293    1.583    0.368
       173  -9.7211    105.2254    195.6245   1.1513274569e+02   2.2659701836e+01    0.1596227   0.09860726  38.57 0.0009406978    1.626    0.385
       174  -9.9694     95.1763    195.0832   1.1695015917e+02   2.4232008560e+01     0.158076    0.1375972  57.71 0.0003916241    1.193    0.161
       175 -11.8823    241.0721    193.4830   9.0935867845e+01   2.7639242866e-01    0.2150737    0.1820428  13.51  0.001554007    1.123    0.110
       176 -10.6247     40.7069    192.3098   1.2678623343e+02   3.1674865549e+01    0.2833867    0.1222778  78.55  0.001515659    2.446    0.591
       177 -10.8507    163.9025    192.1410   1.0380392010e+02   1.3638940519e+01     0.323383    0.2531033 -19.23 0.0005719599    1.688    0.408
       178 -11.3808      1.8290    192.4056   1.3364128157e+02   3.5444912735e+01    0.1694864    0.1045243  84.68 0.0005353906    1.215    0.177
       179 -10.0146    148.3504    192.3269   1.0667794819e+02   1.6277474991e+01    0.2217029    0.1291656  36.20 0.0007275533    1.688    0.408
       180 -11.4982     81.1852    190.2473   1.1908307206e+02   2.7058771973e+01    0.5787731    0.2291936  45.23  0.002468701    2.111    0.526
       181 -11.4800    120.7473    189.8804   1.1151790512e+02   2.1235950975e+01    0.3437805    0.2756988   3.21  0.002094539    2.057    0.514
       182 -10.2267     34.3541    190.6835   1.2782985441e+02   3.2656021585e+01     0.198902    0.1073827 -79.80  0.001073073    1.650    0.394
       183  -9.6696     16.0411    191.1945   1.3112781788e+02   3.4388675104e+01    0.1196924   0.06764372  42.41 0.0004052543    1.705    0.414
       184 -11.0910    247.8768    190.1312   8.9300466190e+01  -4.6623232321e-01    0.2158135    0.1397024  26.27 0.0007860121    1.299    0.230
       185 -11.7358     91.8441    188.5156   1.1687099513e+02   2.5874728139e+01    0.2801155    0.1799278 -61.58 0.0008926209    1.708    0.415
       186 -10.2149    128.1599    186.1983   1.0961919925e+02   2.0658237909e+01    0.1789384    0.1365081  52.15 0.0004822788    1.112    0.101
       187 -10.1067     48.4030    186.6840   1.2495556696e+02   3.1845257960e+01    0.1886872   0.09083632 -81.24  0.001097684    1.966    0.491
       188 -12.1040     16.3360    182.7092   1.3062851438e+02   3.5918435523e+01     0.379971    0.2529832 -53.36  0.001760035    2.213    0.548
       189 -10.7085      8.8207    186.8954   1.3218890747e+02   3.5829591536e+01    0.1490859    0.1303951  47.47 0.0004630633    1.547    0.354
       190 -11.5167      8.6332    183.1073   1.3204135846e+02   3.6541650809e+01    0.2258338     0.160362 -75.11 0.0001846876    1.479    0.324
       191 -10.5005      4.4289    182.7375   1.3277560013e+02   3.6974354399e+01    0.2066856    0.1098895  83.28  0.001105759    1.422    0.297
       192 -10.8428    249.3525    185.2718   8.8212392756e+01  -1.9331760831e-01    0.2365801    0.1387075 -31.46  0.001400809    1.863    0.463
       193  -9.8066    221.0038    186.4577   9.2937501894e+01   4.4214875845e+00    0.1791217    0.1037709  42.92 0.0004585786    1.513    0.339
       194  -9.9128    197.8811    186.1186   9.6794915084e+01   8.5111535493e+00    0.1652843    0.1266809  22.15   0.00102734    1.262    0.207
       195 -10.6998     34.7898    185.4521   1.2740405493e+02   3.3575722798e+01    0.3273275    0.1190114  39.90  0.001796867    2.462    0.594
       196 -10.5264     35.4592    173.4651   1.2642133189e+02   3.5784586060e+01    0.2804388    0.1795477 -45.22  0.001710168    2.599    0.615
       197 -11.8670     29.1447    181.6522   1.2820177417e+02   3.4871899157e+01    0.4061727    0.2117203  78.50  0.001634759    1.636    0.389
       198 -11.4521     31.3415    176.7690   1.2745698496e+02   3.5575299487e+01    0.3163207    0.1588937  42.67  0.001314447    1.849    0.459
       199 -10.6560    225.6166    183.7930   9.1711254355e+01   3.9457343343e+00    0.2164714     0.155986  17.85 0.0006590948    1.294    0.227
       200 -11.6650    232.1071    184.8948   9.0854518347e+01   2.7083830402e+00    0.2533121    0.2241914 -40.49 0.0009130361    1.527    0.345
       201 -12.2090    229.5609    180.1624   9.0417303397e+01   3.6964430172e+00    0.2602374     0.193545  23.72 0.0003500207    1.158    0.136
       202 -10.6970    176.9545    183.1744   1.0002309082e+02   1.2662863347e+01    0.2370302    0.1881557  33.30 0.0009560186    1.154    0.133
       203  -9.6714    173.1391    182.8778   1.0067035179e+02   1.3391478646e+01    0.1702805    0.1344971  25.23 0.0004240346    1.307    0.235
       204  -9.7896     40.4328    184.4972   1.2628534520e+02   3.3147500303e+01    0.1113002   0.07992064  73.48 2.436505e-05    1.044    0.042
       205  -9.7817    190.5190    182.5244   9.7478389927e+01   1.0316515554e+01     0.198374     0.118667 -23.20  0.001021238    2.201    0.546
       206 -10.4201    122.3463    182.5993   1.1025000855e+02   2.2231597010e+01    0.3470976    0.1661996  56.63  0.001336282    2.148    0.534
       207 -11.1892    103.8262    183.2681   1.1394525582e+02   2.5042743951e+01    0.2047863    0.1238241  58.30 0.0008927896    1.494    0.331
       208 -11.0945     46.5872    182.3297   1.2495785370e+02   3.2868679936e+01    0.2928908    0.1968161  21.58   0.00129945    2.472    0.596
       209  -9.8963    213.9589    182.5455   9.3426144787e+01   6.1305424878e+00      0.18387    0.1058889  42.76 0.0004796111    1.514    0.340
       210 -10.4761    157.8382    180.8907   1.0319260598e+02   1.6433699035e+01    0.1755836    0.1564959  33.21            0    1.135    0.119
       211 -10.8826     83.5071    180.0270   1.1755885627e+02   2.8618349046e+01    0.2212589    0.1349135  89.19  0.001276622    1.758    0.431
       212 -11.3145     78.9764    174.4656   1.1784605080e+02   3.0303451528e+01    0.2725722    0.1476192  49.25 0.0007371393    1.616    0.381
       213 -11.9344     83.8816    175.8546   1.1701594192e+02   2.9353710790e+01    0.4226994    0.3034855  17.12  0.002018227    2.430    0.588
       214  -9.2370     92.3257    180.3248   1.1585107974e+02   2.7300457103e+01    0.1054246   0.09628247 -12.39 0.0007048945    1.692    0.409
       215 -10.2581     87.8491    182.1846   1.1694437797e+02   2.7602341156e+01    0.1807943    0.1358066  69.59  0.000692625    1.132    0.117
       216 -10.5199    104.0852    178.2274   1.1326381358e+02   2.5920818328e+01    0.1900754    0.1602549  88.19 0.0005079517    1.143    0.125
       217 -10.2597    119.1658    177.8078   1.1021584652e+02   2.3598446735e+01    0.1923368    0.1495266  63.98  0.001133305    1.158    0.137
       218 -11.9220     72.6670    177.6124   1.1944712550e+02   3.0554605089e+01    0.4034742    0.2030286  33.13  0.002098826    2.438    0.590
       219 -10.0121    147.0084    177.0636   1.0465604639e+02   1.8978640093e+01    0.1499499    0.1335579  54.34  0.000321396    1.026    0.025
       220 -11.8192    136.4883    175.6514   1.0648672044e+02   2.1059767678e+01    0.3256892     0.247074 -25.52  0.001719472    1.918    0.479
       221 -11.0067    135.9301    171.5133   1.0596031074e+02   2.1879606356e+01    0.3056752    0.1840294  41.15 0.0008027249    1.558    0.358
       222  -9.8662     89.4597    177.4722   1.1608638009e+02   2.8250093635e+01    0.1210692   0.09848279  70.22 0.0001356174    1.011    0.011
       223 -11.5045     47.9356    176.7077   1.2424048265e+02   3.3786783280e+01    0.2502268    0.1528422 -70.08  0.001633685    1.586    0.369
       224  -9.6734    129.6477    176.2801   1.0792677053e+02   2.2122778580e+01    0.1302966   0.08739506  68.64 0.0007012885    1.651    0.394
       225 -10.3120      6.4574    174.8195   1.3202998462e+02   3.8279043053e+01    0.2296855   0.06163379 -70.35  0.001153124    3.078    0.675
       226 -10.1130    219.1465    175.1501   9.1221844779e+01   6.1444631193e+00    0.1556571    0.1470172  51.27 0.0004486293    1.324    0.245
       227 -10.7137    190.7785    174.1724   9.5979218031e+01   1.1454685659e+01    0.4489776    0.1601667  44.61  0.001857484    2.455    0.593
       228 -10.6029    156.8738    173.5491   1.0218974539e+02   1.7793621701e+01    0.2871966    0.1796729  37.77   0.00153268    1.531    0.347
       229 -10.1412      2.1970    173.8385   1.3276960832e+02   3.8820808190e+01    0.1355624    0.1052622 -64.84 0.0009782481    1.653    0.395
       230 -10.9923    100.0802    171.0474   1.1314101408e+02   2.7879641411e+01    0.3182588    0.2626005 -22.83  0.001947829    1.944    0.486
       231 -10.1624    160.3161    173.3377   1.0149464219e+02   1.7201430639e+01    0.1940625    0.1725599  13.42 0.0008606751    1.275    0.216
       232 -10.2638    146.0243    172.4595   1.0411749514e+02   1.9930930320e+01    0.1920559     0.113226  44.98 0.0003467095    1.503    0.335
       233 -10.6276     19.8629    171.7038   1.2932409790e+02   3.7676507822e+01    0.2455637   0.08519465  78.93  0.001096599    3.369    0.703
       234 -11.4430     64.6645    170.2002   1.2029083705e+02   3.3031159563e+01    0.4626746    0.2349596  43.04  0.002610383    1.837    0.456
       235  -9.8990     25.5249    170.4928   1.2814779220e+02   3.7369746123e+01    0.1892462   0.08076615  88.50  0.001021294    2.188    0.543
       236 -10.5868     31.8340    169.0777   1.2680559681e+02   3.7016564031e+01    0.2890715    0.1390901 -60.06  0.001677076    2.267    0.559
       237 -10.9596     12.9653    169.9830   1.3054432803e+02   3.8637716665e+01    0.1698122     0.123699  55.57 0.0003602217    1.298    0.230
       238 -10.6826    195.7021    168.3574   9.4037111981e+01   1.1376097802e+01    0.3435498    0.2133734  -9.51  0.001412288    2.411    0.585
       239 -11.6845    114.7743    168.3791   1.0976193521e+02   2.6044425967e+01    0.2779696    0.1913351  49.18 0.0004107378    1.303    0.232
       240  -9.6849    108.7384    169.0059   1.1108950794e+02   2.6906615375e+01     0.146063    0.1048911 -65.41 0.0004281256    1.456    0.313
       241 -10.9274      3.0177    168.9884   1.3238247493e+02   3.9675845214e+01    0.2516164    0.1404343  32.28 0.0007764256    2.146    0.534
       242 -11.6921     81.5797    166.2101   1.1635120338e+02   3.1547122776e+01    0.4551368    0.1843614  48.23  0.002036004    2.207    0.547
       243 -10.9756     74.0604    165.6708   1.1785692570e+02   3.2692594471e+01    0.3375352    0.1816889 -49.03  0.001751162    2.465    0.594
       244 -10.8659     48.3708    167.2046   1.2332377483e+02   3.5595640271e+01    0.2583459    0.1518483 -58.43 0.0007876488    1.913    0.477
       245  -9.4910    148.6812    167.3103   1.0274852227e+02   2.0334771543e+01    0.1713198    0.1327076 -75.41 0.0005802314    1.569    0.363
       246  -9.6168    109.0387    177.0600   1.1212593136e+02   2.5361702265e+01    0.1426991    0.1240209  84.17 0.0004196187    1.109    0.098
       247  -9.2400     40.2806    166.3323   1.2489306345e+02   3.6670748712e+01    0.1008612   0.07948273 -58.33 0.0002713589    1.609    0.378
       248  -9.8164     37.2606    165.2316   1.2541453795e+02   3.7213081556e+01    0.2378936   0.08376848 -77.44  0.001065191    2.635    0.621
       249  -9.4828    207.2720    168.3881   9.1995273370e+01   9.2066698345e+00    0.1325972   0.09157146   9.21 0.0005691807    1.716    0.417
       250 -10.0980    124.2204    165.0694   1.0732424313e+02   2.5074269720e+01    0.1745469    0.1723673  24.79 0.0003789373    1.234    0.189
       251  -9.5610    104.7431    165.7274   1.1145452138e+02   2.8167696374e+01    0.1053104   0.09965826 -11.36            0    1.458    0.314
       252 -10.5520     61.7805    164.4763   1.2028861775e+02   3.4531109465e+01    0.1897541    0.1848167 -31.23 0.0008626709    1.522    0.343
       253  -9.9957     63.7249    161.7148   1.1958294819e+02   3.4840952957e+01    0.1715125     0.145474 -88.03 0.0001976569    1.143    0.125
       254  -9.5628     55.4767    164.9680   1.2164995072e+02   3.5206990071e+01    0.1735287   0.08127429  82.51 0.0008101633    2.629    0.620
       255 -11.5475     24.1988    163.9238   1.2795235148e+02   3.8789097897e+01    0.2529902    0.1999603  59.57  0.001278089    1.249    0.199
       256 -10.1129     51.6684    162.2854   1.2217798487e+02   3.6198218009e+01    0.1557058   0.09394464 -66.34 0.0004722761    1.601    0.376
       257 -11.2698     52.4958    158.0933   1.2158307048e+02   3.6952138937e+01    0.1932525    0.1624406  69.10 0.0003864965    1.143    0.125
       258 -10.5778    140.2784    161.1595   1.0339641827e+02   2.2950896466e+01    0.2187171    0.1640841  39.89 0.0004247353    1.303    0.232
       259 -12.0094     34.5422    158.1425   1.2538241461e+02   3.8922873991e+01    0.3769148    0.1721079  59.73    0.0008681    2.019    0.505
       260  -9.9572    223.8344    158.8423   8.7310289457e+01   7.3971226318e+00    0.1580683    0.1562432 -63.49 0.0004354023    1.326    0.246
       261  -9.5991    192.8263    159.1294   9.2807894928e+01   1.3287580098e+01    0.1769972    0.1434505  16.26 0.0002904976    1.278    0.218
       262 -11.9069    107.3256    158.1103   1.0979716837e+02   2.9231192214e+01    0.2261844     0.201353  83.50 0.0002279184    1.056    0.053
       263 -10.6392     46.1203    158.8441   1.2301083726e+02   3.7533001727e+01    0.1791501    0.1226193  73.25 0.0004376343    1.228    0.186
       264  -9.4176    114.4417    158.4804   1.0833852885e+02   2.7982622449e+01    0.1289091    0.1141337  70.79 0.0001888996    1.008    0.008
       265  -9.7301     66.2891    158.3317   1.1865542445e+02   3.5198424794e+01    0.1086703     0.090461 -46.89  0.000701759    1.625    0.385
       266  -9.9596     95.2511    163.4527   1.1312823377e+02   3.0084781248e+01    0.1698381    0.1026597  54.97 0.0005417447    1.514    0.339
       267  -9.4026     11.5082    158.4047   1.3013609761e+02   4.1035006551e+01    0.1042587   0.08068143  86.86 7.003516e-05    1.130    0.115
       268 -10.0315    162.3031    157.2921   9.8277186333e+01   1.9502731466e+01    0.2071467    0.1746703  39.73 0.0002301368    1.113    0.102
       269 -10.3450    164.7012    155.2900   9.7427176967e+01   1.9380779023e+01      0.21075    0.1906669  26.68 0.0002202518    1.130    0.115
       270 -11.5792    139.5854    156.5779   1.0274691890e+02   2.3911347030e+01    0.3386575    0.2287496  80.30            0    2.070    0.517
       271 -10.0207    209.2334    156.4294   8.9331722960e+01   1.0504541073e+01    0.1823415    0.1211192  56.70 0.0009378993    1.721    0.419
       272 -10.1431    154.4348    155.2186   9.9465355230e+01   2.1370382116e+01    0.1779762    0.1284518 -61.79 0.0005186701    1.632    0.387
       273 -10.4457    113.3326    154.4184   1.0793202967e+02   2.8960361259e+01    0.2512406    0.1966356 -85.11  0.001025071    1.323    0.244
       274  -9.4031     71.2492    154.3481   1.1710211724e+02   3.5361222305e+01    0.1116221   0.08919752 -49.68 0.0003369339    1.584    0.369
       275 -10.4294     15.5257    153.5070   1.2899210620e+02   4.1672002772e+01    0.1952246    0.1274206  58.32 0.0006947659    1.345    0.257
       276 -11.4002    225.3186    150.9853   8.5467388820e+01   8.1615938056e+00    0.4064178    0.2918956 -26.79  0.001923628    1.407    0.289
       277  -9.5875      5.2894    152.6172   1.3104611695e+02   4.2704276044e+01    0.1173751   0.05635688  70.28 0.0007015031    1.746    0.427
       278 -10.8862    249.0875    151.0217   8.1660889585e+01   3.7367455500e+00    0.1899784    0.1638493   5.57 0.0003433951    1.055    0.052
       279  -9.9904    177.7820    150.9675   9.4031006894e+01   1.7532052184e+01      0.16828    0.1117716 -38.57  0.000379578    1.627    0.385
       280  -9.9116     21.6300    150.8527   1.2751484507e+02   4.1667513489e+01    0.1661647   0.08125655  89.43 0.0009504798    1.764    0.433
       281 -10.3499     79.7182    149.9994   1.1466065713e+02   3.5091349275e+01    0.2241234    0.1450651  65.11 0.0007349873    1.508    0.337
       282 -10.0772      4.4897    144.3661   1.3070630561e+02   4.4438054986e+01    0.2353192   0.08081748 -77.92  0.001231325    2.258    0.557
       283  -9.7197    117.4399    143.7480   1.0523031506e+02   3.0370506385e+01    0.1832884    0.1245254 -44.38 0.0009501916    1.678    0.404
       284  -9.4025     98.6427    144.3193   1.0955015861e+02   3.3411251687e+01    0.1404863   0.09173117  74.42 0.0007045001    1.758    0.431
       285 -10.0254     84.9561    143.7713   1.1258289693e+02   3.5632160272e+01    0.1702477    0.1431286  76.52            0    1.051    0.049
       286  -9.7551     52.8054    143.8021   1.1995124855e+02   3.9893734587e+01    0.1673089    0.1146183  80.96 0.0005307953    1.309    0.236
       287 -10.5737    242.2237    142.5814   8.0959773142e+01   6.0473629881e+00    0.2007981    0.1915604 -14.80 0.0006840457    1.245    0.197
       288 -11.8899    132.2899    140.7118   1.0138937327e+02   2.8273214623e+01    0.2465652    0.2253999  89.59  0.000339989    1.082    0.075
       289  -9.5431    193.0395    140.9895   8.9066604885e+01   1.6055041585e+01    0.1601928    0.1453865  31.88 0.0009379616    1.027    0.026
       290 -10.4500    109.0254    140.5198   1.0655224184e+02   3.2479979481e+01    0.2274454    0.1802754 -44.33 0.0004198133    1.459    0.315
       291  -9.5877     92.7075    141.6397   1.1047398386e+02   3.4904235152e+01    0.1235174      0.10143 -31.77 0.0007029297    1.698    0.411
       292  -9.7529     72.6586    140.6536   1.1496693892e+02   3.8041373370e+01    0.1206228   0.09609026 -35.66 0.0007046289    1.790    0.441
       293 -10.5504     64.6400    139.4101   1.1666566210e+02   3.9372184159e+01    0.3505997    0.2186274  17.73 0.0008733976    2.869    0.651
       294  -9.8827    224.0433    139.4962   8.3247024111e+01   9.9818160965e+00      0.19046       0.1258  45.01 0.0003456029    1.467    0.319
       295 -10.9829     49.6634    136.7757   1.1984356391e+02   4.1762067112e+01    0.4033601    0.1960546 -46.66  0.001905903    2.889    0.654
       296 -10.9309    241.8897    137.9656   8.0019577125e+01   6.7026636221e+00     0.204667    0.1734883  25.07 0.0003250136    1.107    0.097
       297 -10.9522     98.6066    137.4297   1.0841262130e+02   3.4851074928e+01    0.2354305    0.1900263  66.57 0.0005970264    1.173    0.147
       298 -11.5925     34.3659    137.2288   1.2346786605e+02   4.3305299683e+01    0.2196265    0.1584688  75.94 0.0001665885    1.179    0.152
       299  -9.6695     18.6006    138.4579   1.2718418853e+02   4.4514264710e+01     0.112761   0.08423869  88.59 7.436646e-05    1.025    0.025
       300  -9.7736    205.9150    137.4892   8.5952159568e+01   1.3946626191e+01    0.1961012    0.1290973  45.52 9.410184e-05    1.452    0.311
       301  -9.8548      6.5836    137.3145   1.2978107717e+02   4.5732371596e+01    0.1540292   0.07769036 -71.28 0.0009472639    1.638    0.389
       302  -9.9070    121.9889    135.7450   1.0272991793e+02   3.1166926808e+01    0.1857582    0.1652272  62.65 0.0002845023    1.064    0.060
       303 -10.0676    104.9621    137.0000   1.0686321939e+02   3.3893415801e+01    0.2164728   0.07294053  42.00 0.0005124091    2.936    0.659
       304 -10.3722     23.9825    136.0429   1.2574887025e+02   4.4548715458e+01    0.1400945    0.1034931 -89.85 0.0003562335    1.045    0.043
       305  -9.7407    114.3618    135.5269   1.0442800385e+02   3.2580244269e+01    0.1332377    0.1213304 -87.81 1.427919e-05    1.039    0.038
       306  -9.7548    195.8373    133.2651   8.6856269450e+01   1.6701497678e+01     0.186773    0.1536304  10.05 0.0005207293    1.299    0.230
       307 -12.2545     26.7032    130.4398   1.2457614485e+02   4.5500491811e+01    0.3437704    0.1834297  62.85  0.001101019    1.823    0.451
       308 -10.5956     34.4305    130.5686   1.2274549307e+02   4.4733617001e+01    0.4187588    0.1726355 -56.77  0.002085616    2.383    0.580
       309 -10.6573     61.9368    130.9914   1.1614427713e+02   4.1539368264e+01    0.1850273    0.1556201 -87.64 0.0002989975    1.023    0.023
       310 -10.9967     62.3393    127.7116   1.1557028789e+02   4.2206361333e+01    0.2086927    0.1614437  70.14  0.000641131    1.218    0.179
       311  -9.5361     48.4054    130.8087   1.1940510923e+02   4.3199403156e+01    0.1642239   0.09586504 -62.11 0.0004125756    1.572    0.364
       312  -9.6805    122.1476    129.8268   1.0152949657e+02   3.2339904878e+01    0.1770839    0.1607891 -30.11 0.0004523821    1.303    0.233
       313  -9.8790     99.0000    129.9610   1.0699943858e+02   3.6364942585e+01    0.2232863   0.07271297 -56.15 0.0008100134    2.995    0.666
       314 -10.0935      1.6427    129.3652   1.3033633604e+02   4.7757164247e+01    0.1721806   0.09117656  70.07  0.001028635    1.642    0.391
       315  -9.4351    156.5722    128.5719   9.3623978411e+01   2.5787402603e+01    0.1396399    0.1344379  43.68 0.0001753868    1.029    0.029
       316 -11.1197     91.8586    126.8695   1.0816337969e+02   3.8179013210e+01    0.2112684    0.2006669 -82.61 0.0003482966    1.134    0.118
       317 -10.2586     21.0210    126.2679   1.2552407909e+02   4.6907284554e+01    0.2123089    0.1281483  58.73  0.001338574    1.581    0.368
       318 -10.6483      3.6991    124.8688   1.2953189470e+02   4.8561662382e+01    0.1556241    0.1312741 -80.09 0.0002837617    1.244    0.196
       319 -10.5986     56.4570    124.5511   1.1657205364e+02   4.3632225937e+01    0.2385287    0.1184694  37.40 0.0009849799    2.182    0.542
       320 -10.7532     82.8801    120.2504   1.0919322242e+02   4.1004598427e+01    0.4269595    0.2527928  86.95  0.001912774    2.384    0.581
       321 -10.7557     63.9656    122.5021   1.1437081381e+02   4.3146611484e+01    0.1757946    0.1207322  44.31 0.0004862041    1.535    0.349
       322 -10.2695     14.1331    122.0072   1.2679087581e+02   4.8395967484e+01    0.1949259    0.1179029 -63.45 0.0004932021    1.523    0.343
       323 -11.3206     18.6741    117.0516   1.2517913527e+02   4.9109307174e+01    0.4439561     0.269161  76.70  0.002759306    1.513    0.339
       324 -11.0554     20.2311    110.0353   1.2401458102e+02   5.0525774358e+01    0.2954433    0.1760942 -55.34  0.001421545    1.676    0.403
       325  -9.9233     41.5967    121.0730   1.1984090332e+02   4.6082514689e+01    0.1691032    0.1510726 -63.10 0.0001198009    1.287    0.223
       326 -10.3974     31.2773    121.1562   1.2245547638e+02   4.7095926294e+01    0.3127342    0.1461309  40.96  0.001671991    2.205    0.547
       327 -11.2763      2.7778    104.9769   1.2809501397e+02   5.2905992531e+01     0.482351    0.1127652 -75.39  0.002003133    3.159    0.683
       328 -11.7176      2.5993    114.7571   1.2899701141e+02   5.0799188910e+01     0.579572    0.1986154 -73.23  0.002354684    2.149    0.535
       329 -11.0169    116.3160    119.9877   1.0086461030e+02   3.5453353837e+01    0.2252686     0.194194  45.49 0.0003005108    1.204    0.170
       330 -10.5108    101.0469    119.6620   1.0452560286e+02   3.8227579024e+01     0.211906    0.1725775 -77.15 0.0001672484    1.199    0.166
       331 -11.2317     93.0655    118.6463   1.0631766453e+02   3.9768959519e+01    0.3773189    0.2658794 -76.26  0.001637651    1.475    0.322
       332 -10.3153     54.8601    117.7702   1.1597069301e+02   4.5329073795e+01    0.1734574    0.1509604 -74.48 0.0003891237    1.121    0.108
       333 -10.2139     48.8969    117.0052   1.1740454182e+02   4.6191254872e+01    0.1836138     0.146175 -82.73  0.001187573    1.041    0.039
       334  -9.4253    138.5508    115.5861   9.4648090377e+01   3.2017088878e+01    0.1413518     0.137201  72.19 8.618023e-05    1.019    0.019
       335  -9.4688    107.9774    113.9938   1.0161612657e+02   3.8236435722e+01    0.1640902     0.152908 -89.71 0.0003455807    1.017    0.016
       336  -9.2633     40.6318    114.2637   1.1917463153e+02   4.7696915792e+01    0.1250852   0.07843319  69.14 0.0005873862    1.652    0.395
       337 -11.7286    120.7298    112.2933   9.8094474547e+01   3.6230885733e+01    0.2488859    0.2304618 -83.37 0.0002536219    1.045    0.043
       338 -12.2138     74.6992    111.9307   1.0977126385e+02   4.4042642109e+01    0.2352609    0.2134988  76.69 0.0003985582    1.105    0.095
       339  -9.4414     46.3007    113.3182   1.1754376546e+02   4.7303973598e+01    0.1197551   0.08588622 -46.65  0.000262868    1.620    0.383
       340 -11.3842     27.7490    111.4934   1.2220484794e+02   4.9558331396e+01    0.3346005    0.1661101  63.51  0.001174052    2.260    0.558
       341 -10.4575     32.5046    111.5481   1.2095402474e+02   4.9108130524e+01    0.2056095   0.09794474 -71.71 0.0001856301    1.720    0.418
       342 -10.1289    149.9510    111.2711   9.1037921277e+01   3.0469654124e+01     0.197591     0.184484  55.52 0.0002204216    1.060    0.056
       343 -11.1095     37.5929    108.9805   1.1924287483e+02   4.9187923119e+01    0.3526265    0.1688775 -72.52  0.001812367    1.774    0.436
       344 -10.2781     85.5866    109.2381   1.0636258735e+02   4.3020421866e+01    0.2094009    0.1698948  65.62 0.0004280118    1.261    0.207
       345 -10.2824     43.6578    106.8735   1.1728110806e+02   4.9036588409e+01    0.1761346    0.1685451  58.60 0.0005360206    1.275    0.216
       346  -9.1643      8.3012    107.6719   1.2690062434e+02   5.1948697705e+01    0.1177415   0.06764065  73.29 0.0006178559    1.643    0.391
       347  -9.3309    152.7059    106.3130   8.9190925467e+01   3.0823658384e+01    0.1480708    0.1166232 -80.86 0.0002798547    1.595    0.373
       348 -11.9774    161.1479    102.8564   8.6461362531e+01   2.9596836818e+01    0.2544399    0.2524751  55.10 0.0002875596    1.008    0.008
       349 -10.1961     74.4951    103.4431   1.0816762466e+02   4.5968364765e+01    0.1337383    0.1170161 -79.34 0.0001120306    1.026    0.026
       350  -9.7772     69.5865    103.5271   1.0953729057e+02   4.6638354223e+01    0.1327608    0.1132824 -77.18 5.034542e-05    1.031    0.030
       351 -11.4266     43.9360    102.0398   1.1643633237e+02   5.0097008646e+01    0.3316139    0.3191041  63.41 0.0007911965    1.258    0.205
       352 -11.5917     52.2200    101.4186   1.1399594937e+02   4.9315426542e+01    0.3726547     0.303836 -36.73   0.00233055    1.516    0.341
       353 -12.0439     55.5240     97.0076   1.1224239258e+02   4.9921867059e+01    0.2587208    0.2013421 -84.80 0.0001100153    1.210    0.174
       354 -10.1547     29.1561    103.2172   1.2074428243e+02   5.1280059530e+01    0.1684586    0.1347464 -68.95 0.0003571377    1.139    0.122
       355 -10.6143    134.8476    101.7664   9.2133942861e+01   3.5552984939e+01    0.2934055    0.2297462  -7.03  0.001355018    1.758    0.431
       356 -11.2934     85.7340     98.7561   1.0406410239e+02   4.5317567762e+01    0.4621788     0.201538 -45.44  0.001755214    2.405    0.584
       357 -10.3419      9.3066     99.9011   1.2582449371e+02   5.3587168937e+01    0.1813044    0.1352779  60.47 0.0006160631    1.391    0.281
       358 -12.9604    106.4205     97.6674   9.8224969144e+01   4.2016331765e+01    0.3163491    0.2744525  51.27  0.001398592    1.202    0.168
       359 -10.1280     36.5488     98.3114   1.1793502521e+02   5.1692230939e+01     0.244309    0.1045877 -73.80  0.001131052    2.143    0.533
       360  -9.4440     15.6815     99.6968   1.2403533177e+02   5.3175203004e+01    0.1138964   0.07333791 -51.63 0.0007026185    1.626    0.385
       361 -10.2132      5.5611    120.8174   1.2876912242e+02   4.9293793446e+01     0.208473   0.08739644 -84.31 0.0007555221    1.929    0.481
       362  -9.9932    147.9511     97.5230   8.7972442053e+01   3.3560011535e+01    0.2259713    0.1903004 -43.79 0.0004139241    1.177    0.150
       363 -11.0245     62.6740     95.9743   1.0997597764e+02   4.9261401373e+01    0.2386394    0.1831898  70.96  0.000392817    1.407    0.289
       364  -9.9927     32.3178     95.8726   1.1877310848e+02   5.2644298984e+01     0.241849   0.09716134 -76.71   0.00102718    2.476    0.596
       365 -10.2005     22.3159     93.3430   1.2130983755e+02   5.4078838599e+01    0.1215627   0.07384631 -49.17 0.0007048283    1.712    0.416
       366 -11.0115     24.5238     90.5021   1.2024228349e+02   5.4536532238e+01    0.2367048   0.09960273 -74.09 0.0008176367    2.028    0.507
       367 -10.5178    114.1581     90.9823   9.4471962071e+01   4.1966536204e+01    0.2366024    0.2074888  51.77 0.0004359285    1.187    0.157
       368 -10.3872    105.9160     91.2441   9.6724308073e+01   4.3480644210e+01    0.2687656    0.1874899  58.79 0.0008296182    1.602    0.376
       369  -9.8313     18.6867     91.6769   1.2214022906e+02   5.4737380355e+01    0.1186539     0.073133 -50.09 0.0007040394    1.658    0.397
       370 -11.0764      6.5197     89.6533   1.2545031356e+02   5.6036268922e+01    0.3009626    0.1940475  81.96 0.0009888622    1.420    0.296
       371 -12.5707      9.4643     85.8051   1.2409861920e+02   5.6700770527e+01    0.2307619    0.1835458 -78.65 0.0003191609    1.053    0.050
       372 -11.9121     77.9186     88.0421   1.0377491507e+02   4.8900633693e+01    0.2929671    0.2172441 -47.97 0.0003978517    1.287    0.223
       373 -11.1105     63.6199     86.9627   1.0776747011e+02   5.1165645194e+01     0.265379    0.2470881  75.02 0.0009182632    1.155    0.135
       374 -11.0156     29.8994     86.9842   1.1805867459e+02   5.4868395327e+01    0.3644964     0.255453 -51.82  0.001505332    1.386    0.279
       375 -10.3655     26.5576     84.4904   1.1867058240e+02   5.5719422642e+01    0.2571448     0.145444 -65.14 0.0006106824    1.391    0.281
       376 -10.3087    154.1787     86.5996   8.3554516483e+01   3.4214746098e+01    0.2972173    0.1976143 -19.36 0.0009852805    1.911    0.477
       377  -9.8835    138.8150     86.1668   8.6964769376e+01   3.7786436633e+01    0.1997661    0.1774976   3.89 0.0004679116    1.291    0.226
       378 -10.7977    128.2308     86.4339   8.9621936044e+01   4.0030358245e+01    0.3227499    0.1776362  35.71  0.001289355    2.245    0.555
       379 -10.6740    132.1980     82.8177   8.7601523212e+01   3.9894649117e+01    0.3275422    0.2459334  35.97  0.001159056    1.471    0.320
       380 -10.2620     43.3539     80.2285   1.1258486034e+02   5.5088761864e+01    0.3531535    0.2822394  77.30   0.00216007    1.354    0.261
       381  -9.9966     48.2645     85.6707   1.1216958909e+02   5.3328154827e+01    0.2297052    0.1656341 -82.09 0.0003880385    1.357    0.263
       382 -10.9733     53.4993     82.5285   1.0988032388e+02   5.3432304581e+01    0.5066472     0.178583 -57.87  0.002117264    2.325    0.570
       383 -11.1472     50.0184     83.0000   1.1106859907e+02   5.3732202206e+01    0.3045935    0.1752863  40.25  0.001441688    1.971    0.493
       384 -10.2068     98.3395     83.9517   9.6857867555e+01   4.6417494194e+01    0.1990466    0.1670002 -50.22  0.000347332    1.112    0.101
       385 -10.2992     88.6580     88.5813   1.0081085318e+02   4.7084218363e+01    0.2983979    0.2233785 -12.35  0.001471105    2.030    0.507
       386 -10.2990     20.0024     81.9818   1.2030641317e+02   5.6809744727e+01    0.1803836    0.1417318 -78.05 0.0004563543    1.045    0.043
       387 -11.0614     77.0986     80.9166   1.0223549707e+02   5.0596639362e+01    0.2073913    0.1821695 -52.94 0.0005633014    1.062    0.059
       388  -9.4553     82.0167     80.0591   1.0053446899e+02   5.0019673532e+01    0.1610113    0.1412712 -57.47            0    1.024    0.023
       389  -9.5048    101.4562     79.4247   9.4719380256e+01   4.6807389244e+01    0.1418932    0.1327192 -57.56  7.25248e-05    1.010    0.010
       390 -10.2659     68.6296     79.0312   1.0434144564e+02   5.2250513440e+01    0.2173797    0.1805444  65.91  0.001254494    1.354    0.261
       391  -9.6073     61.3757     78.1315   1.0638570948e+02   5.3433367491e+01     0.188135     0.112335 -67.91 0.0006404383    1.668    0.401
       392  -9.3001    119.2632     77.3009   8.9257497813e+01   4.3741706600e+01    0.1415705    0.1158109  -7.87 0.0001783368    1.517    0.341
       393  -9.8968    108.9514     78.0000   9.2227800267e+01   4.5677528364e+01    0.2353532   0.08370887  45.88 0.0008081192    2.982    0.665
       394 -10.3004     96.4288     77.5769   9.5618948058e+01   4.8112741891e+01    0.2405178    0.1368515  31.20 0.0007722139    2.314    0.568
       395 -10.0160     48.7008     73.6522   1.0939387394e+02   5.5977307379e+01    0.1860583    0.1593133 -21.48  0.001181133    1.422    0.297
       396 -10.8281     49.6461     77.6870   1.1001859541e+02   5.4968199689e+01    0.2605497    0.1943212 -17.03 0.0009960982    1.882    0.469
       397 -11.2005     53.0835     74.1564   1.0807832561e+02   5.5354454818e+01    0.2339934    0.1819411 -46.32 0.0002636779    1.233    0.189
       398 -10.9479      2.7766     74.9437   1.2474345785e+02   5.9511762319e+01    0.4011559    0.1835761 -89.84  0.002076983    2.195    0.544
       399 -10.1214    131.0457     75.3188   8.5649631836e+01   4.1605397104e+01    0.2022613    0.1865494  55.73 0.0003072208    1.124    0.110
       400 -10.2762     81.1562     74.7311   9.9337378703e+01   5.1310106934e+01    0.2343358     0.172579 -64.80 0.0008118451    1.369    0.269
       401  -9.8470     69.3749     74.1646   1.0284265693e+02   5.3215138342e+01    0.1905482    0.1158532 -63.95 0.0008952302    1.639    0.390
       402 -11.1620     59.1733     74.0732   1.0608017722e+02   5.4618346957e+01     0.327058    0.1821396  43.02   0.00136935    2.050    0.512
       403 -10.2888     36.6565     72.1831   1.1306445434e+02   5.7571701503e+01    0.2698135    0.1730344  28.79   0.00157534    1.925    0.480
       404  -9.4940    101.2163     71.0065   9.2293868594e+01   4.8597193913e+01    0.1906783    0.1101466 -45.48 0.0004496274    1.609    0.379
       405  -9.8086    106.7886     70.3708   9.0519594721e+01   4.7653712308e+01    0.2008693    0.1357558  33.67 0.0006112879    1.734    0.423
       406 -10.5479     87.9739     69.1678   9.5639204594e+01   5.1363221113e+01    0.2379073    0.1879978 -44.36   0.00047706    1.164    0.141
       407 -11.2319     53.0937     69.6481   1.0695387514e+02   5.6351540796e+01    0.2347547    0.1775714 -62.92  0.000284466    1.152    0.132
       408 -10.7279     44.2428     69.6617   1.0993430553e+02   5.7357687513e+01    0.3019965     0.216266 -23.42  0.001730511    1.837    0.456
       409  -9.8506     79.8942     69.5464   9.8239236431e+01   5.2620858872e+01    0.1807736    0.1380704  40.27  0.000382326    1.465    0.318
       410  -9.8480     58.5033     69.4880   1.0511312506e+02   5.5714060377e+01    0.1325919    0.1130837 -55.88 -3.922052e-06    1.018    0.017
       411 -10.3473     14.4967     65.5265   1.1932598811e+02   6.0875605596e+01     0.161364    0.1192514  21.33   0.00103759    1.765    0.434
       412 -10.6916     22.1561     67.8604   1.1710850680e+02   5.9800840507e+01    0.3089358    0.1740988  86.47  0.001599366    2.224    0.550
       413 -10.1299     17.7490     66.7333   1.1841763794e+02   6.0380932194e+01    0.2178956    0.1496891 -33.49 0.0009465647    1.722    0.419
       414 -11.2467      1.3821     65.9944   1.2394130342e+02   6.1557692169e+01    0.3612873    0.1770622  72.43  0.001571517    2.631    0.620
       415 -10.4161      1.3116     62.3182   1.2340530137e+02   6.2367592012e+01    0.1998063   0.06961677 -63.55 0.0005023253    1.969    0.492
       416 -11.2700      9.2196     62.8926   1.2070876011e+02   6.1796937349e+01    0.3355112     0.183158 -57.80 0.0007829974    1.430    0.300
       417 -11.4523      6.4003     59.3544   1.2109286954e+02   6.2740762251e+01     0.263431    0.2117335  -2.18 0.0007602164    1.669    0.401
       418  -9.6392     26.5481     67.5360   1.1552470989e+02   5.9519248941e+01    0.1230003   0.09631632 -62.68 0.0001470745    1.037    0.036
       419  -9.3097    127.2698     66.6581   8.3872318072e+01   4.4087834609e+01    0.1516255    0.1150578 -67.38 0.0004914631    1.608    0.378
       420  -9.7589     75.4527     66.5148   9.8746064922e+01   5.3961960117e+01    0.1374449    0.1212209 -49.95 7.997313e-05    1.011    0.011
       421  -9.4134    112.3366     65.3425   8.7380809680e+01   4.7534137307e+01    0.1518394    0.1158153  -0.26 0.0007050111    1.765    0.433
       422  -9.6987    102.3899     62.7936   8.9344236239e+01   5.0022816207e+01    0.2133814    0.1288407 -33.24  0.000946558    1.734    0.423
       423 -10.8161     47.7838     63.0355   1.0704330208e+02   5.8424483157e+01    0.1877528    0.1489793 -71.56 0.0003804976    1.226    0.184
       424 -10.4730     78.0821     61.5513   9.6376714662e+01   5.4589968133e+01    0.3350626    0.2142525 -22.25   0.00152582    2.227    0.551
       425 -10.2934     78.8002     56.4513   9.4486291769e+01   5.5518740312e+01    0.3065584    0.1641594 -45.11 0.0006734708    1.666    0.400
       426 -10.1243     25.3979     62.2100   1.1479456872e+02   6.0794312523e+01    0.1735194   0.09814202 -73.77 0.0005317144    1.634    0.388
       427 -10.5837     16.0126     61.0575   1.1793393572e+02   6.1758579464e+01     0.260278    0.1471857 -78.55  0.001007284    1.646    0.393
       428 -11.1224     69.0815     60.8252   9.9104825953e+01   5.6123528630e+01    0.4673239    0.2219669  40.38  0.002112573    2.387    0.581
       429 -10.2306     39.1479     60.3305   1.0939676825e+02   5.9946344925e+01    0.2335364    0.1394788 -51.53  0.001003887    1.385    0.278
       430  -9.7116    169.5117     60.6141   7.2467408173e+01   3.4996886882e+01    0.1511122    0.1467359  26.62 0.0007989843    1.043    0.041
       431 -10.5359     31.3549     59.1643   1.1193069003e+02   6.0950434874e+01    0.2172909    0.1557869 -84.95 0.0004311662    1.529    0.346
       432 -12.1508     27.6188     55.5069   1.1241695404e+02   6.2077938784e+01    0.3673439    0.2363643 -48.80    0.0007387    1.330    0.248
       433 -10.3666     21.4117     56.9883   1.1508916514e+02   6.2258061720e+01    0.2504278    0.1709491  34.53  0.001248196    1.807    0.447
       434 -10.3119     48.1926     58.8986   1.0576590901e+02   5.9275133071e+01    0.1885627    0.1585245 -73.61 0.0005007035    1.216    0.177
       435 -10.1522    110.9098     57.1435   8.5022952090e+01   4.9393466232e+01    0.2215921    0.1921263 -66.77 0.0004566532    1.290    0.225
       436 -10.2572    102.9864     56.0550   8.6890861914e+01   5.1210189293e+01    0.3372701    0.2396848  19.55  0.001592386    1.864    0.464
       437 -10.1690     92.8521     57.0190   9.0238952354e+01   5.2962863488e+01    0.2920657    0.1600976 -43.46  0.001312021    1.672    0.402
       438  -9.7292     58.4024     56.7727   1.0151785520e+02   5.8466193865e+01    0.1751198    0.1063166 -44.78            0    1.452    0.311
       439  -9.8412    132.8290     55.8720   7.8886867399e+01   4.4775679131e+01    0.2017089     0.177666 -71.58 0.0004189592    1.282    0.220
       440 -10.5563     52.3540     55.8755   1.0339574331e+02   5.9426430877e+01    0.2718297    0.1116756 -61.53  0.001091142    2.645    0.622
       441 -10.7339     46.8368     54.9689   1.0512788678e+02   6.0274142562e+01    0.2777824    0.1810992   1.22  0.001429473    2.394    0.582
       442 -11.1189    120.2865     53.0411   8.1058816205e+01   4.8125237219e+01    0.4735201    0.2682306  25.00   0.00172951    2.933    0.659
       443  -9.4445    181.5018     55.9765   6.8774630860e+01   3.2654988845e+01    0.2116073    0.1165115 -52.42  0.000418291    2.182    0.542
       444 -10.3564     83.1469     51.3732   9.1325923232e+01   5.5797713560e+01    0.1864409    0.1310835  56.36 0.0009434642    1.751    0.429
       445 -10.8294      6.8012     51.3808   1.1943305111e+02   6.4456146194e+01     0.194266    0.1270327  49.60  0.001249528    1.932    0.482
       446 -11.9003     40.5444     52.3175   1.0669143645e+02   6.1532205610e+01    0.3526533    0.3011295  -3.90  0.002338697    1.412    0.292
       447 -10.9294     98.1197     49.6768   8.6050739211e+01   5.3364535898e+01     0.269182    0.2219013 -75.41 0.0008253842    1.537    0.349
       448  -9.6760     65.4512     49.5082   9.6664148269e+01   5.8987705491e+01    0.1356216    0.1145736 -36.37 6.931039e-05    1.079    0.073
       449 -10.3905     21.3634     44.9078   1.1212540979e+02   6.4870340959e+01    0.2164599    0.1293147 -56.21 0.0008336364    1.284    0.221
       450 -10.5329     19.7357     41.1853   1.1177290164e+02   6.5783487208e+01     0.283384    0.1687953  32.33  0.001629885    2.083    0.520
       451 -10.5429     24.0584     39.6709   1.0951811382e+02   6.5756036477e+01    0.2108862    0.1706005 -47.26 0.0007255116    1.069    0.064
       452 -11.6030     16.6153     47.3826   1.1467831148e+02   6.4694100109e+01    0.3771942    0.3169953 -64.04   0.00272972    1.096    0.087
       453 -11.3180     12.2326     45.7844   1.1605586888e+02   6.5333151742e+01    0.3071147    0.1589014 -67.32 0.0006795629    1.557    0.358
       454 -10.5020     46.4606     47.9903   1.0313235245e+02   6.1788356644e+01     0.201981    0.1078117 -54.74 0.0007600238    1.591    0.371
       455  -9.5626     31.4884     48.3850   1.0904413500e+02   6.3267201957e+01    0.1208394    0.0994581 -53.82 -0.0001175598    1.028    0.027
       456 -10.3913    122.7569     46.0154   7.7880009803e+01   4.8780340716e+01    0.2384555      0.21299  41.81 0.0004695753    1.152    0.132
       457 -11.6170     61.7547     44.7731   9.6327913007e+01   6.0466942735e+01    0.2450067    0.1955124 -41.57  0.000291846    1.077    0.072
       458 -10.9205    163.6901     43.1214   6.7828944218e+01   3.9162862349e+01    0.3161605    0.2411346 -55.44  0.001264425    1.441    0.306
       459 -10.7806     54.8086     44.3913   9.8766353060e+01   6.1492823577e+01    0.2390294    0.1918119 -59.37 0.0009862131    1.254    0.203
       460 -10.7370     56.9506     41.0141   9.6747121970e+01   6.1877650629e+01    0.1967646    0.1664408 -39.99 0.0003554607    1.005    0.004
       461 -10.7465    141.4771     42.5405   7.2161041723e+01   4.4883372013e+01    0.2880205    0.2421008 -23.66 0.0009479976    1.175    0.149
       462 -10.3943     80.8772     43.3249   8.9115463003e+01   5.7725478038e+01    0.2568603     0.177649 -34.03 0.0005800104    1.341    0.254
       463 -10.3541     92.6311     40.6172   8.4292827819e+01   5.6064923807e+01    0.2929535     0.164715 -38.92  0.001346654    1.636    0.389
       464  -9.6860     39.1082     40.1919   1.0345561796e+02   6.4215435911e+01    0.1636404    0.1134893   5.09 0.0009244615    1.912    0.477
       465 -10.0177     13.7769     39.6198   1.1385769416e+02   6.6541497989e+01    0.1805436    0.1375061 -75.39 0.0005638587    1.296    0.228
       466 -11.4364      9.7400     39.1918   1.1546606737e+02   6.6892464754e+01    0.2635963    0.2370444  14.30   0.00117271    1.431    0.301
       467 -10.8400    103.6131     38.9591   8.0362687350e+01   5.4145853296e+01    0.2329226    0.2109283  63.54  0.000382278    1.262    0.208
       468 -10.8181      4.4176     37.4913   1.1732928140e+02   6.7559051294e+01    0.3392264    0.1532128 -72.88  0.001687814    2.021    0.505
       469  -9.8207     41.2623     36.6347   1.0133474239e+02   6.4695365039e+01    0.2725779    0.1752747 -74.18  0.001386701    2.299    0.565
       470 -10.7130     29.2717     34.2810   1.0556168697e+02   6.6402284844e+01     0.445968    0.2596543 -83.35  0.001939294    3.600    0.722
       471 -10.4916     24.8793     30.9450   1.0634237647e+02   6.7471664049e+01    0.3819293    0.1741908  25.11   0.00198893    2.735    0.634
       472  -9.9300    239.5958     36.2046   5.4854362768e+01   2.0597974526e+01    0.1941215    0.1299732 -10.84  0.000771888    1.632    0.387
       473 -11.0010    193.7674     35.2993   6.0270191915e+01   3.2324835279e+01    0.2495377    0.2374626   8.01 0.0002830252    1.090    0.083
       474 -10.1240    130.5060     36.4766   7.2402142118e+01   4.8477363014e+01    0.3351735    0.1437049  55.51  0.001255806    2.345    0.574
       475 -10.9898    120.0947     34.1114   7.4007391021e+01   5.1288565335e+01    0.2750995    0.2626223  87.89  0.001557858    1.179    0.152
       476  -9.8596    100.7766     35.3739   7.9748543500e+01   5.5327991629e+01     0.183218    0.1297537  37.08 0.0001435998    1.501    0.334
       477 -10.7323     60.8041     34.4165   9.2748798136e+01   6.2594928403e+01    0.2796908    0.1759729 -40.34 0.0008721472    1.369    0.270
       478 -11.1314     55.6901     34.2051   9.4628952895e+01   6.3361299496e+01    0.2403011    0.2066239  72.47 0.0009943966    1.617    0.381
       479  -9.8285     35.7178     34.7743   1.0297802339e+02   6.5666457870e+01    0.1459495     0.128999 -66.26 0.0005181644    1.263    0.208
       480 -11.4457    139.9619     32.7794   6.8882783373e+01   4.6694564268e+01     0.554462    0.3634492  62.19  0.001571597    1.596    0.373
       481 -10.9657    143.6464     30.6867   6.7323098438e+01   4.6056680127e+01    0.3074372    0.1975376  10.61  0.001279072    2.093    0.522
       482 -10.2687     91.9497     33.5664   8.1659753412e+01   5.7402036090e+01    0.2119426    0.1738094 -29.87 0.0005473208    1.119    0.106
       483 -11.8708     77.8884     33.3113   8.6134109782e+01   6.0050117460e+01    0.3337369    0.2580491  65.96  0.001017338    1.787    0.440
       484 -11.0711    206.5200     31.6013   5.7389812458e+01   2.9442788084e+01    0.2574528    0.2378473 -70.57 0.0002647087    1.092    0.084
       485  -9.6214      5.2268     32.4015   1.1566779269e+02   6.8579071413e+01    0.1263537    0.1045245  41.08 0.0004504634    1.589    0.371
       486 -10.7803    246.8427     30.8478   5.2685385260e+01   1.9497982598e+01    0.2590511     0.188695  30.26 0.0004835966    1.669    0.401
       487 -10.4519    158.9890     30.1816   6.4177299764e+01   4.2168873695e+01    0.2603357    0.2099576 -24.07 0.0006329009    1.236    0.191
       488 -10.9062     33.8602     30.4246   1.0218503505e+02   6.6719120166e+01    0.3196968    0.2931252 -25.14   0.00229419    1.170    0.145
       489 -10.4960     37.0163     26.7358   9.9366022552e+01   6.7093844236e+01    0.1807817     0.151961 -54.96 0.0006047912    1.246    0.198
       490 -12.2242    137.9304    246.9254   1.1487324720e+02   1.0250875137e+01    0.4117815    0.2216631  46.08  0.001555845    1.350    0.259
       491 -11.5467    107.0024     30.4689   7.5972224149e+01   5.4779968330e+01    0.4255769    0.2708874 -13.42  0.001939286    1.823    0.452
       492 -11.1997    100.7082     26.8981   7.6231000602e+01   5.6668958616e+01    0.4936104    0.1954118  54.25  0.001883423    2.744    0.636
       493 -10.9048     98.8131    248.9412   1.2117102394e+02   1.5406427860e+01    0.1562553    0.1358148  41.35 0.0006743005    1.472    0.321
       494 -10.5626    131.7800     24.9999   6.7640767767e+01   4.9783052306e+01    0.2225999    0.2089962  15.69  0.000278621    1.034    0.033
       495 -10.7763    131.3334     21.7384   6.6433579073e+01   5.0313542571e+01    0.2515972    0.2276912  84.35 0.0002210309    1.239    0.193
       496 -10.4222    206.1502     23.8131   5.5067896226e+01   3.0452349679e+01    0.1993125    0.1672227  31.87 0.0003130183    1.310    0.237
       497 -11.1078      9.9727     23.1253   1.1062628421e+02   7.0180183464e+01    0.2301842    0.1451089 -55.41  0.001009598    1.210    0.174
       498 -11.9227    118.0443     22.6556   6.9849920428e+01   5.3396475518e+01    0.3960257     0.260046  46.25 0.0003965246    1.512    0.339
       499 -12.0638      1.9299     25.5605   1.1529544322e+02   7.0164278478e+01    0.2626078    0.1360082 -63.69 0.0002655949    1.494    0.331
       500 -10.0964     61.2253     23.5730   8.7953015584e+01   6.4458488568e+01    0.1722391    0.1189011  22.62 0.0009477798    1.674    0.403
       501 -10.0149     95.0120    246.8415   1.2160353228e+02   1.6194568228e+01    0.2448642    0.1091389  61.67  0.001464025    2.163    0.538
       502 -10.2749     78.8110     22.1156   8.0916112883e+01   6.1724446040e+01    0.1923432    0.1696257 -37.83 0.0002446663    1.191    0.160
       503  -9.9477     25.7517     22.8173   1.0292129097e+02   6.8987003748e+01    0.1531604    0.1289797 -67.92  0.001050286    1.403    0.287
       504 -10.5833     44.5729     17.0779   9.1790854767e+01   6.7928497593e+01    0.2682577    0.2052488  71.17  0.001516782    2.401    0.584
       505  -9.8415     40.6916     17.7257   9.3817888347e+01   6.8308150879e+01    0.1820114    0.1019094 -31.29 0.0009702455    1.651    0.394
       506 -11.7332     38.2896     21.1468   9.6444718634e+01   6.7986815924e+01    0.4586805    0.2997368  43.49  0.002706436    1.999    0.500
       507 -11.0518     35.3507     18.0562   9.6403689211e+01   6.8880202829e+01    0.2537082    0.2284652 -13.24  0.001128342    1.178    0.151
       508 -10.8182    182.3459     18.6812   5.6486731466e+01   3.7342385831e+01    0.2643839    0.2411918  29.16 0.0004666834    1.145    0.127
       509 -10.7655     92.7938     18.6539   7.4881205864e+01   5.9509456003e+01    0.2806051    0.1801088 -34.33  0.001176814    1.482    0.325
       510 -11.4640    216.2305     17.6227   5.2083160292e+01   2.8520075315e+01    0.3177847     0.153942  57.37  0.001338761    2.050    0.512
       511 -11.8754    145.8879    243.4441   1.1326877919e+02   9.5264714931e+00    0.3511297    0.2008689 -59.30  0.002351746    2.436    0.589
       512 -10.6522    198.0775     18.1263   5.4280770875e+01   3.3209864418e+01    0.2476752    0.1590537 -56.96 0.0007743796    1.682    0.405
       513 -10.0874    158.0040     17.4724   5.9736380966e+01   4.3970847895e+01    0.2208849    0.1946552 -20.31 0.0003323081    1.142    0.125
       514  -9.6334    149.4159    240.4941   1.1239959619e+02   9.3709523485e+00    0.1731143    0.1081883  48.47 0.0006398228    1.206    0.171
       515 -10.1225    175.5721     17.4689   5.7026666964e+01   3.9290012489e+01    0.1447515    0.1419619  32.85 4.588546e-05    1.031    0.030
       516 -10.4702    144.2220    238.1822   1.1299263365e+02   1.0432345519e+01    0.2023869    0.1319786  36.54 0.0005833022    1.401    0.286
       517  -9.8200     61.2168     17.6150   8.5168548832e+01   6.5436087331e+01    0.1740473    0.1147083  26.25 0.0009448705    1.713    0.416
       518 -10.4890    140.2615    237.2308   1.1353490766e+02   1.1141632043e+01    0.2320512    0.1092256  50.54  0.001379696    1.686    0.407
       519 -11.4050    206.3485    246.1931   1.0414557046e+02   2.8198096328e-01    0.2072306    0.1483074  33.40 0.0006513327    1.023    0.022
       520 -11.2131    102.8107    246.5365   1.2036242515e+02   1.5200150713e+01    0.1589246    0.1053247  64.99 0.0002228013    1.289    0.224
       521 -10.8928     81.1115    231.8448   1.2269425460e+02   2.0173939663e+01    0.1692236    0.1248432  70.79 0.0003874711    1.135    0.119
       522 -10.0105    139.2682     14.0450   6.1745788367e+01   4.9230247850e+01    0.1975594    0.1821531 -14.12 0.0002853178    1.081    0.075
       523  -9.9660     87.0172    231.0132   1.2166812072e+02   1.9528743251e+01    0.1595782   0.08972904  62.93 0.0003169777    1.501    0.334
       524 -10.6361    147.8538     13.3667   5.9918914431e+01   4.7088495080e+01    0.2225436    0.1208403  53.09 0.0009502431    1.738    0.425
       525 -12.6029     95.0017    237.2785   1.2086778285e+02   1.7544543277e+01    0.8762493    0.3702056  63.51  0.004684852    2.693    0.629
       526 -10.5397    102.0326    235.0370   1.1954699656e+02   1.6915009159e+01    0.3239252    0.2317896 -77.94  0.002237645    1.606    0.377
       527 -10.8325    105.9883    235.1070   1.1890947522e+02   1.6359544152e+01    0.1692601    0.1222476  55.18  0.000292677    1.020    0.020
       528 -11.7763     85.4222    245.2479   1.2298051415e+02   1.7661723796e+01    0.1886358    0.1361918  69.60 0.0004446485    1.172    0.146
       529 -11.2806     91.1441    243.0652   1.2192700538e+02   1.7228922973e+01    0.3219351    0.2268165  24.91  0.002238832    2.289    0.563
       530 -13.1429     76.2326    242.1161   1.2419732541e+02   1.9273024041e+01    0.4258703    0.2794685  82.53  0.001693448    1.461    0.316
       531 -13.2432     84.4953    238.3344   1.2262959496e+02   1.8773219076e+01    0.4075619    0.1733712  55.18  0.002291805    1.832    0.454
       532  -9.8492    216.1449    245.0919   1.0252427979e+02  -1.0382423215e+00    0.1266887    0.1023099  40.51 0.0004002238    1.286    0.223
       533  -9.9318    186.9414    245.5026   1.0704011358e+02   3.2083791253e+00       0.1642   0.07845315  42.64 0.0007686446    1.533    0.348
       534 -11.0854    164.5887    244.6977   1.1044131248e+02   6.6158959123e+00    0.3076644    0.1574475  40.26  0.001433508    1.487    0.327
       535 -10.2746     64.9778    243.1460   1.2600797659e+02   2.0500866442e+01     0.278982    0.1448986  53.09  0.001730542    1.354    0.262
       536  -9.5429     66.5048    239.4830   1.2554525863e+02   2.0856350005e+01   0.09965029   0.07232735  60.92 0.0004207774    1.077    0.071
       537  -9.9562      2.0050     10.7533   1.1029410377e+02   7.3087228383e+01    0.1793188   0.09310583  27.98   0.00110155    2.445    0.591
       538 -10.3811    246.5324     10.5194   4.7356561145e+01   2.1753695029e+01    0.1356602    0.1189856 -49.09 -2.981316e-05    1.018    0.018
       539 -10.2861    181.4772    243.4559   1.0764950151e+02   4.2395541882e+00    0.1080864   0.07890676  39.24 0.0008085429    1.014    0.013
       540 -10.9952    130.1591    241.4217   1.1558009683e+02   1.2071761698e+01    0.1625066    0.1461183  74.91  0.001370093    1.284    0.221
       541 -10.1119    221.5757    239.7770   1.0100862266e+02  -1.3351267383e+00    0.1115505    0.1003292 -30.13 0.0003126484    1.592    0.372
       542 -10.7216    183.4926    240.2036   1.0694690783e+02   4.2916571151e+00    0.1664803    0.1149163  50.22 0.0002968562    1.315    0.240
       543 -11.3687    167.6488    238.8105   1.0929572253e+02   6.8415982612e+00    0.2340982    0.1708138  41.92 0.0004301079    1.032    0.031
       544 -10.1098    172.1161    239.2865   1.0863865498e+02   6.1114766697e+00    0.1538722    0.1068662  44.67 0.0004356318    1.095    0.087
       545  -9.7733     63.2602    238.5851   1.2599608438e+02   2.1380710527e+01    0.1193604   0.07661281  46.12 0.0002462098    1.378    0.274
       546 -10.4112    187.3634    236.7650   1.0591587056e+02   4.0823321888e+00    0.1936413    0.1259135  37.51  0.001356501    1.169    0.145
       547 -11.3106    178.8794    234.0765   1.0693557602e+02   5.6806738849e+00    0.2668545    0.1789942  61.62  0.001047169    1.808    0.447
       548 -10.3219    132.7498    234.0920   1.1443839503e+02   1.2666105267e+01    0.1692011    0.1359926 -74.45  0.001315437    1.544    0.353
       549 -12.3278     59.3578    231.9150   1.2619962644e+02   2.2859069919e+01    0.3472684      0.17789  75.16  0.001998514    1.840    0.456
       550 -10.7356     55.6851    228.6902   1.2658794843e+02   2.3794100688e+01    0.1380873   0.08719153 -78.97 0.0004829027    1.626    0.385
       551 -11.3818    219.3282    231.3110   1.0019920827e+02  -1.9589858956e-01    0.1919564    0.1866282 -43.79 0.0005052489    1.571    0.363
       552 -12.4591    110.1949    244.5920   1.1904285892e+02   1.4461075532e+01     0.351649    0.2346055  74.86   0.00100285    1.560    0.359
       553 -10.4532    230.9023    233.2464   9.8704775542e+01  -2.0957767699e+00    0.1668668    0.1192301  31.53  0.001253969    1.064    0.060
       554 -11.2139    236.0077    229.6495   9.7423196512e+01  -2.5141684279e+00    0.4487345    0.1852534  43.63   0.00207067    1.997    0.499
       555 -10.0596    197.0113    233.2778   1.0394735583e+02   2.9887170537e+00    0.1560002    0.1086971  39.87 0.0004222783    1.101    0.092
       556 -10.7087    172.8487    234.2509   1.0792629928e+02   6.5856830633e+00    0.1840471    0.1546315 -23.24  0.000883818    1.568    0.362
