#   1 NUMBER                 Running object number                                     
#   2 MAG_AUTO               Kron-like elliptical aperture magnitude                    [mag]
#   3 X_IMAGE                Object position along x                                    [pixel]
#   4 Y_IMAGE                Object position along y                                    [pixel]
#   5 X_WORLD                Barycenter position along world x axis                     [deg]
#   6 Y_WORLD                Barycenter position along world y axis                     [deg]
#   7 A_WORLD                Profile RMS along major axis (world units)                 [deg]
#   8 B_WORLD                Profile RMS along minor axis (world units)                 [deg]
#   9 THETA_WORLD            Position angle (CCW/world-x)                               [deg]
#  10 FWHM_WORLD             FWHM assuming a gaussian core                              [deg]
#  11 ELONGATION             A_IMAGE/B_IMAGE                                           
#  12 ELLIPTICITY            1 - B_IMAGE/A_IMAGE                                       
         1 -12.7513     55.0755    147.5289   1.0466716045e+02   3.8335080875e+01      4.73414    0.9255997 -59.82   0.01423929    3.912    0.744
         2 -14.5973     68.6031    144.0850   1.0021010177e+02   3.7422601708e+01     5.252968     2.245997  59.45   0.01465906    5.301    0.811
         3 -13.1642    197.9612     42.2322   4.2785945492e+01   3.0560038869e+01       1.0417    0.9288783 -74.15   0.00324762    1.018    0.018
         4 -13.7531    207.2431     33.2630   3.9496061436e+01   2.9582659174e+01     1.356631    0.9272306 -17.88  0.001359361    1.955    0.489
         5 -12.3461    234.6048      9.3238   3.1743211765e+01   2.6408485848e+01    0.6745195     0.502559  49.80  0.004242598    1.792    0.442
         6 -12.5142    229.7493      3.7290   3.0952033897e+01   2.8010829041e+01    0.6906794    0.5269888  53.15  0.004625671    1.671    0.401
         7 -10.6723     42.7098      8.9632   6.8132208343e+01   6.8349095762e+01    0.1722614    0.1354377  -0.48  0.001171442    1.087    0.080
         8 -10.5501     60.7456      7.9451   6.0512823394e+01   6.5456488181e+01    0.2320611    0.1674534  47.69      0.00117    1.413    0.292
         9 -11.1251     54.0255      3.6781   6.0953711764e+01   6.7059357587e+01    0.2910678    0.2042282   8.09  0.001853466    1.305    0.233
        10  -9.6943     89.3069    211.2349   1.0500971401e+02   1.8503461516e+01    0.2350855     0.197194  69.18 0.0004014563    1.135    0.119
        11 -11.3017    139.9634    247.7361   9.8826109806e+01   3.7471464358e+00    0.5842354     0.302122 -60.01  0.002880336    2.654    0.623
        12 -10.4039    119.3690    245.8786   1.0280080720e+02   7.1731432493e+00     0.261824     0.191826  43.20 0.0006932531    1.151    0.131
        13 -11.5761    115.3824    244.1808   1.0341643764e+02   8.0722078772e+00    0.5670186    0.3472752 -45.08  0.003120909    2.013    0.503
        14 -11.2818    112.2896    242.3341   1.0383532364e+02   8.8686244389e+00    0.3236875     0.213724  66.84  0.001378665    1.821    0.451
        15 -10.3369    106.8566    249.9815   1.0581795517e+02   8.2886646264e+00    0.2863629    0.1476967  41.70  0.001512161    1.588    0.370
        16 -14.6225     44.0735    196.0745   1.1363096857e+02   2.7914843317e+01      6.53192     1.899319  57.62   0.01714882    7.056    0.858
        17 -11.0031    107.5935    203.7548   9.9785955352e+01   1.7299870403e+01    0.3038401    0.2188714 -80.38  0.001103128    1.651    0.394
        18 -10.7348     60.9027    198.2639   1.0998100649e+02   2.5347689225e+01    0.2781222    0.2325636  35.60  0.000842359    1.290    0.225
        19 -11.2808    121.6962    197.6184   9.5542663191e+01   1.6304342838e+01    0.4767197    0.2927819 -70.04  0.002143343    2.112    0.526
        20 -16.2020      5.8175    209.5614   1.2288241510e+02   2.8826171112e+01     6.560244    0.5899005 -66.22   0.02153469    5.645    0.823
        21 -10.9288    192.4457    194.2804   7.9217718729e+01   4.6390293872e+00     1.047566    0.5661329 -63.82  0.003262064    5.432    0.816
        22 -11.5416    110.8963    203.1582   9.8929302605e+01   1.6896879168e+01    0.3657757    0.3021692  78.27  0.001101843    1.327    0.246
        23  -9.1216     69.7342    183.7882   1.0607674354e+02   2.7537440381e+01    0.2444654     0.193858  57.19 0.0003606423    1.208    0.173
        24 -12.9947     56.4962    185.2881   1.0951753635e+02   2.8925681860e+01    0.9762531    0.7096267  49.46  0.005518235    1.322    0.244
        25 -10.7235     65.6813    179.3701   1.0649404343e+02   2.9140530663e+01    0.3710248    0.3020525  89.09  0.001027696    1.175    0.149
        26 -10.3550    147.6761    187.8735   8.7781564304e+01   1.3829002819e+01    0.4221769    0.3055531 -79.75   0.00167455    2.068    0.516
        27  -8.7918     72.3371    188.6048   1.0607793817e+02   2.6043269290e+01    0.2002556    0.1368143  68.03  0.001017363    1.554    0.356
        28 -10.4538    120.1578    186.1282   9.3994276128e+01   1.9086371341e+01    0.2164258    0.1964706 -12.45 0.0003899924    1.239    0.193
        29  -8.4368     77.3536    186.0809   1.0450732113e+02   2.5924550764e+01    0.2048119    0.1324016 -68.21  0.000699304    1.540    0.351
        30  -9.1980     80.3764    183.6144   1.0340986741e+02   2.6066150276e+01    0.2965544    0.2012969  67.14  0.001147403    1.634    0.388
        31  -9.7682    142.4843    208.9095   9.2614586086e+01   1.0449837040e+01    0.2009524    0.1388234 -51.34  0.001031007    1.589    0.371
        32 -10.3943     99.3591    180.9757   9.8259142719e+01   2.3753911987e+01    0.2789392    0.2589522 -42.48 0.0006221806    1.170    0.145
        33  -8.8275     89.8112    181.0396   1.0066482049e+02   2.5251511533e+01    0.2104655    0.2004809  78.34 0.0004135145    1.026    0.025
        34  -9.5174     42.9556    180.0062   1.1220712198e+02   3.1798558539e+01    0.1896546    0.1716174 -89.69 0.0003309216    1.079    0.073
        35  -9.8200     46.1614    176.8525   1.1105803770e+02   3.2185719957e+01      0.29585    0.1972952 -68.54 0.0007859034    1.370    0.270
        36 -10.3052    186.9868    175.4164   7.6623601637e+01   9.1269910721e+00    0.3816184    0.3050539 -44.91  0.001230774    1.307    0.235
        37 -17.6088     11.2308    243.7846   1.2371607911e+02   2.1374494702e+01     11.03971     5.338941 -80.67   0.02285543    1.886    0.470
        38  -9.7444     31.6549    203.3378   1.1706281846e+02   2.7656152303e+01     0.278372    0.1887211  81.13  0.001676048    1.313    0.238
        39 -10.8272    234.7745    173.1283   6.6976584341e+01   1.2589753672e+00    0.2690299    0.1958601 -17.39  0.001521904    1.289    0.224
        40 -12.2373     82.8921    159.0168   9.8854417709e+01   3.1629431933e+01     1.192719    0.7492807  70.09 0.0008112313    2.157    0.536
        41 -10.5657    240.0370    169.4730   6.5337944432e+01   1.0243325219e+00    0.2120525     0.158427 -29.44 0.0005007608    1.156    0.135
        42  -9.1284     96.4807    201.9181   1.0211809300e+02   1.9449571493e+01    0.1997954    0.1342764 -63.43 0.0006838755    1.557    0.358
        43  -8.8330    184.6402    167.8288   7.5544763951e+01   1.1041336928e+01     0.207758    0.1334464 -50.14   0.00090017    1.692    0.409
        44 -10.3611     33.8935    165.9265   1.1288751150e+02   3.6165888642e+01    0.5118554    0.2061744  49.86  0.002085577    2.668    0.625
        45 -13.0376     71.6495    153.6101   1.0101193070e+02   3.4622396443e+01    0.6913159      0.51752 -58.77   0.00107236    1.260    0.207
        46 -11.5989     70.7387    171.6530   1.0411524470e+02   3.0311296068e+01     0.492842    0.3420579 -31.06  0.002386301    1.955    0.488
        47 -11.5875     90.3607    151.5587   9.5445587574e+01   3.2287713552e+01    0.7452322    0.5086259 -29.73  0.003351238    1.887    0.470
        48 -10.8891    133.8321    145.1500   8.2436951164e+01   2.5911292016e+01     1.322301    0.3631536 -54.86  0.003108597    5.621    0.822
        49  -9.0433    174.5404    148.9625   7.3614679599e+01   1.6829034927e+01    0.2327348    0.1451673 -42.58 0.0005662566    1.565    0.361
        50  -8.9515    111.0830    149.0698   8.9276865043e+01   2.9326788338e+01    0.3069567     0.190817  62.10  0.001189483    2.177    0.541
        51  -9.8237     39.6546    146.7184   1.0890547536e+02   4.0297428590e+01    0.3231629    0.2307768  48.15  0.001363974    1.486    0.327
        52 -10.3942    103.5409    138.1006   8.8999972270e+01   3.3324440900e+01     0.588069    0.3611521 -24.96  0.002255934    2.479    0.597
        53 -10.2661    105.9001    130.8626   8.6701336689e+01   3.4634080146e+01    0.3970796    0.3299643 -61.67  0.001408361    1.230    0.187
        54 -11.6506     90.9283    137.6825   9.2502229941e+01   3.5602749683e+01    0.2963876    0.2627919 -36.87 0.0004078081    1.161    0.139
        55 -10.5284    136.0466    130.0283   7.8328317503e+01   2.8900977147e+01    0.7341617    0.1951455 -49.62  0.001965235    4.059    0.754
        56 -11.4956     44.0347    130.5500   1.0512781946e+02   4.3857702912e+01    0.4996905    0.2960728 -84.35  0.001876678    1.994    0.499
        57 -10.3182     32.8875    131.0246   1.0857307993e+02   4.4875781978e+01    0.2703446    0.1927761 -65.58 0.0009584581    1.205    0.170
        58 -10.0968    112.4700    128.9399   8.4398917201e+01   3.3859114812e+01    0.4019779     0.294818  -0.78 0.0009607279    1.924    0.480
        59 -10.9957    117.6820    123.8950   8.1726518007e+01   3.4024555297e+01    0.5767314    0.3804292  -1.94  0.002139192    2.707    0.631
        60  -8.9731    160.4830    127.4833   7.1730881618e+01   2.4274345612e+01    0.2817136     0.143317 -53.25 0.0008018386    2.263    0.558
        61 -10.2719     99.5002    125.0013   8.7174512749e+01   3.7196207459e+01    0.3168316    0.2617397 -13.07 0.0007638282    1.419    0.295
        62  -9.0450     92.8113    125.1807   8.9188495462e+01   3.8327343555e+01    0.2258196    0.2010182  83.51 0.0007167766    1.258    0.205
        63 -11.4176     74.9908    167.0010   1.0229369794e+02   3.0843093148e+01     0.365848    0.3322458  54.23  0.001037866    1.105    0.095
        64  -9.3160    108.3021    118.1689   8.2949981342e+01   3.7174941763e+01    0.2388669    0.2085244  20.42 0.0003874895    1.223    0.183
        65  -9.9069    231.3455    113.7961   5.4918450125e+01   1.2065659981e+01    0.2793817    0.2309976 -47.93 0.0008323355    1.119    0.106
        66 -11.0419    119.2670    104.1869   7.6153548281e+01   3.8135502819e+01    0.4752791    0.3247397 -17.96  0.001983957    1.988    0.497
        67  -9.3585    205.2963    110.2742   5.8388206616e+01   1.7970163046e+01     0.291515    0.2034138  44.60  0.001241129    1.561    0.360
        68 -11.1258    119.4165    110.5789   7.7835445735e+01   3.6699128779e+01    0.4374389    0.3254941  82.13  0.001887226    1.974    0.494
        69  -9.5160     66.0415    104.4803   9.2709143946e+01   4.7497199135e+01    0.2141722    0.1429667  31.67 0.0007916536    1.606    0.377
        70  -8.8919     66.1637    100.1529   9.1596165464e+01   4.8495363911e+01    0.1878724    0.1665457  58.21 0.0004728243    1.315    0.239
        71  -9.1113    128.4489     95.8898   7.1336153420e+01   3.7936101806e+01    0.2854602    0.2146311  62.45 0.0008316037    1.540    0.351
        72 -11.4605     52.3026     93.1026   9.4646626573e+01   5.1974166365e+01    0.5459027    0.4043264 -73.59  0.001833327    1.599    0.374
        73  -9.5003    156.0532     88.1063   6.2409150968e+01   3.3199255540e+01    0.3651424    0.2240679 -59.62  0.001038323    2.093    0.522
        74 -10.2964    164.1290    212.0920   8.8402715545e+01   6.1894595376e+00    0.2181521    0.1793548   1.00  0.001242246    1.264    0.209
        75  -8.3344    117.0611     86.1853   7.1621915106e+01   4.2362388997e+01    0.2083913    0.1152736  44.20 0.0008476131    1.806    0.446
        76  -9.3636     75.0547     84.9279   8.4403389755e+01   5.0567254866e+01    0.2082352    0.1977652 -23.01 0.0003201014    1.055    0.052
        77  -8.8679    158.0140     82.5211   6.0420774333e+01   3.3766549792e+01    0.2245504    0.1475702  54.20 0.0004106036    1.524    0.344
        78  -9.2816     58.8878     67.8008   8.5015121149e+01   5.6589614223e+01    0.2080127     0.166895 -16.41 0.0003762488    1.193    0.162
        79 -12.8841    186.8795     50.9168   4.6534924943e+01   3.1969536550e+01    0.8985735    0.8141148  36.67 0.0008211305    1.284    0.221
        80  -9.4598    107.3057    242.3260   1.0486446326e+02   9.6095839817e+00    0.1180715   0.09667116  -3.19  0.000703518    1.648    0.393
        81  -8.8859     71.8857     53.5071   7.5277741289e+01   5.7238348801e+01    0.2025278    0.1294483  38.09   0.00102099    1.563    0.360
        82 -11.6841    125.5653    247.5255   1.0173378592e+02   5.9556773517e+00    0.4706885    0.4636463 -83.58  0.003364269    1.200    0.166
        83  -9.1585    148.0231    174.3236   8.5108022107e+01   1.6645173020e+01    0.2051923    0.1854567  39.58 0.0004029577    1.092    0.084
        84  -9.4559    198.0152     23.5660   3.8198815705e+01   3.2858287063e+01    0.2171229    0.1847795  -3.87 0.0007548837    1.583    0.368
        85 -10.2802     33.3805     15.8136   7.5711815082e+01   6.8818166395e+01    0.1729872   0.09433245 -23.39 0.0009571901    1.741    0.426
        86  -9.0580    189.6565     14.9613   3.7003759904e+01   3.5746908678e+01    0.1736057    0.1538182 -63.66 0.0006513696    1.125    0.111
        87  -8.2552    168.8295    233.8393   9.0934376828e+01   1.6190882601e+00    0.1652531    0.1428493  48.14 0.0003932741    1.317    0.240
        88  -9.3754    148.9878    215.0000   9.2163689289e+01   8.1773275583e+00    0.2338752   0.07130928  37.40  0.000806285    2.969    0.663
        89 -10.8619    104.0302    210.7732   1.0160155493e+02   1.6361990067e+01    0.5746708    0.1291503 -49.52  0.001705146    5.090    0.804
        90 -10.8999    186.2180    209.6345   8.3329117005e+01   2.9575781511e+00    0.2404585    0.1837019 -13.39  0.001004054    1.347    0.257
