#   1 NUMBER                 Running object number                                     
#   2 MAG_AUTO               Kron-like elliptical aperture magnitude                    [mag]
#   3 X_IMAGE                Object position along x                                    [pixel]
#   4 Y_IMAGE                Object position along y                                    [pixel]
#   5 X_WORLD                Barycenter position along world x axis                     [deg]
#   6 Y_WORLD                Barycenter position along world y axis                     [deg]
#   7 A_WORLD                Profile RMS along major axis (world units)                 [deg]
#   8 B_WORLD                Profile RMS along minor axis (world units)                 [deg]
#   9 THETA_WORLD            Position angle (CCW/world-x)                               [deg]
#  10 FWHM_WORLD             FWHM assuming a gaussian core                              [deg]
#  11 ELONGATION             A_IMAGE/B_IMAGE                                           
#  12 ELLIPTICITY            1 - B_IMAGE/A_IMAGE                                       
         1 -11.8501    218.1074     40.7977   3.3824541175e+01   2.6988862494e+01    0.8807857    0.5869217  88.66  0.005234785    1.433    0.302
         2 -11.5014    224.8933     34.0319   3.1798645376e+01   2.6480947804e+01    0.7709022    0.4142902  67.68  0.001737955    1.845    0.458
         3 -11.7065    237.9213     22.8123   2.8570170952e+01   2.5300896201e+01    0.6456288     0.453133 -64.75  0.002701677    1.106    0.096
         4  -9.2848      1.6850      2.4700   7.9555601885e+01   7.4618267283e+01      0.24557    0.1328911 -31.68   0.00157014    1.630    0.386
         5 -10.3608      2.3997     13.1587   8.4454732119e+01   7.3053890903e+01    0.3255647    0.1994456 -39.53  0.002124945    1.561    0.359
         6  -9.8095      8.9935      5.5211   7.6460414371e+01   7.3508772541e+01    0.2264811    0.1283684 -31.44  0.001435342    1.644    0.392
         7 -13.7683     33.2045    189.6156   1.1060333395e+02   2.9826313031e+01     8.077616     3.034072  82.33    0.0204296    6.783    0.853
         8 -13.1866     95.4336    227.6140   9.9539206561e+01   1.2726078856e+01     4.782666     1.005522  38.87   0.01488406    3.766    0.734
         9 -13.6608     21.8287    245.2106   1.1761948938e+02   1.8101221508e+01     4.136791     1.401443  20.79   0.01456611    5.240    0.809
        10 -11.2776      6.7951    188.4206   1.1712404970e+02   3.2550011742e+01     0.557708    0.4525763  47.39  0.003555051    1.274    0.215
        11 -11.0998      1.9239    184.3617   1.1801271097e+02   3.3927507070e+01     1.457705    0.1541897 -75.89  0.003543635    7.298    0.863
        12  -9.4600     48.0101    182.5029   1.0587546153e+02   3.0011095082e+01    0.3964693    0.2529147 -40.59  0.001873762    1.844    0.458
        13  -9.8432     45.3148    179.9693   1.0629545512e+02   3.0977687090e+01    0.5273601    0.1480637 -62.91  0.001803063    2.980    0.664
        14  -9.9249      6.5375    179.1667   1.1647106823e+02   3.4869781026e+01    0.2957735    0.1773903  69.05  0.001554879    1.637    0.389
        15 -10.2386     53.5144    174.8882   1.0335192015e+02   3.1332864102e+01     0.485142    0.2982782 -30.79  0.002101634    2.204    0.546
        16 -10.1660     59.6783    169.4138   1.0080028799e+02   3.1997994569e+01     0.366525    0.2765167 -32.69  0.001032792    1.533    0.348
        17  -9.6665      5.6513    167.5809   1.1573298154e+02   3.7862288342e+01    0.4375624    0.1992223  16.61  0.001995146    2.727    0.633
        18 -10.0164     82.8042    162.9042   9.2953108674e+01   3.0445454885e+01    0.5181344    0.3259645  78.14  0.001982571    2.482    0.597
        19  -9.8281      1.8401    162.4313   1.1630789104e+02   3.9435595731e+01    0.4181051    0.1475993 -81.18  0.001648889    2.605    0.616
        20 -12.1042     68.4521    145.1369   9.3986553483e+01   3.7249493923e+01     1.030665     0.714256 -89.25  0.003201671    1.856    0.461
        21 -11.0330     77.8572    154.5436   9.2873212433e+01   3.3393326819e+01      0.88362    0.6258837  -9.45  0.001870548    1.905    0.475
        22 -11.7851     56.9845    156.4830   9.9563448641e+01   3.5767698600e+01    0.5829251    0.3496317 -36.98  0.001221311    1.939    0.484
        23  -8.2532     51.8896    186.6866   1.0534972880e+02   2.8473946187e+01    0.3988988    0.1952378  71.80  0.001410928    3.215    0.689
        24 -12.2900     10.3121    206.8750   1.1761701194e+02   2.7792963638e+01    0.8535886    0.6896762  40.38  0.002971633    1.308    0.235
        25 -10.5997     81.9856    139.4078   8.8542869773e+01   3.6719704558e+01    0.4340854     0.299661 -55.28 0.0005819578    1.387    0.279
        26  -9.2344     95.3339    140.1361   8.4558552294e+01   3.4310409827e+01    0.7107616    0.4014786 -20.67  0.002279816    3.337    0.700
        27  -9.8635     70.5975    160.4675   9.6134447924e+01   3.2888338089e+01    0.3230816    0.3042606 -30.42 0.0001806796    1.114    0.102
        28  -9.1749    106.6196    130.5215   7.8895557242e+01   3.4681214885e+01    0.3856182    0.3160508  -4.90  0.001242581    1.414    0.293
        29  -8.9487     11.8137    126.8953   1.0945249682e+02   4.7943729140e+01    0.2090971    0.1564099 -52.15 0.0004491484    1.180    0.152
        30  -8.2354     93.2290    126.1943   8.1962240935e+01   3.8200133944e+01     0.238567    0.2080034 -25.75 0.0005728797    1.168    0.144
        31  -9.6775     63.6375    124.8365   9.1395617735e+01   4.3232705802e+01    0.3925956    0.2165222  43.88  0.001280222    2.047    0.512
        32  -7.9656    114.6746    124.6643   7.5063690447e+01   3.4545749899e+01    0.1676021    0.1251983 -11.41 0.0007051396    1.718    0.418
        33  -8.2010    104.8630    118.9534   7.6529013610e+01   3.7821580136e+01    0.2360035    0.2031604 -15.45  0.001148783    1.242    0.195
        34  -9.6486     54.9445    117.8943   9.2885325669e+01   4.6167240767e+01    0.3075516    0.2665249 -73.90 0.0005716966    1.238    0.192
        35  -7.6240    205.5451    110.5072   5.0860449493e+01   1.8492536898e+01    0.1426382    0.1250342 -53.57 0.0002463233    1.041    0.039
        36  -8.0916     67.3812    104.1599   8.5124396323e+01   4.7851362284e+01    0.2082836    0.1414057 -63.57 0.0008968286    1.666    0.400
        37  -8.3194    248.3356    100.6812   4.2656741110e+01   1.2277795354e+01    0.1303492   0.08366836 -65.10  0.000704911    1.701    0.412
        38  -9.7064      1.9793     96.8522   1.0848220969e+02   5.6042677124e+01    0.4863572    0.1913345 -73.84  0.002030412    2.462    0.594
        39 -10.8895      2.2239     80.9096   1.0553966984e+02   5.9820611045e+01     0.981934     0.121809 -65.60  0.002750446    5.477    0.817
        40 -10.3065     12.4103     60.3519   9.6064789184e+01   6.3795059076e+01    0.4409028    0.2198303   0.15  0.001832524    2.232    0.552
        41 -12.1336    209.4370     45.1625   3.5663724613e+01   2.8212652624e+01     1.027208     0.658843  38.68  0.005301346    2.502    0.600
        42  -9.0314     80.4908    248.9660   1.0543283362e+02   1.0295941740e+01    0.2058853    0.1549774  39.13 0.0007452476    1.155    0.134
        43  -9.3493     81.8399    214.2944   1.0112988173e+02   1.7698415121e+01    0.3137369    0.2381127 -52.34 0.0005011046    1.405    0.289
        44 -10.4732      2.2190     24.2283   8.9393351934e+01   7.1313391349e+01    0.3371361    0.2172313 -57.07  0.002056915    2.019    0.505
        45 -10.4049      2.3733     49.4222   9.7956395770e+01   6.6653403847e+01    0.4748932    0.2076145 -68.86  0.002051258    3.211    0.689
        46  -7.5799     24.7960     50.6540   8.6964468056e+01   6.4705747003e+01    0.1619425    0.1084355  25.26 0.0004114695    1.563    0.360
        47  -9.8440      2.1886     37.3337   9.4267395187e+01   6.9000850458e+01    0.2915978   0.07732365 -52.94  0.001229145    2.963    0.662
        48  -8.9063    125.6948     33.5988   4.5265791865e+01   4.8824300711e+01    0.2295702    0.2031551  88.06 0.0003605093    1.185    0.156
        49  -8.9049     21.9957     34.4818   8.2354026264e+01   6.7878179475e+01    0.1789004    0.1073551  19.80 0.0006106488    1.566    0.361
        50 -11.4935     22.8068    200.1205   1.1417465972e+02   2.8258947136e+01    0.6323431    0.4395726 -73.50    0.0010357    1.311    0.237
        51  -8.8473    126.6205     26.6745   4.2909263131e+01   4.9392619910e+01    0.2368736    0.1976194  86.84 0.0005221188    1.244    0.196
        52  -8.6855     22.0073    222.8289   1.1611239167e+02   2.2976526595e+01    0.1829619    0.1409868 -22.96  0.001077478    1.932    0.482
        53 -12.1183      3.8615    220.2129   1.1986553829e+02   2.5278394162e+01     1.900458    0.6956209  83.61  0.007935084    2.999    0.667
