#   1 NUMBER                 Running object number                                     
#   2 MAG_AUTO               Kron-like elliptical aperture magnitude                    [mag]
#   3 X_IMAGE                Object position along x                                    [pixel]
#   4 Y_IMAGE                Object position along y                                    [pixel]
#   5 X_WORLD                Barycenter position along world x axis                     [deg]
#   6 Y_WORLD                Barycenter position along world y axis                     [deg]
#   7 A_WORLD                Profile RMS along major axis (world units)                 [deg]
#   8 B_WORLD                Profile RMS along minor axis (world units)                 [deg]
#   9 THETA_WORLD            Position angle (CCW/world-x)                               [deg]
#  10 FWHM_WORLD             FWHM assuming a gaussian core                              [deg]
#  11 ELONGATION             A_IMAGE/B_IMAGE                                           
#  12 ELLIPTICITY            1 - B_IMAGE/A_IMAGE                                       
         1 -11.3898    165.1492     48.8060   6.8916705578e+01   3.7773670551e+01     1.142978    0.9454516  -0.96  0.005806974    1.359    0.264
         2 -10.2695    182.3846     22.0437   5.7642214001e+01   3.6789550098e+01    0.6126437     0.364455  33.85   0.00269561    2.088    0.521
         3 -10.9994    178.8172     17.3307   5.6696893636e+01   3.8232146928e+01     0.833691    0.6535871  33.56  0.004454473    1.406    0.289
         4  -9.0660    120.2215      8.9294   6.3903299508e+01   5.3907492425e+01    0.3088736    0.2910507  51.99  0.001466681    1.104    0.094
         5  -7.4252    146.1314      3.8049   5.7117282193e+01   4.7977102353e+01    0.1882903    0.1438736  35.18 0.0003613118    1.311    0.237
         6  -9.6297    134.5319    239.5881   1.1674024913e+02   9.1530083435e+00    0.2924995    0.2197511 -61.12  0.001354373    1.672    0.402
         7 -11.9733    234.3199    248.6947   1.0061587045e+02  -7.1217467032e+00    0.2107065    0.1675925  19.75 0.0005985457    1.159    0.137
         8  -8.9774    153.2174    248.5018   1.1444152302e+02   5.0288030971e+00    0.3554908    0.2146536  34.65   0.00213403    1.416    0.294
         9 -18.0733     63.3110    225.4088   1.2826125417e+02   2.1573898353e+01     3.600872     2.834334  79.98   0.01157346    1.145    0.126
        10  -8.5676    191.5176    188.0585   9.8343126062e+01   7.4924448956e+00    0.2628826    0.1903666 -37.93 0.0007935259    1.528    0.346
        11  -8.0310    151.0060    237.4135   1.1350967248e+02   6.9151075423e+00    0.2191668    0.1740314   5.79  0.001459133    1.646    0.393
        12  -8.0813    128.3403    195.9041   1.1237049517e+02   1.7406144496e+01    0.2287472    0.1581949  55.13 0.0009098932    1.353    0.261
        13  -8.6327    112.6458    194.2910   1.1539628078e+02   2.0289429605e+01    0.3910008    0.2311437  86.63  0.001785935    2.672    0.626
        14  -7.7714      4.3285    192.2581   1.3681952664e+02   3.4056017232e+01   0.08836386   0.07427618 -64.48 0.0006517704    1.560    0.359
        15  -8.2434    132.1318    190.3013   1.1075572041e+02   1.7797339019e+01    0.1776063    0.1725858 -76.30 0.0002185244    1.150    0.131
        16  -8.0535    169.1734    189.8620   1.0306904136e+02   1.1277065101e+01    0.1915034     0.169347  65.11 0.0006117753    1.285    0.222
        17  -8.6670    153.4005    185.8479   1.0560658457e+02   1.4845254915e+01    0.3361112    0.2398413 -78.38   0.00117723    2.070    0.517
        18 -10.5002    146.4218    225.0494   1.1279404980e+02   9.4882145795e+00    0.2762143    0.2404839  63.48 0.0003569239    1.206    0.171
        19  -9.5419    177.8751    225.1479   1.0695984085e+02   4.3373910069e+00    0.2738087    0.2085783 -30.03  0.001005996    1.579    0.367
        20  -8.6912    192.0135    230.7907   1.0522002562e+02   1.2903260014e+00    0.1836668    0.1585766 -59.38  0.001271271    1.682    0.405
        21  -8.0118    143.0343    184.0119   1.0746986868e+02   1.7051072890e+01    0.2172768    0.1578732  71.94   0.00113077    1.715    0.417
        22  -7.5200    223.6678    181.3258   9.1075186192e+01   2.7110650890e+00    0.1184164    0.1072778  88.37 0.0007051096    1.710    0.415
        23 -10.1541    188.2897    176.4512   9.6812971134e+01   9.9613120836e+00    0.4677062    0.3418215 -42.75  0.001786347    1.521    0.343
        24  -8.9264    161.3532    176.2235   1.0226308039e+02   1.5107361047e+01    0.2645655    0.2363091 -84.97  0.000728995    1.338    0.253
        25  -7.8390    221.3711    176.2466   9.0498831108e+01   3.8529015244e+00     0.171866    0.1201257 -38.88  0.000537765    1.586    0.370
        26  -8.0009    250.4998    175.0229   8.5218275031e+01  -1.0282582300e+00    0.1881298    0.1131725 -28.98  0.001027444    1.586    0.370
        27  -9.2310    134.4839    173.9362   1.0762223076e+02   2.0510173041e+01    0.2622131    0.2076101  51.17 0.0005733223    1.171    0.146
        28  -9.4530    240.4685    171.5693   8.6211406685e+01   1.1372454076e+00    0.2747717    0.2055448  37.39 0.0002623483    1.337    0.252
        29  -8.3557    141.4153    170.4453   1.0549542517e+02   1.9925685673e+01    0.2403316    0.1189614  51.56  0.000564752    2.084    0.520
        30  -9.5431    110.3651    168.0711   1.1204074815e+02   2.5902194479e+01    0.3512073    0.2121008  61.58  0.001667362    1.873    0.466
        31  -9.3023    106.1540    167.0368   1.1283704347e+02   2.6817557220e+01    0.3139819    0.2656257  28.10  0.001637239    1.359    0.264
        32  -9.1475    241.1860    166.8057   8.5126230228e+01   1.6730410284e+00     0.224827    0.2033738  18.19 0.0002356988    1.179    0.152
        33 -10.9415    185.0448    215.7751   1.0423001466e+02   4.4718887802e+00    0.7206719    0.2970483 -39.92   0.00336238    2.876    0.652
        34  -9.5341    120.3670    164.2105   1.0911751429e+02   2.4988498048e+01     0.413975     0.263924  74.91 0.0008769957    2.243    0.554
        35  -9.7143     39.0448    151.0507   1.2640486005e+02   3.9422345389e+01    0.3187934    0.2339955 -61.87  0.001033812    1.349    0.259
        36 -11.2329     34.7098    159.4539   1.2827361439e+02   3.8016090506e+01    0.6678503    0.6180316  61.82  0.003754106    1.264    0.209
        37  -9.1415     41.8114    155.3516   1.2622656464e+02   3.8177375577e+01     0.231685    0.2119145  16.82 0.0006675051    1.476    0.322
        38  -8.2088    162.3477    163.2288   9.9594912101e+01   1.7310786662e+01    0.2268672    0.1758233  32.14 0.0004931855    1.269    0.212
        39  -9.4363     17.7340    158.9965   1.3200028897e+02   3.9707370171e+01    0.2330977    0.1756034  22.59  0.001604777    1.795    0.443
        40  -8.7979     18.2726    155.5847   1.3160311959e+02   4.0395386305e+01    0.2227414    0.1528005 -74.04 0.0008126822    1.256    0.204
        41  -8.8903    241.2874    162.0075   8.4123412946e+01   2.3295257221e+00    0.2188517    0.1815414  35.19 0.0002336443    1.257    0.205
        42 -10.0983    183.1653    208.4756   1.0343080414e+02   5.8531072689e+00    0.4856512    0.2052862 -46.16  0.002195134    2.912    0.657
        43 -10.1640    209.3624    159.6303   8.9341532799e+01   8.6538775333e+00      0.24441    0.2275079  13.96 0.0003482302    1.078    0.072
        44  -9.1348    135.7278    159.1755   1.0470267656e+02   2.3229490119e+01     0.412842    0.2614149  75.45  0.001681233    2.583    0.613
        45  -7.9144    247.1951    156.8291   8.2058017828e+01   2.0105642147e+00    0.2914368   0.08353397 -38.28  0.001033534    3.476    0.712
        46  -9.5332    140.1702    151.9012   1.0227611848e+02   2.3865963553e+01      0.45315    0.2435254  44.26   0.00176917    1.777    0.437
        47  -7.8011    146.2988    156.6876   1.0183209721e+02   2.1711500297e+01    0.2247455    0.1923728  66.62 0.0008030349    1.244    0.196
        48  -7.5686    143.2959    154.6219   1.0210271122e+02   2.2708161944e+01    0.2168114    0.1389713 -54.59  0.000513993    1.699    0.412
        49  -8.7898    135.3117    151.6644   1.0335152922e+02   2.4848754980e+01    0.3273705    0.2287045  83.23  0.001471313    2.099    0.524
        50  -9.9409    134.4323    147.2248   1.0266965852e+02   2.5939938612e+01    0.5764596     0.345746 -57.24  0.002368988    1.837    0.456
        51  -8.5134     22.9741    156.6754   1.3064914818e+02   3.9744146377e+01    0.1539463    0.1275061  72.09  0.000348518    1.132    0.117
        52  -8.9687    156.3300    154.5389   9.9165528894e+01   2.0160810418e+01    0.3542936    0.2493477 -73.69 0.0009691456    2.067    0.516
        53 -11.0654      8.5753    152.4090   1.3349867030e+02   4.1872718289e+01    0.9235608    0.3817203 -81.25  0.004902605    1.992    0.498
        54 -10.6009      7.6156    140.3264   1.3276540399e+02   4.4565809210e+01    0.5242004    0.3777966 -75.97  0.003672924    1.153    0.133
        55  -9.8737     12.6882    144.1902   1.3190958408e+02   4.3335850987e+01    0.3367591    0.2446378  64.31  0.001402449    1.293    0.227
        56  -9.0447     16.6077    141.8240   1.3078107976e+02   4.3544157555e+01    0.2236067    0.1458474  68.80 0.0006603939    1.433    0.302
        57  -8.2666      1.4766    151.7368   1.3500481902e+02   4.2545273825e+01    0.2676407    0.0803441 -74.45  0.001273984    2.524    0.604
        58  -9.0477    151.4371    149.9385   9.9310739801e+01   2.2043707487e+01    0.3249804    0.1768651  59.76  0.001261302    2.464    0.594
        59 -10.0450     44.0854    146.2074   1.2464061497e+02   3.9972859493e+01    0.4028567    0.2568423  46.39  0.002359695    1.586    0.370
        60  -9.0400    166.7659    220.5918   1.0836507934e+02   6.8271122946e+00    0.2890678    0.1965413 -39.34  0.001219798    1.785    0.440
        61  -8.3980    139.2213    145.4166   1.0117626043e+02   2.5385155688e+01    0.2441445    0.1793306 -75.80 0.0006618013    1.761    0.432
        62  -9.8128    157.2654    219.0087   1.0993287672e+02   8.6443661399e+00    0.5827437    0.2758753  36.67  0.002874302    1.875    0.467
        63  -7.7032    214.6623    142.0383   8.4524880362e+01   1.0455125683e+01    0.2875355    0.1189064 -42.44  0.001092333    2.569    0.611
        64  -8.6282    228.6651    142.1074   8.2023276320e+01   7.6463403035e+00    0.2297723    0.1841934  29.48 0.0003207357    1.219    0.180
        65  -8.8866    156.9356    140.5087   9.6048342968e+01   2.2801811866e+01    0.2653267    0.2101857 -52.73 0.0006427036    1.349    0.259
        66  -8.5843    119.8335    141.2896   1.0497495816e+02   2.9957945361e+01    0.2320531    0.1711953  61.90    0.0007846    1.469    0.319
        67  -9.7341    151.9985    217.3315   1.1070222432e+02   9.7801473158e+00    0.3459152    0.2907419  -9.47  0.001963138    1.515    0.340
        68  -9.5564     43.1574    137.2636   1.2375616194e+02   4.2099038040e+01    0.2666723    0.1720559  29.30  0.001384125    1.844    0.458
        69  -8.4319    161.4936    136.0016   9.4010915172e+01   2.2739925951e+01    0.2129616    0.1474814 -44.66 0.0004158696    1.487    0.328
        70  -9.8644    106.8974    134.0233   1.0674515602e+02   3.3884448024e+01    0.3889993    0.3454163  -8.87 0.0008663685    1.386    0.279
        71  -9.1355    101.7362    128.6294   1.0697829458e+02   3.5988642501e+01    0.4488583    0.2662235  72.57  0.001737502    2.841    0.648
        72  -8.1314     12.5248    219.6748   1.3672742250e+02   2.8199112089e+01    0.1758934    0.1128369  52.04  0.001338582    1.320    0.242
        73  -9.8781    115.1192    135.7112   1.0500755370e+02   3.2041205397e+01    0.3903299    0.3136505  18.49  0.001507005    1.534    0.348
        74  -9.5893      2.4811    128.8622   1.3303055114e+02   4.7439108420e+01    0.4315263    0.1212172 -77.08  0.001866661    2.837    0.647
        75  -8.3796    120.9201    127.0513   1.0168303271e+02   3.2860109145e+01    0.2244617    0.2237449  15.56 0.0007404415    1.056    0.053
        76  -9.7815     52.4939    125.3193   1.1960133580e+02   4.3818251945e+01    0.3129084    0.2746252 -17.64  0.001676901    1.472    0.320
        77  -9.6617     47.9561    125.0380   1.2078747473e+02   4.4392919405e+01    0.3092356    0.2387067 -69.42  0.001026481    1.120    0.107
        78  -9.1282     43.5301    124.5012   1.2190493176e+02   4.4991254282e+01    0.2940077     0.193858  57.91  0.001663236    1.630    0.386
        79  -7.0292     21.6793    125.2889   1.2781837355e+02   4.6839024726e+01    0.1212272   0.07722827  70.86 0.0002325974    1.601    0.375
        80  -8.0334    109.2626    123.0499   1.0380732388e+02   3.5915269312e+01     0.218001    0.1887704 -32.86 0.0006568407    1.266    0.210
        81  -9.4187    122.2254    205.0068   1.1486749601e+02   1.6762617730e+01    0.6148788    0.2596862  55.54  0.002553215    2.785    0.641
        82 -10.4239     69.1799    119.2637   1.1395539177e+02   4.3142265029e+01     0.629105     0.366026  63.55  0.002850969    2.287    0.563
        83  -7.6592    184.5486    117.5621   8.4602369401e+01   2.1208775664e+01    0.1502842      0.14422   6.95 0.0002383379    1.011    0.011
        84  -7.2703    114.2606    117.3322   1.0118471459e+02   3.6262833184e+01    0.1448597    0.1149201 -19.90 0.0001520122    1.571    0.364
        85  -8.6200    134.0021    201.8290   1.1206216257e+02   1.5386403347e+01    0.1968783    0.1848013 -85.66 0.0006635719    1.179    0.152
        86  -7.9048    246.2401    116.4607   7.3278604817e+01   8.0864856877e+00    0.1671491    0.1374435  69.82 0.0005638733    1.574    0.365
        87  -8.1100    168.8552    114.2994   8.7123074902e+01   2.5373739144e+01    0.2651945    0.2096006 -51.74  0.000827146    1.352    0.261
        88  -9.1346    195.3712    199.2721   9.9591307736e+01   5.0966497306e+00    0.2930565    0.2250056 -76.84  0.001568278    2.345    0.574
        89 -10.1835     62.4049    109.1737   1.1395463755e+02   4.6372560035e+01    0.6743904    0.3012154  27.46  0.002838588    2.831    0.647
        90  -9.8616     68.0785    104.3401   1.1128197993e+02   4.6747849882e+01    0.4316792    0.3229293 -12.09  0.001832501    1.852    0.460
        91  -7.7335     98.3184    106.3225   1.0291704588e+02   4.1612761010e+01    0.1465898    0.1132838 -17.44 0.0002518678    1.669    0.401
        92  -8.3187    170.2493     94.8237   8.1638182497e+01   2.8743394172e+01    0.2114967    0.2051609 -49.42 0.0003749779    1.059    0.056
        93  -7.4287     93.4940     95.5372   1.0160427624e+02   4.4852824084e+01    0.1435551    0.1353383 -48.28 0.0002593876    1.005    0.005
        94  -7.7692    133.2284     93.9956   9.0158113894e+01   3.7397844432e+01    0.2063604    0.1910537 -44.70            0    1.073    0.068
        95  -7.5274     22.9823     91.5243   1.2276925315e+02   5.4446823307e+01    0.1452988    0.1238371  17.64 0.0003483343    1.464    0.317
        96  -8.6423     15.2535     90.4873   1.2504213601e+02   5.5234206613e+01    0.2965541    0.1699444   2.60   0.00148851    2.546    0.607
        97  -7.7678     54.6793     90.7013   1.1244822354e+02   5.1574719671e+01     0.134277   0.09317639 -32.46 0.0002771859    1.621    0.383
        98  -9.4280    226.4728     87.1352   6.9214936511e+01   1.6787445494e+01    0.2433365     0.229654  34.20 0.0002688743    1.115    0.103
        99  -8.1018     29.8022     86.5080   1.1967841110e+02   5.5041350233e+01    0.1962636    0.1275223  12.02  0.001117848    2.011    0.503
       100  -8.6853    231.3465     83.1930   6.7478813575e+01   1.6292299087e+01    0.2696854    0.2144368  22.74 0.0008465407    1.456    0.313
       101  -8.5322    104.9125     80.3961   9.3991182712e+01   4.6026544540e+01    0.2428324    0.2032291 -57.94 0.0006540741    1.268    0.211
       102  -7.5418    228.2319     76.5766   6.6256046765e+01   1.7996596297e+01    0.2069093    0.1284226  45.28 0.0009550834    1.753    0.430
       103  -8.7973    113.4113     75.9844   9.0187208100e+01   4.5231847937e+01    0.2863326     0.237348  58.92  0.001356033    1.354    0.261
       104  -7.9106    170.3174     68.0907   7.3879852152e+01   3.3445137637e+01    0.2102836    0.1885979 -35.97  0.000326913    1.113    0.102
       105 -10.4018    153.9308     62.0975   7.5485814045e+01   3.8511780843e+01    0.5240365    0.3860657 -17.17  0.001726458    1.517    0.341
       106  -9.0430    143.9581     59.6349   7.6955295970e+01   4.1357307848e+01    0.3446993    0.1992942 -43.55  0.001109215    1.801    0.445
       107  -7.8587    166.0019    248.4680   1.1219955022e+02   3.0768881184e+00    0.1536083    0.1336442  33.89 0.0005763472    1.144    0.126
       108  -9.9441    170.3560     39.8423   6.5099185216e+01   3.7701745726e+01    0.4055593    0.3439224 -22.10 0.0009297215    1.231    0.188
       109 -10.1740    126.6432     54.1225   7.9355130612e+01   4.6364181222e+01    0.2647429    0.2414432  31.59 0.0002733861    1.075    0.070
       110  -7.5773    138.0011     51.0313   7.5477048326e+01   4.4193973684e+01    0.1776904    0.1694924  30.48  0.000967928    1.021    0.020
       111  -9.2200    222.2099     38.5172   5.7132285687e+01   2.4745788648e+01    0.3660698    0.2597392 -24.67  0.001241197    1.459    0.314
       112  -7.4889    195.5548     31.4963   5.8617995760e+01   3.2281922420e+01    0.1402455    0.1363536  73.20 6.895376e-05    1.047    0.045
       113  -8.0236    127.7822    247.9297   1.1884079420e+02   8.9448789189e+00    0.1471805    0.1306827  37.59 0.0004820688    1.242    0.195
       114  -8.8780    117.0484    245.1775   1.2044657820e+02   1.0933822897e+01    0.1636351    0.1426725  64.38 0.0004247484    1.169    0.145
       115  -7.8294    168.1923     21.7733   5.9670361107e+01   4.0500178468e+01    0.1993176    0.1527839  42.50 0.0002302053    1.320    0.243
       116  -9.6360    191.8090    192.7838   9.9133972754e+01   6.7062477477e+00    0.4688103    0.2749103 -61.90  0.001962597    3.483    0.713
