#   1 NUMBER                 Running object number                                     
#   2 MAG_AUTO               Kron-like elliptical aperture magnitude                    [mag]
#   3 X_IMAGE                Object position along x                                    [pixel]
#   4 Y_IMAGE                Object position along y                                    [pixel]
#   5 X_WORLD                Barycenter position along world x axis                     [deg]
#   6 Y_WORLD                Barycenter position along world y axis                     [deg]
#   7 A_WORLD                Profile RMS along major axis (world units)                 [deg]
#   8 B_WORLD                Profile RMS along minor axis (world units)                 [deg]
#   9 THETA_WORLD            Position angle (CCW/world-x)                               [deg]
#  10 FWHM_WORLD             FWHM assuming a gaussian core                              [deg]
#  11 ELONGATION             A_IMAGE/B_IMAGE                                           
#  12 ELLIPTICITY            1 - B_IMAGE/A_IMAGE                                       
         1 -14.5154    235.2869     41.7428   3.5234970683e+02   2.4695810983e+01     1.080937    0.5295448 -61.98  0.005548893    1.970    0.492
         2 -15.2622    222.1551     22.5434   3.4915630275e+02   2.9281544208e+01     2.466206    0.5328394 -51.09  0.009828328    3.523    0.716
         3 -15.0636    106.8997     32.7406   5.7622123452e+00   5.3859531132e+01     2.259599     1.385733  -4.52  0.009130079    2.781    0.640
         4 -14.0519    165.2182     30.5081   3.5581332097e+02   4.0145833374e+01     0.998795    0.6538664 -19.51  0.005220328    1.917    0.478
         5 -13.6045     65.0746      3.6996   3.1803333991e+00   6.7251714128e+01      0.63493    0.3547205  47.34  0.003225904    1.630    0.387
         6 -14.3494    192.1860      9.4614   3.4801202800e+02   3.6588273769e+01     1.138224    0.5728369 -66.57   0.00616585    1.792    0.442
         7 -12.7062    249.3595     14.6246   3.4615249711e+02   2.5370524426e+01    0.3947671    0.1749047 -39.47  0.001994304    1.608    0.378
         8 -14.1681    125.0227     10.0825   3.5428671101e+02   5.1969173204e+01     1.489947    0.6861941 -88.45  0.006251667    2.505    0.601
         9 -13.6953     62.0835     24.4575   1.5260163828e+01   6.5544704103e+01    0.8810101    0.4469194 -19.79  0.003569476    2.861    0.651
        10 -11.8616     18.5836    229.0388   7.2762278844e+01   2.1959793271e+01    0.3384898    0.1599068  74.81  0.001685597    2.257    0.557
        11 -13.0225     45.9797    247.4080   6.7411446563e+01   1.5723783905e+01    0.6592776    0.3411456  50.61  0.003524393    1.741    0.426
        12 -12.0982     19.1205    247.9283   7.3427850900e+01   1.8117090457e+01    0.4107295    0.2321967  61.26  0.002472673    1.616    0.381
        13 -12.0857    140.6273    225.8175   4.3875256730e+01   9.0488215445e+00    0.3151313    0.2509485  -5.74  0.001445941    1.158    0.136
        14 -13.5096    130.2678    219.9569   4.5337467669e+01   1.1352790552e+01    0.5916225    0.3912438  33.44  0.003331923    1.406    0.289
        15 -11.5048      5.9932    220.4907   7.5413467406e+01   2.4836153518e+01    0.2548203    0.1386706  66.67  0.001395106    1.674    0.403
        16 -13.5977     49.6380    213.7399   6.4173645973e+01   2.2267541659e+01    0.7011318     0.476281  53.93  0.003718269    1.387    0.279
        17 -14.2694     37.9798    206.2256   6.6605070792e+01   2.5166847109e+01     1.248197    0.7268662  50.95  0.006438379    1.564    0.361
        18 -13.6998     33.2559    194.0549   6.6963267173e+01   2.8502663926e+01     1.088147    0.4257185 -61.14  0.004545508    2.577    0.612
        19 -11.7729    249.5816    208.2548   2.1812963649e+01  -2.0805143155e-01    0.2012587   0.08029232 -39.12  0.001146769    2.161    0.537
        20 -11.9366    128.0618    200.2230   4.3014831338e+01   1.5388705657e+01    0.3224573    0.2766967 -85.30  0.001896889    1.579    0.367
        21 -12.2649     77.0757    199.7307   5.5661207463e+01   2.2240379187e+01    0.3256329    0.2452943   6.15  0.001749452    1.466    0.318
        22 -11.9394     95.1407    198.8747   5.0869883875e+01   2.0108499963e+01    0.2196762    0.1811609  52.19  0.001248559    1.275    0.215
        23 -12.5200     18.6646    196.1588   7.1078411770e+01   2.9341111673e+01    0.4573671    0.2366356  79.40   0.00216863    2.003    0.501
        24 -13.2407    205.7818    184.4301   2.4660061990e+01   7.8650685039e+00    0.7930699    0.5997988 -56.16  0.004898251    1.904    0.475
        25 -12.2356     25.6873    183.9950   6.8336589926e+01   3.1692217301e+01    0.6677256    0.3354513  77.38  0.002918609    2.195    0.544
        26 -13.7059     15.4942    174.1573   7.0623528345e+01   3.5070580438e+01     1.248264    0.5769549  61.31  0.005340666    2.175    0.540
        27 -13.0373      6.5661    163.9622   7.2689525624e+01   3.8396906873e+01    0.6583592    0.4241998  74.67  0.002084048    1.448    0.309
        28 -14.2901    234.7021    175.8339   1.8632726428e+01   5.7121352467e+00     1.232007    0.4769552 -38.97  0.006243045    2.084    0.520
        29 -13.7622     78.7848    165.7569   5.0614916876e+01   3.0113279670e+01    0.7617856    0.5489576  48.28  0.003432114    1.396    0.284
        30 -13.4925     64.8703    154.2126   5.3081880381e+01   3.4992267652e+01     1.104284    0.6588009  71.50  0.004445132    2.273    0.560
        31 -14.6803     68.4160    174.7547   5.4940843249e+01   2.9272715074e+01     1.398722    0.9134806 -62.92  0.005066187    1.571    0.363
        32 -13.5057    159.9875    177.3194   3.2068475739e+01   1.5312927860e+01    0.5174285    0.4743931 -41.22  0.002670171    1.208    0.172
        33 -12.9981    156.7444    171.7066   3.1731950181e+01   1.6872389547e+01    0.8854498    0.4326456  44.47  0.003865765    2.381    0.580
        34 -13.5271     99.1976    173.1524   4.6019633421e+01   2.5362035315e+01    0.7885912    0.6309443 -81.90  0.004099996    1.488    0.328
        35 -12.2134     57.4378    172.6147   5.7902291090e+01   3.1189957792e+01     0.392863    0.3130958 -57.54  0.002042764    1.304    0.233
        36 -11.9022    135.2856    170.0083   3.6268036818e+01   2.0524652986e+01    0.3352359    0.2733044 -51.32  0.001626342    1.281    0.220
        37 -14.5898     36.7471    161.5616   6.3006172606e+01   3.6404664552e+01     1.780697     1.071794  72.80  0.007913101    1.832    0.454
        38 -13.8209    223.3572    157.6611   1.7050931210e+01   9.8053765787e+00    0.7877823    0.6415352  31.08  0.005514626    1.475    0.322
        39 -14.0394    208.3196    151.1022   1.8126175858e+01   1.2898025055e+01    0.9683108     0.725325 -41.23  0.004467188    1.228    0.186
        40 -13.5041    167.7944    154.3933   2.6080561350e+01   1.8485196227e+01    0.8521925    0.6577989 -65.80  0.003826595    1.709    0.415
        41 -13.5486    212.3665    134.9032   1.4315170099e+01   1.4950977398e+01    0.6187134    0.5659682  29.85  0.003409491    1.308    0.236
        42 -14.0304    188.8669    129.5435   1.6966823609e+01   1.9596793876e+01    0.9783301    0.8804393  88.53  0.005127497    1.409    0.290
        43 -13.0647     25.6371    130.9678   6.3327601059e+01   4.5832190925e+01     0.636967    0.5168846 -62.20  0.002497245    1.191    0.161
        44 -12.2440    249.4664    129.6087   8.3818950814e+00   1.0574188151e+01    0.3788055     0.204158 -33.12  0.002299053    1.435    0.303
        45 -12.4362    249.2369    123.3464   7.2433221405e+00   1.1495024307e+01    0.3249071    0.1988716 -36.93  0.001948969    1.214    0.176
        46 -12.8494    155.9171    123.1605   2.1801244316e+01   2.6684245194e+01     1.000664    0.3209685 -48.44  0.003296033    3.166    0.684
        47 -13.1059    123.7969    108.4873   2.5692964965e+01   3.6083527961e+01      2.27813     1.274508  73.78  0.006550269    4.838    0.793
        48 -14.1065    135.4474    108.8029   2.2887037998e+01   3.3641646687e+01    0.8997837    0.6854975  84.96  0.004262384    1.750    0.428
        49 -12.8569    245.4959    116.6358   6.4008226786e+00   1.2959057744e+01    0.4674754     0.188499 -34.78  0.002383474    1.966    0.491
        50 -14.2603     36.3035    105.5238   5.5150555158e+01   5.1800772482e+01     1.645362    0.7061636 -55.75   0.00619733    2.107    0.525
        51 -13.3241    128.9008    131.1023   2.9877118046e+01   3.0096446144e+01    0.7105738    0.5985051 -89.83  0.003630891    1.458    0.314
        52 -13.1833     66.8023    105.5223   4.2928418936e+01   4.7571875002e+01    0.9301577    0.5794863  85.38  0.003445854    2.646    0.622
        53 -14.7617     12.1863     84.7476   6.2424500154e+01   5.9667822738e+01     1.890188    0.8008064 -62.55  0.007060315    2.013    0.503
        54 -13.7271     12.7071     70.0156   5.9297658976e+01   6.3516067669e+01     1.157381    0.5340075 -55.51  0.004381262    1.871    0.466
        55 -11.4323    177.2661     97.3050   1.1619191486e+01   2.7412621689e+01    0.2817681    0.2149535 -46.63  0.001567966    1.162    0.139
        56 -12.3798    126.6434     96.5673   2.1795296114e+01   3.8029211009e+01    0.6104515    0.3966627  43.34  0.002692561    1.629    0.386
        57 -12.8214     23.5144     86.9595   5.7258205397e+01   5.8151790155e+01     0.645649    0.3502629 -52.58   0.00242653    1.689    0.408
        58 -12.4741    124.8052     79.3614   1.7324638902e+01   4.1882053664e+01    0.6243776    0.4385677 -53.04   0.00298258    1.421    0.296
        59 -12.5113     78.5456     78.2005   3.0806938202e+01   5.2095913785e+01    0.5615475    0.4903996  86.17   0.00219108    1.294    0.227
        60 -12.1847    237.3388     75.3080   3.5908025995e+02   2.0013459603e+01     0.253923    0.2131495  72.72  0.001864794    1.484    0.326
        61 -12.6087     48.5395     71.1309   4.0969855806e+01   5.9083105114e+01    0.4521098    0.2836907 -56.87  0.001906832    1.604    0.376
        62 -11.7739    203.1948     84.3437   4.7735278278e+00   2.4607343908e+01    0.2655843    0.2204486 -74.40  0.001640406    1.283    0.221
        63 -13.6453    247.4084     64.6795   3.5607481943e+02   1.9819108133e+01    0.5925605    0.3217911 -40.55  0.003532178    1.351    0.260
        64 -12.1592    227.2481     63.7611   3.5761299788e+02   2.3270645420e+01    0.2720116    0.2531539 -14.25  0.001774327    1.391    0.281
        65 -11.1510    217.2128     63.4941   3.5851093117e+02   2.5086167117e+01    0.2442595    0.1442831 -38.83  0.001407699    1.384    0.277
        66 -13.1568    170.8387     55.7744   2.0257909967e+00   3.5488861747e+01    0.8901371    0.6772265  49.81  0.005048252    1.554    0.357
        67 -13.6423    167.1993     47.9774   4.0668212180e-01   3.7410781233e+01    0.7827021    0.6257768  75.77  0.004642221    1.270    0.213
        68 -13.0334     45.6835     52.4875   3.5703649358e+01   6.3752300197e+01    0.9614167    0.3406056 -42.30  0.003330969    3.053    0.672
        69 -12.7650     84.2902    246.5388   5.8701796037e+01   1.1893695061e+01    0.4075403    0.2734559 -43.32  0.002482677    1.778    0.438
        70 -11.8677     63.2178    248.4766   6.3599189461e+01   1.3782704585e+01    0.2584299    0.1745393  59.52  0.001590228    1.570    0.363
        71 -14.8767    201.2433    232.8444   3.3144166236e+01   1.2182631534e+00     1.137226    0.6410952 -42.16  0.007119526    1.914    0.478
        72 -12.0836    152.3371     46.5661   2.1043539820e+00   4.0996756582e+01    0.3523031    0.2729571 -21.33   0.00192631    1.546    0.353
        73 -11.4159    146.7652     46.4082   2.9210111965e+00   4.2320468019e+01    0.2641128    0.2409666 -15.13  0.001565236    1.325    0.245
        74 -13.1287      2.8036     42.1594   5.8589238194e+01   7.1058302245e+01    0.5453103    0.3112283 -69.12  0.002738952    1.752    0.429
        75 -12.1693     33.4901     40.4877   3.7338295701e+01   6.8167209570e+01     0.346897    0.2689749  37.27  0.001549511    1.307    0.235
        76 -12.2581     34.2591     36.9959   3.5285457280e+01   6.8746951370e+01     0.326926    0.3052042  48.81  0.001460292    1.219    0.180
        77 -12.4896    214.8502     39.0038   3.5327793483e+02   2.8724933171e+01     0.515962    0.2673228  89.68  0.002768127    2.274    0.560
        78 -12.3597     27.0936     35.8891   3.9205239981e+01   7.0018485203e+01    0.4399944    0.3736611  -9.26  0.001649643    1.138    0.121
        79 -12.4801     51.7892    241.4524   6.5705388008e+01   1.6288252098e+01    0.4904817    0.2849516  49.23  0.002501396    1.547    0.353
        80 -12.4700     31.2263    234.4341   7.0056607618e+01   1.9698501256e+01    0.7794407    0.4011727 -77.82  0.004193433    2.164    0.538
        81 -14.3530     84.8991    230.5136   5.7044870290e+01   1.4831146575e+01    0.9040789    0.7969701  51.45  0.006009402    1.187    0.158
        82 -14.5394     61.5494    226.8568   6.2294386092e+01   1.8184763602e+01    0.9428247    0.6647772  72.69  0.004402041    1.614    0.381
        83 -11.6179    162.0947     15.3723   3.5187368019e+02   4.2579640608e+01    0.3274038    0.2288911 -85.93  0.001797979    1.304    0.233
        84 -14.4974    167.8935    224.8277   3.8142903116e+01   5.9974802006e+00     1.490303    0.8701562  33.65  0.008655691    1.719    0.418
        85 -12.2590    197.6659     25.6581   3.5153616914e+02   3.3701907611e+01    0.4013899    0.2355234 -60.41   0.00217071    1.471    0.320
