#   1 NUMBER                 Running object number                                     
#   2 MAG_AUTO               Kron-like elliptical aperture magnitude                    [mag]
#   3 X_IMAGE                Object position along x                                    [pixel]
#   4 Y_IMAGE                Object position along y                                    [pixel]
#   5 X_WORLD                Barycenter position along world x axis                     [deg]
#   6 Y_WORLD                Barycenter position along world y axis                     [deg]
#   7 A_WORLD                Profile RMS along major axis (world units)                 [deg]
#   8 B_WORLD                Profile RMS along minor axis (world units)                 [deg]
#   9 THETA_WORLD            Position angle (CCW/world-x)                               [deg]
#  10 FWHM_WORLD             FWHM assuming a gaussian core                              [deg]
#  11 ELONGATION             A_IMAGE/B_IMAGE                                           
#  12 ELLIPTICITY            1 - B_IMAGE/A_IMAGE                                       
         1 -16.7722    105.6334    207.2956   1.0921830611e+02   1.7538362604e+01     4.902916     3.278489 -40.51   0.02611664    2.075    0.518
         2 -19.2344     78.1265    183.6081   1.1213332871e+02   2.6722731682e+01     6.711395     6.330141  50.80   0.04207198    1.246    0.198
         3 -15.6108    248.9791     53.8961   4.7289967163e+01   1.6587729487e+01     5.346783          nan -36.73   0.01254576    6.910    0.855
         4 -15.8139    246.4368     86.1106   5.5251933099e+01   1.2292058773e+01     2.364807    0.5949378 -36.58  0.007451205    3.266    0.694
         5 -13.5180    249.7265     10.3401   3.7278135471e+01   2.1982084546e+01     1.801712    0.2130153 -30.27   0.00500906    6.525    0.847
         6 -14.8012    241.4561      9.7800   3.7779172857e+01   2.3877079867e+01      1.48024    0.8214722 -55.53  0.007890255    1.601    0.375
         7 -14.1950     23.2892     66.7517   1.0777022037e+02   6.0381452603e+01     0.545737    0.3724712 -42.95  0.003348322    1.234    0.190
         8 -10.7537    146.3148     12.0560   4.9396077301e+01   4.7134024157e+01    0.1777022    0.1763779  66.13 0.0003739003    1.086    0.079
         9 -12.5219     64.8912     10.9030   6.9648516295e+01   6.5203112808e+01    0.2932925    0.2255235  -4.71 0.0009367835    1.144    0.126
        10 -14.0423     86.0350      7.6225   6.1124844567e+01   6.1551784729e+01     0.533506    0.3775798  58.17   0.00147981    1.543    0.352
        11 -12.7370     98.4966      8.5044   5.8076703252e+01   5.8833911717e+01    0.2273531    0.2062957  -0.88 0.0006529274    1.137    0.120
        12 -12.8382    101.8382      6.8319   5.6516474986e+01   5.8256906482e+01    0.2818905    0.1973636  37.83 0.0009154032    1.268    0.211
        13 -10.9162    115.4801      8.5600   5.4046077568e+01   5.4986854201e+01    0.1349016    0.1193597  40.54 0.0001312435    1.013    0.013
        14 -10.5976      3.2071      8.4245   9.7901244443e+01   7.3049522462e+01    0.1329656   0.09529382  22.53 0.0009536408    1.713    0.416
        15 -11.9740     59.8938      6.1571   6.9164872515e+01   6.6599502815e+01    0.1777406    0.1596673  -1.51 0.0006208813    1.237    0.191
        16 -11.9289    113.1095      1.8556   5.1885785703e+01   5.6126186971e+01    0.2895035    0.1620014  54.73 0.0009642792    1.533    0.348
        17 -12.3439    145.4442    169.6768   9.4467675017e+01   1.8242124262e+01    0.3513525    0.2834712  -3.20  0.001511825    1.615    0.381
        18 -14.3933    161.9831    199.5862   9.6265102893e+01   9.2913394807e+00     2.320445     1.064842 -28.23  0.007383045    5.001    0.800
        19 -12.2490    134.0741    240.2613   1.0766892688e+02   7.0651578115e+00    0.3940975    0.2196243  34.15  0.002141125    1.710    0.415
        20 -14.5727    159.8987    230.9970   1.0153681317e+02   4.3488423263e+00    0.9853457    0.5314662  33.11  0.005084833    1.731    0.422
        21 -16.1418    180.3721    206.1051   9.3635257989e+01   4.8570385185e+00     2.462892     1.608764  47.91  0.008038447    1.509    0.337
        22 -11.5353    141.9361    240.7010   1.0624266959e+02   5.7451743299e+00     1.159459    0.5693827  21.66  0.004091145    4.967    0.799
        23 -13.7679    170.1135    204.8177   9.5479560575e+01   6.9033272437e+00     0.479951    0.3880605  -5.59  0.001827504    1.449    0.310
        24 -14.0881    154.9882    239.8766   1.0368029430e+02   3.7776748626e+00    0.6161026    0.3253911  54.50  0.003088519    2.074    0.518
        25 -13.9918    147.6287    232.6920   1.0412997922e+02   6.1009335576e+00    0.8354425    0.5676363 -46.67  0.005006972    1.784    0.440
        26 -17.0760    188.4577    245.3509   9.8229244016e+01  -2.3378137731e+00     3.409879     2.569604  20.66   0.02279938    1.203    0.169
        27  99.0000    131.6943    232.8708   1.0722092418e+02   8.6597577780e+00    0.7063732    0.4606442  30.08  0.004024744    1.626    0.385
        28 -11.2930    137.0205    250.5211   1.0832472417e+02   5.0015058728e+00    0.2660466     0.106213  45.65  0.001303915    1.996    0.499
        29 -15.4356    167.1729    214.5628   9.7658421121e+01   5.7725406820e+00     1.702337     1.284304 -43.53   0.01005751    1.525    0.344
        30  99.0000    117.3582    250.7948   1.1193207774e+02   7.9633232818e+00    0.2949097   0.07859372  39.21  0.001168761    3.183    0.686
        31 -11.3166    244.5076    170.0034   7.4566831210e+01  -7.7330126206e-01    0.2043131    0.1187524 -31.57 0.0006624454    1.586    0.369
        32 -10.7115    163.9798    168.2306   9.0032346429e+01   1.4889493711e+01    0.1982911    0.1842853  33.89            0    1.028    0.027
        33 -11.5506     20.3173    167.3126   1.2326739570e+02   3.7251467362e+01     0.250884    0.1415016  60.45 0.0009936892    1.661    0.398
        34 -11.0446    186.1093    163.1245   8.4218493770e+01   1.1430945224e+01    0.2140505    0.1857515   4.67 0.0002946157    1.187    0.157
        35 -12.6516    243.1745    157.7150   7.2201995857e+01   1.3549440166e+00     0.305596    0.2154082 -38.91  0.000682859    1.421    0.296
        36 -11.2424     20.9015    158.1888   1.2233011836e+02   3.9267620031e+01    0.2941717    0.1184546 -76.68  0.001407909    2.068    0.516
        37 -11.8818      1.5451    158.3072   1.2666508582e+02   4.0824293007e+01    0.1491489   0.09873185 -82.45 0.0008074258    1.154    0.134
        38 -10.7971    189.8435    157.0329   8.2124983172e+01   1.1822079918e+01    0.2192035     0.203758  87.77 0.0007921192    1.298    0.230
        39 -11.9549    157.4998    154.9958   8.8730809516e+01   1.8911054588e+01    0.2728384    0.2164515  45.40  0.001362109    1.234    0.190
        40 -13.5630    144.4155    153.6674   9.1484252817e+01   2.1860238808e+01     0.577612    0.3933648  43.58   0.00145428    1.438    0.305
        41 -12.5539    145.5765    149.2163   9.0258411158e+01   2.2592271343e+01    0.2915137    0.2652023   3.44 0.0006718872    1.230    0.187
        42 -13.0544    149.4915    147.5004   8.8957742906e+01   2.2159312973e+01    0.5328607    0.2668251 -42.99   0.00208436    2.059    0.514
        43 -14.9748    246.7831    145.3773   6.8912604912e+01   2.6536622477e+00     1.406585    0.6409591 -39.25  0.006132041    2.035    0.509
        44 -12.4051    143.5274    247.2245   1.0674270028e+02   4.4860426748e+00    0.1980354    0.1615836  43.62 0.0006614312    1.030    0.029
        45 -15.1767    248.2045    114.8176   6.1762572452e+01   7.3166475471e+00     1.456951    0.5436821 -38.78    0.0056702    2.325    0.570
        46 -10.7412      7.7142    155.4753   1.2508721002e+02   4.0991128717e+01    0.1182688    0.1034405 -72.27   0.00031878    1.285    0.222
        47 -10.7436      1.5562    140.1103   1.2525247235e+02   4.4929203298e+01    0.1492377    0.1129167 -79.00 0.0004044885    1.078    0.072
        48 -11.4096    167.0833    139.0184   8.2957514618e+01   2.0223624614e+01    0.2252067    0.2225466 -27.49 0.0003536527    1.022    0.022
        49 -11.3992     39.0646    138.0361   1.1561875029e+02   4.2252459195e+01    0.3218106    0.1417608 -67.55  0.001492332    1.887    0.470
        50 -11.8627     27.8851    134.9841   1.1814687158e+02   4.4062288002e+01    0.2983264    0.2066133  82.13   0.00176704    1.374    0.272
        51 -11.9157     30.5947    128.9987   1.1665954657e+02   4.5243043858e+01    0.2977259    0.2237047   1.32 8.776969e-05    1.914    0.478
        52  -9.8852      7.3839    200.0869   1.2812663454e+02   3.1409103018e+01    0.1382353    0.1154997 -40.26  0.001017379    1.944    0.485
        53 -14.9683    247.6522    127.9275   6.4861455672e+01   5.2967690893e+00     1.295695    0.6184932 -47.99  0.005328117    2.408    0.585
        54 -11.0418    222.3850    128.2282   6.9171729766e+01   1.0314243244e+01    0.2045249    0.1281009 -43.50 0.0002732445    1.569    0.363
        55 -10.9762    139.5366    210.6184   1.0265262867e+02   1.1259977149e+01    0.2014682    0.1379047  24.64   0.00074174    1.716    0.417
        56 -13.1114    143.2048    121.5685   8.4357968296e+01   2.9177911649e+01    0.2920284    0.2815756  37.62  0.000793283    1.057    0.054
        57 -13.4550    123.8476    218.7033   1.0696439754e+02   1.2417256147e+01     1.696822     1.020791 -39.06  0.008648911    2.357    0.576
        58 -12.4705     37.4116    120.1899   1.1348974640e+02   4.6712895255e+01    0.3063726    0.2299275  85.86   0.00129948    1.333    0.250
        59 -12.4206     43.4693    119.3135   1.1160752976e+02   4.6309392675e+01    0.3409973    0.1838932 -49.45 0.0009928333    1.767    0.434
        60 -12.3195     44.2851    114.1960   1.1049304051e+02   4.7459866272e+01    0.2672319    0.1984457 -77.81 0.0006185861    1.247    0.198
        61 -12.6829    145.4505    116.3004   8.2451797999e+01   2.9838086533e+01    0.3203986    0.2874521  18.43 0.0003504558    1.217    0.178
        62 -11.2526    180.7263    144.0246   8.1120990332e+01   1.6259862889e+01     0.234503    0.2099077  41.70 0.0003663196    1.120    0.107
        63 -11.1414      1.5133    194.2827   1.2889454299e+02   3.3112349413e+01    0.1741912   0.09545165 -80.00  0.001122958    1.474    0.322
        64 -10.7447      6.2461    113.0813   1.2135340533e+02   5.0878736458e+01    0.1630482    0.1202088 -76.86 0.0002973376    1.050    0.047
        65 -11.8678    208.0404    193.3306   8.5896854603e+01   2.0024234853e+00    0.1947895    0.1618003  26.75 0.0007288253    1.094    0.086
        66 -12.0432    153.3461    108.2967   7.8402979909e+01   2.9769095384e+01    0.5038561    0.2972343  51.03  0.002047467    1.756    0.430
        67 -14.6892    168.3540    242.8073   1.0157277284e+02   1.1956342026e+00    0.7621589    0.5940559  87.59  0.002871623    2.007    0.502
        68 -12.7279    201.7206    190.4004   8.6562846805e+01   3.6105861691e+00    0.3158483    0.1860662  24.47   0.00147613    1.882    0.469
        69 -12.3190      1.9161    105.1699   1.2164764078e+02   5.2968909545e+01    0.2714385    0.1521526 -65.90  0.001611952    1.339    0.253
        70 -12.0083    136.0615    104.7208   8.1728855240e+01   3.4430939461e+01    0.2167472    0.2076255  29.12 0.0003864902    1.076    0.070
        71  99.0000      4.9018    191.5260   1.2810705587e+02   3.3389480529e+01    0.1293994   0.09273133  55.98 0.0008643857    1.311    0.237
        72 -15.7175     49.0905    162.2712   1.1618556993e+02   3.5405580373e+01      1.33872    0.7342584 -83.43  0.006717084    1.782    0.439
        73 -11.7982    106.3729     99.7214   8.8493540777e+01   4.1690467025e+01    0.4226301    0.2357518  61.10  0.001544372    2.757    0.637
        74 -12.1041     27.5615     98.8054   1.1291142845e+02   5.2711774271e+01    0.2501766    0.1672849 -43.36  0.001142674    1.467    0.318
        75 -11.2410     14.4773     98.0179   1.1689712428e+02   5.3871083396e+01     0.171279    0.1480496 -64.33 0.0003412366    1.111    0.100
        76 -11.8339    129.0855    101.1768   8.2575772138e+01   3.6723552227e+01    0.2399874    0.2150262  -0.04 0.0005382687    1.241    0.194
        77 -10.0676    135.4061    206.1908   1.0285381855e+02   1.2794205028e+01    0.4196099    0.2119922  54.20  0.001870975    2.106    0.525
        78 -12.2739     19.1597     95.1919   1.1496650340e+02   5.4207937150e+01    0.2451058    0.1811787  69.78  0.001014529    1.580    0.367
        79 -10.0186     80.6583     94.7378   9.4939673872e+01   4.7337464675e+01    0.1428731    0.1098064 -15.98 0.0002408251    1.593    0.372
        80 -10.8156    103.1512     93.1833   8.7614179539e+01   4.3770399438e+01    0.2181226    0.1985764 -11.84   0.00038026    1.162    0.139
        81 -14.1999     29.0022     86.8475   1.1017507278e+02   5.5390301293e+01    0.5391976    0.3627265 -55.67  0.002914045    1.195    0.163
        82 -13.2760     15.4349     88.7484   1.1508447241e+02   5.5961276741e+01    0.3445657    0.1945838 -72.07   0.00124844    1.503    0.335
        83 -11.0790     89.7113     85.9127   8.9630285496e+01   4.7827884588e+01    0.2603413    0.1823507 -36.52 0.0008120146    1.400    0.286
        84 -10.9842     53.0350     85.0074   1.0152098759e+02   5.3399273070e+01     0.197349    0.1726987 -51.45  0.001194734    1.029    0.028
        85 -12.4604     43.0300     82.5773   1.0438572154e+02   5.5065700920e+01     0.344533    0.2461773  17.42  0.001522869    1.681    0.405
        86 -13.0274     10.3647     83.8192   1.1593120220e+02   5.7410224706e+01    0.2340985      0.16878 -41.95  0.001091661    1.340    0.254
        87 -12.1192     22.0433    151.0954   1.2138475659e+02   4.0799513385e+01    0.2222276    0.1843884  41.42 0.0009003263    1.423    0.297
        88 -12.0437     36.5208     82.5049   1.0664381514e+02   5.5725042991e+01    0.2477345    0.1353556 -52.02 0.0006708365    1.481    0.325
        89 -12.7092     35.8137     78.5939   1.0598418029e+02   5.6682619166e+01     0.280807    0.2111335  60.56   0.00162791    1.753    0.430
        90 -11.1417    151.2752    247.7048   1.0537194509e+02   3.1948691654e+00    0.1688514    0.1321084  48.87 0.0002530489    1.128    0.114
        91  99.0000    126.7335    239.9526   1.0901420774e+02   8.2719306969e+00    0.5598995     0.376373 -86.05  0.003265921    2.038    0.509
        92 -12.2054    175.9014    183.9162   9.0547757556e+01   9.5559753990e+00    0.2112722    0.1967801  31.21 0.0004543201    1.037    0.035
        93 -11.9857     42.5483     71.1772   1.0165245937e+02   5.7675748525e+01    0.3284736    0.2701207  85.84  0.001379923    1.598    0.374
        94 -14.2386     16.2477     70.1668   1.1121070719e+02   6.0124174589e+01    0.5755505    0.2516716 -44.26  0.002901273    1.940    0.485
        95 -11.9413    147.6637    246.7439   1.0592010304e+02   3.9074350471e+00    0.2069326    0.1317445  45.73  0.001255695    1.273    0.215
        96 -10.7240    204.4298     65.7354   5.6213680641e+01   2.5213451868e+01    0.1981737    0.1437007 -22.28 0.0005335417    1.521    0.343
        97 -11.5231    152.1276     64.5750   6.5768227054e+01   3.8533327024e+01    0.2697951     0.220341 -23.31 0.0004352658    1.284    0.221
        98 -13.9951      3.3168     58.7314   1.1370158307e+02   6.3354841153e+01    0.7831655    0.2750657 -72.64  0.003291607    3.093    0.677
        99  -9.9942    174.2659    154.6405   8.4912315201e+01   1.5509928503e+01    0.1477632    0.1197407 -79.36 0.0006988572    1.638    0.389
       100 -10.7159     99.2963     61.8729   7.8910481993e+01   5.0986289241e+01    0.2402659    0.1832252 -58.60  0.001180675    1.601    0.375
       101 -10.7258     79.7331     61.0038   8.5012901094e+01   5.4736864221e+01    0.2512769    0.1846614  53.76   0.00127918    1.723    0.420
       102 -11.6315    222.3526     60.3256   5.2139464808e+01   2.1714602642e+01    0.2230037    0.1734792  17.98  0.001114703    1.744    0.427
       103 -12.0107      9.7562     60.0025   1.1143905028e+02   6.2744360797e+01    0.1728185    0.1252289 -55.23 0.0003729667    1.061    0.058
       104 -12.7263     40.1321    149.3762   1.1679917085e+02   3.9438507634e+01    0.2515729     0.214265 -65.88 0.0006001035    1.198    0.165
       105 -11.5850     55.9369     45.7656   8.8300660394e+01   6.1265126400e+01    0.2746976    0.1985659  20.02 0.0008351879    1.465    0.318
       106 -12.4736     36.6913     71.6152   1.0393940229e+02   5.8164094855e+01    0.3504734    0.1848666 -51.39  0.001769591    1.523    0.343
       107 -10.3067    104.9930     41.9995   6.9919783719e+01   5.3222718086e+01    0.1723167    0.1582064  13.45 0.0004050901    1.016    0.016
       108 -12.6290    125.8386     40.1725   6.3654239585e+01   4.8793273857e+01    0.5447749    0.2862665  46.34  0.001826809    1.820    0.450
       109 -10.4322     64.4978     41.5575   8.3352851921e+01   6.0780775153e+01    0.1334046    0.1153555 -14.60 0.0002376582    1.022    0.022
       110 -11.3938    217.8671     37.3702   4.6779051097e+01   2.6051788953e+01    0.2558592    0.1739548 -47.29  0.001314346    1.367    0.269
       111 -12.5359    164.1720    182.7783   9.2815463073e+01   1.2007664494e+01    0.2419507    0.2024048 -35.81 0.0002836099    1.285    0.222
       112 -11.0750     40.0521     36.4941   9.1344867607e+01   6.4943645390e+01    0.2455434    0.1435679 -31.68  0.001246176    1.501    0.334
       113 -10.6804    174.5876     33.2458   5.1592574261e+01   3.7499241998e+01    0.1823237    0.1425442 -10.44 0.0003172898    1.502    0.334
       114 -10.5810     59.3069     29.3329   8.0316119016e+01   6.3589826429e+01     0.135334    0.0890234  -4.40 0.0007040077    1.666    0.400
       115 -11.0076      2.0254    183.5014   1.2819460466e+02   3.5314531889e+01    0.1437774   0.09620292  47.52  0.000999309    1.506    0.336
       116 -10.9690    216.9522     19.4677   4.2290538030e+01   2.8501248565e+01     0.198949    0.1241776  76.04 0.0004874581    1.540    0.351
       117 -10.9808     10.4904     15.0421   9.6792959623e+01   7.1443756829e+01    0.1701551   0.09036926 -46.29 0.0008508838    1.569    0.363
       118 -11.2741     34.0355     14.0311   8.4294787938e+01   6.9327782844e+01    0.1586781    0.1457483 -45.58 0.0005837088    1.644    0.392
       119 -10.9019     50.3266     13.6944   7.6780660070e+01   6.7198369982e+01    0.1060238   0.09917101 -50.80 0.0004644666    1.649    0.394
       120 -12.1441    154.8590    181.3927   9.4572222898e+01   1.4052526895e+01    0.2349654    0.2292708  24.11 0.0002211776    1.056    0.053
       121 -10.7771    148.9473    214.7613   1.0134719501e+02   8.8968968031e+00    0.2565833    0.1413308  33.96  0.001245916    1.762    0.433
       122 -10.6539     45.3205     12.3098   7.8255486083e+01   6.8105589184e+01    0.1270522   0.07981012   0.43 0.0007035294    1.645    0.392
       123 -10.3733    162.2926     11.6918   4.6764039187e+01   4.3112292844e+01    0.1401077   0.09931801 -65.42  0.000335966    1.583    0.368
       124 -10.5188     13.1597    181.3267   1.2584840360e+02   3.4817302270e+01    0.1053736   0.06382425 -69.99 0.0002681793    1.494    0.331
       125 -12.5529    149.3510    177.2479   9.5019041459e+01   1.5931406472e+01    0.5222175    0.3931773 -32.45  0.002665783    1.541    0.351
       126 -12.9400    155.5867    175.8084   9.3368102434e+01   1.5022150750e+01    0.3275851    0.2700526  59.97 0.0006253488    1.281    0.220
       127 -10.8024      4.4575    178.3443   1.2740158913e+02   3.6211455803e+01    0.2333546    0.1244111 -57.70  0.001379398    2.077    0.519
       128  99.0000      2.5938    202.2870   1.2911550779e+02   3.1393238261e+01    0.2760584    0.1472678 -66.79  0.001765943    1.872    0.466
       129 -11.3850      2.8608    173.8624   1.2743919271e+02   3.7307366169e+01    0.1425222   0.09090204  49.57 0.0009489651    1.535    0.349
