#   1 NUMBER                 Running object number                                     
#   2 MAG_AUTO               Kron-like elliptical aperture magnitude                    [mag]
#   3 X_IMAGE                Object position along x                                    [pixel]
#   4 Y_IMAGE                Object position along y                                    [pixel]
#   5 X_WORLD                Barycenter position along world x axis                     [deg]
#   6 Y_WORLD                Barycenter position along world y axis                     [deg]
#   7 A_WORLD                Profile RMS along major axis (world units)                 [deg]
#   8 B_WORLD                Profile RMS along minor axis (world units)                 [deg]
#   9 THETA_WORLD            Position angle (CCW/world-x)                               [deg]
#  10 FWHM_WORLD             FWHM assuming a gaussian core                              [deg]
#  11 ELONGATION             A_IMAGE/B_IMAGE                                           
#  12 ELLIPTICITY            1 - B_IMAGE/A_IMAGE                                       
         1 -11.2885    187.5776     26.0010   6.8330278011e+01   3.5000347033e+01    0.7638435    0.6023315  60.03  0.003389432    1.275    0.216
         2 -11.5779    194.9865     19.0192   6.5028694470e+01   3.3815660135e+01    0.9518212     0.809879 -83.47   0.00505478    1.295    0.228
         3 -11.0542    201.2559     11.3792   6.1834322802e+01   3.2940628684e+01     0.575729    0.3995008  14.58  0.001443366    1.645    0.392
         4  -9.4424     58.1577      6.5256   9.2601247576e+01   6.7298377838e+01    0.2610067    0.1368114 -14.72  0.001000241    2.299    0.565
         5 -10.1633     40.5744      4.4246   9.9477577199e+01   7.0172269274e+01    0.3302538    0.1712531 -23.14  0.001633033    1.976    0.494
         6 -10.4843    210.6647      2.0903   5.8000427866e+01   3.1357074931e+01    0.6303462    0.2572958  73.54  0.002151893    2.510    0.602
         7  -9.4249     70.5482    244.1924   1.3608217249e+02   1.9766253383e+01    0.1587907   0.08601848 -82.03  0.001153369    2.131    0.531
         8 -10.3686    126.5347    249.1979   1.2760445231e+02   1.2189831124e+01    0.2439232    0.1902491  73.88  0.002027381    1.479    0.324
         9 -10.2859    114.5520    248.4013   1.2944267449e+02   1.3851664310e+01    0.3070771    0.1492637 -61.21  0.002052584    2.748    0.636
        10 -16.0861      8.6720    145.0107   1.4113789247e+02   4.3034889749e+01     15.83623     1.834006 -78.24   0.04556346    7.892    0.873
        11 -13.0140    102.7610    228.2122   1.2966515224e+02   1.8100196856e+01     1.660981    0.3440601  42.78  0.007212662    3.366    0.703
        12  -7.7665     63.2812    235.6586   1.3670958262e+02   2.1798560865e+01    0.1015598   0.05336195  63.46 0.0003622239    1.629    0.386
        13  -9.9757     68.8997    234.6022   1.3574396091e+02   2.1317972501e+01     0.224089       0.1496  43.59  0.001366817    1.295    0.228
        14  -8.6636    227.7961    203.8430   1.0509345969e+02   2.5220612343e+00    0.1731849    0.1572575 -34.88 0.0007775303    1.670    0.401
        15 -10.2672     73.0023    192.0240   1.3178783270e+02   2.7641748418e+01    0.3259945    0.2098693 -48.23  0.001571979    2.134    0.531
        16 -10.0925     77.4495    185.2984   1.3029704879e+02   2.8279486252e+01    0.2391135    0.2052643 -56.86   0.00067698    1.439    0.305
        17 -11.9901     83.7766    237.8508   1.3356472576e+02   1.9107865928e+01    0.7356563    0.3730753  77.07  0.002512955    2.614    0.617
        18  -9.5720    114.1948    174.2524   1.2160596854e+02   2.5145212691e+01    0.2397723    0.1834635  60.87  0.001515704    1.252    0.201
        19  -9.9028     85.3173    173.6764   1.2748154020e+02   2.9380775692e+01    0.2473248    0.2180271  53.11  0.001776195    1.133    0.117
        20 -11.6312     73.4191    170.9020   1.2963327068e+02   3.1439614719e+01    0.3917709    0.2517809 -44.72   0.00144542    2.123    0.529
        21 -10.8185     92.0374    165.6347   1.2509881974e+02   2.9975225003e+01    0.4711577    0.3951373 -25.86  0.001739475    1.671    0.402
        22 -10.0494     83.1362    162.8640   1.2665739777e+02   3.1724615225e+01    0.3679538    0.1928693 -73.25  0.001917267    2.120    0.528
        23 -10.5009     72.8568    153.8693   1.2780459172e+02   3.4839843001e+01    0.4826979    0.2569512  75.24  0.002304778    2.562    0.610
        24 -11.7423     67.7079    144.1924   1.2776450080e+02   3.7460164557e+01     0.706986    0.3988534  62.69  0.003479834    1.937    0.484
        25 -10.4201     92.2735    148.4065   1.2267614812e+02   3.3312328237e+01    0.2362403     0.224471 -44.21 0.0005197726    1.237    0.192
        26  -8.3068     83.2309    140.9909   1.2367957687e+02   3.6101431289e+01    0.1630541    0.0985539 -63.71 0.0005797959    1.615    0.381
        27 -11.5587     59.0925    134.1944   1.2852044056e+02   4.0593125825e+01    0.8918208    0.2646055 -70.23  0.003298276    3.726    0.732
        28  -9.5595    113.7477    133.6625   1.1518985449e+02   3.2948301516e+01    0.5293195    0.2349021 -37.14   0.00194413    3.477    0.712
        29  -8.2397    109.1990    122.7479   1.1417587965e+02   3.5944666569e+01    0.1749909    0.1573917 -16.41 0.0004749198    1.294    0.227
        30  -9.1933    102.9673    149.0466   1.2033820780e+02   3.1596581587e+01    0.1989826    0.1834833  68.10  0.001303014    1.010    0.010
        31 -12.7287     49.6775    227.6256   1.3842452625e+02   2.4474213714e+01    0.9386469    0.5584266 -80.71  0.003033875    1.724    0.420
        32  -9.2523    100.5205    132.2382   1.1810556564e+02   3.5379432208e+01    0.2789991    0.2213746 -32.28 0.0007981258    1.538    0.350
        33  -8.9657    168.4029    113.4034   9.8175256857e+01   2.6310217497e+01    0.2881599    0.2556931 -83.37 0.0009220119    1.445    0.308
        34 -11.8566     73.6628    227.1633   1.3446587345e+02   2.1864355331e+01    0.5902517    0.2438809  62.64  0.002681435    2.640    0.621
        35 -13.5778     58.6259    212.0921   1.3597214892e+02   2.5940811810e+01     1.881495    0.8089278  56.79   0.01136044    1.981    0.495
        36 -12.4668    128.2913    230.0575   1.2551517627e+02   1.4404462328e+01    0.8795542    0.4033718  46.55  0.005273039    1.693    0.409
        37  -8.8979    127.5821     53.7853   9.0292369486e+01   4.6107131705e+01    0.2133149     0.136707 -42.71 0.0007327707    1.586    0.369
        38  -8.6342    162.2181    249.6006   1.2195882087e+02   7.3059125739e+00    0.1529365    0.0732317  34.81 0.0003460071    1.679    0.404
        39  -9.7840    142.3604    248.5646   1.2502085996e+02   1.0146846969e+01    0.1944838    0.1574096  -6.64  0.001563209    1.801    0.445
        40 -11.1760    104.6544    244.2395   1.3068570221e+02   1.5654624480e+01    0.3802122    0.2427403  56.76  0.002909319    1.293    0.227
        41 -11.0933     96.5473    245.7000   1.3209124817e+02   1.6475681200e+01    0.3710283    0.2801774  68.36  0.003150076    1.252    0.201
        42  -8.5082    208.0000    246.0357   1.1432567718e+02   1.2735445302e+00    0.1306869   0.05869572 -33.44 0.0005467506    2.894    0.654
