#   1 NUMBER                 Running object number                                     
#   2 MAG_AUTO               Kron-like elliptical aperture magnitude                    [mag]
#   3 X_IMAGE                Object position along x                                    [pixel]
#   4 Y_IMAGE                Object position along y                                    [pixel]
#   5 X_WORLD                Barycenter position along world x axis                     [deg]
#   6 Y_WORLD                Barycenter position along world y axis                     [deg]
#   7 A_WORLD                Profile RMS along major axis (world units)                 [deg]
#   8 B_WORLD                Profile RMS along minor axis (world units)                 [deg]
#   9 THETA_WORLD            Position angle (CCW/world-x)                               [deg]
#  10 FWHM_WORLD             FWHM assuming a gaussian core                              [deg]
#  11 ELONGATION             A_IMAGE/B_IMAGE                                           
#  12 ELLIPTICITY            1 - B_IMAGE/A_IMAGE                                       
         1 -13.0706    162.5231     40.9668   7.8510774862e+01   3.9556176681e+01     1.580991     1.094168 -12.01  0.007395818    1.722    0.419
         2 -11.5707    176.9575     10.6122   6.6743435932e+01   3.9392120125e+01    0.8198192     0.598698 -20.29  0.004402263    1.525    0.344
         3  -9.3745    234.8983      6.3235   5.9717727650e+01   2.5478080935e+01    0.3407067    0.1945531 -36.85  0.000812811    1.626    0.385
         4 -10.4905    148.3074    231.3292   1.2529048975e+02   7.7110331521e+00    0.1854527    0.1528333  49.21 0.0002364976    1.049    0.047
         5 -15.3794    188.3868    227.1146   1.1732144224e+02   1.6774720804e+00     4.385891     3.497278 -35.75   0.02918101    1.494    0.331
         6 -16.5947     61.6813    141.2334   1.3124023233e+02   3.9327791116e+01     7.257173     6.508231  54.43   0.04573133    1.204    0.169
         7  -7.9507    136.1562    198.7515   1.2309593366e+02   1.5283335209e+01    0.1076011   0.08903778 -89.95 0.0002096705    1.361    0.265
         8 -12.7291     25.5653    193.8944   1.4494054021e+02   3.1954331650e+01    0.4300317    0.2194678  70.81  0.002523892    1.753    0.430
         9 -11.2771    131.9410    195.5475   1.2347858338e+02   1.6615720752e+01    0.2432878    0.2023085  85.27  0.001453841    1.306    0.234
        10  -8.5935    122.8056    191.2425   1.2473637098e+02   1.9022855972e+01    0.2218434     0.145084 -60.94 0.0009305551    1.672    0.402
        11  -8.1322    144.4334    191.7115   1.2029182940e+02   1.5109980237e+01    0.1389736    0.1322444 -31.03 0.0002115915    1.208    0.172
        12  99.0000    139.7326    189.1426   1.2085382875e+02   1.6440271232e+01    0.4049098    0.2158332  36.68  0.001864733    1.873    0.466
        13 -10.6836      5.9075    186.3476   1.4818113379e+02   3.5337120027e+01    0.1505078    0.1075483  82.77 0.0002540532    1.026    0.025
        14  -8.7419    101.4411    185.9447   1.2851530011e+02   2.3639613190e+01    0.1389026    0.1217666 -82.28 8.065227e-05    1.135    0.119
        15  -8.5655    154.4618    177.1259   1.1567773516e+02   1.5978878336e+01    0.2501037    0.1912448  76.16  0.000332467    1.650    0.394
        16  -8.7560    157.3809    184.1951   1.1633316010e+02   1.4106038029e+01     0.248891    0.1288118 -55.48 0.0003736594    2.376    0.579
        17 -11.0787    163.7416    202.1583   1.1808146708e+02   9.7730544845e+00    0.4079101    0.2618551 -40.11 0.0004380221    1.807    0.447
        18  -8.8354    143.9551    175.7114   1.1766932136e+02   1.8246663955e+01    0.2992033    0.1693573  47.05 0.0002188123    1.646    0.392
        19  -9.4094    151.6108    181.3698   1.1704127193e+02   1.5717700402e+01    0.3399681    0.2014643  31.49  0.001487566    1.878    0.468
        20  -8.7158    147.0087    180.0039   1.1777499197e+02   1.6841679980e+01    0.4252013    0.2174713 -48.26  0.001903035    2.125    0.529
        21 -16.4671    100.3315    212.0130   1.3206242069e+02   1.8711686142e+01      1.47376     0.573755  42.19  0.006802522    2.218    0.549
        22  -8.4627    131.8015    181.2819   1.2125103783e+02   1.9392991285e+01    0.1550819    0.1461359  25.55 0.0002704714    1.188    0.159
        23 -16.0766     41.2112    193.9212   1.4190638841e+02   3.0257647160e+01     1.141382    0.8377229 -51.53   0.00751225    1.826    0.452
        24 -12.5579    108.5963    178.2347   1.2583009050e+02   2.4058826600e+01    0.2726294    0.2275582  47.79 0.0004134788    1.160    0.138
        25  -8.1880     21.5070    178.0636   1.4456120521e+02   3.5615646291e+01    0.1362705    0.0909115 -81.31 0.0003951471    1.239    0.193
        26  -8.1652    130.9770    176.9648   1.2070660502e+02   2.0402544796e+01    0.1473127    0.1364742  64.13  0.000872986    1.019    0.018
        27  -8.0316    120.6701    176.4893   1.2288992378e+02   2.2344585404e+01    0.1340113    0.1197633  82.46 0.0001426458    1.092    0.084
        28  -8.0277    137.1216    172.8094   1.1863916043e+02   2.0103843246e+01    0.1953523    0.1660659  61.76  0.001096501    1.144    0.126
        29  99.0000    115.1841    170.3406   1.2309978132e+02   2.4584935325e+01    0.5235358     0.318049  85.14  0.002186408    2.651    0.623
        30 -10.3403    113.4973    166.5476   1.2284568291e+02   2.5683158320e+01    0.2307394    0.2248796  69.36 0.0004663724    1.121    0.108
        31  -8.4708     99.0880    173.1705   1.2717842526e+02   2.6691602174e+01       0.1695    0.1546065  78.57            0    1.047    0.045
        32  -7.9190     17.5366    172.7648   1.4496326774e+02   3.7105815618e+01    0.2691356    0.1039868 -84.67  0.001301501    2.397    0.583
        33 -15.7440    117.5692    231.5285   1.3101209480e+02   1.2604028540e+01    0.9940073    0.4901403  51.58  0.005314555    1.732    0.423
        34 -11.0320    104.7893    168.3299   1.2513122934e+02   2.6790647805e+01    0.4552431    0.3789617  88.26  0.001210657    1.184    0.155
        35  -8.5352    143.9748    169.3880   1.1651401889e+02   1.9491389128e+01    0.3141853    0.1545467  47.72  0.001013658    1.939    0.484
        36 -10.4966     21.3106    168.0994   1.4380015216e+02   3.7749131116e+01    0.1853577    0.1479442  68.84 0.0002758832    1.157    0.135
        37  -8.1002    155.4996    168.1126   1.1376702361e+02   1.7506424904e+01    0.2000689    0.1420355 -46.62 0.0006119051    1.501    0.334
        38  -8.1418    150.8709    167.1147   1.1457822830e+02   1.8607689604e+01    0.2100022    0.1806496  77.48 0.0002978183    1.291    0.225
        39  -8.6515      5.9787    166.1198   1.4685667559e+02   3.9513654895e+01    0.1544336     0.117562  88.01 0.0002809058    1.046    0.044
        40 -16.9022    105.7060    240.1841   1.3408795410e+02   1.2981303083e+01     1.487695    0.8698537 -88.83  0.008411826    2.320    0.569
        41 -19.6986     67.3184    230.8699   1.4009067152e+02   1.9962338586e+01     5.677073     3.321176  46.58   0.03638248    1.441    0.306
        42  -8.7780    140.1407    203.6706   1.2302433355e+02   1.3696297350e+01    0.1550619    0.1309301  49.10 0.0002800483    1.028    0.028
        43  -9.3259    132.9977    229.4283   1.2789701413e+02   1.0503213982e+01    0.1274673   0.09726265  53.83 0.0001705275    1.111    0.100
        44 -10.4638    246.0170    144.3163   9.1314850821e+01   3.5661138296e+00    0.3242435    0.1853545 -31.37 0.0009639337    1.613    0.380
        45 -10.6272    244.1043    125.3612   8.7377179308e+01   6.8354990563e+00    0.4369884    0.2340325  46.80  0.002025316    1.985    0.496
        46 -10.8743    249.4998    131.8968   8.8011097149e+01   4.7826944150e+00    0.5332438    0.2663649 -25.38  0.002346435    2.033    0.508
        47  -8.3954    151.0408    216.9611   1.2281606761e+02   9.5394186460e+00    0.1666554     0.154654  29.98  0.000404729    1.150    0.130
        48 -10.2309    234.7493    130.1411   8.9987013919e+01   7.9590014409e+00    0.2874242    0.2466698  33.58 0.0009073188    1.201    0.168
        49  -9.4434    161.0889    127.7354   1.0377492876e+02   2.4404711486e+01    0.5061529    0.3502889 -87.18  0.001789212    2.412    0.585
        50  -9.9164    247.6811    119.6719   8.5517707563e+01   7.0037812250e+00    0.2200885    0.1851553  -6.88 0.0007867913    1.176    0.150
        51 -10.5840    249.1423    116.2892   8.4518041300e+01   7.2321951295e+00    0.5532316    0.2912895  58.02  0.002488788    2.308    0.567
        52  -9.3702    238.0280    110.7088   8.4910751325e+01   1.0376266064e+01    0.1947287    0.1882278   1.54 0.0007713502    1.078    0.072
        53  -9.0111    196.6254    107.0513   9.1147449880e+01   2.0229509540e+01    0.2732202     0.220105  52.78 0.0004676309    1.278    0.217
        54  -9.4988     86.6874    204.2193   1.3387267038e+02   2.2244977649e+01    0.1250038   0.09717289  58.31            0    1.096    0.087
        55 -10.0553      6.1305    202.8460   1.4906759037e+02   3.2061904736e+01    0.1208346   0.09225328  79.74            0    1.115    0.103
        56  -8.6500     39.0057     84.9434   1.2746503407e+02   5.4902009532e+01    0.1879172    0.1590504 -61.68 0.0003381246    1.052    0.050
        57  99.0000      5.9241    198.2698   1.4885850411e+02   3.2968404115e+01    0.2635627   0.08945962 -88.84  0.001037011    2.745    0.636
        58  -6.3889      2.2496    201.4252   1.4967763142e+02   3.2682542422e+01    0.1486454   0.08502198 -81.10  0.001025413    1.445    0.308
        59 -10.2337    164.5748     64.4182   8.5483513347e+01   3.5503964630e+01    0.3842337    0.2778711  12.37  0.001694692    1.862    0.463
        60 -11.1430    150.8506     57.0110   8.6031365239e+01   4.0125401110e+01     0.459464    0.3834338  -6.32  0.001573764    1.333    0.250
        61  -8.7885    245.1622     54.7800   7.0377897111e+01   1.7208080773e+01    0.2193591    0.1905584 -27.21 0.0004448994    1.186    0.157
        62 -11.6789    136.7777    243.8466   1.2892151420e+02   7.6546398958e+00    0.3835481    0.1523969  39.29  0.001594891    2.130    0.530
        63  -7.5925    130.2971     55.6677   9.0346436252e+01   4.5294720969e+01    0.1496436    0.1169593 -68.66   0.00020336    1.643    0.391
        64  -9.6528    140.4686     32.2003   7.9876993919e+01   4.6274369547e+01    0.2710692    0.2313548  40.42 0.0003705265    1.128    0.114
        65  -9.6637    149.5441     31.0365   7.7669089568e+01   4.4153594777e+01    0.2925779     0.204328  83.32  0.001379868    1.708    0.415
        66  -7.7516    139.2695     27.3063   7.8398340078e+01   4.7178416412e+01    0.1440527     0.103413  26.60 0.0001587109    1.537    0.349
        67 -10.3051    138.6526    238.6875   1.2797904978e+02   8.1393528519e+00    0.2508639    0.1796809 -27.45 0.0007750927    2.169    0.539
