#   1 NUMBER                 Running object number                                     
#   2 MAG_AUTO               Kron-like elliptical aperture magnitude                    [mag]
#   3 X_IMAGE                Object position along x                                    [pixel]
#   4 Y_IMAGE                Object position along y                                    [pixel]
#   5 X_WORLD                Barycenter position along world x axis                     [deg]
#   6 Y_WORLD                Barycenter position along world y axis                     [deg]
#   7 A_WORLD                Profile RMS along major axis (world units)                 [deg]
#   8 B_WORLD                Profile RMS along minor axis (world units)                 [deg]
#   9 THETA_WORLD            Position angle (CCW/world-x)                               [deg]
#  10 FWHM_WORLD             FWHM assuming a gaussian core                              [deg]
#  11 ELONGATION             A_IMAGE/B_IMAGE                                           
#  12 ELLIPTICITY            1 - B_IMAGE/A_IMAGE                                       
         1 -13.2976     42.1041     45.7355   9.5184045827e+01   6.2966203646e+01    0.8719568    0.6658101  46.61 0.0006857851    1.782    0.439
         2 -12.1129    124.9210     27.8563   6.0475707210e+01   5.0780942514e+01    0.7494784    0.4694779  40.95  0.002095719    1.542    0.351
         3 -11.9564    120.6284     57.5204   7.2313228905e+01   4.7334695272e+01     2.074429     1.380764 -80.57  0.007867739    3.019    0.669
         4 -12.8787    116.8207     42.7035   6.8050331831e+01   5.0606341279e+01     1.050994    0.8030959  83.87   0.00509879    1.857    0.461
         5 -11.4364     40.6724      5.9153   7.8596643449e+01   6.9636954572e+01    0.4720684    0.2288722 -17.11    0.0013249    2.313    0.568
         6  99.0000      6.5198     33.7800   1.0710249790e+02   6.8224426189e+01     1.326375    0.3527054 -48.51  0.006163853    2.413    0.586
         7 -10.7432     22.4472      5.0268   8.7185812863e+01   7.1932450282e+01    0.2839064    0.1974348 -46.37 0.0003543665    1.819    0.450
         8 -10.6759     47.1980     19.0471   8.2138299732e+01   6.6932007802e+01    0.3655905    0.2662914 -27.25  0.001426231    1.214    0.176
         9 -11.7547     36.3868     19.1098   8.7067979380e+01   6.8290302938e+01     0.637476    0.4378642 -31.84  0.004057117    1.241    0.194
        10 -12.4814     48.7187     12.9879   7.8581666635e+01   6.7579969805e+01    0.7175524     0.314381  37.57  0.003562097    2.309    0.567
        11 -11.2247     32.5828     12.5481   8.5795777142e+01   6.9731534433e+01    0.2242435    0.1993618  31.74  0.000571134    1.579    0.367
        12 -11.3163     14.2455     23.6456   9.9835482835e+01   6.9625365819e+01    0.3155514    0.2131562 -27.39 0.0002537826    1.209    0.173
        13 -11.7050     19.9996     22.3325   9.6431393730e+01   6.9404054162e+01    0.5978217    0.2404846 -44.05  0.002131825    1.939    0.484
        14 -13.0523     18.9956     12.5090   9.2677897256e+01   7.1128909602e+01    0.9905455    0.5673227   1.36  0.003862822    1.910    0.476
        15 -12.2461    130.7103     15.2556   5.4514931394e+01   5.0824297530e+01     1.665647    0.6265678  57.42  0.006578771    2.280    0.561
        16 -11.0706    154.9373     23.7005   5.2876662912e+01   4.3825229771e+01    0.8794083    0.5666057  30.72  0.004094103    1.836    0.455
        17 -12.7542    162.9674     28.2117   5.2954512942e+01   4.1228586781e+01    0.7626445    0.5227427  42.50 0.0008176576    1.507    0.337
        18 -11.3518    137.6565     22.2390   5.5639279784e+01   4.8352368241e+01    0.9482515    0.3026411  48.43  0.002956683    2.839    0.648
        19 -10.5039    146.5932     16.5094   5.1929331255e+01   4.6741316098e+01    0.5260281    0.3811871  56.88  0.002774004    1.249    0.199
        20 -10.9968    178.5429     21.3029   4.8378912267e+01   3.8021933051e+01    0.6412873    0.3943022  28.47  0.002849368    2.224    0.550
        21 -11.2658    182.9897     25.1343   4.8886885324e+01   3.6431706047e+01    0.6080258    0.4654057  40.96  0.003201918    1.433    0.302
        22 -10.8661    139.3601     32.8047   5.9028181742e+01   4.6637396270e+01    0.5297004     0.479733  12.66   0.00173921    1.138    0.121
        23 -11.8560    105.9806     20.3008   6.2259775206e+01   5.6056187981e+01    0.4340777    0.3115941 -20.62 0.0003907534    1.425    0.298
        24 -10.9852    198.5534     28.6800   4.7792181817e+01   3.2023694443e+01    0.5556232    0.4000831 -15.19  0.002359916    1.670    0.401
        25 -10.8675    214.6521     23.1817   4.4397677599e+01   2.8671600017e+01    0.4873596    0.3659136   1.77  0.002565239    1.846    0.458
        26 -10.4984     87.1694      7.5690   6.2049651786e+01   6.1453261393e+01    0.5616885    0.3290367  54.61  0.002264397    1.702    0.413
        27 -11.3421     90.8850     20.8142   6.6782276441e+01   5.9206383461e+01    0.6479652    0.4589644 -12.55  0.003556056    1.415    0.293
        28 -11.5303     86.0100     14.1651   6.5370818580e+01   6.0980342192e+01    0.6219254    0.3416294 -14.34   0.00192369    1.979    0.495
        29 -11.1908    164.8925     17.9772   4.9375206454e+01   4.1909657360e+01     0.507113    0.2841113  33.63  0.001697999    2.259    0.557
        30 -11.8188     26.8766     27.8692   9.5311393497e+01   6.7822608531e+01    0.5185716    0.4360254   3.29  0.003694446    1.257    0.205
        31 -11.9257     68.1808     17.9923   7.3172405616e+01   6.3837255749e+01    0.4821984    0.4119918   1.55  0.001804233    1.045    0.043
        32 -12.0410    237.8871     15.7267   4.0302439732e+01   2.4018897427e+01    0.6220827    0.4128706  64.21   0.00260607    1.554    0.356
        33 -10.2167    226.0340     15.5354   4.1320292715e+01   2.6809912559e+01    0.3689608    0.2154155 -43.15  0.001462529    1.566    0.362
        34 -12.2572    104.6491     12.7746   5.9507829292e+01   5.7185070188e+01    0.5773427    0.4877456   2.14  0.001980126    1.165    0.142
        35 -10.9785    114.3023      3.3463   5.3375966706e+01   5.5875430317e+01     1.193208   0.02858028  54.31  0.003281098    5.076    0.803
        36 -10.9535    106.1590      1.7906   5.4556115507e+01   5.7880708571e+01    0.6916388    0.1930374  62.16   0.00213229    3.456    0.711
        37 -10.0324     62.7556      6.7720   6.9812431027e+01   6.6138516754e+01    0.3458781    0.2084986  -3.23  0.001514878    1.746    0.427
        38  -9.7448     61.8443     11.8278   7.2646545196e+01   6.5694648962e+01    0.2645796    0.1517832 -27.41 0.0004721027    1.644    0.392
        39 -10.1830     65.9608     10.1448   7.0277768267e+01   6.5197329512e+01    0.3497718    0.1836747  44.46   0.00116807    1.864    0.464
        40 -11.4496    211.9139      9.7737   4.1226794097e+01   3.0852992852e+01    0.4525619    0.3115571   6.36 0.0009436505    2.190    0.543
        41 -11.3233    192.5162      7.5890   4.2661492638e+01   3.5912406911e+01    0.6203593    0.4023934  11.78  0.002847284    2.312    0.567
        42  -8.9625     94.5097     12.1487   6.1968256367e+01   5.9452372657e+01    0.1756584    0.1251201 -18.92 0.0004094708    1.420    0.296
        43 -11.9598    233.8586      6.9890   3.8598137806e+01   2.5918347514e+01    0.8593763    0.4227872  87.60  0.004077877    2.100    0.524
        44 -11.9145    247.1519      6.6762   3.7505200962e+01   2.2941059854e+01    0.5343218    0.4358528   4.76  0.002416782    1.788    0.441
        45 -10.8452    241.9898      3.9726   3.7281150272e+01   2.4385464848e+01     0.388955    0.1920669  88.84  0.001903943    2.059    0.514
        46 -10.9398    218.8368      3.3731   3.8984891384e+01   2.9838468184e+01    0.3204725    0.2817321 -50.37  0.001182219    1.159    0.137
        47 -10.9434    223.5426      1.9897   3.8252957908e+01   2.8856677108e+01    0.5431675    0.2301261  81.63  0.002380917    2.356    0.576
        48  -9.9773    169.0841      9.7219   4.6180416808e+01   4.1683278968e+01    0.3761326    0.1729619  49.68  0.001597253    2.112    0.527
        49  -9.1763    163.2813      9.6848   4.6987157722e+01   4.3175309864e+01    0.2361165    0.2176712  82.32  0.001155395    1.043    0.042
        50  -8.6208    162.6541      6.2231   4.5980355134e+01   4.3664445847e+01    0.2935742    0.2453522  35.09  0.001330425    1.282    0.220
        51  -9.2484      1.1357      7.3751   1.0023971413e+02   7.3300464773e+01    0.1872551   0.05239586 -49.52    0.0006346    2.623    0.619
        52 -10.3605    183.2772      4.9899   4.2975953800e+01   3.8509840280e+01    0.3478594    0.2507542 -40.55   0.00148264    1.432    0.302
        53  -9.5064    153.3156      7.1577   4.7655046970e+01   4.5959762968e+01    0.3072911    0.1549351  52.94  0.001392616    1.765    0.433
        54  -9.1695     78.4941      7.4928   6.4685325952e+01   6.3187580341e+01    0.2245547    0.1676347  43.82 0.0006719636    1.293    0.226
        55 -10.5236     76.5768      3.7126   6.3505971778e+01   6.3941423447e+01    0.3875023    0.2230277  -5.83  0.001644576    1.858    0.462
        56 -10.6056     72.9988      2.7596   6.4210524204e+01   6.4717319472e+01      0.49719    0.2274521  29.91  0.002268115    2.332    0.571
        57 -10.6029    176.3871      5.3611   4.3908954901e+01   4.0231770533e+01    0.5021513    0.2509832  83.80  0.001218206    2.166    0.538
        58  -9.0951    169.8375      3.2589   4.4099031024e+01   4.2099236092e+01    0.2946405    0.1217557 -56.74  0.001051328    3.419    0.708
        59  -9.9270     50.2206      6.2259   7.4537449229e+01   6.8227134028e+01    0.2009658    0.1516974  29.24 0.0005424722    1.300    0.231
        60 -10.5393    142.1385      3.3924   4.8152613389e+01   4.9115738240e+01    0.4028627    0.2436869  53.66  0.001537267    1.446    0.309
        61 -11.6544    133.5254      2.8065   4.9412242920e+01   5.1303808259e+01    0.4222437    0.2697288  56.13  0.001515075    1.355    0.262
        62  -9.7627    207.4438      3.0976   3.9939621407e+01   3.2634911837e+01    0.2664523    0.1768452  86.05  0.001167908    1.392    0.282
        63  -9.1482    157.5733      2.7697   4.5592525540e+01   4.5271058286e+01    0.2326451    0.1697993  47.79  0.001269421    1.318    0.241
        64  -8.9932    161.0071      1.0000   4.4553840137e+01   4.4550232777e+01    0.3179143   0.07504117  64.88  0.001060189    3.222    0.690
        65 -11.1798      3.2537      1.7952   9.6410615527e+01   7.4062884890e+01    0.3849052    0.1679737   9.87  0.002144921    2.653    0.623
        66 -10.3188     12.9185      1.8322   9.0778006731e+01   7.3303196697e+01    0.2468366    0.1403482  12.40  0.001197446    1.788    0.441
        67  -9.9720     82.1240      1.3214   6.0655730360e+01   6.3074850211e+01    0.1761453     0.106138  50.99 0.0003820415    1.549    0.354
        68  -8.4859     34.3058      1.2795   7.9136563792e+01   7.1064673660e+01    0.1177904   0.07318331   0.59  0.000392237    1.554    0.356
        69  -9.2245    234.2139    150.6086   7.3078796373e+01   4.3613325947e+00    0.1975603    0.1233723  32.90 0.0009550418    1.686    0.407
        70 -10.2609    142.9693    249.2645   1.0772322643e+02   4.7134462566e+00    0.1836183    0.1739273  61.34  0.001390278    1.225    0.184
        71  -9.6941    239.8467    146.7221   7.1250204687e+01   3.9243058448e+00    0.2331373    0.1757326 -17.29  0.000637787    1.258    0.205
        72 -10.6776    249.6198    142.4948   6.8694470847e+01   2.7777714731e+00     0.641919    0.2207106 -32.45  0.002401842    2.733    0.634
        73 -10.7801     33.2283    144.4366   1.1867738741e+02   4.1412539102e+01    0.3930338    0.2522349  50.44  0.001923599    1.602    0.376
        74 -10.5409    133.3248    140.9966   9.2314084913e+01   2.7092972056e+01    0.3573878    0.3048445 -65.26  0.001837866    1.216    0.178
        75 -11.9756     23.9939    136.3353   1.2007818834e+02   4.4156206512e+01    0.7450238    0.4944883  53.37  0.004245542    1.574    0.365
        76 -12.2616     29.9586    132.8950   1.1812438607e+02   4.4434550638e+01    0.4189823    0.2721466 -89.53 0.0002969427    1.425    0.298
        77 -10.1314     80.0084    136.5149   1.0526966992e+02   3.7570642886e+01    0.3947991    0.3131979 -21.22  0.002069612    1.714    0.417
        78 -10.3174     47.3892    135.6637   1.1388506138e+02   4.2013686354e+01    0.4506493    0.1756144 -63.91  0.001291773    2.146    0.534
        79 -10.5181     39.6976    137.5195   1.1616825266e+02   4.2394466566e+01    0.2501183    0.2353031 -53.40  0.001693181    1.263    0.208
        80  -9.1076    192.3533    136.2128   7.7750575986e+01   1.5480136280e+01    0.2152547     0.136841 -47.10 0.0008730337    1.652    0.395
        81  -8.9752    216.5590    135.0375   7.2741739917e+01   1.0518130802e+01    0.2202361    0.1369982 -35.57 0.0004851541    1.534    0.348
        82  -9.8947     93.3139    134.8434   1.0137466291e+02   3.5882017897e+01    0.3885407    0.1388097 -57.61 0.0008334572    2.723    0.633
        83  -9.9639     92.6966    129.1481   1.0038935913e+02   3.7337523652e+01    0.3424093      0.26988 -89.93  0.001571146    1.408    0.290
        84 -10.4262     67.7969    135.6883   1.0841425445e+02   3.9501657832e+01    0.3985918    0.2566987 -39.57  0.001827595    1.896    0.473
        85  -9.3744    244.6746    134.3226   6.7681390379e+01   4.9974839222e+00    0.1353088    0.1069935 -62.35 0.0007047835    1.686    0.407
        86 -10.2616     62.6613    131.8804   1.0916573234e+02   4.1092811220e+01    0.4152558    0.2984485 -32.64  0.002170592    1.801    0.445
        87 -11.0089     10.9567    126.8724   1.2240465696e+02   4.7379833305e+01    0.5623934    0.1840115 -57.38  0.001966254    2.504    0.601
        88  -9.4817    103.6477    130.5896   9.7719002983e+01   3.5121246607e+01    0.2557684    0.1463761  34.74 0.0004243914    1.929    0.482
        89 -10.5307     80.9893    126.1084   1.0301578526e+02   3.9917207647e+01    0.5899808    0.3736765 -25.81  0.002503589    2.526    0.604
        90  -9.0350    223.9966    126.9461   6.9493069850e+01   1.0372678132e+01    0.2210592    0.1720111 -62.96 0.0004963478    1.635    0.389
        91  -9.8833     22.9909    126.9461   1.1923662798e+02   4.6441953686e+01     0.181692    0.1459026 -83.58  0.001193796    1.044    0.042
        92  -9.6353      2.4879    126.2199   1.2452315162e+02   4.8092983406e+01     0.279824    0.1435884  79.48  0.001455997    1.942    0.485
        93 -10.7245     55.9732    123.6493   1.0962293046e+02   4.3905452587e+01    0.5274618    0.4053811  17.49  0.002326571    1.661    0.398
        94 -10.9605     45.6398    120.3637   1.1201492765e+02   4.5868449960e+01    0.6372579    0.3164038 -85.79  0.002239347    2.728    0.633
        95 -10.0513     18.7350    124.3983   1.2007002975e+02   4.7380261714e+01     0.284689     0.128827 -65.81  0.001039312    1.720    0.419
        96  -8.9566    107.8122    145.8418   9.9743996832e+01   3.0816361422e+01    0.2059353     0.166388  76.90 0.0008659213    1.334    0.251
        97 -11.9843    104.2067    122.1145   9.5691944573e+01   3.7011843079e+01    0.4391113    0.4267468 -18.57 0.0009768879    1.120    0.107
        98  -9.5752     67.3917    124.1061   1.0646372469e+02   4.2342384805e+01    0.2977184    0.2143226  -0.77  0.001465278    2.121    0.529
        99 -10.0011      4.7138    120.7020   1.2340194638e+02   4.9218824921e+01    0.2716912    0.1739025 -81.35 0.0008590636    1.229    0.187
       100  -9.2499    221.1607    120.3851   6.8429918363e+01   1.2112404053e+01    0.1962398     0.143259  63.45 0.0006522064    1.660    0.398
       101  -9.1658    148.2327    119.9307   8.3656020591e+01   2.8589624878e+01    0.2549472    0.1814465 -15.41  0.000674365    1.949    0.487
       102  -9.1758     71.9504    120.2532   1.0441615139e+02   4.2642588977e+01    0.2170874    0.1592373 -17.38  0.001031255    1.948    0.487
       103 -10.5479     33.1811    119.1341   1.1537669069e+02   4.7401557688e+01    0.3000387    0.2403794  74.61   0.00188784    1.281    0.219
       104  -9.4165    184.8719    118.8637   7.5060677084e+01   2.0500739514e+01    0.2171411    0.1902274 -72.98  0.001069431    1.320    0.242
       105  -8.6675     13.6870    118.7500   1.2076904171e+02   4.9073455895e+01    0.1141798   0.07788143 -48.42 0.0002073717    1.518    0.341
       106  -9.6317     80.1267    115.1376   1.0097511123e+02   4.2672883001e+01    0.4680796    0.2500894 -78.47   0.00167128    3.168    0.684
       107 -10.0825    113.3268    115.9688   9.1726336862e+01   3.6738161784e+01    0.2653114    0.2253734  30.35 0.0002535068    1.279    0.218
       108  -8.3294     49.7058    122.6628   1.1123482673e+02   4.4870775275e+01    0.1369687    0.1163849 -71.87 0.0008259242    1.010    0.010
       109 -11.6294      2.3260    112.1496   1.2314620734e+02   5.1326701910e+01    0.5106269    0.2868221  59.84  0.002225685    2.005    0.501
       110 -11.6919      3.7133    105.7610   1.2203257390e+02   5.2714440943e+01    0.4298192    0.3331313 -83.67   0.00206147    1.106    0.096
       111 -10.5512    107.9019    112.0925   9.2274660903e+01   3.8662798031e+01    0.5263656    0.3698804 -81.58  0.001913567    1.981    0.495
       112 -10.9107    102.3749    108.9602   9.3062040952e+01   4.0408500857e+01    0.6267038    0.5267701 -12.58  0.003204456    1.430    0.301
       113  -9.7637     67.3188    113.9874   1.0450591806e+02   4.4783866037e+01    0.3288055     0.214987  82.30  0.001508616    2.108    0.526
       114  -9.7350     67.0071    110.7634   1.0393082663e+02   4.5597126135e+01    0.2843964    0.2150824  27.00  0.001536001    1.541    0.351
       115 -10.5925     42.3430     94.0021   1.0816959039e+02   5.2473833019e+01    0.4589095    0.3329664  76.71  0.002537232    1.728    0.421
       116 -11.0778     17.1160    100.8578   1.1740019872e+02   5.3005859339e+01    0.3380584    0.2178001 -55.81 0.0003816066    1.308    0.236
       117 -11.6232      9.5114     97.0728   1.1918460066e+02   5.4375395696e+01    0.7723981    0.4699728 -87.40  0.004321019    1.587    0.370
       118 -12.0087      7.2976     88.8672   1.1868881626e+02   5.6383436511e+01    0.5350395    0.4277448  27.70  0.002120617    1.583    0.368
       119 -11.6090     34.9094     92.3126   1.1026765543e+02   5.3580083662e+01     1.648753    0.6015742 -69.91  0.006348055    2.936    0.659
       120 -12.2598     42.1877     85.3879   1.0635787192e+02   5.4485573040e+01     1.667696    0.5464395  21.50  0.005964551    4.463    0.776
       121 -11.3716     22.3712    114.0622   1.1773601302e+02   4.9523951248e+01    0.4541597      0.26118   7.66  0.002224611    2.601    0.616
       122 -11.0763     28.4917    113.0494   1.1582294823e+02   4.9261269131e+01    0.3067312    0.2579491 -18.14  0.001197384    1.514    0.340
       123 -12.6644     25.3542    107.2263   1.1586970310e+02   5.0896356929e+01    0.9873078    0.6900932 -38.89  0.004980424    1.577    0.366
       124 -12.0657     18.7444    106.1875   1.1768757407e+02   5.1646391968e+01    0.2679653    0.2082343 -55.06 0.0002429966    1.197    0.165
       125 -11.8892     21.9743     94.9643   1.1494938108e+02   5.4027568666e+01    0.6779614    0.4057575   2.92  0.003694712    2.374    0.579
       126 -12.4696     18.3361     89.7704   1.1524656256e+02   5.5489305022e+01    0.5440527    0.2551613 -47.40  0.001140632    1.890    0.471
       127  -9.2995    126.8646    113.8035   8.7532296576e+01   3.4519724016e+01     0.237098    0.2146803  -7.07  0.001090094    1.238    0.192
       128 -11.1321    171.1026    110.1684   7.5782425889e+01   2.5408856444e+01    0.6173014    0.4557554  32.11  0.002082773    1.505    0.335
       129  -9.7720     48.6778    112.3050   1.0973609203e+02   4.7469610979e+01    0.2286019    0.2029655  62.85   0.00142859    1.231    0.188
       130 -11.2553     79.6932    108.3501   9.9584014287e+01   4.4350928422e+01    0.6902366    0.4006019  38.80  0.002294122    1.856    0.461
       131 -10.5503     90.7224    104.0505   9.5245756596e+01   4.3590204827e+01    0.4510455    0.3606297   5.19   0.00158198    1.588    0.370
       132 -10.3586     85.8913    103.8716   9.6652321899e+01   4.4429617269e+01    0.4055698    0.2905427 -19.85  0.001062694    1.872    0.466
       133  -9.7086    120.4778    109.9775   8.8260748871e+01   3.6687375550e+01    0.3262765    0.2165487 -51.76  0.000978959    1.494    0.330
       134  -9.1438    122.9953    107.2469   8.6862486079e+01   3.6783346176e+01    0.2207383    0.1969174  41.32 0.0004311149    1.153    0.132
       135 -10.5157    157.6282    106.3667   7.7845776975e+01   2.9321331097e+01    0.4331884    0.3104627 -14.13  0.001491908    1.855    0.461
       136 -10.4109    143.4874    105.9634   8.1172433643e+01   3.2637003431e+01    0.3418933    0.3187698 -66.42   0.00163221    1.116    0.104
       137 -11.9524    145.3518    100.7091   7.9263809443e+01   3.3321292756e+01    0.5960918    0.5498952  21.33  0.002411507    1.142    0.125
       138 -10.2802     57.7087    102.9544   1.0513224480e+02   4.8650442492e+01    0.3812653    0.1846877 -62.48  0.001332023    1.888    0.470
       139 -10.3689     57.1330     97.8380   1.0420192403e+02   4.9928082044e+01    0.2514591    0.2094853  16.28  0.001469908    1.420    0.296
       140  -9.5424     82.4642    102.3086   9.7309282702e+01   4.5341328555e+01    0.3248574    0.1692323 -35.68  0.001274959    2.409    0.585
       141 -10.6911     51.5596     97.0388   1.0581788901e+02   5.0772420560e+01    0.9427111    0.2604255 -60.77  0.003224788    3.231    0.690
       142  -9.3462     48.0000     90.9930   1.0565667623e+02   5.2581361310e+01    0.2275749    0.1731651 -58.43  0.001150517    1.126    0.112
       143  -9.5253    120.9336    101.0539   8.5756479869e+01   3.8579451429e+01    0.2484358    0.1932251  -6.64  0.001131882    1.684    0.406
       144 -10.4966     64.7588     99.3518   1.0211580082e+02   4.8602595512e+01    0.3970959    0.2640237   1.15    0.0018534    2.294    0.564
       145 -10.5540     67.9045     95.2917   1.0015304538e+02   4.9126142406e+01    0.3977566     0.343466  35.67  0.001765158    1.291    0.225
       146 -10.0469    210.6718     97.6083   6.4605109678e+01   1.8453743325e+01    0.3823564    0.3046093  21.75  0.001886601    1.487    0.327
       147  -9.9669     81.4851     97.6202   9.6440921239e+01   4.6583756461e+01    0.2089443    0.2048499  13.43 0.0001044528    1.107    0.097
       148  -9.6242     77.3321     97.0503   9.7594660127e+01   4.7355808329e+01    0.3025452    0.2298821 -34.10 0.0005648827    1.376    0.273
       149 -11.1355     89.7521     89.5396   9.1707970964e+01   4.7062372106e+01    0.7258582    0.3345644 -39.67  0.002791016    2.279    0.561
       150 -10.6040     82.5519     93.2336   9.4970091355e+01   4.7421245544e+01    0.4488532    0.2841702  40.40  0.001267912    1.709    0.415
       151 -10.6800     76.8367     92.9300   9.6701209465e+01   4.8379904654e+01    0.5696676    0.3705373 -17.97  0.002267011    2.284    0.562
       152  -9.6907     46.0551    105.2552   1.0922232726e+02   4.9435163812e+01    0.3496123    0.1537161 -45.87  0.001512207    2.256    0.557
       153 -10.2920    103.8925     77.3103   8.3718504882e+01   4.7094752817e+01    0.6231243    0.3668107 -37.05  0.002714638    1.688    0.408
       154 -10.0328    117.4227     93.1845   8.4526167402e+01   4.1019103204e+01    0.3420223    0.2666841  17.32  0.001317833    1.552    0.356
       155 -11.7333    101.7836     90.1016   8.8185230668e+01   4.4775830327e+01    0.7161892    0.5839911   9.10  0.002026539    1.456    0.313
       156 -10.8094    124.4796     93.6800   8.2713042003e+01   3.9430837626e+01    0.6904522    0.3501797  43.86  0.002689647    2.023    0.506
       157 -11.2888    121.0646     86.9034   8.1669685867e+01   4.1589004706e+01     0.626866    0.4725821 -49.37  0.002993632    1.335    0.251
       158 -11.0431    113.3748     84.0876   8.3001822155e+01   4.3785581806e+01    0.6700131    0.3878928 -36.82  0.002121379    1.756    0.430
       159 -10.7967    109.3266     80.5463   8.3101284820e+01   4.5346401494e+01    0.3686972    0.3053259 -12.82  0.001061689    1.338    0.252
       160  -9.7113    160.1953     93.6404   7.3718628367e+01   3.1279189349e+01    0.4113962    0.2461838  71.36  0.001488992    2.556    0.609
       161  -9.2199    138.2589     93.1160   7.8901680865e+01   3.6511870065e+01    0.3560545    0.2431437  16.95  0.001430689    2.137    0.532
       162 -10.6376    152.3896     91.5748   7.4956017655e+01   3.3546125974e+01    0.4543841    0.3942523  78.32  0.002036951    1.304    0.233
       163  -9.8967     66.7662     88.6136   9.8854656741e+01   5.0821436264e+01    0.3551771    0.2295773 -24.76  0.001256285    1.985    0.496
       164  -9.8232     99.0315     61.6114   8.0055259872e+01   5.1146362599e+01    0.3451153    0.1998668 -32.50 0.0007325282    1.752    0.429
       165 -12.1617     89.7095     59.4588   8.2295754220e+01   5.3318598723e+01    0.9531398    0.8149546 -43.34  0.005122209    1.193    0.162
       166 -12.4362     74.9284     50.8408   8.4283398274e+01   5.7492484871e+01      1.28882    0.7479634 -49.50  0.006102547    1.865    0.464
       167 -10.2354     93.6896     76.6007   8.6654561036e+01   4.9168454899e+01    0.6492072    0.3375158  33.38  0.002129033    2.194    0.544
       168 -10.4052     67.3325     81.9377   9.6894055069e+01   5.2250729072e+01    0.4022364      0.33299 -19.71   0.00211544    1.290    0.225
       169 -11.5665     85.7196     73.6676   8.8308995018e+01   5.1187482715e+01     0.614328    0.5115594  36.22  0.002616695    1.283    0.220
       170 -11.1914     79.7976     67.6096   8.8360866954e+01   5.3432289765e+01     0.524445    0.4769861 -87.63  0.001911365    1.388    0.279
       171 -11.1144     79.0839     83.1119   9.3307634459e+01   5.0243846051e+01    0.5859592    0.5202845 -81.07  0.002653083    1.310    0.237
       172 -11.5494     73.5717     77.8972   9.3640397926e+01   5.2236757901e+01    0.6686586    0.4724751 -18.60  0.003324361    1.714    0.417
       173  -8.9130    199.9306     88.0030   6.3996993940e+01   2.2682080706e+01    0.1813871    0.1791987 -69.61 0.0005375491    1.031    0.030
       174 -10.3987    183.7083     85.8430   6.6480229639e+01   2.7023550482e+01    0.7092669     0.301089 -45.72  0.002464837    2.462    0.594
       175 -10.5165    165.6306     83.4540   6.9563158463e+01   3.1913127280e+01    0.4516491    0.3667823 -51.29  0.001584792    1.270    0.213
       176 -11.2065    142.9399     84.0223   7.5036031579e+01   3.7266547953e+01    0.4073496    0.3641841  38.92 0.0006786806    1.132    0.117
       177 -10.2994    127.2942     83.0474   7.8799196481e+01   4.1029076740e+01    0.3798567    0.2786596 -41.90  0.001468755    1.339    0.253
       178 -10.5156    127.3458     77.3703   7.7030637936e+01   4.2149074941e+01    0.4201633     0.279108 -52.77  0.001089249    1.668    0.400
       179  -9.8591    124.2213     73.3523   7.6604316272e+01   4.3627275272e+01    0.3473739    0.2530385  63.09  0.001447211    1.626    0.385
       180 -10.7967    120.2459     68.9913   7.6285586362e+01   4.5338352112e+01    0.3507921    0.3191281  77.93 0.0007790892    1.273    0.214
       181  -9.8682     60.3612     83.1215   9.9579898242e+01   5.2919822246e+01    0.2845116    0.2277095 -54.51 0.0009759185    1.126    0.112
       182 -10.6514     46.8979     74.2494   1.0197662221e+02   5.6504991669e+01    0.3133078    0.1727023 -48.72  0.001580085    1.518    0.341
       183 -13.1406     52.5212     73.4819   9.9741187213e+01   5.6034117835e+01    0.5298193    0.2940194 -58.35 0.0009584728    1.700    0.412
       184 -10.3371    232.6330     77.0510   5.5883084758e+01   1.6814719727e+01    0.5252199    0.2738357 -45.07  0.002289389    1.800    0.444
       185  -9.6002      8.7353     76.5337   1.1619469732e+02   5.9091014599e+01    0.2498984    0.1179337 -46.03 0.0007751282    1.816    0.449
       186 -11.6836     14.0714     74.7445   1.1397549421e+02   5.9179218673e+01    0.4841708    0.2861469 -65.44  0.001629778    1.359    0.264
       187 -11.8054      1.9345     71.2176   1.1767076976e+02   6.0617137239e+01    0.5627027    0.1542227 -67.54  0.002411296    2.672    0.626
       188 -12.3530      5.9598     62.4165   1.1452736695e+02   6.2347137362e+01    0.6402153    0.3758053 -34.30  0.002644941    1.662    0.398
       189  -9.6667    139.0769     77.2897   7.3948293499e+01   3.9477218724e+01    0.2170077    0.1991549  50.39  0.000373219    1.104    0.094
       190  -9.7758    192.4678     65.7525   5.9180762379e+01   2.8279935777e+01    0.2924687    0.2519485 -75.42 0.0008106753    1.226    0.185
       191 -12.0873    186.7242     70.6214   6.1592394600e+01   2.8923685034e+01    0.9393822    0.6435354 -33.69  0.003353759    1.454    0.312
       192  -9.9266     65.0675     75.0274   9.5727795630e+01   5.4088488872e+01     0.389179    0.2489024  -8.33  0.001079768    2.336    0.572
       193  -9.4131    113.8979     75.1606   8.0081238051e+01   4.5501832242e+01    0.4823962    0.1588542  40.36  0.001488616    3.416    0.707
       194 -10.0365    184.2681     61.4256   5.9382906855e+01   3.1045493024e+01    0.4206324    0.2913716 -19.27  0.001706664    1.679    0.405
       195 -10.4989     15.8545     44.1740   1.0596624569e+02   6.5598397698e+01    0.8177982    0.2318455 -35.41   0.00294523    4.313    0.768
       196 -10.7985     21.5584     36.3742   1.0093215593e+02   6.6713464066e+01    0.6469644    0.3866407  55.84  0.003096942    3.688    0.729
       197 -11.7026     41.0369     70.6047   1.0316081182e+02   5.7924121527e+01    0.8135602    0.2264059 -51.25  0.001562018    2.716    0.632
       198 -11.3740     32.6420     72.0331   1.0662461347e+02   5.8400506857e+01    0.5263852    0.2736474  25.82  0.002355868    2.257    0.557
       199 -11.8844     21.5469     46.7577   1.0425591077e+02   6.4671267441e+01    0.6116406    0.4550173 -20.63  0.002172643    1.316    0.240
       200  -9.4282    175.6005    246.7822   1.0144397927e+02  -6.9069065596e-02    0.1403574     0.116177 -63.19 0.0009517483    1.712    0.416
       201 -11.7262     33.0582     58.5896   1.0293890408e+02   6.1272480672e+01    0.6918004    0.4720404 -24.89  0.001766498    1.496    0.331
       202 -11.0730     40.8491     57.0111   9.9377624487e+01   6.0843817553e+01     0.399729     0.318174  50.51  0.001973146    1.682    0.405
       203 -11.4582     25.5184     55.1309   1.0500363744e+02   6.2640701753e+01     0.734829     0.356796 -34.24  0.003045265    2.047    0.512
       204 -11.2940     19.7031     54.7233   1.0726982725e+02   6.3163015101e+01    0.3907703    0.2915086  15.93  0.001633699    1.590    0.371
       205 -11.2557     50.7294     61.1828   9.6817465369e+01   5.8877788689e+01    0.3118623    0.3000992 -82.09  0.001268147    1.286    0.223
       206 -11.4480     46.1931     58.5150   9.7739586789e+01   5.9955238146e+01    0.4972148    0.2783089 -43.31  0.001469794    1.511    0.338
       207 -10.4719     53.4563     49.4828   9.1891113103e+01   6.0887852617e+01    0.4351529    0.3418288 -88.83  0.002346105    2.211    0.548
       208  -9.5331    152.0425     73.3009   6.9575897342e+01   3.7115897486e+01    0.4271208    0.1599169  40.79  0.001284714    3.351    0.702
       209  -9.8803    162.2320     70.8171   6.6535671181e+01   3.5042678935e+01    0.3155745    0.2643921 -74.54 0.0009558224    1.374    0.272
       210 -10.3278     14.3257     67.2250   1.1235558825e+02   6.0829374415e+01    0.3022152    0.2256373  11.10  0.002005709    1.643    0.391
       211  -9.8892    172.4756     68.4951   6.3706333325e+01   3.2872126492e+01    0.3029106    0.2755347   5.13  0.001022065    1.209    0.173
       212  -9.6611    172.4593     65.4650   6.2803196050e+01   3.3385379885e+01    0.4838589    0.3682566  79.81  0.002269347    1.516    0.340
       213 -11.4108    123.8213     67.8435   7.4925142860e+01   4.4761012790e+01    0.4021198    0.3763081 -67.14  0.001130764    1.186    0.157
       214 -11.4310    219.7402     66.4883   5.5047487387e+01   2.1463122778e+01    0.6614748    0.3705114  59.66  0.002252499    1.849    0.459
       215  -9.1581    208.0044     68.4885   5.7360357772e+01   2.3985065432e+01    0.2238132    0.1452079  58.89  0.001025933    1.579    0.366
       216  -8.9877    111.5986     67.2857   7.8184641937e+01   4.7520217963e+01    0.1508016    0.1202992  89.40 0.0006992493    1.786    0.440
       217  -8.8476     69.6369     67.1507   9.1738956695e+01   5.5112508063e+01    0.2025696    0.1122927 -38.51 0.0004365084    1.699    0.412
       218 -10.8207     58.9067     63.1087   9.4345763249e+01   5.7452710552e+01    0.5508298    0.3631109 -56.58  0.002880944    1.558    0.358
       219  -8.7911     64.5474     62.5087   9.2080923948e+01   5.6805674375e+01    0.1363478    0.1203848 -33.66 5.348157e-05    1.034    0.033
       220 -10.5166     21.2364     65.5684   1.0936525233e+02   6.0731230641e+01    0.2553207    0.1994006  80.84 0.0004669412    1.661    0.398
       221  -9.6834     25.9731     65.4828   1.0753213587e+02   6.0394270691e+01    0.2047094    0.1550173 -47.77 0.0003087554    1.064    0.060
       222 -10.8814     58.1855     77.9251   9.8946157461e+01   5.4360348094e+01    0.3078418    0.2866899 -86.93 0.0005682029    1.247    0.198
       223 -10.2945    105.6000     64.1526   7.8909713184e+01   4.9355481421e+01    0.3783347    0.3001148   5.73  0.001904241    1.438    0.305
       224 -11.3695    234.0175     61.1745   5.1742313423e+01   1.8922409788e+01    0.6395866    0.4442417  75.34  0.003161669    1.584    0.369
       225  -9.5219    197.5595     62.4821   5.7400519479e+01   2.7522470935e+01     0.302773    0.2341859 -74.40  0.000876006    1.455    0.313
       226 -10.2992    159.1137     62.0773   6.4506988209e+01   3.7318266261e+01    0.5323893    0.2805101  41.52  0.002064314    2.090    0.521
       227  -9.2559    199.0635    244.5308   9.6878036902e+01  -3.4420843010e+00    0.1900201   0.09482465  38.93  0.001036435    1.612    0.380
       228 -11.3382    127.7469    241.8966   1.0968253739e+02   8.2261541716e+00     0.355313    0.2789249 -88.07  0.002384342    1.520    0.342
       229  -8.4086    200.3020    241.3443   9.6187232509e+01  -3.2276905202e+00    0.1218313   0.08000721  11.35 0.0003615436    1.682    0.405
       230 -10.4963    139.3534     44.0666   6.2950747876e+01   4.5074238831e+01    0.5255497     0.285778  34.95  0.001826408    2.205    0.546
       231 -11.0254    136.0904     54.8129   6.7393813003e+01   4.4192957477e+01    0.9042159    0.4647027 -37.98  0.003676393    1.950    0.487
       232 -11.7883    145.8593     47.0666   6.2514405783e+01   4.3019003917e+01      1.11454    0.4968923 -24.37  0.003999793    2.713    0.631
       233  -9.3732    161.6433     47.7868   5.9469358300e+01   3.8926186688e+01    0.4539999    0.2233637  74.02  0.001399457    2.930    0.659
       234 -11.0913    157.4451     55.5022   6.2782791797e+01   3.8808329004e+01    0.5731613    0.5245736  76.25  0.003056976    1.128    0.113
       235 -11.0031    155.5112     49.9676   6.1407997781e+01   4.0157584359e+01    0.4659327     0.300319 -12.91 0.0004887469    1.985    0.496
       236 -10.3946    105.0166     56.8628   7.6560047797e+01   5.0816015155e+01    0.4870183     0.371154 -43.16  0.002487853    1.344    0.256
       237  -9.7020    187.8592     55.5894   5.7059891895e+01   3.1041139783e+01    0.2532646    0.2387534  13.90 0.0006214313    1.172    0.147
       238 -10.0225     67.0615     54.9694   8.8621920812e+01   5.7942388281e+01    0.2942668    0.1831583 -50.36 0.0007609742    1.632    0.387
       239  -9.8523    248.4810     52.5051   4.7916818583e+01   1.6916677501e+01    0.2512234    0.1814809 -71.48 0.0008286969    1.444    0.308
       240  -9.9006    244.8026     51.1756   4.8010491729e+01   1.7916925899e+01    0.2382883    0.1978528  72.02 0.0005994785    1.278    0.218
       241  -9.5663    237.5898     54.2622   4.9592827118e+01   1.9108825247e+01    0.2773668    0.1928062 -62.75  0.000693368    1.468    0.319
       242 -10.7443    240.3914     50.4459   4.8334921291e+01   1.9010843661e+01      0.35258    0.3182648 -41.49  0.001089809    1.108    0.098
       243  -9.8973     68.5673     33.0186   7.9641102690e+01   6.1590595750e+01    0.4563276    0.3045597  38.60  0.002506995    1.566    0.361
       244  -9.2950     66.6451     28.1155   7.8282191738e+01   6.2663824116e+01    0.3156376    0.2138521  13.59  0.001109562    1.564    0.361
       245  -9.6998     59.6308     24.0292   7.9216337300e+01   6.4388229638e+01    0.2085076    0.1713622 -11.26 0.0004578612    1.039    0.037
       246  -9.9144     60.6661     20.2631   7.7096167090e+01   6.4770851684e+01    0.2778076    0.2341772 -85.58  0.001461299    2.272    0.560
       247 -11.1165     57.3413     30.7297   8.3055985318e+01   6.3691825533e+01    0.4649735    0.3020049  -5.03  0.002159177    1.744    0.426
       248 -11.6214     48.8592     30.3639   8.6422671286e+01   6.4926115235e+01     0.609489    0.2808206  28.21  0.002419002    2.398    0.583
       249 -11.5375     60.4392     36.1734   8.4073937072e+01   6.2337314555e+01    0.3760886    0.2417042 -32.19 0.0005745816    1.395    0.283
       250 -12.1476     61.0521     46.1866   8.7725566448e+01   6.0478853956e+01    0.9610916    0.4420605 -44.85  0.004365659    2.007    0.502
       251 -10.0859     63.4507     40.4827   8.4618567502e+01   6.1149601788e+01    0.2174646    0.1654999 -38.84 0.0004944382    1.270    0.213
       252  -9.7595    211.5331     53.2200   5.2725230907e+01   2.5452185327e+01    0.2781843    0.2030006  69.11  0.001402582    1.395    0.283
       253 -11.1108    201.9267     47.5691   5.2569460279e+01   2.8658347159e+01    0.9588417    0.5357975 -38.98  0.004274944    1.710    0.415
       254 -10.9803    174.1559     48.2298   5.7260257688e+01   3.5652310673e+01    0.6194022    0.4284665  74.44  0.002879646    1.560    0.359
       255 -10.0558    176.4098     43.3281   5.5373183203e+01   3.5775333857e+01    0.4375564    0.2529266  56.56  0.001927631    1.648    0.393
       256 -12.7239    119.8032     37.8798   6.5477538412e+01   5.0637001360e+01    0.8381049    0.6475621 -88.85  0.003869007    1.827    0.453
       257 -10.3987     91.0970     47.6893   7.7574935293e+01   5.5183266579e+01    0.3271141    0.1916073 -39.59  0.001012151    1.672    0.402
       258 -10.6671      5.4139     42.6490   1.1014234777e+02   6.6523515681e+01     1.034328    0.1447937 -48.82  0.004027243    3.406    0.706
       259  -9.6367     67.9906    240.4960   1.2046060744e+02   1.7121866261e+01    0.1693831   0.09119901  43.74  0.001023604    1.563    0.360
       260 -11.0518    148.7336    237.9022   1.0526406993e+02   5.5218869446e+00    0.4028084    0.1503837  40.25  0.001829006    2.180    0.541
       261 -10.4801    198.1183    232.8361   9.5301307727e+01  -1.7616786769e+00    0.2908784    0.2752874 -84.58  0.002057302    1.541    0.351
       262  -9.6339    205.6472    234.1395   9.4126488944e+01  -3.1316029862e+00    0.1688626     0.125225  35.60 0.0004534054    1.178    0.151
       263  -9.7775     15.1602    233.7296   1.2907243639e+02   2.4481689439e+01      0.18814    0.1206398 -84.60 0.0009641141    1.397    0.284
       264  -9.6777    247.4872    231.8945   8.6418072975e+01  -9.1370511454e+00    0.1595528    0.1025768 -23.76 0.0006730667    1.565    0.361
       265 -10.2693    242.6034    231.1565   8.7124062045e+01  -8.3561997089e+00    0.2522256    0.1227176  47.91  0.001240244    2.784    0.641
       266  -9.4754     23.3993    231.5627   1.2759557905e+02   2.4025223878e+01    0.1819914   0.07683761  44.73 0.0006610531    1.917    0.478
       267  -8.9751    190.1265    229.8357   9.6322995811e+01  -5.2505713149e-02    0.1737041     0.126509  19.69 0.0007735741    1.312    0.238
       268  -9.4031    108.2257    230.0359   1.1204799497e+02   1.3244966903e+01    0.1431563   0.09893137 -65.42 0.0008742548    1.653    0.395
       269 -10.2527    231.8231     39.7782   4.6695545855e+01   2.2445544563e+01    0.4352213    0.2341886 -60.89   0.00159684    2.058    0.514
       270  -9.8477    162.8566     43.8397   5.7977415542e+01   3.9189557356e+01    0.3332826    0.2122693  55.23  0.001520617    1.494    0.331
       271  -9.7949    234.1593    223.0677   8.7224346133e+01  -6.1376394142e+00    0.1949433    0.1356789  11.42 0.0007573341    1.277    0.217
       272  -9.5369     10.1557    217.8467   1.2914565993e+02   2.7920554938e+01    0.1350385    0.1067228 -87.02 0.0007862698    1.306    0.234
       273 -10.3049    165.1332    212.4798   9.8463036796e+01   6.8590159507e+00    0.2929746    0.1769662  55.80  0.001455666    1.877    0.467
       274 -10.7088    145.2965     24.9066   5.5065186807e+01   4.6132525073e+01    0.6458241    0.3685713  45.44  0.002817558    1.695    0.410
       275  -9.2591    204.3281    208.6539   9.0175382149e+01   6.4376909938e-01      0.12089     0.103323  73.02 0.0007050142    1.752    0.429
       276  -9.7229    153.0718    207.8553   1.0017920018e+02   9.7694906647e+00    0.2090851    0.1685597  58.78  0.001228691    1.268    0.212
       277 -11.3767    155.8952     41.9412   5.8716258383e+01   4.1237276895e+01    0.4024641    0.3975704  67.05 0.0009524077    1.027    0.026
       278 -11.4952    153.1050     36.0775   5.7332025532e+01   4.2752049554e+01    0.3069815    0.2865292 -60.04 0.0004291836    1.132    0.116
       279  -9.1673    101.4959     44.4891   7.3097263217e+01   5.3647317131e+01    0.3241345    0.1998762 -47.38   0.00122918    1.880    0.468
       280 -10.3346     97.5482     41.4936   7.3160466546e+01   5.4933075020e+01     0.307088    0.2836604  69.92  0.000863881    1.342    0.255
       281 -10.6983     92.9643     41.3658   7.4552286572e+01   5.5868205067e+01     0.440237    0.3200672  41.68  0.001788549    1.379    0.275
       282 -10.6060    189.1524     40.2188   5.2392769516e+01   3.2927020849e+01    0.6095933    0.2460884 -26.19  0.002204112    2.789    0.641
       283  -9.7541     86.3621     30.7616   7.2427888524e+01   5.8764998391e+01    0.4808754    0.2565717 -18.05  0.002106131    2.231    0.552
       284 -10.8148     80.7045     39.9608   7.8085270986e+01   5.8396364810e+01    0.5861166    0.4209505  40.68   0.00295688    1.447    0.309
       285 -10.7974     77.6961     34.4335   7.6903607893e+01   5.9814477775e+01    0.3985426    0.2532833  37.10   0.00121255    1.571    0.363
       286 -10.1743     81.5509     31.1289   7.4192799287e+01   5.9618384679e+01    0.4277424    0.2574071 -48.34  0.002032357    2.157    0.536
       287  -9.1407    193.3870     39.0699   5.1430457547e+01   3.1999400679e+01    0.2134426    0.1821767  11.00 0.0006080717    1.426    0.299
       288 -11.4154    176.2763     36.0181   5.3173090411e+01   3.6803793336e+01    0.7077323    0.5463055  85.95  0.002683582    1.366    0.268
       289  -9.6687     61.0047    206.9463   1.1894641122e+02   2.4386356950e+01    0.1862004    0.1428606  69.96 0.0004539725    1.049    0.046
       290 -10.2946    177.1358     29.9101   5.1181852500e+01   3.7362333522e+01    0.4362806    0.2364237  54.38  0.001359989    1.745    0.427
       291  -9.5730    238.5115    204.5088   8.3180718475e+01  -4.4167213607e+00    0.2488284    0.1145734 -33.13  0.001218426    2.192    0.544
       292  -9.6763    207.0983     36.9524   4.8949158564e+01   2.8816985754e+01    0.2466696    0.2058337  57.22  0.001182828    1.243    0.195
       293  -9.6648    132.8312     36.5916   6.1824165387e+01   4.7731616781e+01    0.3348882    0.2345832 -67.33  0.001522206    2.009    0.502
       294 -10.0223      4.4316    204.4091   1.2947991406e+02   3.1055646584e+01    0.2396799    0.0984682 -75.39  0.001388356    2.041    0.510
       295  -9.4943     94.4620     36.0425   7.1981438488e+01   5.6394950890e+01    0.2473734    0.1941702  64.79  0.001011834    1.652    0.395
       296 -10.7504      6.2666    198.5139   1.2884175540e+02   3.2067047841e+01    0.2670348   0.08996654 -69.98  0.001388051    2.520    0.603
       297 -12.3110    105.7723     32.8735   6.7356288748e+01   5.4487350949e+01    0.5804687    0.3406301  19.57  0.001580381    2.301    0.565
       298 -12.7447    114.3383     25.1038   6.2006933883e+01   5.3595337397e+01    0.7926358    0.3518775  51.46 0.0006379371    2.045    0.511
       299  -9.4092    216.2865     32.7061   4.6684592246e+01   2.7095328463e+01    0.3025141    0.1892048   7.20  0.001252847    2.904    0.656
       300  -9.8571    240.0190     32.4812   4.4058659334e+01   2.1499452158e+01     0.428681    0.2160889  67.00  0.002038043    2.004    0.501
       301 -10.2565     16.5021    204.0583   1.2727165630e+02   3.0000393023e+01    0.1714888   0.08780325 -82.71  0.001046816    1.632    0.387
       302  -8.5876    148.3284     32.2846   5.6998624374e+01   4.4459354759e+01    0.1518892     0.104466  32.64 0.0007007439    1.609    0.378
       303 -10.5475    189.0455     28.3871   4.8985543089e+01   3.4483601283e+01     0.502451    0.3256057   4.42   0.00221755    2.343    0.573
       304  -9.1084     35.8227     31.6027   9.2652816142e+01   6.6265671826e+01    0.1527068    0.1105594  35.38   0.00076458    1.705    0.414
       305  -9.4732    221.7041     29.6067   4.5270536557e+01   2.6170047447e+01    0.2249648    0.1642794 -20.32 0.0005655192    1.588    0.370
       306 -10.7184     98.5566     27.7560   6.7388030055e+01   5.6726763959e+01    0.4505341    0.2787932 -44.58 0.0009178601    1.933    0.483
       307  -9.3296     41.2880     27.9985   8.8725692920e+01   6.6269428294e+01    0.3342894    0.1110757 -33.85  0.001086554    3.203    0.688
       308  -9.6953    250.5609     26.6403   4.1712792303e+01   1.9865904223e+01    0.2528772    0.1139629 -32.79 0.0006378693    2.053    0.513
       309  -9.8874    230.5763     26.5269   4.3567723348e+01   2.4436170465e+01     0.279534    0.1938493 -60.88 0.0006588324    1.352    0.260
       310 -10.9431    245.2683    199.8483   8.1141923864e+01  -4.8590520900e+00    0.3416213    0.2274453 -40.50  0.001472679    1.812    0.448
       311  -8.5909    206.2342     25.6286   4.6004165831e+01   3.0463023538e+01    0.1456005     0.091521 -56.24 0.0002820725    1.606    0.377
       312  -8.5605    207.2748    201.3425   8.8316535818e+01   1.2342001178e+00    0.1334216    0.0930526   4.13 0.0005430963    1.619    0.382
       313 -10.2806    234.1410    197.0690   8.2572079023e+01  -2.6945888294e+00    0.3478321    0.2535705  16.45  0.001537487    1.238    0.192
       314  -9.7202     80.7137     19.3723   6.9397261423e+01   6.1388435896e+01     0.321043    0.2022794  40.26 0.0009057937    1.496    0.332
       315  -8.7977     83.7455    195.9572   1.1311345582e+02   2.3520364170e+01    0.1537233    0.1035488 -69.23 0.0004744652    1.490    0.329
       316 -12.1648      4.7215    184.4247   1.2834379363e+02   3.5090201449e+01    0.6087093    0.3870322  79.81  0.003577001    1.197    0.165
       317  -9.8773    169.8030    191.4052   9.3986594713e+01   9.6708220588e+00    0.3609141    0.1893853  30.66  0.001098251    2.104    0.525
       318  -9.2180    223.1931     22.2162   4.3249940766e+01   2.6713006746e+01    0.1878979    0.1386586 -69.89 0.0006672274    1.284    0.221
       319 -10.0024    239.3390    185.3344   7.9394989310e+01  -1.8887537935e+00    0.4054385    0.2252446  -8.98  0.001833925    2.411    0.585
       320  -9.7359     74.1456     19.5363   7.1722515756e+01   6.2584043002e+01    0.2523239    0.1912333  25.02 0.0007062589    1.213    0.175
       321  -9.7066    250.3561    178.6136   7.6162543792e+01  -2.7542616082e+00    0.3174718     0.110766 -29.66  0.001247225    2.921    0.658
       322  -9.2748    209.1281     47.2016   5.1445089167e+01   2.6911661842e+01    0.2340921     0.153511 -79.90 0.0009484801    1.835    0.455
       323  -9.1594    211.3678     18.8828   4.3637302715e+01   2.9981870415e+01     0.182048    0.1634123 -50.75 0.0004052701    1.121    0.108
       324  -9.0674    194.4742     19.2249   4.5671980771e+01   3.4176472151e+01    0.1979982    0.1350456 -32.11 0.0004495608    1.518    0.341
       325  -9.7302    191.8608     16.5312   4.5236157584e+01   3.5140760977e+01    0.3886122     0.228783  44.78  0.001821009    1.915    0.478
       326  -9.7214    213.5189    180.5115   8.3167781642e+01   3.3804109144e+00    0.1386511    0.1202517   9.38 0.0008100707    1.032    0.031
       327 -10.3676    186.3361     15.1160   4.5518169569e+01   3.6703632201e+01    0.2588067      0.20665  69.44 0.0003970007    1.158    0.136
       328  -9.1100    174.2161     15.7967   4.7327946732e+01   3.9742471038e+01     0.189217    0.1489695  47.71 0.0005376106    1.288    0.224
       329 -10.0292     51.8888    173.3680   1.1751641205e+02   3.2714129609e+01    0.4152521    0.1733082 -84.30  0.001674812    2.991    0.666
       330  -9.1562    230.4503    175.5054   7.9016146414e+01   1.1086709262e+00    0.1360168    0.1165094   1.97 0.0001057436    1.018    0.018
       331  -9.4758     28.0047    175.9921   1.2300698558e+02   3.4757555333e+01    0.1941602    0.1441907  77.81  0.001297313    1.091    0.083
       332  -9.7160    247.6617    173.9152   7.5672865267e+01  -1.6321468818e+00    0.4627834    0.1592275  30.74  0.001490916    4.601    0.783
       333  -9.7655     39.2356    173.4023   1.2033909073e+02   3.4157047959e+01    0.2446246    0.1655237  55.28  0.001239006    1.376    0.273
       334 -10.6124     35.2347    169.8658   1.2088453447e+02   3.5374990655e+01    0.3418343    0.2003263 -87.08  0.001755584    1.506    0.336
       335  -9.9674      8.9072    156.8509   1.2561243020e+02   4.0706256803e+01    0.3148635    0.1341044 -66.37  0.001665087    1.933    0.483
       336 -11.7649      9.4961    166.8032   1.2622919198e+02   3.8460769982e+01    0.5426549     0.329509 -79.75  0.002319427    1.308    0.235
       337 -11.1475     14.0468    159.0621   1.2464455094e+02   3.9794849720e+01    0.3817245    0.2178875 -80.94  0.001461782    1.396    0.284
       338  -9.5809    194.9306     46.7546   5.3385825270e+01   3.0542918669e+01    0.4393498    0.2225659 -89.68  0.001430657    3.634    0.725
       339  -9.0474    197.8342    167.8660   8.3663192824e+01   8.4985775909e+00    0.1837936    0.1715984 -66.37 0.0007150013    1.311    0.237
       340  -9.9908    188.5406    165.2243   8.5006537163e+01   1.0820500664e+01    0.5138574    0.2275285 -27.46  0.001687509    3.615    0.723
       341  -8.5532    156.5023    166.4650   9.2168056607e+01   1.7004865275e+01    0.1458162    0.1380291  42.87 0.0004800017    1.007    0.007
       342 -10.1736     18.7629    165.0622   1.2409434686e+02   3.8048157228e+01    0.2381562    0.2190465  49.41  0.001784715    1.369    0.270
       343 -10.0822    205.0191    163.0064   8.1212036330e+01   7.9385099921e+00    0.2677559    0.1978305  31.09 0.0005502217    1.325    0.246
       344  -9.5140     40.1421    162.4080   1.1901665989e+02   3.6540453703e+01    0.4023899     0.152623 -82.76  0.001579013    3.108    0.678
       345 -10.4061     28.1199    162.5029   1.2178308527e+02   3.7749961454e+01    0.3645993    0.1530855 -73.19  0.001800064    1.986    0.496
       346  -9.6165     79.1459    160.2877   1.0941916564e+02   3.2084086498e+01    0.2646427    0.1614674  84.32  0.001141282    2.026    0.506
       347  -9.4220    215.4720    157.9961   7.8115391933e+01   6.7486724324e+00    0.2191638    0.1343559 -33.25   0.00103159    1.601    0.375
       348  -9.3663    223.9582    156.7322   7.6257110833e+01   5.3147793430e+00    0.1980479    0.1773025  11.83 0.0005874002    1.056    0.053
       349 -10.5270    104.4753    154.3360   1.0217776455e+02   2.9435476446e+01    0.4148141    0.2891009 -69.54  0.002048852    1.492    0.330
       350 -12.0562     22.7394    149.2861   1.2175858651e+02   4.1262866703e+01    0.6595589    0.3318579 -49.93  0.003411151    2.266    0.559
       351 -10.7264     15.2556    147.6912   1.2338313801e+02   4.2263582038e+01    0.3554015    0.2533112 -88.13  0.001265814    1.112    0.101
       352 -10.9427     13.9529    141.0527   1.2307375736e+02   4.3886617279e+01    0.3457701    0.2575322  77.67   0.00145378    1.201    0.167
       353 -10.9615     11.0927    137.3557   1.2342086326e+02   4.4952991070e+01    0.5857089    0.3106659 -49.51  0.003247414    2.065    0.516
       354  -9.9703     33.4963    154.4977   1.1973277063e+02   3.9048278636e+01    0.4937826    0.2117829 -89.36   0.00209453    2.743    0.635
       355 -10.5414     30.4989    153.4940   1.2033927677e+02   3.9574829601e+01    0.4266123    0.1723982 -79.94  0.001911672    2.350    0.574
       356  -9.0867    132.2309     45.5706   6.5147352719e+01   4.6578231664e+01    0.2111732    0.1307211  43.26 0.0006486673    1.590    0.371
       357  -9.3764     74.8777    153.8101   1.0949381437e+02   3.4210974962e+01    0.2689106    0.1788895 -68.05 0.0008877118    1.400    0.285
       358  -9.6459     70.9149    151.4990   1.1013735802e+02   3.5310171127e+01    0.3140764    0.1547486  42.12  0.001034381    2.032    0.508
       359 -11.8568      4.0495    147.5493   1.2598165987e+02   4.3151781470e+01     0.692168    0.3641071 -82.06  0.003420489    1.482    0.325
       360 -10.7650      5.2261    141.6310   1.2522379680e+02   4.4402257781e+01    0.2624719    0.2277337  18.19  0.001239884    1.587    0.370
       361 -12.6783      3.8211    137.1211   1.2517482189e+02   4.5522014790e+01    0.3142768    0.1996571 -68.63 0.0004293154    1.300    0.231
       362 -10.9949     63.0376    150.3613   1.1195638090e+02   3.6633077080e+01    0.4088729    0.3779648  11.19  0.001981683    1.399    0.285
       363 -11.1942     47.0482    148.0779   1.1566694721e+02   3.9106952524e+01    0.6933489    0.2793336 -68.70  0.003062743    2.169    0.539
       364  -9.8221    214.8242    150.9755   7.6697940373e+01   8.0845122747e+00    0.2472461    0.2238014  56.90 0.0009277932    1.293    0.227
