#   1 NUMBER                 Running object number                                     
#   2 MAG_AUTO               Kron-like elliptical aperture magnitude                    [mag]
#   3 X_IMAGE                Object position along x                                    [pixel]
#   4 Y_IMAGE                Object position along y                                    [pixel]
#   5 X_WORLD                Barycenter position along world x axis                     [deg]
#   6 Y_WORLD                Barycenter position along world y axis                     [deg]
#   7 A_WORLD                Profile RMS along major axis (world units)                 [deg]
#   8 B_WORLD                Profile RMS along minor axis (world units)                 [deg]
#   9 THETA_WORLD            Position angle (CCW/world-x)                               [deg]
#  10 FWHM_WORLD             FWHM assuming a gaussian core                              [deg]
#  11 ELONGATION             A_IMAGE/B_IMAGE                                           
#  12 ELLIPTICITY            1 - B_IMAGE/A_IMAGE                                       
         1  -9.5703      3.6846     32.2427   8.4161445543e+01   6.7448243216e+01    0.5219394    0.3231351  87.81  0.002936244    2.940    0.660
         2  -8.5199     28.4972     21.0037   6.9668788106e+01   6.7741250189e+01    0.3973685    0.1607695 -44.25  0.002072767    1.953    0.488
         3  -9.2075     12.9620     17.8498   7.5482774088e+01   6.9517673344e+01    0.4054403    0.2049206 -10.38  0.002173681    2.527    0.604
         4  -8.7604     64.1745     13.7729   5.1889115821e+01   6.4448493549e+01    0.3145357    0.1763599  19.88   0.00148532    2.067    0.516
         5  -9.2353    106.7027     11.6707   3.7515968458e+01   5.6737850623e+01    0.4511195    0.2577532  16.66  0.002040806    2.146    0.534
         6  -9.8260     77.8285     12.6922   4.6573221622e+01   6.2322686082e+01    0.6260771    0.2440614  41.75  0.002753472    2.470    0.595
         7  -9.5923     31.7903     10.6759   6.3860593585e+01   6.9078655772e+01    0.3822463    0.2073202 -12.69 0.0003340085    2.180    0.541
         8  -8.9067     32.0626      5.7799   6.1476668412e+01   6.9774052065e+01    0.2163719    0.1287805 -30.04 0.0002325955    1.352    0.261
         9  -7.4616    155.7582     11.6800   2.6956165667e+01   4.4904245834e+01    0.1880445    0.1619295 -64.31 -0.0001541599    1.310    0.236
        10  -7.2980    156.0000      7.9439   2.5636001592e+01   4.5212467040e+01    0.3189597   0.08233945 -21.84 0.0009732845    4.252    0.765
        11  -8.3246     97.2642     11.3739   3.9975126657e+01   5.8762258751e+01    0.2568204    0.1781618  16.10 0.0009062477    1.444    0.307
        12  -9.7823     20.6220      8.2350   6.7982330322e+01   7.0511756125e+01    0.2988264     0.217435   0.06 0.0002521506    1.339    0.253
        13  -8.5578     13.4674     10.1984   7.2270590129e+01   7.0767415827e+01    0.2883389    0.2032029  52.57  0.001622442    2.835    0.647
        14 -10.3244     13.6191      4.1027   6.9581517838e+01   7.1725481348e+01     0.275144    0.1984759  -7.73 0.0002805644    1.276    0.217
        15  -8.7548    142.8109      9.3706   2.8501114170e+01   4.8450985570e+01    0.2542836    0.2017044  40.20 0.0002468409    1.168    0.144
        16  -9.1546    125.3477      9.9889   3.2325925311e+01   5.2671072495e+01    0.2441963    0.1840228  50.04 0.0003453865    1.203    0.169
        17  -8.8576      3.7667      6.5967   7.5612796621e+01   7.1999122493e+01    0.3778634    0.1585539 -21.51  0.001984491    2.826    0.646
        18  -9.1488     76.6797      6.4317   4.4100419407e+01   6.3273598886e+01    0.2367028    0.1935862  31.85  0.001061114    1.202    0.168
        19  -9.8385     84.9674      4.9909   4.0789354982e+01   6.1898657779e+01    0.2707943    0.2146509  -6.87 0.0004507879    1.163    0.140
        20  -8.7020     41.7818      5.0814   5.6799259406e+01   6.8746399299e+01    0.2924886    0.1832139  -1.01 0.0009069786    1.631    0.387
        21  -7.6591    131.3301      5.2814   2.9244682127e+01   5.1690380306e+01    0.1485276   0.09060526  35.26 0.0007003134    1.606    0.377
        22  -8.1691     91.3404      5.0815   3.8926723022e+01   6.0642404557e+01    0.2228484    0.1670058  60.64  0.001275191    1.596    0.373
        23  -9.3248     57.6348      3.1810   4.9367353566e+01   6.6800626850e+01    0.2365853    0.1767309  -6.48 0.0004137506    1.113    0.101
        24  -8.2752    153.7965      2.9181   2.4278547724e+01   4.6251341335e+01    0.2131147    0.1708827  39.76  0.000269987    1.196    0.164
        25  -8.2058    125.5227      3.0544   2.9588697478e+01   5.3295984684e+01    0.2063234    0.1676947  49.88 0.0004919806    1.108    0.098
        26  -8.3002    110.4337      2.1398   3.2608435373e+01   5.6874286771e+01    0.2376496    0.2143802 -50.14   0.00145999    1.383    0.277
        27  -7.6535    105.4499      1.7139   3.3648867434e+01   5.8016428125e+01    0.2897321    0.1209587  45.29  0.001264196    2.065    0.516
        28  -7.5610    192.7919      1.3100   1.8339500317e+01   3.6126050837e+01    0.1945372    0.1100423  63.09 0.0003744292    1.559    0.358
        29  -7.9919    100.9259    118.0446   7.3286862821e+01   3.8472302669e+01    0.3424307    0.1901971  18.09  0.001134338    4.253    0.765
        30  -9.3062    205.8590    249.0931   7.3935481151e+01  -3.8161590336e+00    0.2012144    0.1623072 -50.45  0.001448523    1.843    0.457
        31 -10.9510    189.7224    249.1515   7.6653870931e+01  -1.1864087367e+00    0.5175924    0.1844897  42.16 0.0004676004    2.091    0.522
        32 -10.4694    156.9977    248.0895   8.2064488369e+01   4.3421309091e+00    0.4853539    0.1995703  49.80 0.0007742334    1.932    0.482
        33 -10.3512    158.3802    243.5797   8.1294591445e+01   4.7182795443e+00    0.3507269    0.1953737  41.97 0.0001778103    1.408    0.290
        34  -7.8178     28.4693    112.5305   9.1517880470e+01   4.9007886955e+01    0.1195582   0.09490943 -73.57  0.000281626    1.021    0.021
        35  -7.3825    236.6656    111.6536   4.1869116687e+01   9.6082045899e+00    0.1556979     0.109648  13.64 1.403864e-05    1.770    0.435
        36  -7.1636    143.3306    111.2809   6.0926315024e+01   3.1551152698e+01    0.1523564    0.1221283  10.70 0.0003398757    1.606    0.377
        37  -9.0146      2.7384    108.6135   9.7641277599e+01   5.1731428220e+01    0.3232058    0.1505397 -50.08  0.001863557    2.139    0.533
        38  -8.4506    133.6595    106.1824   6.2014376405e+01   3.4712780447e+01    0.4492605    0.1894419 -33.45  0.001388602    3.527    0.716
        39  -7.6952    124.2323    106.5804   6.4518605205e+01   3.6593903258e+01    0.2081508    0.1422509  32.56 0.0009376865    1.676    0.403
        40  -7.5158    109.5188    105.9628   6.8230334306e+01   3.9595035137e+01    0.1991947    0.1224699 -28.19 0.0008063289    2.330    0.571
        41  -8.3977     75.8803    106.5169   7.7565409278e+01   4.5002581314e+01    0.1880344    0.1336002  39.93 0.0008414357    1.544    0.352
        42  -8.6235     14.2656    105.5914   9.4319792289e+01   5.1632719299e+01    0.2567249    0.1062217 -47.89  0.001300569    2.494    0.599
        43  -7.8721     94.8167    102.6168   7.1422451547e+01   4.2934425444e+01    0.1984601    0.1294742  52.20 0.0009502415    1.693    0.409
        44  -8.0441     64.7797    100.8266   7.9500968903e+01   4.7776082273e+01    0.1790498    0.1470289  81.28 0.0006771162    1.338    0.253
        45  -9.6688     16.4770     94.0337   9.2132974851e+01   5.3988200961e+01    0.3963196    0.2489111 -28.63  0.002417027    2.120    0.528
        46 -10.0669     12.4343     93.2174   9.3156471477e+01   5.4435784279e+01    0.6192042    0.3060755 -22.41  0.002371898    3.707    0.730
        47  -8.1004    250.4956     95.5296   3.5751832475e+01   9.0174247107e+00    0.1418884    0.1323041 -19.94 0.0002115685    1.010    0.010
        48  -8.3095     44.3314     91.6999   8.3618163735e+01   5.2144150160e+01    0.2719748     0.160442 -10.79  0.001252825    3.192    0.687
        49  -7.6127     83.4461     93.4782   7.2436946783e+01   4.6776658467e+01    0.1379027    0.1251526 -52.88 0.0001910315    1.016    0.016
        50  -8.1958     56.3640     91.8517   8.0060560048e+01   5.0800582183e+01    0.1887378   0.09875448 -50.71 0.0003242703    1.659    0.397
        51  -8.1875     96.8306     90.0161   6.7683741697e+01   4.5334076102e+01    0.2704514     0.192177   3.02  0.001233301    2.161    0.537
        52  -7.8824    125.9923     83.7885   5.7852329230e+01   4.0965009615e+01    0.2478269     0.173589  16.50  0.001062879    1.993    0.498
        53  -7.8953     66.0126     83.9894   7.5323286769e+01   5.1330326112e+01    0.2064704    0.1459614 -30.18 0.0007793124    1.600    0.375
        54 -10.1939     37.8685     80.5695   8.3333906557e+01   5.5201967216e+01     0.545609    0.3140635 -13.77  0.002647467    2.963    0.663
        55  -8.6490     21.0287     84.0746   8.9211667214e+01   5.5823590472e+01    0.1728769     0.137065 -66.36 0.0002973551    1.023    0.022
        56  -8.4616    238.8085     83.2013   3.4446460066e+01   1.3566382046e+01    0.2585033    0.1467577 -64.70 0.0009549528    2.866    0.651
        57  -9.6652    247.6855     80.6797   3.2510724611e+01   1.1883001179e+01    0.3508145     0.170021 -31.62   0.00145967    1.942    0.485
        58  -9.6198      8.6058     76.8530   9.1801464629e+01   5.8172102261e+01    0.4521204     0.202953 -36.44  0.002383447    2.628    0.619
        59  -8.2683    184.4110     77.7420   4.2448790160e+01   2.8046149274e+01    0.2893342    0.2431986 -19.54 0.0006754571    1.272    0.214
        60  -8.5494     89.1457     78.0493   6.6659676430e+01   4.9169472604e+01    0.3522932    0.2048014  32.17  0.001552929    1.984    0.496
        61  -8.8219     48.3491     77.3644   7.9286600100e+01   5.4853774693e+01    0.2903149    0.1875046 -25.59 0.0009921375    1.940    0.484
        62  -9.1453     29.4486     68.5161   8.3463873041e+01   5.8506654869e+01    0.3620405    0.1944101 -15.08  0.001756076    3.068    0.674
        63  -9.0775     23.8927     73.4544   8.6340385649e+01   5.7892094469e+01      0.40648    0.1656986 -51.94   0.00203531    1.892    0.471
        64  -8.1789     23.5107     69.0330   8.5560362563e+01   5.8856752375e+01    0.1769714    0.1559866  75.75 0.0005977993    1.365    0.267
        65  -8.0331     75.0787     74.1356   6.9901707637e+01   5.2177807074e+01    0.2058628    0.1694923 -22.72 0.0006073041    1.281    0.219
        66  -8.0353    106.1785     66.4878   5.8077633348e+01   4.8418608926e+01    0.2677578    0.1761814 -26.12  0.001235299    1.686    0.407
        67  -9.1040     83.9358     63.3804   6.3880503759e+01   5.2995782539e+01    0.3118126    0.2349408   7.41 0.0008493778    1.606    0.377
        68  -9.0122     19.2241     61.1210   8.5317405718e+01   6.0812037855e+01    0.3358957    0.1543478 -34.26  0.001720751    2.452    0.592
        69 -10.2850     62.1335     60.9369   7.0324246807e+01   5.6661682807e+01     0.320542    0.2572833   6.85 0.0003172638    1.413    0.292
        70  -7.8802     52.4933     62.5265   7.4087944102e+01   5.7513150866e+01    0.1281227    0.1072037 -41.51 0.0002277162    1.017    0.016
        71  -8.3172     12.0321     61.2892   8.7843948450e+01   6.1234130530e+01    0.3069402    0.1333786 -80.80  0.001303919    3.558    0.719
        72  -9.3783     36.9909     59.0023   7.8545820797e+01   5.9831047353e+01    0.3128239    0.1541736 -31.01  0.001501322    2.465    0.594
        73  -8.7688    249.8299     58.5274   2.6713385507e+01   1.4598235758e+01     0.259114    0.1695547  -0.39  0.001139767    2.272    0.560
        74  -9.0385     49.7636     58.5970   7.3918694307e+01   5.8617968646e+01    0.2294813    0.1906339 -44.57 0.0002699538    1.035    0.034
        75  -7.8371    215.5785     57.8390   3.1298688371e+01   2.3155701238e+01    0.2025927    0.1342004 -43.93 0.0004098249    1.499    0.333
        76  -7.8750    111.6046     57.8466   5.3665770202e+01   4.8938993188e+01    0.2721679     0.182789  22.78 0.0008803835    1.822    0.451
        77  -9.3870     99.7613     54.8968   5.6144947573e+01   5.1809915081e+01    0.3625966    0.2454201 -27.15 0.0005972442    1.502    0.334
        78 -10.5618     75.3025     49.9264   6.2277499342e+01   5.6922302091e+01    0.4644393    0.3231158 -19.49 0.0003423287    1.541    0.351
        79  -7.7276    227.8944     53.8686   2.8419892639e+01   2.0595850885e+01    0.2046343     0.161521 -61.55            0    1.311    0.237
        80  -8.0566    118.8256     50.8659   4.9244880838e+01   4.8623276294e+01    0.2200058     0.189204   8.74 0.0005018622    1.189    0.159
        81  -8.9965     45.1910     48.7284   7.2610400309e+01   6.1065619945e+01    0.3471207    0.1915734 -27.15  0.001585054    2.072    0.517
        82  -8.6574    106.5376     48.5153   5.1891145576e+01   5.1598710293e+01    0.3437532    0.2334668   1.72   0.00111752    1.957    0.489
        83  -8.7383     10.3186     47.0114   8.5302200512e+01   6.4229061584e+01    0.2861925    0.1520795 -51.51  0.001145653    1.375    0.273
        84  -8.8955     13.6806     45.2891   8.3593904065e+01   6.4370772274e+01    0.1865723    0.1627654 -60.03 0.0007232221    1.207    0.171
        85  -7.2260    157.3180     46.3186   3.8362396715e+01   4.0137447506e+01    0.1605522     0.113906  24.95 0.0007041016    1.659    0.397
        86  -9.0271     54.6660     44.1900   6.7613652707e+01   6.0839530002e+01    0.4083439    0.2251451 -28.75  0.001604481    1.917    0.478
        87  -8.6118      3.8100     44.9981   8.7300707518e+01   6.4972829161e+01    0.2840882    0.2267737 -72.61  0.002157042    1.292    0.226
        88  -8.1594      4.1414     39.6609   8.5902539171e+01   6.6002920257e+01    0.1919187    0.1054252 -63.10  0.001029481    1.490    0.329
        89  -8.2670     93.2870     42.2640   5.3630002080e+01   5.5212932588e+01     0.343343    0.1911344   6.21  0.001160433    4.038    0.752
        90 -10.3158     83.1148     39.7078   5.5955807370e+01   5.7449355570e+01    0.3354775    0.2474044 -15.14 0.0002605859    1.358    0.264
        91  -8.5347     87.6308     37.7000   5.3712328743e+01   5.6989638422e+01    0.2770143    0.2033421  18.76 0.0008908581    1.437    0.304
        92  -8.1658     34.2708     42.3455   7.4760961167e+01   6.3373256650e+01    0.3160762    0.1737768 -22.40  0.001663632    2.201    0.546
        93  -8.4420     35.5269     37.5051   7.2697741638e+01   6.4165278098e+01    0.2844673    0.1259211 -51.32  0.001443757    1.932    0.482
        94  -8.4006     38.7590     35.1918   7.0615689752e+01   6.4271708034e+01    0.2374648    0.1600693  13.28 0.0006916359    1.683    0.406
        95  -7.0217    130.7081     42.6851   4.3249380075e+01   4.7240112215e+01    0.1518756     0.110237  17.52 0.0002556701    1.595    0.373
        96  -7.8321    114.1475     41.0910   4.7031462953e+01   5.1214772850e+01    0.2342227    0.1560007   2.77 0.0005610345    1.963    0.491
        97  -8.2308    123.9305     39.4564   4.3813654760e+01   4.9293788374e+01    0.2961577    0.1995594  18.70  0.001023239    1.796    0.443
        98  -9.3864     19.1595     34.7728   7.8462202282e+01   6.6035066729e+01    0.4709749    0.3041808 -56.53  0.002530842    1.377    0.274
        99  -8.8203     21.9613     31.8457   7.6369052943e+01   6.6372458322e+01    0.3083161    0.1976363 -62.60 0.0003908111    1.721    0.419
       100  -8.6494    105.4931     36.6406   4.7822360451e+01   5.3719693611e+01    0.3304839    0.2341063  18.13 0.0007975964    1.565    0.361
       101  -9.4251     67.6541     37.0076   6.0273732533e+01   6.0363975545e+01    0.3996365      0.24378 -29.16  0.001988044    1.533    0.348
       102  -8.3891     71.9755     35.0000   5.7966152125e+01   6.0046850577e+01    0.2506809    0.1623296  30.95   0.00121996    1.621    0.383
       103  -9.0159    215.5107    250.0000   7.2454025698e+01  -5.4660359768e+00    0.2596698   0.04966205  43.67 0.0007842078    3.921    0.745
       104  -7.9396      3.4041     24.8044   8.2142439025e+01   6.8847112450e+01    0.1910872   0.09153777 -34.13 0.0003787283    1.806    0.446
       105  -8.5073     55.7606     35.0121   6.3912447472e+01   6.2349009823e+01    0.2180406    0.1567791 -48.73 0.0007337736    1.466    0.318
       106  -9.2640     96.3688     32.8773   4.9089641326e+01   5.6111142886e+01     0.262356    0.2173932   7.28 0.0003037245    1.155    0.134
       107  -8.0752     10.6563     32.7236   8.1380756260e+01   6.6975783251e+01    0.1536838    0.1295405   5.74    0.0007571    1.427    0.299
       108  -8.7752     70.9627     30.0649   5.6377175864e+01   6.1002533022e+01    0.2475559    0.1489322 -13.73 0.0002844623    1.969    0.492
       109  -9.7354     71.1416     25.5981   5.4486577628e+01   6.1664702439e+01    0.4237967     0.234714  23.17   0.00189057    2.156    0.536
       110 -11.0648     80.7846     22.9767   5.0054108912e+01   6.0433766142e+01    0.5399055    0.2625987  30.99  0.000911508    2.324    0.570
       111  -8.4785     42.5359     27.7705   6.6356520878e+01   6.5176512380e+01    0.2497953    0.1687106  -1.27 0.0005563939    1.625    0.385
       112  -9.0613     61.7559     26.6436   5.8356237171e+01   6.2921259733e+01    0.3098156    0.1923558  -1.75 0.0008173569    2.022    0.506
       113  -8.5144     25.5234     24.9797   7.2472620095e+01   6.7319540668e+01    0.2816046   0.09709264 -39.26  0.001327925    2.401    0.583
       114  -9.2658    159.1229    239.0301   8.0611109590e+01   5.2160692616e+00    0.2112213    0.1847505  61.65 0.0003026967    1.201    0.167
       115  -9.2825    128.9135     22.1225   3.6156115618e+01   5.0471586305e+01    0.2519607    0.2049089  35.54  0.001369127    1.143    0.125
       116  -7.3448    136.6564     22.7054   3.4624306405e+01   4.8526635756e+01      0.15543   0.09995397  30.67  0.000380012    1.663    0.399
       117  -8.7710     46.3541     20.2270   6.1737704455e+01   6.5968602335e+01    0.3577845    0.1574358 -42.35  0.001332793    2.050    0.512
       118  -7.4623    166.9718     21.0446   2.8157269321e+01   4.0950109276e+01    0.1702777    0.1673434  33.98 0.0003303035    1.067    0.063
       119  -9.1204     92.1557     20.5796   4.5397177955e+01   5.8658666017e+01     0.259256     0.206911  17.66 0.0006001032    1.160    0.138
       120  -8.9382      8.7106     19.6824   7.8093625357e+01   6.9471665823e+01    0.2899521    0.2637154  12.42   0.00150822    1.443    0.307
       121  -8.4123    229.5397    242.5108   6.9042466523e+01  -6.9160871807e+00    0.1166959   0.08632632  29.41 0.0002349271    1.013    0.013
       122  -8.0330    101.4745     19.4808   4.2183604373e+01   5.6930375473e+01    0.1372426    0.1202301  13.65 0.0002516472    1.006    0.006
       123  -7.4812    146.6350     18.7717   3.1125950104e+01   4.6489285564e+01    0.1526974   0.09511387  39.62 0.0001589105    1.585    0.369
       124  -8.0952    127.7068     16.2783   3.4217937935e+01   5.1438295056e+01    0.1878756    0.1844438  16.43 0.0006277119    1.121    0.108
       125  -9.4794    169.9192    240.4545   7.8914559249e+01   3.2034982675e+00    0.1935897    0.1588535  79.11  0.001178316    1.542    0.352
       126  -7.9643    146.8054     14.1163   2.9440162815e+01   4.6954026445e+01    0.2054821     0.188893  87.52 0.0005414936    1.188    0.158
       127 -10.1362    186.0760    237.7489   7.5751107928e+01   8.1506447356e-01    0.3831723    0.2011755  38.98   0.00215441    1.511    0.338
       128  -8.0246     78.5571    236.0356   9.4111568788e+01   1.8238988262e+01    0.1462412   0.09631712 -78.23   0.00055784    1.573    0.364
       129  -7.2010     47.2622    236.3096   9.9184939308e+01   2.2227899273e+01   0.08407333   0.07405049 -87.81            0    1.531    0.347
       130  -8.4619    126.7949    230.3899   8.5272762059e+01   1.1870528487e+01     0.176665    0.1523875  84.42 0.0002809034    1.247    0.198
       131  -8.3832     88.3048     12.8110   4.3254844671e+01   6.0375152319e+01    0.2489802    0.1416935  24.51 0.0008341496    1.924    0.480
       132  -7.5725    175.3229    229.2701   7.6473561936e+01   3.7860668652e+00    0.1196372   0.08223129  26.46 0.0002020231    1.570    0.363
       133  -9.7496    188.0082    233.2150   7.4782499932e+01   1.0633913902e+00    0.3208469    0.1976155 -58.88  0.001568047    2.655    0.623
       134  -7.8645    151.0712     12.5182   2.8081205659e+01   4.6029549899e+01    0.2124524    0.1312104  61.71 0.0003576611    1.481    0.325
       135  -8.7196     77.9892    222.9656   9.3110625790e+01   2.0527933373e+01    0.1680611    0.1268935  67.58 0.0003171165    1.020    0.019
       136  -8.9142    149.9852    218.2015   7.9562790087e+01   9.8612425542e+00    0.1895662    0.1664251  73.73 0.0002505219    1.205    0.170
       137 -10.2536    124.0054    206.0035   8.2846172249e+01   1.6399252906e+01    0.1804571    0.1474827  59.56            0    1.004    0.004
       138  -8.6805     11.5905    205.7902   1.0313489655e+02   3.1422529332e+01    0.1913131   0.07441262 -75.55 0.0009642238    2.152    0.535
       139  -8.7790     13.5901    188.4624   1.0180957638e+02   3.4467856060e+01    0.1773481    0.1276919  78.71 0.0001631016    1.030    0.029
       140  -7.1269    205.6709    175.6676   6.1843964047e+01   6.0037440896e+00    0.1452372    0.1006378  14.85 0.0006486346    1.719    0.418
       141  -8.6556    159.9924    165.7798   6.9127060368e+01   1.7050091731e+01    0.2226601    0.2062396 -49.97 0.0003781163    1.188    0.158
       142  -7.8452    133.6308    147.7992   7.1445205495e+01   2.5925765233e+01    0.1993271    0.1346788 -62.68 0.0009444379    1.628    0.386
       143  -9.0854     67.0319    144.0646   8.6444769044e+01   3.7794880868e+01     0.435079    0.2377671  58.92  0.002177598    1.980    0.495
       144  -8.9885    244.2732    135.7979   4.6268994671e+01   4.2324040865e+00    0.2373626    0.1898834  56.63 0.0007817931    1.441    0.306
       145  -7.2667    111.0000    134.0012   7.4063304650e+01   3.3164587337e+01    0.2235819   0.07869361 -53.25 0.0005273991    2.812    0.644
       146  -6.9957    139.5067    138.5045   6.8180388077e+01   2.6680229141e+01    0.1476836    0.1392584  69.10  4.71964e-05    1.009    0.009
       147  -8.1622     69.6548    133.3091   8.4165880390e+01   3.9836534826e+01    0.1368114   0.09052727  74.87 0.0007044556    1.701    0.412
       148  -7.9508     68.3116    126.6692   8.3404863934e+01   4.1504848043e+01    0.1357078   0.09215514  79.08 0.0007043163    1.672    0.402
       149  -8.4698    169.1767    120.1793   5.7153120729e+01   2.3888090430e+01    0.3310293    0.2382794 -13.46 0.0009922179    1.879    0.468
       150  -7.1784     85.2840    121.3442   7.8052524131e+01   4.0281492593e+01    0.1348826     0.102836 -32.87 0.0004598664    1.641    0.391
       151  -8.5828     10.7176    121.2699   9.7020288292e+01   4.8494673818e+01    0.1423321   0.09763435  -4.43 0.0009079281    2.408    0.585
