#   1 NUMBER                 Running object number                                     
#   2 MAG_AUTO               Kron-like elliptical aperture magnitude                    [mag]
#   3 X_IMAGE                Object position along x                                    [pixel]
#   4 Y_IMAGE                Object position along y                                    [pixel]
#   5 X_WORLD                Barycenter position along world x axis                     [deg]
#   6 Y_WORLD                Barycenter position along world y axis                     [deg]
#   7 A_WORLD                Profile RMS along major axis (world units)                 [deg]
#   8 B_WORLD                Profile RMS along minor axis (world units)                 [deg]
#   9 THETA_WORLD            Position angle (CCW/world-x)                               [deg]
#  10 FWHM_WORLD             FWHM assuming a gaussian core                              [deg]
#  11 ELONGATION             A_IMAGE/B_IMAGE                                           
#  12 ELLIPTICITY            1 - B_IMAGE/A_IMAGE                                       
         1 -13.9337    245.1660    110.0425   3.1371036419e+01   1.4881718696e+01     1.768784    0.7254575 -49.90  0.009910889    1.846    0.458
         2 -11.3113     39.7546      7.8921   4.3919086775e+01   6.8531757611e+01    0.5677472    0.2802388 -29.94  0.003131303    2.451    0.592
         3 -13.2041     44.1256     23.1590   4.8779469821e+01   6.6053217875e+01    0.9028767    0.7566641 -57.42  0.005927635    1.644    0.392
         4 -12.1818    178.3470     23.8584   2.2255413353e+01   3.7944222068e+01    0.3872213    0.2942837 -72.79  0.002676684    1.051    0.049
         5 -11.4756    226.9954     16.0332   1.7322549954e+01   3.0118195258e+01    0.3704345    0.2184976 -86.84  0.002709698    1.440    0.305
         6 -12.5664    156.2717     12.0296   2.1821851213e+01   4.3595669744e+01    0.5329518    0.3230934  76.95  0.003463243    1.378    0.274
         7 -12.9541    158.5757      4.1425   1.9874986398e+01   4.3888938432e+01    0.7480349    0.2881186  65.68  0.004060537    2.232    0.552
         8 -12.2486    164.9966     12.0715   2.1013261422e+01   4.1828983272e+01    0.4361331    0.2577118 -70.29  0.002498293    1.486    0.327
         9 -12.3539    169.0457      8.6698   1.9946642487e+01   4.1364612738e+01    0.6122254    0.2740919 -62.30  0.003446687    2.096    0.523
        10 -12.7264    169.9346      2.7261   1.8647779159e+01   4.1762726626e+01    0.6922928    0.3465155 -88.47  0.004217035    1.730    0.422
        11 -11.0193    231.9251      9.4035   1.5988127975e+01   3.0025634984e+01    0.3103393    0.1669126 -73.07   0.00231221    1.428    0.300
        12 -10.9530    192.8780      6.0506   1.7666587859e+01   3.7083879670e+01    0.2544065    0.1020938 -49.38  0.001529146    2.013    0.503
        13 -10.9598    223.3551      4.6440   1.5657154891e+01   3.1909748556e+01    0.3546717   0.09759461 -57.27   0.00188885    2.777    0.640
        14 -10.0063     70.4589      5.7781   3.3373695147e+01   6.2542792061e+01    0.2880249    0.1206602  64.44  0.001409815    2.022    0.505
        15 -13.3749    177.6221      4.1181   1.8352790666e+01   4.0139145056e+01    0.8631569    0.4853801 -81.17  0.005738651    1.474    0.322
        16 -11.3568    131.2140      3.7462   2.2502870429e+01   4.9603645588e+01    0.5130039    0.1254106  64.44  0.002219167    2.987    0.665
        17 -10.8983     85.6971      3.6935   2.9291632303e+01   5.9451110655e+01      0.35775     0.179956  63.53  0.001566008    1.544    0.352
        18  -9.8930      1.4467      2.7999   6.1933066641e+01   7.5211707322e+01    0.2419622   0.09227619 -30.26  0.001154606    3.255    0.693
        19  -9.7757    217.4018      1.9186   1.5512761879e+01   3.3176865652e+01    0.1758092   0.09849523 -79.36  0.001169678    1.385    0.278
        20 -11.7020    208.0363      4.5033   1.6459804055e+01   3.4525131144e+01    0.3125623    0.1671285 -85.11  0.001987486    1.539    0.350
        21  -9.4404     17.6826      1.6839   5.1176356835e+01   7.3002767526e+01    0.1188267   0.07185432  20.51 0.0007038549    1.652    0.395
        22  -9.9768     14.6718    160.3320   9.5769222881e+01   3.9210191779e+01    0.1578491     0.101697  57.95 0.0007051646    1.716    0.417
        23 -10.6131    172.9907    159.4926   5.0665329143e+01   1.6651331724e+01    0.1906224     0.134718  37.82  0.001035264    1.597    0.374
        24 -10.8242    219.7365    156.0466   4.2231688018e+01   1.0709358974e+01    0.3355701    0.2105166  62.15  0.001870637    2.602    0.616
        25  -9.9716     20.5247    155.4889   9.3179725802e+01   4.0050772053e+01    0.1470561    0.1391636 -55.29  5.90803e-05    1.021    0.020
        26 -10.7679    163.4925    151.2240   5.0947117487e+01   1.9827887894e+01    0.5002966     0.256377 -36.65  0.002170659    2.087    0.521
        27  -9.8048     53.8326    143.4153   7.9587706948e+01   3.9656073837e+01     0.265334    0.1780596 -54.50  0.001193329    1.443    0.307
        28 -11.9500     10.6064    139.5547   9.4715931779e+01   4.5239144904e+01    0.4389966    0.2747931  73.91  0.001958382    1.932    0.482
        29 -13.1779    241.2164    125.2101   3.4283896866e+01   1.3049617620e+01    0.9701964    0.7625473  79.05  0.007233643    1.643    0.391
        30 -11.0666    160.4917    231.3803   6.5525340879e+01   3.9431828941e+00    0.3403624    0.1898512  -7.67  0.001585922    2.263    0.558
        31  -9.9450      4.2079    124.1795   9.5152756319e+01   4.9834760844e+01    0.2008163    0.1634092  54.18   0.00108015    1.374    0.272
        32  -9.1373    208.6803    123.3083   3.8018183075e+01   1.7942001312e+01    0.1212709   0.08389874 -70.63 0.0007033157    1.640    0.390
        33 -10.0805      9.3291    121.3246   9.2689124706e+01   5.0244120636e+01     0.159017   0.09315693 -36.46 0.0007050032    1.699    0.412
        34 -11.5860    189.2019    115.7375   3.9425534268e+01   2.2378116146e+01    0.6233777    0.3570762 -28.06  0.002877469    2.637    0.621
        35 -11.1778    212.6424    112.8996   3.5600320576e+01   1.9094976471e+01    0.4294954    0.2069451 -45.49  0.002298955    1.695    0.410
        36 -10.2359    224.4206    111.2236   3.3851419856e+01   1.7600114567e+01     0.302475    0.1092531 -49.56  0.001447385    2.236    0.553
        37 -12.0490    222.9198    107.1597   3.3316913644e+01   1.8471952842e+01    0.3716995     0.279325  27.19  0.002317848    2.277    0.561
        38 -10.6116    148.3679    110.5682   4.5541235052e+01   3.0707851408e+01    0.4775738    0.1896142 -57.70   0.00161243    3.492    0.714
        39 -10.3424     94.8187    111.6476   5.9073640951e+01   4.0854419051e+01    0.3239422    0.1831583 -74.02  0.001094309    3.384    0.705
        40  -9.8165    107.8400    109.3601   5.4799319199e+01   3.8860597120e+01    0.2143026    0.1362833  33.56 0.0009524255    1.742    0.426
        41  -9.8559     30.9787    101.8195   7.9978115984e+01   5.3236961840e+01    0.2525371    0.1527062 -17.57  0.001079474    2.026    0.506
        42 -10.5388    112.5073    100.4920   5.1374045772e+01   3.9781007698e+01    0.2665362    0.2581964 -89.77  0.001550577    1.013    0.013
        43  -9.5491    209.2358     94.0316   3.2577499860e+01   2.2695812230e+01    0.1593475   0.08248491 -45.71 0.0006341743    1.614    0.380
        44 -10.2096    179.1178     92.5324   3.6312330626e+01   2.8166339272e+01    0.2594064    0.1770795 -68.37  0.001475882    1.481    0.325
        45 -10.6491     12.8369     89.8669   8.5502311643e+01   5.7941159703e+01    0.2257077    0.1730061 -29.74  0.000918852    1.213    0.176
        46 -11.8632      2.6476     85.6495   8.9520024496e+01   5.9712144313e+01    0.8665205    0.2684855 -64.21   0.00322648    2.934    0.659
        47 -12.6049      4.4401     75.2941   8.6411551202e+01   6.1993522130e+01    0.6819517    0.4946879  80.95  0.003606244    1.980    0.495
        48 -13.0755     14.9387     73.1680   8.0517581086e+01   6.1581648548e+01    0.9428416    0.5639093  27.83  0.004788386    1.632    0.387
        49 -10.6685    192.6426     86.9211   3.3302286962e+01   2.6645098767e+01    0.3809903    0.1932014  61.11   0.00202042    2.172    0.540
        50 -10.2332    100.6026     84.3625   5.0361171444e+01   4.5344598985e+01    0.3122014    0.1367718 -46.51  0.001241687    2.389    0.581
        51 -12.4341     43.1007     80.7488   6.9411521948e+01   5.6502622532e+01     1.124539    0.7041242   7.92  0.005095313    1.966    0.491
        52  -9.7107    145.3600     81.1991   3.9417458660e+01   3.6644362702e+01    0.1819116    0.1657356  69.07  0.001131982    1.130    0.115
        53 -10.1324    215.1496     78.9346   2.9157530321e+01   2.4036850227e+01    0.3808276   0.09211238 -50.63  0.001476228    3.642    0.725
        54 -10.4393    220.8591     77.7000   2.8349895990e+01   2.3293699378e+01    0.2766961    0.1350565 -69.77  0.001404242    2.616    0.618
        55 -10.0606    169.4912     75.9580   3.4257961504e+01   3.2680984152e+01    0.2260335    0.1715906  49.18  0.001023833    1.581    0.368
        56  -9.3135    164.7216    134.3808   4.7356866771e+01   2.3036253752e+01    0.1397833    0.1014811 -74.93 0.0007005417    1.714    0.417
        57 -10.3879    207.8471     73.0339   2.8855124070e+01   2.6122609633e+01    0.1967104    0.1542902  86.67  0.001400064    1.267    0.211
        58  -9.2770    170.6246     71.3007   3.3096132384e+01   3.3183190930e+01    0.1330014   0.08430201 -77.21 0.0006620975    1.757    0.431
        59 -10.3574     74.8821     69.4813   5.3866944263e+01   5.3236473073e+01    0.3137716    0.2203279  41.24  0.001222026    1.317    0.241
        60 -11.7682    214.1676     67.3520   2.7168084165e+01   2.5871923670e+01    0.2562987    0.2118025 -67.85  0.001938255    1.115    0.103
        61  -9.7704    179.1790     66.3826   3.0908658923e+01   3.2273660555e+01     0.169779    0.1042375  79.67 0.0009546244    1.720    0.419
        62 -10.6712     25.4584     64.3622   7.2721339908e+01   6.2279620566e+01    0.2788567    0.2294488 -69.67  0.001608961    1.585    0.369
        63  -9.8985    200.0399     63.7081   2.7939497651e+01   2.8820043335e+01     0.160475    0.1301253 -76.36 0.0009205216    1.072    0.067
        64  -9.7117    250.1591     63.1737   2.3384118816e+01   2.0853296630e+01    0.1482463   0.08644954 -62.40 0.0008015264    1.330    0.248
        65  -9.1778    132.3410     63.7047   3.7597438810e+01   4.2182491434e+01     0.135965   0.09414706 -83.09 0.0007031039    1.659    0.397
        66 -10.5209    218.8345     61.6900   2.5714794714e+01   2.5883090364e+01    0.1587429     0.115462 -54.04  0.001146402    1.164    0.141
        67 -11.2005    210.1053     60.4665   2.6314197916e+01   2.7517581576e+01    0.2772696    0.1197817 -44.45  0.001524069    1.956    0.489
        68  -9.8628     18.3124    127.6609   9.0078759881e+01   4.7840694193e+01    0.1524237     0.106916  59.69 0.0007046139    1.694    0.410
        69 -11.6610    198.8492     52.0385   2.5842356223e+01   3.0634937376e+01    0.3890701    0.2104639 -35.30   0.00221699    2.166    0.538
        70 -11.8945    214.7091     52.3936   2.4432839994e+01   2.7819117247e+01    0.3942883    0.2323432 -37.20  0.002490863    1.891    0.471
        71 -10.9497     85.6174     47.9689   4.3853171713e+01   5.4526143277e+01    0.3727202    0.2737647  59.67  0.002066587    1.252    0.201
        72  -9.9196    164.7337     53.6250   3.0069117369e+01   3.6925039529e+01    0.2045311    0.1495313 -33.75  0.001250292    1.675    0.403
        73 -10.6947    196.9009     43.8717   2.4475462247e+01   3.2051830452e+01    0.1607072    0.1399995 -82.21  0.001088644    1.233    0.189
        74 -11.2748    186.6103     41.3470   2.4979102355e+01   3.4279450865e+01    0.4147349    0.1551617 -64.90  0.001665541    3.855    0.741
        75 -10.4533    181.4396     39.9546   2.5223160115e+01   3.5438628629e+01    0.2423999    0.1307551 -87.82  0.001352004    1.949    0.487
        76 -11.3444     81.5361     39.6389   4.2296899315e+01   5.6532656686e+01    0.4945156    0.2346408 -40.76  0.002348854    2.395    0.582
        77 -11.4877      3.3513     41.6829   7.7613789684e+01   6.9006642385e+01     0.423863    0.3153001  19.12  0.002566891    1.261    0.207
        78 -11.8758    190.7789     36.8449   2.3693498669e+01   3.4057252004e+01    0.3961353    0.1356449 -51.39  0.001955464    2.497    0.600
        79 -10.9744      6.1472     35.3432   7.3610004039e+01   6.9867710761e+01    0.3157576    0.1700123  37.33  0.001411112    2.036    0.509
        80 -10.7729    197.8939     34.1663   2.2548448208e+01   3.3072974756e+01    0.1818107    0.1165805 -70.36   0.00123969    1.276    0.216
        81 -12.0757    241.2398    228.8489   5.0604528338e+01  -3.5295792926e+00    0.4407605    0.2963419  28.43  0.003201945    1.908    0.476
        82 -11.8196     39.9991     29.2922   5.3054074620e+01   6.6010906600e+01     0.395469    0.3159999 -27.26  0.001925362    1.419    0.295
        83 -11.9528    248.7800    224.4604   4.8856827091e+01  -3.4794084778e+00    0.5264792    0.2298015 -41.99  0.003187635    1.707    0.414
        84  -9.3679    229.3391     30.3023   1.9526276606e+01   2.8133721534e+01   0.08257112   0.07750693  75.98 0.0007038006    1.670    0.401
        85 -10.0928    145.4900     27.7343   2.6649665751e+01   4.4162020246e+01    0.3745965    0.1564186 -68.69  0.001446486    3.975    0.748
        86  -9.3327     90.5110     28.4780   3.6372360116e+01   5.5986538632e+01    0.1263653    0.1059431  61.28 0.0008100638    1.024    0.023
        87 -10.7955    183.2345     27.5761   2.2559948596e+01   3.6582144651e+01    0.2037368   0.09364114  78.54  0.001049856    2.054    0.513
        88 -11.0703      4.0050    230.0235   1.0456023699e+02   2.1764319851e+01    0.3014873    0.1947026   9.39  0.001584383    1.737    0.424
        89 -11.7856    173.1879     20.6141   2.2061788907e+01   3.9308726813e+01    0.3532961     0.174258  66.32  0.002091761    1.880    0.468
        90 -10.0179    224.5749     22.8224   1.8587829477e+01   2.9767025759e+01    0.2041477    0.1270449 -72.75  0.001542583    1.228    0.186
        91 -10.4046     11.6823     24.3427   6.5711484250e+01   7.1006712161e+01     0.171987    0.1407955  50.58  0.001113751    1.737    0.424
        92 -10.3279    187.4533     19.4398   2.0601791468e+01   3.6694936162e+01    0.2277092    0.1611677  77.12  0.001498109    1.339    0.253
        93  -9.7693    111.4980    229.0262   7.6451054966e+01   1.0300054127e+01    0.2047138    0.1343151 -52.37  0.001029228    1.581    0.367
        94 -10.2955     20.0363     15.5940   5.6847411395e+01   7.1048329803e+01    0.3182577    0.1525279  17.73  0.001346042    3.293    0.696
        95 -13.2587    203.3247    220.8580   5.5566864961e+01   1.2252951759e+00    0.7510174    0.5659072 -14.48  0.005055095    1.159    0.137
        96 -11.3438    158.4999    225.4830   6.5044703025e+01   5.3053622683e+00    0.2461745    0.2049393 -20.24  0.001105405    1.036    0.035
        97 -10.0591     79.5184    224.5002   8.4057417117e+01   1.5283740782e+01    0.1418412     0.131741  18.87 0.0006068065    1.014    0.014
        98 -13.9088    184.3858    215.4836   5.8206387309e+01   4.2155466263e+00     1.140265    0.5936198 -37.30  0.005934713    1.664    0.399
        99 -10.9429     50.4242    218.0697   9.1199455723e+01   2.0249675754e+01    0.3403652    0.2059063  19.13  0.001578403    1.645    0.392
       100 -10.2332     78.2935     13.1488   3.4123169677e+01   6.0216374069e+01    0.1825817    0.1437465  29.82  0.001196652    1.463    0.316
       101 -10.0116    128.5167     18.2317   2.6540355981e+01   4.8806674807e+01    0.2356146    0.1403932  72.17  0.001399858    1.400    0.286
       102 -10.5952     67.6970    217.0512   8.6324152089e+01   1.8506450010e+01     0.199993    0.1949325 -46.41 0.0008093599    1.077    0.071
       103  -9.4903     31.6980    227.3176   9.7162920690e+01   1.9926419573e+01    0.1466546   0.09142603  55.23 0.0005001412    1.621    0.383
       104 -12.9147    244.3133    200.7150   4.5944133251e+01   5.5753908085e-01    0.8829947    0.4730479 -45.79  0.005582852    1.517    0.341
       105 -11.6068    247.0956    192.4508   4.4293621666e+01   1.6009644423e+00    0.3791531    0.3203423 -53.94  0.002325525    1.461    0.315
       106 -13.0434    248.3171    185.6181   4.3077019109e+01   2.5641545263e+00     1.413776     0.436756 -49.74  0.006335317    3.034    0.670
       107 -11.0010    202.8544    196.8710   5.1802746355e+01   5.5053541287e+00    0.2305176    0.1543285 -39.96   0.00139842    1.224    0.183
       108 -11.3873    196.0357    185.2746   5.1045933949e+01   8.4476924716e+00     0.367469    0.2457546 -57.05  0.002070416    1.659    0.397
       109 -10.7410    191.0221    185.6992   5.2013545108e+01   9.0007941843e+00    0.2388299    0.1644879  24.04  0.001029418    1.662    0.398
       110 -10.0079     37.7677    185.3987   9.1205936015e+01   3.0151575686e+01    0.2076752    0.1419862   3.73 0.0009475779    1.668    0.401
       111 -10.0084     26.3386    180.6714   9.4227843716e+01   3.2587598348e+01    0.1611149    0.1012527  57.11  0.000637071    1.733    0.423
