#   1 NUMBER                 Running object number                                     
#   2 MAG_AUTO               Kron-like elliptical aperture magnitude                    [mag]
#   3 X_IMAGE                Object position along x                                    [pixel]
#   4 Y_IMAGE                Object position along y                                    [pixel]
#   5 X_WORLD                Barycenter position along world x axis                     [deg]
#   6 Y_WORLD                Barycenter position along world y axis                     [deg]
#   7 A_WORLD                Profile RMS along major axis (world units)                 [deg]
#   8 B_WORLD                Profile RMS along minor axis (world units)                 [deg]
#   9 THETA_WORLD            Position angle (CCW/world-x)                               [deg]
#  10 FWHM_WORLD             FWHM assuming a gaussian core                              [deg]
#  11 ELONGATION             A_IMAGE/B_IMAGE                                           
#  12 ELLIPTICITY            1 - B_IMAGE/A_IMAGE                                       
         1 -13.7320    199.0550      3.1627   6.5739242962e+01   3.4379884427e+01     1.511588      0.77367  62.08  0.002708516    1.937    0.484
         2 -14.1676    179.1300     26.2080   7.5366867242e+01   3.7136349452e+01     1.631842    0.9991589  13.99  0.004878167    2.075    0.518
         3 -14.4049    187.6200     19.0127   7.1900036012e+01   3.5758413227e+01     2.567883     1.247864  -6.10  0.009032521    2.564    0.610
         4 -12.7349    193.3302     10.4426   6.8535245596e+01   3.5156370889e+01    0.5863427    0.4996156 -27.57  0.001127891    1.117    0.105
         5 -10.8902    144.5316    249.5006   1.3109248988e+02   9.2865235858e+00    0.2056651    0.1160595  34.49 0.0008157496    1.293    0.227
         6 -11.8449    247.0365    249.2578   1.1439414805e+02  -3.0647322732e+00     0.458061    0.1662491  31.28  0.002796489    2.031    0.508
         7 -11.6976    218.3082    249.8602   1.1888964753e+02   1.9937833331e-01    0.3983383   0.09145705  33.28  0.001813385    3.327    0.699
         8 -13.0086    198.0716    248.7880   1.2200377946e+02   2.7404459992e+00    0.8056183    0.2220979  31.48  0.003804031    2.969    0.663
         9 -11.8608    122.3373    239.8368   1.3404390131e+02   1.3231993544e+01    0.2792224    0.1463216  41.52  0.001607709    1.480    0.324
        10 -11.9836    126.4710    249.6505   1.3422441169e+02   1.1467762013e+01    0.3206192    0.2364778   3.93  0.001884216    1.710    0.415
        11 -12.4231    125.4677    244.3029   1.3390758070e+02   1.2266061935e+01    0.3214015     0.215445  43.85  0.001735074    1.247    0.198
        12 -10.1744    228.6610    205.2922   1.1075597573e+02   3.2497179092e+00    0.1799969    0.1643143   3.30  0.000941724    1.587    0.370
        13 -11.4408    193.0484    194.7356   1.1521373342e+02   9.5250304662e+00    0.7116487    0.4069477 -58.71  0.002670087    6.179    0.838
        14  -9.2522     63.8101    201.1438   1.4183127386e+02   2.6182755853e+01    0.1307472    0.1243323  28.15 0.0003458544    1.277    0.217
        15 -10.1303    185.5240    238.0047   1.2275429630e+02   5.4252551642e+00     0.132309    0.1009616 -24.60  0.000625786    1.564    0.361
        16 -12.1377     79.9404    191.4046   1.3762380262e+02   2.6069937892e+01    0.3866924    0.2386484 -50.73  0.002337825    1.936    0.483
        17 -11.9834     83.5759    185.3435   1.3622316896e+02   2.6736331503e+01    0.2549912    0.2164312 -43.85 0.0006952427    1.424    0.298
        18  -9.0826    181.5985    192.1952   1.1692871300e+02   1.1570609315e+01    0.1518926    0.1056421 -16.62 0.0003519055    1.526    0.345
        19  -9.7962     65.5747    185.7436   1.4017168978e+02   2.8799908774e+01    0.1978837    0.1741283   2.11  0.001294072    1.467    0.318
        20 -13.5722     53.6520    148.9566   1.3932103070e+02   3.7617387657e+01     1.766326    0.5504845 -47.67  0.006122755    4.708    0.788
        21 -13.4175     79.3083    170.3690   1.3552084662e+02   3.0142712726e+01    0.4113722    0.2676908 -36.57  0.001516674    2.108    0.526
        22 -13.6718     58.2244    130.9550   1.3589834814e+02   4.1139093943e+01      2.22008    0.7724847 -78.33  0.006784557    5.068    0.803
        23 -13.6111     94.0209    166.1406   1.3156483175e+02   2.9051424040e+01     4.441379    0.5224671  40.83   0.00111435    5.879    0.830
        24 -13.6255     68.0203    144.3918   1.3507555711e+02   3.6970930296e+01     1.224707     0.761437 -79.28   0.00523454    1.725    0.420
        25 -11.6048     90.7679    173.7531   1.3329477252e+02   2.8005231710e+01    0.2349534    0.2136334  50.49  0.000460995    1.020    0.020
        26 -12.4385     95.8353    148.3795   1.2854052680e+02   3.2404569755e+01    0.2703281    0.2400367  19.45 0.0005479392    1.204    0.169
        27 -10.5359    133.7696    144.4380   1.1856920341e+02   2.7175760178e+01    0.8608601    0.1984595 -53.33  0.001983979    8.165    0.878
        28 -10.6915    106.5108    148.5255   1.2590801375e+02   3.0788300628e+01     0.321844     0.246875  16.99  0.001031088    1.476    0.322
        29 -10.1468    108.3187    145.0341   1.2486367910e+02   3.1224944687e+01    0.3322402    0.2054732 -26.92  0.001180962    2.362    0.577
        30 -10.3804    114.9936    134.9836   1.2133033182e+02   3.2228318068e+01    0.3325986    0.2309561 -26.54  0.000893987    1.785    0.440
        31 -19.4456     13.4047    135.9028   1.4851710696e+02   4.4091514495e+01     17.37256     3.613047 -81.35   0.05823243    4.777    0.791
        32 -11.1315    103.2117    131.8921   1.2378674812e+02   3.4786057855e+01    0.3589847     0.265184  13.18 0.0008460291    1.661    0.398
        33 -10.1127    136.0000    128.4829   1.1474240630e+02   2.9880853938e+01    0.3147379   0.08040633 -45.81 0.0009424717    3.997    0.750
        34 -10.2748    160.7388    127.3604   1.0871984841e+02   2.5447857655e+01    0.2634859    0.1755819 -47.55  0.001182353    1.689    0.408
        35 -10.9036    120.2725    126.5376   1.1825940853e+02   3.3082308580e+01    0.4865099    0.2260453 -29.68   0.00155523    4.049    0.753
        36  -9.9056    157.5209    219.4951   1.2537743325e+02   1.1358286341e+01    0.1142735   0.08909412  27.74 0.0002600522    1.018    0.017
        37 -10.0050    110.4709    122.5478   1.1998208150e+02   3.5605534477e+01    0.2257991    0.2193818   2.80 0.0001647127    1.027    0.027
        38  -9.8476    135.0000    119.9678   1.1306503446e+02   3.1750460015e+01    0.2394103   0.08146976 -44.87 0.0008049665    2.960    0.662
        39  -9.6549    193.9855    157.5278   1.0832263761e+02   1.4501927509e+01    0.2569457    0.1692774 -10.49  0.001149599    1.601    0.375
        40  -9.6263    119.1699    218.0937   1.3244972452e+02   1.6688054373e+01    0.1742206    0.1350311  19.20 0.0009298011    1.317    0.241
        41 -10.4504    168.4190    113.1617   1.0361488775e+02   2.6449778603e+01     0.340149    0.2702107 -67.08    0.0011864    1.832    0.454
        42  -9.6449    205.1266    110.3533   9.5660479857e+01   1.9485891842e+01    0.3180945    0.1533887  36.72  0.001338881    2.191    0.544
        43 -10.7159    173.2635    212.9393   1.2160034768e+02   1.0033807292e+01    0.2874067    0.1857201  19.49  0.001825904    1.390    0.281
        44 -11.2264     65.1424    105.1383   1.2964057469e+02   4.6360917947e+01     0.329811    0.2449448   7.25  0.001737273    1.723    0.420
        45 -11.5227    161.8145    247.7677   1.2794827501e+02   7.3446779938e+00    0.2765736    0.1888814 -31.24  0.002095554    1.859    0.462
        46 -12.2220    139.4914    247.7949   1.3179319544e+02   1.0110852262e+01    0.4858686    0.2634249 -55.36  0.003239443    2.667    0.625
        47 -10.5265    172.3235    246.0399   1.2596545833e+02   6.2219632917e+00     0.169438   0.08959193 -31.08  0.001094752    2.434    0.589
