#   1 NUMBER                 Running object number                                     
#   2 MAG_AUTO               Kron-like elliptical aperture magnitude                    [mag]
#   3 X_IMAGE                Object position along x                                    [pixel]
#   4 Y_IMAGE                Object position along y                                    [pixel]
#   5 X_WORLD                Barycenter position along world x axis                     [deg]
#   6 Y_WORLD                Barycenter position along world y axis                     [deg]
#   7 A_WORLD                Profile RMS along major axis (world units)                 [deg]
#   8 B_WORLD                Profile RMS along minor axis (world units)                 [deg]
#   9 THETA_WORLD            Position angle (CCW/world-x)                               [deg]
#  10 FWHM_WORLD             FWHM assuming a gaussian core                              [deg]
#  11 ELONGATION             A_IMAGE/B_IMAGE                                           
#  12 ELLIPTICITY            1 - B_IMAGE/A_IMAGE                                       
         1 -12.1592    117.0784     45.7185   2.0061598701e+01   4.9165312907e+01    0.9162061    0.7983184  16.52  0.005136187    1.271    0.213
         2 -11.5631     78.9231     35.6388   2.7122998270e+01   5.9280602289e+01    0.6995965     0.477064 -26.37  0.003109828    1.578    0.366
         3 -11.3481      3.9399     36.7461   6.4143914824e+01   7.0061656169e+01    0.8069559    0.2530413 -45.28  0.003305956    2.406    0.584
         4 -12.4258     58.3327     29.2495   3.2034775613e+01   6.4284764941e+01    0.6655143     0.340742 -20.41  0.001434707    2.437    0.590
         5 -10.4028    105.5515      1.8609   6.7530169685e+00   5.6656193235e+01    0.3115937    0.2647131  70.76  0.001402517    1.071    0.066
         6 -12.2391    104.7269     12.8617   1.1030142260e+01   5.5950078783e+01    0.9809633    0.5281094   1.70  0.003991847    2.866    0.651
         7 -12.5625    105.7226     19.9234   1.3461606367e+01   5.5031785430e+01     0.402593    0.3301724 -70.94  0.000367412    1.437    0.304
         8 -12.4037    114.0008     25.1998   1.3588336274e+01   5.2478018740e+01     1.258141     0.255392  53.01  0.003997006    3.625    0.724
         9 -11.7762     20.2553     21.6056   4.7627802798e+01   7.1307897769e+01    0.6126712    0.3305916 -25.04  0.001591527    1.853    0.460
        10 -10.9097      9.5190     19.5120   5.3457665814e+01   7.2788571337e+01    0.3949908     0.212717   0.66  0.001089542    1.987    0.497
        11  -9.7800      5.6677      9.0353   5.0732542036e+01   7.4830619786e+01    0.4837577    0.2321833 -37.01  0.002703436    1.858    0.462
        12 -12.4801     15.6590     12.1044   4.5562517319e+01   7.3300247508e+01    0.7269536    0.5711305 -24.79  0.003915205    1.262    0.208
        13 -12.2798     22.5510     11.2183   4.0739835654e+01   7.2551161307e+01    0.6039432    0.4286532 -13.25  0.003070646    1.263    0.208
        14 -11.1632    134.2375     22.0858   8.7407994594e+00   4.7849378255e+01    0.4294046    0.3158214  85.15  0.002378737    1.341    0.255
        15 -12.1912     48.8797     12.9091   2.8093533968e+01   6.8093910164e+01    0.9135068    0.2458167  45.93  0.003472882    3.121    0.680
        16 -11.4705     35.4341     17.7565   3.7047952490e+01   6.9789478593e+01    0.5512053    0.2804507 -26.72  0.002798111    2.045    0.511
        17 -10.8704     68.6367     19.5134   2.3646121653e+01   6.3464480875e+01    0.3721921    0.3129563  40.30  0.001807353    1.080    0.074
        18 -11.5696    166.1850     16.6174   2.7446732682e+00   4.0626691738e+01    0.4443175    0.2269935  61.98  0.001155078    1.770    0.435
        19 -11.4095     86.0043     14.1745   1.5980732948e+01   6.0217314439e+01    0.6399859    0.3823995  11.58  0.002898785    2.221    0.550
        20 -10.6401     89.1493      8.3938   1.2765961608e+01   6.0016195744e+01    0.3248307    0.2558849 -39.14  0.001398329    1.506    0.336
        21 -10.9096    126.9965     16.6730   8.1934960025e+00   5.0175700902e+01     0.389943    0.2149414 -28.31 0.0004285969    2.030    0.507
        22 -12.4742    134.5193     14.9093   6.4150477437e+00   4.8495545037e+01    0.9596292    0.4040999  72.49  0.004073732    2.232    0.552
        23 -11.6261    227.7444     14.9813   3.5700288492e+02   2.7202896725e+01    0.4118283    0.2021798 -75.03  0.001405533    2.019    0.505
        24 -10.3170    218.5564     12.8089   3.5717791743e+02   2.9300526237e+01     0.247098    0.2081128 -31.92  0.001607582    1.437    0.304
        25 -10.8974    190.7043     12.4619   3.5926001041e+02   3.5353170019e+01    0.3327466    0.1418094 -42.07  0.001645677    2.107    0.525
        26 -11.4721    192.9557      7.3082   3.5786223518e+02   3.5361052726e+01    0.3715966    0.3255719  -0.64  0.002539069    1.612    0.380
        27 -11.7938    212.1773      9.4836   3.5691599628e+02   3.0975733660e+01    0.4566112    0.2878968 -22.20  0.001823946    2.048    0.512
        28  -9.6619    183.0111     12.0001   3.5983559672e+02   3.7148961371e+01    0.1519117    0.1236707 -85.55 0.0003593663    1.034    0.033
        29 -10.8457    120.5263     11.6762   7.6134816114e+00   5.2225865411e+01    0.3067714     0.137844  66.69 0.0009785657    1.903    0.475
        30 -11.5904    168.1309      9.6589   6.8424709453e-01   4.0846641703e+01    0.5646849    0.2418049  68.94  0.002584904    2.000    0.500
        31 -10.2497    164.4584      4.8872   3.5979267626e+02   4.2153976164e+01     0.361891    0.2203935  28.73  0.001743633    2.580    0.612
        32 -10.7646     64.2949     10.0394   2.0691115516e+01   6.5357799502e+01    0.3292501    0.2224599  63.69  0.000513686    1.653    0.395
        33 -10.0862     62.9323      6.5399   1.9451051760e+01   6.5967454105e+01    0.3725503    0.1850053  59.64  0.001802449    2.005    0.501
        34  -9.6145    145.2764      9.1310   3.1436342312e+00   4.6393089084e+01    0.2782568    0.1588488   7.81  0.001250359    3.057    0.673
        35  -9.7313      1.0849      8.2276   5.3678511074e+01   7.5371353408e+01    0.3154694    0.0454824 -47.44  0.001041206    5.554    0.820
        36 -11.4203    184.9527      6.5571   3.5833944578e+02   3.7235423019e+01    0.3643301    0.2021898 -63.34  0.001614924    1.705    0.414
        37 -11.3482    154.9640      7.0940   1.3985482526e+00   4.4226935014e+01    0.5408933    0.2387076  82.91  0.002397685    2.269    0.559
        38  -9.9755     72.3925      3.3429   1.4963501362e+01   6.4214006320e+01    0.4473497    0.1407513  35.40  0.001497857    4.261    0.765
        39  -9.6269     77.8650      7.3726   1.5251628319e+01   6.2669698582e+01    0.2424819    0.2045899 -71.03 0.0007366659    1.550    0.355
        40  -9.2462     76.4678      3.5154   1.3904175237e+01   6.3298972876e+01    0.2198551    0.1439428  49.21  0.000670548    1.245    0.197
        41 -10.0820    232.2314      6.4833   3.5502731770e+02   2.7208394279e+01    0.2578222    0.1207396 -65.71  0.001162632    1.890    0.471
        42 -10.6897    122.0471      5.5026   5.2686472462e+00   5.2378739663e+01    0.2604267    0.1342041 -20.53  0.001129914    2.325    0.570
        43 -10.6099    176.3403      5.8343   3.5891250481e+02   3.9281407185e+01    0.2402289     0.151995  74.23 0.0006455151    1.384    0.277
        44 -10.8230    243.6700      4.2944   3.5398527835e+02   2.5242546758e+01    0.2577725    0.1230693 -72.66  0.001509355    1.888    0.470
        45  -9.6626    245.7858      1.3352   3.5333024996e+02   2.5147908845e+01    0.1497442   0.08880287  88.23 0.0002908075    1.539    0.350
        46 -11.7978    137.8461      4.1058   2.5796826149e+00   4.8634554354e+01    0.6163689    0.1918634  65.16 0.0003740818    2.481    0.597
        47 -12.1092    133.1602      2.5655   2.7137268973e+00   4.9900721148e+01    0.5620285    0.3049667  67.94  0.001862546    1.524    0.344
        48 -11.1469    113.8613      2.6238   5.5911735722e+00   5.4594894530e+01    0.5086563    0.2708882  89.95  0.001955585    2.269    0.559
        49 -10.7880    233.8873      2.2912   3.5411837682e+02   2.7309410255e+01    0.2777453    0.1686631 -74.13  0.001837666    1.360    0.265
        50 -10.5695    218.5335      3.5019   3.5524093392e+02   3.0254928862e+01    0.2379101    0.1807251  83.09 0.0007989647    1.259    0.206
        51 -10.6192    223.6443      2.7127   3.5477446075e+02   2.9293516814e+01     0.222699    0.1568817 -66.69 0.0002954064    1.108    0.098
        52 -11.0805    206.3538      2.3460   3.5577330581e+02   3.2916882094e+01    0.4439438     0.188862 -88.12  0.002169211    2.347    0.574
        53 -10.4295      2.0786      1.9986   4.9344809314e+01   7.6218233974e+01    0.2289682    0.1410007 -14.80  0.001027691    1.404    0.288
        54  -8.7314     64.2577      2.3559   1.6956855885e+01   6.6047407003e+01    0.1301418   0.07917871  27.62 0.0006969101    1.614    0.381
        55  -9.3093     33.7469      1.8571   2.9042301428e+01   7.1954714774e+01    0.1879757    0.1254426   4.81 0.0007449792    1.454    0.312
        56  -9.5201     12.7610      2.1853   4.1678859760e+01   7.5014017595e+01    0.1669781    0.1098883   1.26 0.0005040238    1.336    0.251
        57  -9.2470    160.3525      1.3059   3.5924000033e+02   4.3438324563e+01    0.1275498   0.08224634  49.29 0.0007041871    1.711    0.416
        58  -9.6549    152.4469      1.4439   8.7311224071e-02   4.5316297943e+01    0.2471839    0.1067024  74.79  0.000639457    1.980    0.495
        59 -10.6203     41.7890      3.7531   2.6288416696e+01   7.0356937143e+01    0.3386739    0.1927523  25.55   0.00183749    1.671    0.402
        60  -9.1836     81.9836      1.0000   1.1367125806e+01   6.2247343102e+01    0.2058682   0.06191651  63.04 0.0004584506    2.800    0.643
        61 -11.3647      4.3829    105.6666   7.9042547114e+01   5.4116404994e+01    0.4072801    0.3872578  51.84  0.002680559    1.203    0.169
        62  -8.7883    249.3691    250.2883   4.0006010216e+01  -9.9892547610e+00    0.1161231    0.0627089  -2.17 0.0007022404    1.709    0.415
        63  -8.7401    202.2910    250.3390   4.8338301948e+01  -4.7668948591e+00     0.123309   0.07439602  -3.74 0.0007024673    1.645    0.392
        64  -9.2726     79.0742    114.8518   5.3194754527e+01   4.3381816807e+01    0.2131775    0.1798318  -8.80 0.0008254682    1.317    0.241
        65 -10.1824     35.3195    102.9006   6.6544342741e+01   5.2403384728e+01    0.6018841    0.2966163  -3.62  0.002147803    3.439    0.709
        66 -12.0106     25.5059    106.0079   7.0985811238e+01   5.2548682423e+01    0.8759076    0.5410879 -58.42  0.003258499    1.412    0.292
        67 -11.6178     22.3090    114.1639   7.3595347466e+01   5.0728421161e+01    0.5716015    0.2839138   3.20  0.002152563    2.707    0.631
        68 -11.1931     28.4917    112.8491   7.1076009909e+01   5.0531191061e+01    0.3107548    0.2719043   8.67 0.0009171638    1.253    0.202
        69  -8.8528     67.3701    114.6732   5.7206105302e+01   4.5309743037e+01    0.1603467    0.1165976  67.80 0.0007032838    1.816    0.449
        70  -9.6153     48.8256    112.0722   6.3336084679e+01   4.8538392491e+01    0.2180074    0.1982552  72.88 0.0006234541    1.220    0.180
        71 -10.5594     12.7895    111.7830   7.6754532873e+01   5.2050252373e+01    0.2957878     0.196775 -86.11 0.0002382154    1.533    0.348
        72 -11.0583     16.5223    109.4503   7.5007202014e+01   5.2385573138e+01    0.3359814     0.304354 -74.95 0.0006534853    1.080    0.074
        73 -11.9098     79.9421    107.9702   5.1153947229e+01   4.4908914070e+01    0.4399141    0.3390298  18.87 0.0008153935    1.411    0.291
        74  -8.9696    101.3539    109.3277   4.4491008327e+01   4.0593837570e+01    0.1659223    0.1238726  -6.06 0.0007046555    1.772    0.436
        75  -9.4362    174.0450    108.4628   2.5874894048e+01   2.5063442210e+01    0.2248378    0.1471501  56.86  0.001026994    1.669    0.401
        76 -10.2374     85.7531    103.2998   4.7921026417e+01   4.4980449910e+01    0.2663006    0.2369809 -36.03 0.0003780913    1.109    0.098
        77 -11.0716     50.6180    100.6496   6.0052556837e+01   5.1177386369e+01    0.6241162     0.327807 -34.54   0.00248651    2.222    0.550
        78 -10.6243     17.2093    100.7706   7.3304606200e+01   5.4539842309e+01    0.2708119    0.2234032  86.17  0.000381682    1.327    0.246
        79  -8.9705     33.6715     98.2891   6.6217235077e+01   5.3728461488e+01    0.1487746    0.1287062 -39.51 0.0002821057    1.067    0.063
        80 -10.3030     30.2423     96.4685   6.7214956951e+01   5.4519882096e+01    0.5160916    0.1947924 -51.08  0.002037123    2.232    0.552
        81 -11.5158      9.2133     96.9725   7.5863079615e+01   5.6026968866e+01    0.4121996     0.373366  38.08 0.0003896637    1.273    0.215
        82  -9.9356     80.9665     98.4420   4.8221988826e+01   4.6981194294e+01    0.3136576    0.2426522  16.40  0.001083651    1.422    0.297
        83 -11.7725     67.3741     95.0128   5.2182238093e+01   5.0097979155e+01    0.4796129    0.3863893   5.46  0.001703951    1.351    0.260
        84 -10.8683    246.0068     97.9923   1.2381518356e+01   1.2721472443e+01    0.2215169     0.129264 -17.60  0.001035902    2.645    0.622
        85  -8.9899    210.3367     98.2726   1.7166151388e+01   1.9283723469e+01    0.1283868    0.1053754  10.10 0.0003504768    1.602    0.376
        86  -9.8739     67.5743     81.3573   4.8097232801e+01   5.3172877796e+01    0.3545333     0.235344 -33.72   0.00164701    1.557    0.358
        87 -10.9992     79.2190     92.8602   4.7242964570e+01   4.8575759084e+01    0.7700434    0.6603191 -47.09  0.003999402    1.172    0.147
        88 -12.1989     75.8907     79.3281   4.4318527195e+01   5.2152566570e+01    0.8108844    0.5787198  65.98 0.0008239487    2.067    0.516
        89 -11.6732    125.9002     94.4138   3.3189086254e+01   3.8613869005e+01    0.2681696    0.2543027 -38.09 0.0002827105    1.065    0.061
        90 -10.0550     42.7858     94.3944   6.1634926060e+01   5.3688707285e+01    0.2916159     0.263095  38.45  0.001469377    1.221    0.181
        91 -10.3442     43.1600     90.8534   6.0601317842e+01   5.4503470119e+01     0.257405     0.208798 -30.22 0.0006024743    1.186    0.157
        92 -11.3960     22.1486     93.7640   6.9982664944e+01   5.5910333975e+01    0.6346579    0.3532142  49.54  0.002297234    2.329    0.571
        93 -10.2645     18.3736     86.4560   7.0080461505e+01   5.8004389486e+01    0.3573607    0.2893447  -8.85  0.001613527    1.290    0.225
        94  -9.8864     16.1533     94.9226   7.2682629421e+01   5.6081888659e+01    0.2061878    0.1760767  86.98  0.001217762    1.297    0.229
        95 -10.3264     36.0248     91.2845   6.3659828637e+01   5.5210671522e+01    0.4751474    0.4079539  33.52   0.00250704    1.278    0.218
        96 -11.1392     27.6523     85.5651   6.5858977832e+01   5.7435992746e+01    0.5324085    0.4359523 -24.77   0.00149642    1.178    0.151
        97  -9.8417     50.0511     91.7169   5.8021081500e+01   5.3424660745e+01    0.2736408    0.2020877  44.44  0.001371749    1.527    0.345
        98  -9.5267     38.3261     77.8775   5.9195610808e+01   5.8133868106e+01    0.3217448    0.1807995  41.24  0.001284873    2.068    0.516
        99 -10.0263     52.0729     87.1535   5.5968260105e+01   5.4231633694e+01    0.2418584    0.1947063 -45.69 0.0003694637    1.174    0.148
       100 -11.3652     45.3018     84.2489   5.7964174493e+01   5.5808075313e+01     0.527203    0.4674872  71.14  0.001757207    1.407    0.289
       101  -9.7030     98.3269     90.8393   4.0190811432e+01   4.5328316683e+01     0.246319    0.2012229  50.41 0.0003961543    1.273    0.214
       102 -10.6202      1.9780     71.4859   7.4422541451e+01   6.2598023101e+01    0.4379739    0.1674406 -59.97  0.001980457    2.019    0.505
       103 -11.0402      3.0068     81.8230   7.5902973753e+01   6.0089606499e+01    0.5646397    0.3058934 -88.59  0.002165307    2.294    0.564
       104 -11.4030      5.2504     88.4100   7.6077236641e+01   5.8372037659e+01     0.694659    0.2853872  22.20  0.003109365    2.626    0.619
       105 -10.0629      9.4801     86.5046   7.3933634615e+01   5.8598224079e+01    0.2254452    0.2118434  70.44 0.0006943719    1.240    0.194
       106  -8.7652    111.3301     88.3008   3.5453250957e+01   4.3096318721e+01    0.1578565    0.1217063   7.55 0.0004550668    1.646    0.393
       107  -9.6796     67.1036     88.1989   5.0341929479e+01   5.1719974290e+01    0.2287574    0.1924259 -15.37 0.0005338799    1.223    0.182
       108  -9.9510     90.5636     86.0324   4.1266657113e+01   4.7924851222e+01    0.3667582    0.2966211 -70.89  0.001775316    1.560    0.359
       109  -9.8528     37.5019     85.4941   6.1602076390e+01   5.6444239912e+01     0.338781    0.2054713   7.22  0.001562806    1.946    0.486
       110 -10.0545    143.1627     84.2289   2.5985744126e+01   3.6611822691e+01    0.2403557    0.2087149 -43.55 0.0005386203    1.159    0.137
       111 -10.0769    113.1495     83.3005   3.3405230878e+01   4.3697218932e+01    0.4461184    0.2849888  68.42  0.001779254    2.243    0.554
       112  -9.9020     59.9740     83.1024   5.1612651454e+01   5.4009015449e+01    0.2585151    0.2072925  29.95  0.001350849    1.263    0.209
       113  -9.4652    103.2902     79.9374   3.5272610831e+01   4.6528033087e+01    0.2108728    0.1928491 -29.74 0.0004637246    1.113    0.102
       114  -9.2113     92.2963     71.6804   3.6068709129e+01   5.0477917080e+01    0.2394608     0.153513 -45.60  0.001075929    1.647    0.393
       115 -10.7507     89.3597     77.5511   3.8985687689e+01   4.9925480467e+01    0.4638822    0.3199234  46.76  0.001381108    1.469    0.319
       116 -10.1645     94.3420     76.1954   3.6892667360e+01   4.9171460406e+01    0.3402131    0.2920487  33.33 0.0008014881    1.129    0.115
       117  -9.2389    118.9432     78.2819   3.0241409158e+01   4.3352484164e+01    0.2017913    0.1903197  45.84 -0.000275831    1.031    0.030
       118  -9.8832     58.2113     77.5008   5.0612150553e+01   5.5527910472e+01    0.2578596    0.1944215 -45.82 0.0005864865    1.296    0.228
       119 -10.6098     53.4333     76.2488   5.2199140775e+01   5.6519974009e+01    0.3785321    0.3165235 -46.18  0.001295169    1.189    0.159
       120 -10.9771    246.4303     75.5504   7.7733863602e+00   1.5950180146e+01    0.3069401    0.1494416 -63.57  0.001407974    2.718    0.632
       121  -8.8397    181.9640     76.1939   1.6266428771e+01   2.8977971464e+01    0.1748292    0.1088661  61.21 0.0003157049    1.655    0.396
       122  -9.7685     46.4925     75.5399   5.4939894940e+01   5.7645965207e+01    0.3294046     0.194656 -32.92  0.001503755    1.761    0.432
       123 -10.9751     14.0319     74.4700   6.9397575327e+01   6.1188059197e+01    0.3454443    0.2664957 -72.99  0.002006082    1.382    0.276
       124 -10.3228     26.9628     73.3207   6.3081701321e+01   6.0385826029e+01    0.6325685    0.3235903 -14.43  0.002585277    2.725    0.633
       125 -11.3681     38.6257     72.7303   5.7572530551e+01   5.9267264468e+01    0.7694181    0.2916857  35.82  0.002606378    2.762    0.638
       126 -11.3063     40.5800     68.9412   5.5528553617e+01   5.9866716708e+01    0.3551839    0.2764427  31.70 0.0006295857    1.368    0.269
       127  -9.5027    103.6538     74.4393   3.3397391492e+01   4.7514659257e+01    0.2924922    0.1448143  51.44  0.001126862    2.081    0.519
       128  -8.6750    140.6785     95.6597   2.9797038323e+01   3.5010784044e+01    0.1584017    0.1226543   6.78 0.0007050417    1.720    0.419
       129 -10.4844     80.9240     72.2630   4.0168205386e+01   5.2658456125e+01    0.3908961    0.2442808 -44.81  0.001776315    1.648    0.393
       130  -9.3402    154.0778     72.0000   2.0163571711e+01   3.6169334004e+01    0.2400177   0.08159978  56.40 0.0005663792    2.898    0.655
       131 -10.4368    122.5935     68.6001   2.6242590809e+01   4.4251264620e+01     0.494795     0.249178  50.10  0.001680671    1.890    0.471
       132  -9.7291     13.7267     67.2960   6.7813979980e+01   6.2870701295e+01    0.4559794    0.1666294  10.65  0.001625688    3.278    0.695
       133 -10.0583     96.7061     65.8941   3.2688237294e+01   5.0616400444e+01    0.2509434    0.2464758 -30.79 0.0002924589    1.093    0.085
       134 -11.0742     92.6535     62.5497   3.2819372876e+01   5.2089943071e+01    0.3967058    0.2921777  61.88 0.0009314701    1.593    0.372
       135 -10.2634     13.9117     56.3587   6.4745724081e+01   6.5291812944e+01    0.3044092    0.1725309 -22.63 0.0009021178    1.792    0.442
       136 -12.3019      6.0409     62.1789   7.0372044338e+01   6.4526365587e+01    0.6552738    0.4298965 -14.80  0.003733596    1.526    0.345
       137 -10.7976      9.6205     56.7765   6.7119521401e+01   6.5506309372e+01    0.3282817    0.2492411  72.89  0.001721669    1.956    0.489
       138  -8.7736     51.6285     65.7589   4.9560179560e+01   5.9032109827e+01    0.1440301    0.1015693  -3.66 0.0005726083    1.618    0.382
       139  -9.3104    201.7971     64.6175   1.0513195474e+01   2.6361532687e+01    0.1796008    0.1212574  82.26 0.0003942824    1.631    0.387
       140 -10.0184    105.2563     63.3381   2.9231593231e+01   4.9171239182e+01    0.3073958    0.2532305  42.95  0.001026384    1.151    0.131
       141  -9.7217     50.7460     56.4507   4.6645211732e+01   6.1032967885e+01    0.2649425    0.2130609   9.40  0.001050651    1.190    0.159
       142 -10.3060     50.5011     60.5531   4.8243614002e+01   6.0261687060e+01    0.2784736    0.2478967  29.73  0.001166839    1.206    0.171
       143 -11.0046     40.7676     56.8066   5.1373586822e+01   6.2390284617e+01    0.3184883    0.2279937  32.44 0.0009009544    1.451    0.311
       144 -11.3148     43.2261     60.8721   5.1652157278e+01   6.1233882487e+01    0.4140509    0.2384463 -50.45 0.0007484753    1.749    0.428
       145 -10.8289     46.4098     59.2072   4.9605145791e+01   6.1130071051e+01    0.2824958    0.2571119 -65.73 0.0007179256    1.399    0.285
       146 -10.1969    158.8643     62.9215   1.6687031178e+01   3.6480997130e+01     0.286646    0.1901111  48.74 0.0004823276    1.552    0.356
       147  -9.7940     84.6350     62.0154   3.5306428926e+01   5.3867749021e+01    0.2593758     0.228238 -14.95   0.00110264    1.152    0.132
       148  -9.7161     57.8564     62.4771   4.5745201120e+01   5.8729612613e+01    0.2814892    0.1967334 -63.04  0.001339668    1.983    0.496
       149  -9.1297    150.9282     60.9807   1.7615449901e+01   3.8691963611e+01    0.1679541    0.1609345 -79.96 0.0003930246    1.032    0.031
       150  -9.8180    113.7968     61.1264   2.6107531146e+01   4.7580586266e+01    0.2229566    0.2063562 -85.01 0.0008694693    1.193    0.162
       151  -9.6399     64.9906     59.7587   4.1820366938e+01   5.8046736776e+01    0.3840209    0.1695881 -45.08  0.001537487    2.342    0.573
       152 -10.7506     31.8323     52.9183   5.4354576144e+01   6.4288745116e+01    0.5293859    0.2076771  23.39  0.002148121    2.724    0.633
       153  -9.6621     29.8311     59.8336   5.7708145623e+01   6.3081369487e+01    0.3224701    0.2833365 -57.11  0.001768816    1.297    0.229
       154  -9.9878     25.4962     59.4870   5.9752289337e+01   6.3604122915e+01     0.300096    0.2015849   1.61   0.00149772    1.548    0.354
       155 -10.9358     25.6653     55.5266   5.8385943261e+01   6.4426217562e+01    0.4449888    0.2116218 -33.82  0.001292679    2.119    0.528
       156 -11.4655     76.0961     53.1246   3.5064017277e+01   5.7156695702e+01    0.4596513    0.3351245  -3.92  0.001109022    1.628    0.386
       157 -11.6290     72.8825     47.4067   3.4033122494e+01   5.8747986963e+01     1.091393    0.3630486 -47.74  0.003359456    4.567    0.781
       158  -9.4914    106.8842     58.4787   2.7106066184e+01   4.9619146268e+01    0.2191747    0.1388685  51.94  0.000473974    1.503    0.335
       159 -10.4825     88.2151     55.7135   3.1817814906e+01   5.4222067242e+01    0.5550011    0.2267494 -29.78  0.001928289    3.171    0.685
       160 -10.4034    157.1406     55.4915   1.4890821152e+01   3.8014294006e+01    0.4147789    0.2617089 -46.56  0.002001642    1.601    0.375
       161 -11.3739    154.9817     48.7526   1.3332344241e+01   3.9498004870e+01    0.3189503    0.2226468 -25.88 0.0006867122    1.642    0.391
       162  -9.9777    124.4092     56.5392   2.1919466428e+01   4.5799650782e+01    0.2753356    0.2228759  -5.45  0.001099501    1.498    0.332
       163 -10.3797    118.4936     56.4061   2.3319482350e+01   4.7234806439e+01    0.4630856    0.3147447 -81.78  0.001980574    2.295    0.564
       164  -9.7441    109.5546     40.3675   2.0033099476e+01   5.1700982410e+01    0.7007044    0.4540015   8.79  0.003110893    2.317    0.568
       165  -9.6020     50.3095    249.3620   8.0237045513e+01   1.5406244666e+01    0.1107998   0.09107742 -24.19 0.0007040358    1.745    0.427
       166 -11.1641    120.1743     40.6147   1.7601925967e+01   4.9114908743e+01    0.4256798     0.206039  48.03 0.0005988473    1.939    0.484
       167 -11.7163    119.0317     37.0132   1.6626206979e+01   4.9859466266e+01    0.4458243    0.3711424 -64.34  0.001444704    1.356    0.263
       168  -9.8529    101.6182     56.3051   2.7860928316e+01   5.1176266156e+01    0.3125969    0.2067681 -71.16  0.001273674    2.617    0.618
       169  -9.4563     33.4315     56.6866   5.4879593564e+01   6.3333699041e+01    0.2126656    0.1173338  25.31  0.000681152    1.824    0.452
       170 -10.8559     60.8394     48.6914   3.9291956067e+01   6.0789899528e+01    0.8127507    0.3184005 -37.51  0.003174085    2.656    0.623
       171 -10.0181     55.4672     50.4323   4.2265879093e+01   6.1404859782e+01    0.2724189    0.2056268  36.44  8.40199e-05    1.326    0.246
       172 -10.0430     52.2870     48.3374   4.2838199369e+01   6.2303060127e+01    0.2521872     0.180353 -18.80 0.0005800417    1.435    0.303
       173  -8.8633     93.5194     52.4658   2.8926806400e+01   5.3607369115e+01    0.1459519    0.1323822  28.21 0.0001723493    1.033    0.032
       174 -11.7427     42.4855     43.9451   4.5620891566e+01   6.4599096677e+01    0.6037281    0.3013518  33.17  0.001743978    1.942    0.485
       175 -10.3532     46.9933     48.9481   4.5491355875e+01   6.3021136843e+01    0.3969986    0.2454839 -14.41  0.001865815    1.988    0.497
       176 -10.5431     43.4841     48.9628   4.7147668194e+01   6.3536615285e+01    0.4513929    0.1972047 -50.32  0.001874297    2.570    0.611
       177 -10.3966    243.9339     51.4470   3.1418841711e+00   1.9701354875e+01    0.1595151    0.1097555  79.60 0.0005670284    1.556    0.357
       178 -11.4476     20.9084     46.1773   5.7669106677e+01   6.6809655244e+01    0.4883445    0.3557017 -63.57  0.002363731    1.718    0.418
       179 -10.7726     30.3343     45.3697   5.2320293579e+01   6.5947526002e+01    0.6420218    0.3319264 -10.39  0.002583469    3.030    0.670
       180  -9.4159     10.6571     51.2653   6.4969102477e+01   6.6623707872e+01    0.1809951    0.1488105 -18.32 0.0004882923    1.094    0.086
       181 -10.3182     13.1835     46.3917   6.2020265771e+01   6.7450044806e+01    0.4875167     0.193859 -30.63  0.002013359    2.767    0.639
       182 -10.3264     26.1993     42.8812   5.3554571277e+01   6.6899331809e+01    0.2771752    0.2522092  29.64  0.001107203    1.357    0.263
       183 -10.1145     23.6589     37.4530   5.2783585873e+01   6.8197405253e+01    0.5166942    0.2487966  38.93  0.002421929    2.515    0.602
       184  -9.7906    189.0192     49.2350   8.4201608590e+00   3.1380927142e+01    0.2279605    0.1755162 -47.90 0.0005609441    1.222    0.182
       185  -9.5187    145.1353     49.7919   1.5406092329e+01   4.1755482829e+01    0.2603297    0.1856993   9.57 0.0007144033    2.094    0.523
       186  -9.8737      1.9492     48.2040   6.8898722383e+01   6.7819550040e+01    0.2467462     0.156389 -63.73  0.001408411    1.566    0.361
       187  -9.9247     83.4026     46.2466   2.9853903761e+01   5.6776738370e+01     0.369562    0.2269139   7.80  0.001508308    2.615    0.618
       188 -10.1337    234.4886     44.9590   2.6377196035e+00   2.2331565092e+01      0.23038    0.1439102 -77.92   0.00107585    1.641    0.390
       189  -9.7963    145.5690     43.4075   1.3401697220e+01   4.2524089423e+01    0.3379135    0.1904314 -55.51  0.001432543    2.083    0.520
       190  -9.6758    139.2522     43.9025   1.4720559927e+01   4.4009075318e+01    0.3733291    0.1794813  34.55  0.001307602    3.441    0.709
       191 -10.1825    156.4724     41.8748   1.1105925747e+01   4.0059047899e+01    0.2474102    0.2397946 -78.61  0.000592439    1.102    0.092
       192  -9.9543     57.2391     41.8712   3.8023830176e+01   6.2574586896e+01    0.2456196    0.1712484  43.46  0.001301051    1.478    0.323
       193  -9.3301     98.9880     41.4703   2.3236213261e+01   5.4024082903e+01    0.2222795    0.1312581  55.72  0.001026611    1.598    0.374
       194  -8.8849     91.2607     41.3212   2.5436817186e+01   5.5796880557e+01    0.1400534    0.1030053  17.53 0.0002506356    1.550    0.355
       195  -9.6401    219.2395    248.0072   4.4848039522e+01  -6.4604639380e+00    0.1443275   0.08448003 -30.45 0.0008869839    1.629    0.386
       196  -8.8720     34.7449    244.9746   8.3221661501e+01   1.8019386288e+01    0.1423882   0.09527439 -82.36 0.0008860057    1.559    0.358
       197 -10.1316     11.8262     30.1705   5.6753130977e+01   7.0712230857e+01    0.3884102    0.2750911 -19.83  0.002429395    1.193    0.162
       198 -10.1413     68.5331     32.4058   2.9438698728e+01   6.1871056600e+01     0.465979    0.2502014  50.85  0.002184127    1.841    0.457
       199 -10.5568     60.9432     36.5484   3.4203276866e+01   6.2741231687e+01    0.4364443    0.2649947 -20.24  0.001419916    1.877    0.467
       200 -10.0505    131.8332    240.8282   6.1448989376e+01   6.1904886780e+00    0.1773999    0.1390257  45.20  0.000590009    1.318    0.241
       201 -11.4899     49.1682     30.1264   3.6419768307e+01   6.5800329077e+01     0.648626    0.3206114  33.63  0.002545884    1.910    0.476
       202  -8.7675    231.6831     37.3174   1.2946746317e+00   2.3839281667e+01    0.1285968   0.07161356 -62.44 0.0002983073    1.654    0.395
       203  -8.5892    206.6629     37.3233   3.5687407152e+00   2.9007679682e+01    0.1376847   0.07975057 -65.14 0.0007050918    1.716    0.417
       204  -8.8043    195.2511     37.3309   4.7641997371e+00   3.1519674019e+01    0.1140766     0.100329  23.90 0.0002541538    1.553    0.356
       205 -10.5325    153.4699     35.7376   9.8069265633e+00   4.1567298180e+01     0.281149    0.2086366  63.76 0.0006031364    1.243    0.196
       206 -10.5408    174.9917     34.0138   6.3108381628e+00   3.6595795077e+01    0.4207253    0.2329044 -77.87  0.001277701    2.211    0.548
       207 -10.8256    173.7680     30.6120   5.5690442171e+00   3.7290459491e+01    0.4059626    0.1864491  75.77  0.001784763    2.205    0.546
       208 -10.5636    177.3061     29.3187   4.8049552294e+00   3.6607517201e+01    0.2790752    0.2166529  50.62   0.00164317    1.452    0.311
       209  -9.6773     67.4987    240.9241   7.5825082664e+01   1.4972281353e+01    0.1681162    0.1225222 -73.51 0.0006183642    1.546    0.353
       210 -10.5140    147.4144    238.9218   5.7787394410e+01   4.2982533742e+00    0.2682444    0.2316157 -64.98   0.00118875    1.591    0.371
       211 -10.3203     76.0886    239.8081   7.3803830766e+01   1.4092411604e+01    0.2139187    0.1962959 -43.77  0.001431853    1.327    0.246
       212  -9.0245     15.6730    233.6779   8.6582330276e+01   2.2269856184e+01    0.1063266   0.08826782 -39.69 0.0007048257    1.688    0.408
       213 -11.7470    103.0231     32.9158   1.8961711025e+01   5.4209607560e+01    0.2807424    0.2473965  52.53 0.0002939279    1.032    0.031
       214 -11.6875    106.9843     31.7309   1.7539997623e+01   5.3415512371e+01    0.4810264    0.2938445  16.54  0.002008717    2.432    0.589
       215  -9.7668    240.8845     31.8314   3.5946768544e+02   2.2725272653e+01    0.1646196    0.1492125 -61.15 0.0008583745    1.242    0.195
       216  -9.6051    216.9855     31.9972   1.4125953918e+00   2.7465593376e+01    0.1824581      0.14862 -66.24            0    1.008    0.008
       217 -11.4442    159.9709     29.4652   7.0583490577e+00   4.0730604426e+01    0.4934534    0.2718114  70.74  0.001980287    1.675    0.403
       218 -11.7503    164.3686     27.5813   5.9450552477e+00   3.9884008279e+01    0.4063364    0.2790962 -59.45 0.0005651559    1.459    0.314
       219 -12.2707    126.8189     28.0309   1.1991365123e+01   4.9030584176e+01    0.8737556    0.4147358  75.66  0.003503321    2.503    0.600
       220 -11.9515     26.6469     27.7107   4.6810327657e+01   6.9539961481e+01     0.527936    0.4202686  -0.91  0.002799034    1.047    0.044
       221  -8.9670    189.6781    229.6874   4.7551076892e+01  -1.2275246983e-01    0.1324203   0.08423403  -2.25 0.0007038992    1.654    0.395
       222 -10.5149     13.7317     22.7722   5.2262748618e+01   7.1831212368e+01    0.2797154    0.1732003  20.95  0.001343065    1.535    0.349
       223 -10.2796      5.2699     22.0602   5.7494218286e+01   7.2720936312e+01    0.4104477    0.1600047  33.78   0.00190603    3.032    0.670
       224 -10.1390    248.3161    223.1977   3.5810212886e+01  -6.4721312973e+00    0.2577522    0.2179284 -49.92   0.00177984    2.104    0.525
       225  -9.2307    164.4898    211.5220   4.9789410380e+01   6.6025470057e+00    0.1369198    0.1188538   9.91 0.0001954763    1.019    0.018
       226 -10.5299      8.8577    211.1220   8.6857548799e+01   2.7744694511e+01    0.2035318    0.1366154  62.36  0.001046742    1.259    0.206
       227  -9.3887     39.3288    206.6642   7.9357518156e+01   2.5713604735e+01     0.144222   0.08184156  60.23 0.0007051971    1.727    0.421
       228  -9.2738    196.9818     28.7433   2.5350354351e+00   3.2168116075e+01    0.1601392   0.09888677  74.97 0.0008792574    1.529    0.346
       229 -11.1567    183.3761     25.8625   3.2404318159e+00   3.5589532122e+01    0.3596629    0.2149707 -53.10  0.001692069    1.585    0.369
       230  -8.6907     66.0000     27.9034   2.8403720231e+01   6.2982045461e+01    0.2012645   0.07511867 -31.80  0.000793448    2.880    0.653
       231 -10.4311    230.4432     26.7993   3.5922479245e+02   2.5342559741e+01    0.2282692    0.1859729  81.28 0.0009370546    1.282    0.220
       232 -10.1716    150.9816     27.0484   7.6464475810e+00   4.3195357686e+01    0.2934701    0.1609484  55.78  0.001420905    1.699    0.411
       233  -9.8897    155.8144     24.6237   6.2589383721e+00   4.2283983343e+01    0.2423327    0.2020286 -69.34 0.0007080276    1.164    0.141
       234 -10.0362    154.8835     21.4650   5.4819264449e+00   4.2849791227e+01    0.4214311    0.1879426  45.56  0.001762233    2.692    0.629
       235 -11.2001    144.6690     25.7758   8.2188855817e+00   4.4885261544e+01    0.5681358    0.2653883  80.45   0.00229664    2.539    0.606
       236 -11.0247    148.8307     22.6614   6.6679213917e+00   4.4200687809e+01    0.4832385    0.1682179  60.92  0.001951387    2.398    0.583
       237 -10.1736    201.4448     24.5193   1.1240454169e+00   3.1666716667e+01    0.2255023   0.09083072  60.01  0.001036713    2.472    0.596
       238  -9.2357     78.8262    204.6533   6.9268142754e+01   2.1193956487e+01    0.2980056    0.1587241  84.42  0.001038702    3.331    0.700
       239  -9.9863    169.8213     23.1675   4.0749127274e+00   3.9070131884e+01    0.3105357    0.1545997  66.30   0.00125833    1.798    0.444
       240 -12.3382      4.8968    183.7105   8.6173092578e+01   3.4421302330e+01    0.6215979    0.4261117  88.27  0.003688083    1.276    0.216
       241 -11.4050     38.9554     22.0146   3.7417693592e+01   6.8649363353e+01    0.2702024    0.2130357  -7.65 0.0003332525    1.158    0.136
       242  -9.5051     27.8562    176.1347   7.9537218507e+01   3.4256093507e+01    0.1830197     0.149734 -53.54 0.0007515165    1.316    0.240
       243 -10.0392    224.0491     22.0194   3.5871251172e+02   2.7171501428e+01    0.1757588    0.1406962 -68.77 0.0003783007    1.019    0.019
       244 -11.0989    178.7498     20.6419   2.4179600367e+00   3.7239986949e+01     0.509239    0.2272193  48.98  0.002236689    2.732    0.634
       245 -10.3661     15.7487    173.8354   8.2621310670e+01   3.5940154379e+01    0.2660108    0.1599507  77.62  0.001361302    1.632    0.387
       246  -9.9864    246.5836     20.2024   3.5682328426e+02   2.2998050027e+01    0.1426799    0.0987751 -30.35 0.0007200862    1.649    0.393
       247  -9.7327    216.6976     19.9768   3.5883563298e+02   2.8911337903e+01    0.1679306     0.130949 -57.78 0.0004046104    1.102    0.093
       248 -10.9600    163.3288     19.2928   3.8036705180e+00   4.1035397993e+01    0.2303732    0.2044816  89.53  0.000443325    1.043    0.042
       249 -11.7855      8.8568    166.8629   8.3932572360e+01   3.8234590954e+01    0.4840058    0.3038256  35.57  0.002644481    1.613    0.380
       250  -9.6512     74.6844     19.5195   2.1623391236e+01   6.2183020758e+01    0.2487241    0.1677329  18.83 0.0007172643    1.626    0.385
       251  -9.9878     46.4306     20.1165   3.2861262356e+01   6.7660663065e+01    0.2444864     0.171522  42.08   0.00103604    1.396    0.284
       252  -9.1180     93.3564     11.7140   1.3115231793e+01   5.8747245731e+01    0.2109006    0.1250336  68.10 0.0006922947    1.630    0.387
       253 -11.9624     13.0993    160.0471   8.2167886935e+01   3.9616085632e+01    0.5303441    0.3371722 -44.83 0.0007669636    1.754    0.430
       254 -10.1035     18.4886    164.8548   8.1073691399e+01   3.7953506620e+01    0.2130623    0.1833372 -38.68  0.001288263    1.344    0.256
       255  -9.4708    199.0396     17.4887   3.5971638455e+02   3.2970870358e+01    0.1793903      0.10744  78.62 0.0006498751    1.532    0.347
       256 -10.1740    205.1466    163.2778   3.2259199370e+01   8.8120550634e+00    0.2652358    0.1814182 -40.01  0.000848065    1.368    0.269
       257  -9.5598    215.1597    161.5945   3.0099345140e+01   7.4616993932e+00    0.1717015     0.120803  21.42 0.0004448166    1.576    0.365
       258  -9.0546    248.3189     16.6650   3.5604952779e+02   2.3069063639e+01    0.1222589    0.0596739 -60.56 0.0007049039    1.700    0.412
       259  -9.8059     28.7867    161.0058   7.7712172821e+01   3.7992738383e+01    0.2569374    0.1581484  44.96  0.001281749    1.614    0.380
       260  -9.8809    211.0688     16.0389   3.5841546806e+02   3.0523727605e+01    0.1771589    0.1408415 -68.69 -0.001877172    1.022    0.022
       261  -9.0917     93.5161     16.5027   1.5002885129e+01   5.8260070462e+01    0.1352617     0.114558  47.10 0.0001227338    1.025    0.025
       262 -10.1802    242.1769     15.1381   3.5612295701e+02   2.4381449701e+01    0.1536183    0.1324085 -63.68 0.0003052673    1.203    0.169
       263 -10.1872    186.9523     14.9892   2.0186194320e-01   3.5944265562e+01    0.1936654    0.1610568 -79.52 0.0006941298    1.003    0.003
       264 -10.0797     31.4770    156.6534   7.6413533460e+01   3.8849191649e+01    0.2989982    0.1627965  68.58  0.001151371    2.211    0.548
       265  -9.5417    104.3285    154.5022   5.4190075297e+01   2.9158724159e+01    0.2783493    0.1435447 -54.14  0.001082199    1.972    0.493
       266 -11.3068     16.5281    147.9437   7.9970736783e+01   4.2437010133e+01    0.7869669    0.2136459 -79.21  0.002396135    4.223    0.763
       267 -11.8309     23.6893    148.2902   7.7803612414e+01   4.1744481175e+01     0.362977    0.2594853 -73.96 0.0008683336    1.264    0.209
       268 -10.7880      4.7259    153.3153   8.3999497932e+01   4.1938385224e+01    0.2202086    0.1724566  68.03 0.0005423172    1.217    0.178
       269 -10.2752     45.2363    150.3831   7.1361873991e+01   3.9003912379e+01    0.5057263    0.3293462 -72.11  0.002442038    1.487    0.327
       270 -10.8823     48.7500    145.6840   6.9540176181e+01   3.9817044584e+01     0.450265    0.3120088  42.85  0.001614291    1.475    0.322
       271  -9.2286     55.4590    152.5300   6.8504591152e+01   3.7201897512e+01    0.1442466    0.1379052 -76.25 0.0001569494    1.020    0.020
       272 -11.8953      4.2313    142.8425   8.3234014104e+01   4.4631883890e+01    0.6973476    0.3718969  51.20   0.00252011    1.974    0.493
       273  -8.7266    104.0338    147.0244   5.2723323548e+01   3.1036740157e+01    0.1797525    0.1719096 -46.74            0    1.053    0.050
       274 -10.3826     33.0401    144.2248   7.4349321546e+01   4.1923572882e+01    0.2918199    0.2280215 -71.77 0.0009226188    1.178    0.151
       275 -10.5514     40.5889    138.4551   7.1059499811e+01   4.2645151096e+01    0.4490902    0.2478302 -67.76   0.00155845    1.702    0.412
       276 -11.9672     21.0193    150.5379   7.8878436076e+01   4.1395849401e+01    0.3887714    0.2639407 -47.09 0.0003427671    1.537    0.350
       277 -11.6614     12.5185    135.2992   7.9854314791e+01   4.6006337291e+01    0.6054989    0.3176256 -55.42  0.002912887    1.715    0.417
       278 -11.1627     80.4724    138.1642   5.8008041060e+01   3.7296390559e+01    0.2831036    0.2469788  30.23 0.0003423788    1.165    0.142
       279 -10.5723     30.4393    132.4791   7.3542893535e+01   4.5247881377e+01    0.4496261    0.2738485 -31.88   0.00170814    1.963    0.491
       280 -10.1919     25.9917    131.4717   7.4900729414e+01   4.5920284408e+01    0.4187113    0.2325844 -54.17 0.0003397406    1.634    0.388
       281  -9.7912     20.5444    134.2399   7.7095511010e+01   4.5664032736e+01    0.2763478    0.2454781 -31.96  0.001073221    1.227    0.185
       282  -8.9012    103.7000    130.7351   4.9171864827e+01   3.5064729598e+01    0.1539287    0.1229453  -7.81 0.0002347357    1.518    0.341
       283  -8.9982     50.6516    129.7710   6.6202647405e+01   4.3743710019e+01    0.2062989    0.1345893 -75.21 0.0005698607    1.639    0.390
       284  -8.8283     92.6660    129.3335   5.2223815717e+01   3.7437308095e+01    0.1628515    0.1233977  73.98 0.0007052231    1.734    0.423
       285 -10.8209     22.9776    137.2668   7.6682705998e+01   4.4672022685e+01    0.3785335    0.2552943 -60.59  0.001980868    1.334    0.250
       286 -10.3666     23.1693    126.6190   7.5176729336e+01   4.7429569041e+01    0.1845664    0.1745352 -26.33 0.0003788844    1.147    0.128
       287  -9.0394     22.3012    123.7257   7.5061761535e+01   4.8254426449e+01    0.2220565    0.1783675  72.96 0.0003658363    1.332    0.249
       288 -10.8343     10.4514    126.4903   7.9518633774e+01   4.8424618244e+01    0.2542869    0.2119223 -55.52 0.0007909203    1.128    0.113
       289  -9.3024     33.3804    126.1449   7.1553508059e+01   4.6617361661e+01    0.2064524     0.128119 -82.05 0.0007966226    1.737    0.424
       290  -9.6392      2.1584    125.6961   8.2222238993e+01   4.9139568266e+01    0.2394244    0.1599016 -88.84  0.001178765    1.403    0.287
       291 -10.6943    104.7209    122.5138   4.6871496402e+01   3.6840777561e+01    0.3612993     0.319698  43.78 0.0008574047    1.143    0.125
       292 -10.8486    188.9096     27.5450   3.0689886252e+00   3.4126953026e+01    0.3725768    0.3110526  21.02  0.001827337    1.703    0.413
       293  -9.5913     49.4774    122.5465   6.5241753841e+01   4.5766074486e+01    0.2551299    0.1457567   8.25  0.001028136    2.369    0.578
       294  -9.4616     13.1674    122.2021   7.8049391492e+01   4.9345371595e+01    0.2082116    0.1605522 -48.51 0.0006603476    1.236    0.191
       295  -8.9563     56.3088    121.6917   6.2659558465e+01   4.5108324452e+01    0.1505016    0.1134285  68.23 0.0005172004    1.616    0.381
       296  -9.8056     44.3774    120.0130   6.6569766283e+01   4.7032170281e+01    0.2351823    0.2148571  19.93 0.0004430893    1.167    0.143
       297  -9.5506     43.2170    116.1752   6.6245565488e+01   4.8156863715e+01    0.2704298    0.1825548  81.85 0.0008054511    1.959    0.490
       298 -10.1275    243.5023    116.5174   1.6467396093e+01   1.0282418378e+01    0.1272179    0.1043987 -38.52 0.0002899502    1.001    0.001
       299 -10.3057      7.8298    114.8346   7.8985631449e+01   5.1587218111e+01    0.3252627    0.1971149 -61.84 0.0007005696    1.389    0.280
       300 -12.0590      2.6065    111.5472   8.0461008638e+01   5.2721886964e+01    0.4865497    0.3415285 -83.85  0.001858943    1.335    0.251
