#   1 NUMBER                 Running object number                                     
#   2 MAG_AUTO               Kron-like elliptical aperture magnitude                    [mag]
#   3 X_IMAGE                Object position along x                                    [pixel]
#   4 Y_IMAGE                Object position along y                                    [pixel]
#   5 X_WORLD                Barycenter position along world x axis                     [deg]
#   6 Y_WORLD                Barycenter position along world y axis                     [deg]
#   7 A_WORLD                Profile RMS along major axis (world units)                 [deg]
#   8 B_WORLD                Profile RMS along minor axis (world units)                 [deg]
#   9 THETA_WORLD            Position angle (CCW/world-x)                               [deg]
#  10 FWHM_WORLD             FWHM assuming a gaussian core                              [deg]
#  11 ELONGATION             A_IMAGE/B_IMAGE                                           
#  12 ELLIPTICITY            1 - B_IMAGE/A_IMAGE                                       
         1 -15.0748    162.9659     70.5561   8.0236813203e+01   3.4917864001e+01     3.092304     1.701667  55.60  0.006530857    1.711    0.416
         2  99.0000    180.3004     73.9649   7.7755834862e+01   3.0095626757e+01     5.496535     3.451377   7.12   0.01402265    4.083    0.755
         3 -17.6757    246.5557     81.6636   6.9295847504e+01   1.3502369092e+01     9.359682     5.586173 -27.87   0.04407913    2.180    0.541
         4  99.0000    208.3641     29.9319   6.2700410249e+01   2.9726600329e+01     14.98483     2.410026  64.05    0.0451801    4.674    0.786
         5  99.0000    185.6612     85.6008   7.9751826038e+01   2.6762056629e+01     5.130844     3.100433 -29.76   0.02188019    1.973    0.493
         6 -11.7853    200.6742     17.4775   6.0762668948e+01   3.3013144965e+01    0.2823924     0.167341 -40.59  0.001538117    1.777    0.437
         7 -10.7364    177.5638     14.0425   6.2740002554e+01   3.8886448446e+01    0.4338552    0.1516699 -16.12  0.001111566    9.427    0.894
         8  -8.9408    214.8053     13.1481   5.8326644589e+01   3.0215732603e+01    0.3285152    0.2358721  40.27  0.001908461    2.007    0.502
         9  99.0000    216.5999      6.7256   5.6808325469e+01   3.0507162479e+01    0.3513987    0.1694012 -24.28  0.001678307    3.064    0.674
        10 -10.1915    209.8344      5.0019   5.7073868317e+01   3.2226206563e+01    0.1793202     0.137836 -80.07  0.001163935    1.091    0.083
        11 -12.2370     56.4804      2.8587   8.5381005382e+01   6.5801077797e+01    0.3804313    0.1219734  39.52  0.001777875    2.555    0.609
        12 -10.4279      2.0000      2.9873   1.0938695652e+02   7.2334356055e+01     0.160057   0.04708797 -41.25 0.0008084869    2.985    0.665
        13 -15.0947     31.5370    187.0157   1.3949611465e+02   3.2306111528e+01     1.091833    0.9325954  89.50  0.003550736    1.089    0.082
        14 -13.2274    244.5036    248.3229   1.0318528393e+02  -1.4015615010e+01    0.9281142    0.3741592  30.31  0.004475027    2.324    0.570
        15 -10.4208    132.7261    140.3339   1.0584788755e+02   2.7592501683e+01    0.8240533    0.1441709 -51.38  0.001636144    7.221    0.862
        16 -11.1909    153.0946    145.3745   1.0191086551e+02   2.2042860972e+01    0.3778252    0.2737694  26.33  0.001609011    1.653    0.395
        17 -10.7922    143.8296    145.7398   1.0427831744e+02   2.3972596856e+01    0.3216422    0.2134986 -74.99  0.001248416    2.180    0.541
        18 -12.2975    149.5888    140.8956   1.0171896222e+02   2.3830001908e+01    0.5707011    0.3841395  25.44  0.002335645    1.915    0.478
        19 -10.7912    139.3432    104.3787   9.5053479423e+01   3.4164108449e+01     0.351564    0.2641642  11.72 0.0006853499    1.821    0.451
        20 -13.4195    134.7051    108.4669   9.7346914961e+01   3.4341320945e+01     1.622693    0.4507151 -48.81  0.004398488    4.064    0.754
        21 -12.0126    135.7020    128.7323   1.0229179024e+02   2.9636569798e+01     1.035409    0.2726697 -51.23  0.002626303    4.473    0.776
        22  -9.8689    100.1932    134.8232   1.1336947971e+02   3.5295007848e+01    0.1993908    0.1766028 -18.04 0.0003719378    1.286    0.222
        23 -11.8497    166.5197    133.1857   9.5823770961e+01   2.1752674282e+01    0.4061526    0.2844005   7.00  0.001573259    2.371    0.578
        24 -11.0619    153.9974    125.9361   9.7005904745e+01   2.6193490522e+01    0.2468924    0.2386156  73.73 0.0006042023    1.030    0.029
        25 -11.5293    135.1841    120.5089   1.0036471071e+02   3.1603821459e+01    0.4233388    0.2510581 -44.72  0.001352123    1.691    0.409
        26 -12.0020    153.6213    109.5228   9.2894875005e+01   2.9803746936e+01    0.4155998    0.2930551  77.79  0.001729381    1.927    0.481
        27 -12.2210    120.3806    111.9159   1.0210608088e+02   3.6675741459e+01    0.6724162    0.4145323  77.02  0.002232247    3.447    0.710
        28 -11.7389    112.4836    104.3345   1.0229557645e+02   3.9948759871e+01    0.7485208    0.4233937 -54.85   0.00304391    1.974    0.493
        29 -12.7805    121.6402    101.9965   9.9093893138e+01   3.8554304822e+01    0.7191543    0.5472704  16.59  0.003330508    1.622    0.383
        30 -11.6987    115.5033    100.5060   1.0039280492e+02   4.0151224315e+01    0.6767597    0.3631354  66.31  0.002066285    4.067    0.754
        31  -9.6917    111.4818    112.9931   1.0487708058e+02   3.8244020924e+01    0.2247936    0.1487994 -46.45 0.0003407058    1.486    0.327
        32 -11.7878    127.4561    111.3084   1.0002054971e+02   3.5312006373e+01    0.3587618    0.2681636 -35.19 0.0006604661    1.411    0.291
        33 -11.5455    148.3515    102.6961   9.2354900041e+01   3.2442131147e+01    0.4504943    0.2930411 -74.61  0.001701025    2.479    0.597
        34 -12.0264    144.4637    100.4964   9.2714999073e+01   3.3791983048e+01    0.4806088    0.3977936 -41.42 0.0008532493    1.232    0.188
        35 -12.0141    192.5088    194.3942   1.0347794346e+02   3.3406114530e+00     1.055963    0.5448623 -66.00  0.002816478    6.341    0.842
        36 -11.5432    131.6458     96.7470   9.4950858685e+01   3.7465043155e+01     0.367021    0.3156163 -63.00 0.0007155124    1.272    0.214
        37 -10.4133    113.3216     95.0301   9.9482387845e+01   4.1740601085e+01    0.2094015    0.1916061 -36.80  0.000363907    1.091    0.083
        38 -11.4408    117.8175     90.6808   9.6976016690e+01   4.1687525179e+01    0.5569771    0.3189335 -44.61  0.002239857    1.776    0.437
        39 -11.9418    137.1532     90.1286   9.1672805754e+01   3.7535742636e+01    0.3545381    0.3278349  60.97 0.0007875515    1.087    0.080
        40 -12.8309    149.4667     84.6865   8.7140060398e+01   3.5693614861e+01    0.3795974    0.3437869 -62.29 0.0009801724    1.158    0.136
        41 -10.2369    125.7990     86.8490   9.3690136487e+01   4.0719597453e+01    0.2795102    0.2082012 -60.26  0.001309822    1.597    0.374
        42 -11.3639    129.1363     84.5801   9.2149371972e+01   4.0413401942e+01    0.3932623    0.2562897 -46.70  0.001321299    1.615    0.381
        43 -13.9134     44.8631    171.0478   1.3455654422e+02   3.4581470275e+01     1.815205     1.188346  68.00  0.009705687    1.600    0.375
        44 -10.0557    207.0370     82.4666   7.5210997139e+01   2.2189627590e+01    0.2057806    0.1395264  64.19 0.0005321461    1.474    0.322
        45 -13.1963     56.5526    168.8202   1.3137194229e+02   3.3679007793e+01    0.3802205     0.337208 -47.93  0.001016606    1.285    0.222
        46 -10.2385    107.8042     77.0256   9.5788895679e+01   4.6384657921e+01    0.2417586    0.1655138  -9.30  0.001072311    1.988    0.497
        47 -12.2054    123.4854     72.5585   9.0075686649e+01   4.3860279889e+01    0.4752291    0.2707862 -55.55  0.001921722    2.382    0.580
        48 -12.4479    215.1929     68.2180   7.0591896340e+01   2.2646443789e+01    0.3206982     0.235913 -74.59   0.00111384    1.372    0.271
        49 -10.3956    217.8607     72.8613   7.1277590901e+01   2.1276085156e+01    0.2430125    0.1838279 -63.54  0.000262902    1.258    0.205
        50 -11.2899    129.1347     72.2457   8.8511056663e+01   4.2652129916e+01    0.2279332    0.1962027  23.44 0.0006136846    1.215    0.177
        51 -12.6426    192.5132     64.3955   7.3168422575e+01   2.8670841611e+01    0.7589606    0.6950085  45.74  0.004352266    1.243    0.195
        52 -10.7426    205.1077     64.5867   7.1228637035e+01   2.5603200744e+01    0.2506751    0.1988255 -73.29 0.0007394422    1.222    0.182
        53 -12.5583    197.7763    151.5617   9.3280798807e+01   1.0901984396e+01     0.338165    0.3052544  33.71 0.0009042487    1.142    0.125
        54 -10.1339    213.6505     59.7065   6.8839847273e+01   2.4338668597e+01    0.1657373    0.1179023 -53.71            0    1.334    0.250
        55  -9.7778    206.8934     58.9547   6.9623066360e+01   2.6049914288e+01    0.1503301    0.1241214  76.03 0.0008361767    1.127    0.112
        56 -10.5435    223.4761     56.4187   6.6783485014e+01   2.2559358418e+01    0.1476406    0.1278138 -48.70 0.0008749251    1.223    0.183
        57 -12.3110    205.1055     54.2001   6.8752984322e+01   2.7189504261e+01    0.4303027    0.2896451  39.86  0.002104272    1.971    0.493
        58 -10.2777    219.8223     53.3026   6.6555449811e+01   2.3862183668e+01    0.1287943   0.08504092 -59.73 0.0002953991    1.444    0.307
        59 -12.2354    189.7043     51.0030   7.0263842960e+01   3.1378135922e+01    0.2791665     0.212842 -60.55 0.0008029797    1.320    0.242
        60  -9.7325    176.7844     48.3970   7.1678656971e+01   3.4915913111e+01    0.1729593    0.1218175  55.63 0.0002068349    1.335    0.251
        61 -10.2417    170.1085     46.8421   7.2405164774e+01   3.6773630027e+01    0.2005911     0.168911 -83.57  0.000254702    1.198    0.165
        62 -11.5649    172.8485    150.0940   9.8357448832e+01   1.6639852907e+01    0.2454525    0.2200502 -86.61 0.0006910362    1.235    0.191
        63 -10.8468    210.0515     39.1252   6.4583395148e+01   2.8138693606e+01    0.1977973      0.15863 -82.35 0.0006878993    1.096    0.088
        64 -11.1697     93.2476     25.5544   8.2797824877e+01   5.6952694209e+01    0.3323354    0.1847147 -30.63  0.001430095    1.963    0.490
        65 -11.4679    176.9141     23.9110   6.5315404092e+01   3.7980974921e+01    0.2568769    0.1809463 -42.30  0.001283984    1.546    0.353
        66 -14.3791     63.4549    163.4998   1.2882571390e+02   3.4061353901e+01    0.8446371    0.7357375  75.67  0.002673936    1.114    0.102
        67 -10.7150    205.6058     17.2071   6.0157371534e+01   3.1886865610e+01    0.1469638    0.1210118 -43.83 0.0009283669    1.374    0.272
        68 -14.1017     68.5710    157.9455   1.2659434195e+02   3.4714001404e+01    0.9426001    0.6288787  70.50  0.001772949    1.773    0.436
        69 -11.6182    226.0945    172.5556   9.2236422031e+01   1.1080198010e+00    0.3829553    0.2169155  37.69  0.001747211    1.872    0.466
        70 -11.9169    230.4092    167.1747   9.0301153296e+01   1.3009017275e+00    0.4199187    0.2307183 -48.35  0.001411076    1.895    0.472
        71 -10.6858    134.0000    147.5090   1.0716836983e+02   2.5644846624e+01    0.6668892    0.1661425 -51.58  0.001709535    4.360    0.771
        72 -13.8081     68.8592    145.2215   1.2428355320e+02   3.7799251237e+01     2.515999      1.33362  62.16  0.007421321    2.832    0.647
        73 -15.4188     15.6568    191.0517   1.4328865372e+02   3.3001364814e+01     2.311045     1.418669  87.49   0.01342056    1.378    0.274
