#   1 NUMBER                 Running object number                                     
#   2 MAG_AUTO               Kron-like elliptical aperture magnitude                    [mag]
#   3 X_IMAGE                Object position along x                                    [pixel]
#   4 Y_IMAGE                Object position along y                                    [pixel]
#   5 X_WORLD                Barycenter position along world x axis                     [deg]
#   6 Y_WORLD                Barycenter position along world y axis                     [deg]
#   7 A_WORLD                Profile RMS along major axis (world units)                 [deg]
#   8 B_WORLD                Profile RMS along minor axis (world units)                 [deg]
#   9 THETA_WORLD            Position angle (CCW/world-x)                               [deg]
#  10 FWHM_WORLD             FWHM assuming a gaussian core                              [deg]
#  11 ELONGATION             A_IMAGE/B_IMAGE                                           
#  12 ELLIPTICITY            1 - B_IMAGE/A_IMAGE                                       
         1 -14.9847    191.5132    154.5123   4.7379803473e+01   1.2872988963e+01     8.356088     5.672303  49.77   0.04320092    1.605    0.377
         2 -14.3766    172.9142     96.8171   3.7111265354e+01   2.7120284233e+01     5.836373     3.018839  29.47   0.01147246    3.468    0.712
         3 -13.7898    186.4499     77.3761   2.9218166599e+01   2.7312334948e+01     2.588253     1.603139 -63.18      0.00323    2.096    0.523
         4 -15.1179    199.9246     65.8794   2.3895253777e+01   2.5917524772e+01     8.107278     2.615316 -30.22   0.02689773    2.987    0.665
         5 -15.6986    244.0532     47.2655   1.3946394836e+01   1.8606581569e+01     4.186993     2.556059 -48.16   0.02135766    1.419    0.295
         6 -12.4127    195.2013     42.0545   1.7749724376e+01   3.0460282848e+01     1.829152    0.4994277 -27.27  0.003408028    3.681    0.728
         7 -14.5544    207.6081     98.8410   3.1510074814e+01   1.8961621909e+01     3.882951     1.528344 -49.75   0.01295238    3.335    0.700
         8 -15.4279    238.3745    111.8731   3.0078032325e+01   1.0739483285e+01     3.995817     1.122309 -40.47   0.01039929    3.216    0.689
         9 -14.6216    232.5464     93.3979   2.6512464591e+01   1.4596730243e+01     2.072786     1.304522  65.30  0.006920977    1.996    0.499
        10  -9.6873    238.1683     18.2292   7.3480154763e+00   2.3307936287e+01    0.3073186    0.1982111 -21.84 0.0006646707    1.611    0.379
        11 -10.1078    120.1062      9.3212   1.7498458151e+01   5.3722972376e+01    0.3638759    0.3024716 -33.00 0.0009756789    1.243    0.196
        12 -11.4069    235.1009      2.5358   3.7357591025e+00   2.5614278603e+01    0.4961687    0.2428044  63.08  0.002508636    2.260    0.558
        13 -10.7319    215.5342      3.1705   5.0686620280e+00   2.9987380888e+01    0.2393874     0.231551  70.17 0.0006297832    1.238    0.192
        14  -9.8944    182.2781      3.3111   7.5973234040e+00   3.8110616786e+01    0.3385303    0.2349783 -33.32  0.001820286    1.395    0.283
        15 -10.5249    247.0963      1.9550   2.9661706618e+00   2.3101491032e+01    0.4342834    0.1593162  66.31  0.002005811    2.911    0.656
        16  -8.9131     97.3351      8.0274   2.1513092673e+01   5.9536345845e+01    0.1897055    0.1680246 -16.19 0.0004607747    1.154    0.133
        17  -9.5594     38.9300    215.6739   8.8421392040e+01   2.5477536837e+01    0.1798776    0.1418715 -80.76 0.0008211825    1.358    0.264
        18 -10.6962    247.7864    248.2127   5.4126198786e+01  -7.5198624846e+00    0.3145868    0.2224336  20.26  0.002078944    1.180    0.152
        19  -7.7853    247.3129    211.2861   4.8492183831e+01  -3.7571265932e+00    0.1138479   0.06829998   7.05 0.0003184606    1.580    0.367
        20  -8.1663     20.4992    211.5502   9.1816816861e+01   2.8251833642e+01     0.112212   0.08468631  66.49 0.0001315553    1.040    0.038
        21 -10.1681    207.9999    206.7602   5.4136507644e+01   2.2908416834e+00    0.4945115    0.3183786  64.18   0.00224353    3.937    0.746
        22  -9.0040    243.5553    207.7657   4.8482228087e+01  -2.8711790308e+00    0.2026117    0.1555215  19.83 0.0007692405    1.189    0.159
        23 -10.1279    248.7778    202.0296   4.6703606388e+01  -2.9212421645e+00    0.3814712    0.1990392  45.71  0.002138598    2.463    0.594
        24  -9.0275    233.9707    201.6850   4.8957104093e+01  -8.4903147560e-01    0.2016111    0.1534616 -28.88 0.0009315683    1.431    0.301
        25 -10.6826    199.8673    198.7845   5.4223816036e+01   4.6116129470e+00     0.545302    0.3589645  61.09  0.002769586    2.698    0.629
        26 -10.7312    192.8641    194.6419   5.4776515578e+01   6.3159633533e+00    0.7947989    0.4127938 -57.86  0.003015872    4.711    0.788
        27  -9.4853    132.9141    246.7973   7.3181979009e+01   7.8455023492e+00    0.3520827    0.2122644  71.18  0.001500824    2.913    0.657
        28  -9.4754    239.5453    182.0002   4.4551472282e+01   7.7770168841e-01    0.1937596     0.159806  43.25 0.0006015285    1.564    0.361
        29  -9.3178    180.2346    177.9589   5.4169237327e+01   1.1020672783e+01    0.2508804    0.1847016 -53.91  0.000433485    1.703    0.413
        30  -8.3121     69.8523    178.4734   7.8459818718e+01   2.9256364480e+01    0.1722643    0.1191063  39.69 0.0004057671    1.406    0.289
        31  -7.6929     35.5935    161.2552   8.4918346823e+01   3.7423254977e+01    0.1383624   0.07530174  60.05 0.0006950785    1.722    0.419
        32  -9.2495    139.2565    159.5900   5.9251009978e+01   2.1839271178e+01    0.2658469    0.2230054  86.54 0.0008155277    1.422    0.297
        33  -9.8165    219.0918    247.8377   5.8511199901e+01  -4.0070407123e+00    0.1539996    0.1213617  25.33 0.0006943914    1.254    0.202
        34 -11.0906    179.0626    171.8617   5.3251139512e+01   1.2238679142e+01    0.4957353    0.3587956 -59.41  0.002606253    1.872    0.466
        35 -10.7016    140.4982    147.9906   5.6653919496e+01   2.3959458616e+01    0.7807823    0.4213417 -27.04  0.002819236    3.163    0.684
        36 -11.0808    174.8993    165.5257   5.2845332301e+01   1.4077038879e+01    0.5098376    0.3003977 -56.04  0.002303702    2.311    0.567
        37 -10.0405     67.3326    143.6245   7.4402672015e+01   3.7634301282e+01     3.686142     1.212611 -64.87   0.01236792    2.963    0.662
        38 -12.0698     36.8198    126.7636   8.0622934750e+01   4.5620301300e+01    0.5943843    0.4070589  36.59  0.001049186    1.582    0.368
        39 -12.0189     53.5626    126.1321   7.5531785265e+01   4.3794313198e+01    0.6447368    0.5545211 -47.96  0.001780442    1.303    0.232
        40 -13.5268     46.0592    124.0954   7.7458033354e+01   4.5234033833e+01     1.626591      1.13909   2.79   0.00815111    2.201    0.546
        41 -14.9927    239.7213     84.0817   2.3344805710e+01   1.4511646874e+01     1.595225     1.516798 -69.83  0.004772328    1.191    0.161
        42  -8.5744     94.0831    140.1010   6.6580642523e+01   3.4283888290e+01    0.2915143    0.1736915 -55.27 0.0008793084    1.650    0.394
        43  -8.6311    189.6048    183.2765   5.3365489092e+01   8.5633944294e+00    0.2039435    0.1914413  43.33 0.0007143947    1.258    0.205
        44 -11.8977     25.4575    134.9933   8.4932518407e+01   4.4744984250e+01    0.6123537    0.3741778  88.87  0.001142195    1.475    0.322
        45 -13.2001      6.3580    130.4051   8.9894862386e+01   4.7482939987e+01     1.311839    0.6375898 -79.19  0.004958029    1.669    0.401
        46  -9.2906    126.1632    192.4997   6.7687550935e+01   1.7737856965e+01    0.1892155    0.1769806 -69.64 0.0002823643    1.185    0.156
        47  -9.4067     79.6924    134.5079   6.9452743768e+01   3.7978260130e+01    0.2561298    0.2273145 -62.06 0.0006122918    1.136    0.119
        48  -9.6709    125.0090    132.9053   5.7108415063e+01   3.0212442277e+01    0.2862443    0.1960279 -23.42  0.001187486    2.087    0.521
        49  -9.0674    191.8769    212.4983   5.7895386429e+01   3.9537935501e+00    0.1928448    0.1699767  45.75  0.000520986    1.386    0.279
        50 -11.3628     20.0131    121.3082   8.4990850007e+01   4.8616511344e+01    0.5693515    0.1906518 -55.85  0.002319807    2.742    0.635
        51  -8.5868    111.9279    243.3101   7.6658747468e+01   1.1276535741e+01     0.152844    0.1141033  42.32 0.0002639974    1.059    0.056
        52  -9.0994    120.4006    118.9703   5.5033770264e+01   3.4230649637e+01    0.2302451    0.1446444 -49.68 0.0004404264    1.563    0.360
        53  -8.5850     93.4337    118.1230   6.2198985732e+01   3.9604274513e+01    0.3088324    0.1758646  52.60  0.001298641    1.921    0.480
        54 -10.9649     24.6873    116.2869   8.2924558136e+01   4.9448670249e+01    0.3252019    0.2335024  39.55  0.001669485    1.519    0.342
        55  -9.5408    233.0976    240.1825   5.5208914576e+01  -4.9854227547e+00    0.1665611     0.111541  12.95  0.001218725    1.165    0.142
        56  -9.8999    117.4766    112.1300   5.4097625019e+01   3.6361555251e+01    0.8210459    0.3225848  33.15  0.002334715    4.260    0.765
        57 -11.0230    148.8437    109.9276   4.5767200916e+01   3.0078624913e+01    0.4786786    0.3843139  87.40 0.0009607889    1.559    0.358
        58 -10.4601    121.1274     98.6672   4.9521134352e+01   3.8573367032e+01    0.4634268    0.2393685 -48.84  0.001181009    1.905    0.475
        59 -11.4242    127.0032    105.4046   4.9846434828e+01   3.5838537580e+01    0.5904146    0.4982266 -51.38  0.002973399    1.155    0.134
        60 -10.5699    121.6316    102.8206   5.0539531746e+01   3.7557776530e+01    0.3853386    0.2851245  27.55  0.001754248    1.647    0.393
        61  -9.3477    109.3259    108.5813   5.5397726517e+01   3.8818962707e+01     0.277816    0.2302275 -59.15 0.0006360047    1.179    0.152
        62  -9.3966    112.5020    105.0203   5.3589543364e+01   3.8983842084e+01    0.2455411    0.1479068 -48.44   0.00103835    1.606    0.377
        63 -10.4668    142.1729    101.2508   4.4973341390e+01   3.3351311415e+01    0.3893068    0.3295155 -59.52 0.0007125741    1.217    0.179
        64  -8.5305    106.4725     99.9254   5.3898163798e+01   4.1366974462e+01    0.2384647    0.1467685 -48.56  0.001021499    1.561    0.359
        65  -8.5583    114.3392     93.3041   4.9822347601e+01   4.1204830329e+01    0.1558159    0.1249577  -0.06 0.0005123741    1.675    0.403
        66  -8.6731    157.8562     88.6098   3.7860732792e+01   3.2188019681e+01    0.2683806    0.2007421 -28.77 0.0005797228    1.382    0.277
        67  -9.1223    127.4861     86.7900   4.4388919739e+01   3.9676751763e+01    0.5079141    0.1512849 -41.20  0.001493327    3.272    0.694
        68  -9.0188    165.8803     84.1178   3.4912159221e+01   3.1094098276e+01     0.393638    0.1860834 -35.47  0.001483811    2.042    0.510
        69  -8.8064    139.3439     79.1789   3.9136553078e+01   3.8414849711e+01    0.2414899    0.1938027 -18.75 0.0008289595    1.413    0.292
        70  -9.0293    136.2279     76.9735   3.9177537179e+01   3.9584587705e+01     0.316872    0.2000613 -32.22 0.0006742627    1.644    0.392
        71  -7.9264     92.0648     74.0808   5.0456702326e+01   5.0025459978e+01    0.1740127    0.1595382 -43.92 0.0002850952    1.037    0.035
        72  -8.5147     37.1735    239.6790   9.0135054397e+01   2.1308269021e+01    0.1451564     0.105711  54.96 0.0005079902    1.080    0.074
        73  -8.5306    112.0448     74.9785   4.4782024171e+01   4.5594878228e+01    0.2329453    0.2158822 -32.04 0.0004022774    1.081    0.075
        74  -8.6121    124.7349     68.6266   3.9269354692e+01   4.3921140183e+01    0.2602096    0.1998408  67.30 0.0006755567    1.449    0.310
        75  -8.4151     89.5410     65.8913   4.8469094591e+01   5.2264048578e+01    0.2252312    0.1413053 -43.42 0.0004679626    1.511    0.338
        76  -9.5195    223.3325    236.0427   5.6148553702e+01  -3.3145991765e+00    0.1801342    0.1368633  41.59  0.001128393    1.654    0.395
        77 -10.4574    134.9935     59.8475   3.3796776751e+01   4.3020945670e+01    0.4797499    0.2284541 -26.51  0.001697297    2.514    0.602
        78 -10.0208    144.3986     59.3997   3.1579943879e+01   4.0745225426e+01    0.3322614    0.2698092 -59.90 0.0008875066    1.294    0.227
        79  -8.3958     72.6287     58.7661   5.1729683367e+01   5.6985527361e+01    0.2049708    0.1294895 -53.41 0.0006988285    1.612    0.380
        80  -7.9348    110.2744     57.6614   3.9232916364e+01   4.9363119127e+01      0.15432    0.1169088 -66.93 0.0004352976    1.610    0.379
        81  -9.5157    130.4958     55.3401   3.3256174101e+01   4.4909106610e+01    0.3099585    0.2326571 -82.54   0.00115011    1.691    0.409
        82 -11.4343    156.7352     44.2138   2.4087913054e+01   3.9959133156e+01    0.6406614    0.4281682 -37.41  0.002499436    1.435    0.303
        83 -11.9041    160.3015     50.7706   2.5635399186e+01   3.8070184890e+01    0.8320116     0.463826 -56.96  0.003295237    2.153    0.535
        84 -10.8052    165.6998     49.4713   2.4286237713e+01   3.6878931478e+01    0.5955176    0.3671727 -80.70  0.002410297    2.251    0.556
        85  -9.7310    141.9334     53.3765   3.0045598173e+01   4.2361658898e+01    0.2648278    0.1946598 -46.29  0.000685518    1.348    0.258
        86 -10.7308    138.9764     45.2013   2.7781603177e+01   4.4394565174e+01    0.5174603    0.2695391  32.21  0.001801383    2.990    0.666
        87  -9.3680    134.7704     41.1795   2.7187666942e+01   4.6070166870e+01    0.2675741    0.1480478 -65.01  0.000952456    2.812    0.644
        88  -9.7530    246.1029    233.3571   5.2186663347e+01  -5.9044401065e+00     0.197528    0.1214285  41.22  0.001326264    1.955    0.488
        89  -9.8853    181.4838     34.9709   1.7376706987e+01   3.4830386177e+01    0.4267098    0.2881065 -89.09  0.001756764    1.633    0.388
        90  -9.9562    149.0109     32.2734   2.1298675160e+01   4.3606809010e+01    0.5598342    0.2385737 -11.41  0.001624025    4.488    0.777
        91  -8.2953     18.0228     34.0737   6.6905166811e+01   6.9698251016e+01    0.1551165     0.124088 -43.37 0.0005770619    1.028    0.028
        92 -15.2086    244.5411     99.2164   2.6323816619e+01   1.1412657063e+01     2.846785     1.216336  42.76   0.01072403    2.918    0.657
        93  -9.8340    178.5612     23.8977   1.4310261026e+01   3.6928336793e+01    0.4116734    0.3584524 -60.00  0.001998694    1.069    0.065
        94  -8.7591    182.7513     23.5882   1.3728285621e+01   3.5890635791e+01    0.1978494    0.1293418 -88.21 0.0005620008    1.624    0.384
        95  -8.7725    236.0471    226.6694   5.2711916007e+01  -3.9581164724e+00    0.1515345    0.1106419  18.74 0.0004864241    1.112    0.101
        96  -8.5274    227.2958    220.2912   5.3105112604e+01  -2.1024246429e+00    0.1757429    0.1226099  44.15  0.001028424    1.781    0.439
        97  -8.6761    127.3509     19.9901   2.0531515255e+01   5.0744134018e+01    0.1988495    0.1771871 -17.48 0.0004525059    1.167    0.143
        98  -8.8262    189.9996     15.0222   1.0392379118e+01   3.4998841745e+01    0.2137184    0.1911032 -62.76 0.0006300143    1.007    0.007
        99  -8.5188    224.3678    218.6850   5.3325313600e+01  -1.5197850208e+00    0.2049995   0.09642483  40.78 0.0006236534    2.075    0.518
       100  -9.5699    240.4639    218.4232   5.0717328731e+01  -3.6429429521e+00    0.2808772    0.2041974  42.73  0.001448396    1.796    0.443
       101  -9.7632    239.0800    212.2823   4.9932623057e+01  -2.7815560667e+00     0.204189    0.1655041   0.42 0.0004338644    1.137    0.121
       102 -10.3744    232.5088    209.2863   5.0477906124e+01  -1.5459110580e+00    0.3384422    0.2130663  50.29  0.001375145    2.367    0.578
       103  -8.3877    227.4848    206.4923   5.0822400001e+01  -5.1184709994e-01    0.1688697   0.09897882  34.19 -5.042901e-05    1.552    0.356
