#   1 NUMBER                 Running object number                                     
#   2 MAG_AUTO               Kron-like elliptical aperture magnitude                    [mag]
#   3 X_IMAGE                Object position along x                                    [pixel]
#   4 Y_IMAGE                Object position along y                                    [pixel]
#   5 X_WORLD                Barycenter position along world x axis                     [deg]
#   6 Y_WORLD                Barycenter position along world y axis                     [deg]
#   7 A_WORLD                Profile RMS along major axis (world units)                 [deg]
#   8 B_WORLD                Profile RMS along minor axis (world units)                 [deg]
#   9 THETA_WORLD            Position angle (CCW/world-x)                               [deg]
#  10 FWHM_WORLD             FWHM assuming a gaussian core                              [deg]
#  11 ELONGATION             A_IMAGE/B_IMAGE                                           
#  12 ELLIPTICITY            1 - B_IMAGE/A_IMAGE                                       
         1 -11.9517    114.4289    116.9864   4.2990216020e+01   3.6276821843e+01     1.480966    0.3351104 -51.91   0.00384387    4.953    0.798
         2 -13.4658    217.2165     33.1806   7.7698695876e+00   3.0082704014e+01     3.288074     1.116604 -59.66   0.01574985    2.941    0.660
         3 -14.1671    239.7235      4.9712   1.4444048132e+00   2.9410881284e+01     3.461865     1.304809  80.28   0.02172354    2.703    0.630
         4 -12.6247    216.3688      3.7138   2.1974405462e+00   3.3387233102e+01     1.379131    0.3324353  74.64  0.003095183    3.872    0.742
         5 -13.1122    209.4295     15.2250   4.7706085917e+00   3.3433926985e+01     1.420025    0.4383918  57.60  0.006410553    4.614    0.783
         6 -11.1037    153.4241     12.6783   8.3194874354e+00   4.4763596760e+01    0.3575121    0.3051139  41.15  0.002466037    1.633    0.388
         7 -10.1602    120.1852      9.2782   1.1042307842e+01   5.2562832864e+01    0.2882036    0.2323292 -87.68 0.0009902648    1.033    0.032
         8 -10.0271     15.6019      9.2598   4.6063773206e+01   7.5321538061e+01      0.20534    0.1484412 -20.91   0.00105209    1.521    0.343
         9 -10.0108    172.0600      2.8143   4.4407008869e+00   4.1819773606e+01    0.1870174    0.1186385 -68.45 0.0009664965    1.261    0.207
        10 -10.5037    186.8726    216.8990   4.5688143042e+01   5.8434870479e+00    0.3286242    0.1831871 -25.57  0.001572277    1.669    0.401
        11 -15.5383    169.2951    120.3168   3.1646982530e+01   2.5524098034e+01     11.05947     4.279058 -54.45   0.02505177    3.224    0.690
        12  -8.9232    232.9974    192.4493   3.4432040334e+01   5.0097159910e+00    0.1653562    0.1000131  21.70  0.001115793    1.926    0.481
        13 -10.7522    206.5676    205.7036   4.0549050157e+01   5.6151441349e+00    0.5060883    0.3968088 -61.16  0.002143464    2.005    0.501
        14 -10.7105    146.8601    185.5614   4.8732977215e+01   1.6256626258e+01    0.4367887    0.3488303  79.75  0.002348376    2.005    0.501
        15 -11.4010    201.1823    200.2097   4.0593765618e+01   7.0407562372e+00     0.389239    0.2930881  -7.68 0.0008273994    1.208    0.172
        16 -17.3147    246.4026    130.5297   2.2706457365e+01   1.2640677130e+01     2.004355     1.501236 -23.85   0.01096784    1.390    0.281
        17 -16.1561    248.2196    112.5086   1.9485887839e+01   1.4979227698e+01     1.679685    0.7805285 -57.28  0.007701747    2.571    0.611
        18 -12.0828    108.3805    170.9624   5.5633008987e+01   2.4906233726e+01    0.6523609    0.4757473  20.49   0.00253123    1.387    0.279
        19 -12.0929    192.4797    193.6235   4.1043254818e+01   9.0761111484e+00    0.9566767    0.4743492 -58.71  0.004056757    3.708    0.730
        20 -10.4651    197.9805    197.5024   4.0710474723e+01   7.8229871908e+00    0.2464207    0.2126092 -68.48   0.00107625    1.811    0.448
        21 -11.2273    116.1582    162.8192   5.2107549477e+01   2.5599321659e+01    0.3288873    0.2357578 -26.75 0.0008291838    1.555    0.357
        22 -10.7600    115.0279    158.3581   5.1573239444e+01   2.6795636917e+01    0.3093071    0.2102352 -51.32 0.0003689671    1.463    0.317
        23  -9.7021    185.7158    208.3523   4.4595911206e+01   7.3667160943e+00    0.1901241    0.1868444  77.16 0.0005405004    1.561    0.359
        24 -10.9303     68.0640    144.2685   6.3074712337e+01   3.7517246535e+01    0.8023536    0.4197379  55.88  0.002907914    2.574    0.611
        25  -9.4480    195.1067    206.8116   4.2673032214e+01   6.6194521823e+00    0.1637278    0.1442903 -19.44 0.0005561634    1.220    0.180
        26  -9.9937     19.6512    133.4227   7.9317759866e+01   4.6085588903e+01    0.2475602    0.2264037 -30.58 0.0002802718    1.121    0.108
        27 -11.6828    125.0193    127.1899   4.2580200247e+01   3.2081522166e+01    0.6392829    0.3481163 -45.07  0.002770917    1.800    0.445
        28  -9.5058     79.1254    125.1589   5.5544151129e+01   4.0706913492e+01    0.2298927     0.209339 -15.84 0.0004408185    1.172    0.147
        29 -11.8374    202.1591    246.2138   4.7171257469e+01  -7.0573056994e-03    0.4448387     0.171036  28.25  0.002449971    2.612    0.617
        30 -10.4425    111.3621    101.1879   3.9946420090e+01   4.0272690052e+01    0.3240378    0.2164318 -53.57 0.0008266598    1.522    0.343
        31 -11.8360    122.7600    114.3082   4.0199958567e+01   3.5265592569e+01    0.7883486    0.4367717 -66.08  0.003023013    2.650    0.623
        32 -10.1875    121.2810     93.7840   3.5498442580e+01   3.9764048338e+01    0.3472502    0.2415344 -57.20 0.0008714537    1.485    0.326
        33 -12.6166    123.8392    103.8695   3.7416196993e+01   3.7224350479e+01    0.9920298    0.7697011  86.32  0.003401836    1.585    0.369
        34 -10.5860    124.8578     97.5344   3.5591471024e+01   3.8292297040e+01    0.3316055    0.2688648 -64.90 0.0006814981    1.269    0.212
        35 -12.3007     48.6325    103.6278   6.2185266574e+01   5.0917622226e+01    0.5642776    0.5579855  26.34 0.0009155043    1.025    0.024
        36 -12.0539     64.7362    108.7838   5.6968079624e+01   4.7166083114e+01    0.6219167     0.589967  -3.04  0.001465357    1.084    0.077
        37 -13.5001     58.9180    104.7615   5.8263173642e+01   4.9097292353e+01     2.451318     1.094897  32.74  0.007010109    2.149    0.535
        38 -11.2729      5.8918    108.7833   8.2128016820e+01   5.3869964144e+01    0.4956619    0.1829047 -63.13  0.001871809    2.344    0.573
        39 -13.0354     22.1269    101.6199   7.3558791173e+01   5.4570087892e+01     1.006381    0.9213713  -3.90  0.003874992    1.084    0.078
        40 -10.3667    113.7544     95.2962   3.7791918196e+01   4.1006149502e+01    0.5152786    0.3062917  28.42  0.002090079    2.448    0.592
        41  -8.9450     96.0874    109.6824   4.6476606949e+01   4.1392241932e+01    0.2688408    0.2021356 -60.56  0.001293768    1.403    0.287
        42  -8.9656    176.8361     99.9351   2.6042276340e+01   2.7794288384e+01    0.1934047    0.1591813 -36.23 0.0006162472    1.234    0.189
        43  -8.1561    106.4711     91.4371   3.8725860672e+01   4.3287585113e+01    0.1440412    0.1397294  68.68 0.0001335749    1.030    0.029
        44  -9.8668    172.1347     85.8225   2.3671668135e+01   3.1011880055e+01    0.2093573     0.177945 -62.21 0.0007111984    1.039    0.037
        45 -10.1864    167.9042     92.3306   2.5800094831e+01   3.0729224755e+01    0.5280214    0.2840331  53.86  0.002193257    2.022    0.505
        46  -9.4710    179.8213     72.5728   1.9622135853e+01   3.1635749325e+01    0.4139857    0.2443506 -35.16  0.002238193    1.756    0.430
        47 -11.2844    183.9583     78.1832   2.0305659726e+01   3.0008528860e+01     0.448789    0.3840589 -87.86  0.001672734    1.175    0.149
        48  -9.6372    184.7195     73.6444   1.9221363138e+01   3.0555594597e+01     0.216559    0.1806713   2.18 0.0007251339    1.867    0.464
        49 -16.5511    195.7905    168.8722   3.6311444761e+01   1.2875087088e+01     7.613725     4.351848  44.40   0.03366524    2.228    0.551
        50  -9.5729     89.9581    215.7285   6.7154479298e+01   1.7180059154e+01    0.2086674    0.1886607 -33.03 0.0006423827    1.166    0.142
        51 -11.0563      7.9991     72.2590   7.5198067306e+01   6.3302751463e+01    0.3309432    0.1613156 -57.84  0.001466592    1.879    0.468
        52  -9.3537    173.0226     71.9870   2.0413255346e+01   3.3029994195e+01    0.1956297    0.1621298 -63.44   0.00052367    1.042    0.040
        53  -9.1787    230.6018     70.1132   1.3670296254e+01   2.3279429583e+01    0.2183121    0.1821181 -12.03  0.001474497    1.808    0.447
        54  -9.5065    222.1143     63.7825   1.3233990758e+01   2.5454029468e+01      0.21669    0.1843003 -74.26 0.0007332057    1.189    0.159
        55  -9.5425    226.9710     68.9983   1.3783169915e+01   2.3989557975e+01    0.1640194    0.1231359 -54.71 0.0003140321    1.008    0.008
        56  -9.9965    226.4892     65.5795   1.3189342273e+01   2.4519325173e+01    0.1912164    0.1686969 -40.41 0.0007520056    1.338    0.253
        57 -16.8615    206.2494    116.5266   2.5111425368e+01   2.0184658289e+01     5.618186     3.711516 -25.71   0.03297736    1.765    0.433
        58 -10.6581    146.3591     67.8510   2.3558786177e+01   3.9101140712e+01    0.5381662    0.3089941 -24.25   0.00234982    2.729    0.634
        59 -10.9474    172.6798     66.5583   1.9218162426e+01   3.3916379048e+01    0.3858038    0.3220012 -87.52  0.001544802    1.148    0.129
        60 -10.1455    110.4850    104.5110   4.1024899892e+01   3.9743427446e+01    0.3097729    0.2315612  66.19  0.001293304    1.536    0.349
        61  -9.0729    215.3305     67.1208   1.4496046680e+01   2.6113010307e+01    0.1564215    0.1492839 -74.89  0.000803698    1.316    0.240
        62 -10.0526    182.2554     66.3806   1.7939739546e+01   3.2092298035e+01    0.2620601    0.2179355  -1.98  0.001110034    1.874    0.466
        63 -10.8803    180.1113     63.3308   1.7527433876e+01   3.2943998300e+01    0.2953265    0.2522821  54.20 0.0009032497    1.440    0.306
        64 -10.4244    183.5156     59.5061   1.6269285842e+01   3.2835259830e+01    0.2661599    0.2299135  44.04 0.0009075691    1.568    0.362
        65 -10.1758    233.9432     63.2893   1.2146542870e+01   2.3662287064e+01    0.2671182    0.1363009 -49.58   0.00170728    1.464    0.317
        66 -10.0592    238.2184     60.6950   1.1344902908e+01   2.3346156108e+01     0.167879    0.1451017 -54.92 0.0003793056    1.242    0.195
        67  -8.8219    162.4710     64.3269   2.0124586564e+01   3.6294627414e+01    0.2678768    0.1250522 -29.91            0    2.889    0.654
        68  -9.0554     12.6399     63.7281   7.0494583513e+01   6.5005430506e+01    0.1795291      0.13224 -76.18 0.0005720133    1.576    0.365
        69 -10.2371    247.2292     60.0238   1.0563145171e+01   2.2103372947e+01    0.1562797    0.1317021 -74.63 0.0004451858    1.273    0.214
        70  -8.7097    243.4905     59.4354   1.0729590762e+01   2.2720887301e+01    0.1700175    0.1211966 -67.07 0.0005779864    1.241    0.194
        71  -9.5877    144.3651     59.5851   2.1761617216e+01   4.0812156671e+01    0.2330826    0.1874082 -59.57 0.0006158953    1.156    0.135
        72  -8.6711     72.5030     60.0117   3.9911422426e+01   5.6515886263e+01    0.2090794    0.1431948 -41.35  0.001025226    1.593    0.372
        73 -10.6052    227.6900     57.1752   1.1526689809e+01   2.5421043937e+01    0.3194485    0.1594697 -50.07  0.001696308    1.515    0.340
        74  -9.5520    246.1476     54.8755   9.7474274146e+00   2.2894642889e+01    0.2239116    0.1283432 -67.80 0.0009127174    1.658    0.397
        75  -8.9550    232.8259     55.8955   1.0890719831e+01   2.4776449370e+01    0.1501586    0.1145075 -47.74 0.0003372138    1.166    0.142
        76  -9.2988    220.3393     55.3540   1.1783773380e+01   2.6842901487e+01    0.1935995    0.1688766  -0.95 0.0008871567    1.855    0.461
        77  -9.7578    123.4446     54.0464   2.4060524849e+01   4.6270027394e+01    0.4866042    0.2404318 -25.06  0.001872687    3.385    0.705
        78 -10.1984    250.0882     48.4663   8.3864589957e+00   2.3092741914e+01    0.2524127   0.09675015 -46.07 0.0007359337    1.781    0.439
        79  -8.1228    138.2623    218.6869   5.5828385599e+01   1.0878262027e+01    0.1134378    0.1006868  55.80 0.0002222175    1.537    0.350
        80 -11.4022    194.4087     37.8095   1.0462476573e+01   3.3615471695e+01    0.7702422     0.318581  52.58  0.003693505    3.405    0.706
        81 -10.8355    202.0693     34.3866   9.1171947106e+00   3.2613417056e+01    0.3141999    0.2388702 -34.29  0.002226557    1.504    0.335
        82 -11.1414    245.8106    233.4053   3.8597969628e+01  -1.7023403921e+00    0.2382815    0.2092168  -0.09  0.001422703    1.584    0.369
        83  -9.1637    211.9257     51.7188   1.1790690807e+01   2.8724552922e+01    0.1687592    0.1374175 -37.91  0.001018092    1.373    0.272
        84 -10.2923    192.9890    213.5451   4.4079815750e+01   5.7565186262e+00    0.2023146    0.1691574 -18.51 0.0005233319    1.131    0.116
        85  -9.2682    242.1604     47.2635   8.6867249252e+00   2.4407209530e+01    0.1424709    0.1153619 -53.27 0.0007714336    1.201    0.167
        86  -9.8854    178.7478    193.3683   4.3506389256e+01   1.0720415492e+01    0.3707123    0.1880367  41.40  0.001467855    2.466    0.594
        87 -10.6070    241.1133    228.4393   3.8574937950e+01  -7.0311456678e-01    0.2329993    0.1272052 -11.88  0.001272415    1.727    0.421
        88  -9.3593    235.7916     40.2123   7.8482418002e+00   2.6220909717e+01     0.208931    0.1023935 -50.62  0.001372019    1.474    0.321
        89  -9.9106    238.1970     36.8216   7.0936910852e+00   2.6240537947e+01    0.1888674    0.1296918  62.53 0.0009716969    1.927    0.481
        90 -10.7369    206.9059     29.7150   7.8089215265e+00   3.2286914002e+01    0.2493649    0.1720702 -69.54 0.0002659664    1.176    0.150
        91  -9.3684     33.9929    193.9866   8.0593143852e+01   2.8464857146e+01      0.21025    0.1940752  34.68  0.001222264    1.017    0.016
        92 -10.7069    227.6572    199.1352   3.6235560235e+01   4.5405341225e+00    0.3020652    0.2613862 -57.20  0.002308919    1.757    0.431
        93  -9.2508    199.0406     26.9681   7.8196086351e+00   3.4032195323e+01    0.1657727    0.1284395 -65.25  0.001221318    1.032    0.031
        94 -10.2345    187.9654     26.0706   8.4812650760e+00   3.6227502279e+01    0.1959231    0.1427343  82.35 0.0003331677    1.325    0.245
        95 -11.6378    177.6008     24.1280   8.9111707718e+00   3.8487554328e+01    0.4826665    0.2896319  87.42  0.002968538    1.546    0.353
        96 -10.0644    141.8068    223.5468   5.5734493092e+01   9.5696076317e+00     0.226735    0.2127405 -88.04 0.0004282797    1.535    0.348
        97 -10.4042    229.4632    221.4422   3.9288581613e+01   1.1828618566e+00    0.2118409    0.1904378  18.07   0.00126625    1.634    0.388
        98  -9.8628    175.1983    221.9974   4.8636059546e+01   6.2154885478e+00    0.1680422    0.1540874 -19.96 0.0008093556    1.309    0.236
        99  -8.3336     91.4770     15.5728   1.7988577650e+01   5.8671335228e+01    0.1301566    0.1087004  75.45 4.475811e-05    1.017    0.017
