#   1 NUMBER                 Running object number                                     
#   2 MAG_AUTO               Kron-like elliptical aperture magnitude                    [mag]
#   3 X_IMAGE                Object position along x                                    [pixel]
#   4 Y_IMAGE                Object position along y                                    [pixel]
#   5 X_WORLD                Barycenter position along world x axis                     [deg]
#   6 Y_WORLD                Barycenter position along world y axis                     [deg]
#   7 A_WORLD                Profile RMS along major axis (world units)                 [deg]
#   8 B_WORLD                Profile RMS along minor axis (world units)                 [deg]
#   9 THETA_WORLD            Position angle (CCW/world-x)                               [deg]
#  10 FWHM_WORLD             FWHM assuming a gaussian core                              [deg]
#  11 ELONGATION             A_IMAGE/B_IMAGE                                           
#  12 ELLIPTICITY            1 - B_IMAGE/A_IMAGE                                       
         1 -15.6071    243.5131    115.2458   2.4567464228e+01   9.3602920437e+00     4.638792     4.314909 -33.90     0.030338    1.215    0.177
         2 -14.5964    247.4950     77.0038   1.5172320612e+01   1.4673158604e+01     5.725861     2.272117 -51.95   0.02233661    2.905    0.656
         3  -9.7635    240.3497     19.5722   2.1609810444e+00   2.3998995183e+01    0.5467543    0.3388966  53.44  0.002809777    2.131    0.531
         4  -9.1451    249.6682     16.0239   7.3921238355e-01   2.2542987832e+01    0.3438382    0.3172466   3.27  0.001732971    1.515    0.340
         5  -8.9574    205.9417     11.5798   2.6854385826e+00   3.2453802499e+01    0.2990605    0.2027018  48.32  0.001070022    1.865    0.464
         6  -8.8106    115.7900     12.0485   1.4302487980e+01   5.4963567797e+01    0.3010473    0.2028045 -55.11  0.001428859    1.702    0.412
         7  -9.7740    120.3245      9.1401   1.2209216196e+01   5.4114928517e+01    0.4061454     0.360006 -16.38   0.00160311    1.179    0.152
         8  -9.0820    229.1386     10.3407   6.9422019065e-01   2.7420790581e+01    0.3443009    0.1715873  54.86  0.001341311    2.565    0.610
         9  -8.4522    233.7887      8.3684   3.5992594065e+02   2.6654293075e+01    0.2448845    0.1879018  52.76 0.0008328778    1.720    0.419
        10  -7.4111     49.7029      7.6760   3.2460221398e+01   7.0249140932e+01    0.1363969   0.09040289   9.51 0.0003296836    1.625    0.385
        11  -9.5588    180.4859      5.6950   3.1859017711e+00   3.9170795102e+01    0.2527322    0.2352911  17.14  0.001381051    1.311    0.237
        12  -8.5705    241.4478      4.8456   3.5866026027e+02   2.5454926470e+01    0.4038122    0.1473503  58.72  0.001790195    3.440    0.709
        13  -8.5481    233.3371      3.3274   3.5875504878e+02   2.7297724125e+01    0.3320217     0.159946  44.42  0.001212844    3.734    0.732
        14  -8.9511     97.0413      3.7008   1.4483499466e+01   6.0411210908e+01    0.2462677     0.196311 -19.22 0.0002812094    1.294    0.227
        15  -8.3828    113.2725      2.0681   1.0462563629e+01   5.6547268107e+01    0.2078113    0.1719772  36.75  0.000767639    1.207    0.171
        16  -7.5625     60.1957    212.2014   8.0592750550e+01   2.0386093291e+01    0.1685658    0.1175311  63.37 0.0004461028    1.253    0.202
        17 -10.9804    245.0719    249.8430   4.9714365246e+01  -9.4130094043e+00    0.5428371    0.3459462  -5.03  0.004083183    1.205    0.170
        18  -9.0803    192.7568    194.7041   4.9919903497e+01   4.3931522240e+00    0.7249412    0.3796097 -59.48  0.002507536    5.231    0.809
        19  -7.5791    118.5606    200.4370   6.6411827693e+01   1.4791100865e+01    0.1301299    0.1196035  37.38 1.100091e-05    1.027    0.026
        20  -9.2261    235.5780    196.7701   4.2606527084e+01  -1.9330997112e+00    0.6651804     0.256244  46.19  0.002613868    4.666    0.786
        21  -8.9737    230.4922    194.7475   4.3095245324e+01  -9.8098177575e-01    0.2772131    0.2616115  35.98  0.000971026    1.644    0.392
        22  -8.5829    249.6477    195.0760   4.0016242089e+01  -3.4895314593e+00    0.2985192    0.1669802  11.29  0.001685638    1.911    0.477
        23  -9.7886    223.6821    188.8787   4.3185981249e+01   8.0009474660e-01     0.414734    0.3637255  56.45  0.001767786    1.869    0.465
        24  -8.2962    210.6758    190.5521   4.5810980468e+01   2.4033091109e+00    0.3073604    0.1917454 -36.41   0.00171494    1.551    0.355
        25 -10.4909    214.4476    181.2027   4.3370424940e+01   3.3098890008e+00    0.8903862    0.5300059 -17.20  0.004587221    1.745    0.427
        26  -9.4264    224.8873    166.6842   3.8665869120e+01   4.0415529318e+00    0.7150458    0.3453082 -53.97   0.00240026    5.020    0.801
        27  -8.9988    221.7290    177.5790   4.1377201064e+01   2.7984656638e+00    0.2807001    0.2315299  52.36  0.001318123    1.809    0.447
        28  -9.3850    224.6295    172.8566   3.9946031010e+01   3.1058594826e+00    0.5788343    0.2787062 -38.75  0.002801754    1.913    0.477
        29  -8.4513    229.5727    171.8237   3.8896575630e+01   2.5361228307e+00    0.2782785    0.2274097 -40.68  0.001105952    1.459    0.315
        30  -9.8020    230.3085    167.4894   3.7906993497e+01   3.0987918420e+00    0.4998201    0.2978006 -51.93  0.001708308    2.551    0.608
        31  -8.6283     56.2825    185.1275   7.9041315916e+01   2.6852229296e+01    0.2140744    0.1667588  51.31 0.0002780822    1.177    0.150
        32  -8.2793    201.7809    183.5674   4.6155314424e+01   4.8445304262e+00    0.2086594    0.1908408 -52.28 0.0008865317    1.491    0.329
        33  -9.4900    244.5129    180.1384   3.8056986159e+01  -7.8667956795e-01    0.3804195    0.2572075 -38.78  0.002309479    1.589    0.371
        34  -7.3986    229.9645    182.0244   4.0814556236e+01   9.3571072771e-01    0.1464033    0.1175444  -3.15 0.0009406148    1.064    0.060
        35  -8.3600    237.9798    175.6723   3.8253492129e+01   7.5230546353e-01    0.3348793    0.2239563  64.92  0.001441877    4.461    0.776
        36  -7.9145    211.8836    173.9039   4.2413075639e+01   4.8729194398e+00    0.1995735    0.1518077  -6.07 0.0003914235    1.211    0.175
        37  -7.6966    159.4448    174.2254   5.2991306115e+01   1.3443867057e+01    0.1870653    0.1351885 -58.01 0.0009331874    1.641    0.391
        38  -9.5572    250.0897    171.3061   3.5472647178e+01  -2.7767158614e-01    0.4184902    0.1677356 -42.65  0.001152697    2.747    0.636
        39  -8.1151    245.4691    172.4809   3.6425459713e+01   1.8196995321e-01    0.2094481    0.1176273  35.74  0.000994074    1.992    0.498
        40  -8.2647    202.8550    160.1033   4.1273704153e+01   8.6766683771e+00    0.2416209    0.1904172  21.54 0.0004841681    1.293    0.227
        41 -10.4279    192.9537    164.2433   4.4038700068e+01   9.6081605985e+00    0.4977815    0.4312287  -3.84  0.001517879    1.057    0.054
        42  -9.0488    199.8810    164.3818   4.2726948679e+01   8.4192730041e+00    0.3307432     0.278616   6.25 0.0008968231    1.132    0.116
        43  -7.9878     22.6104    165.8388   8.5618032729e+01   3.5181357697e+01    0.1848686    0.1350356  88.74  0.000767583    1.128    0.113
        44  -9.5718    112.5490    202.2073   6.7989658910e+01   1.5334664008e+01    0.2251055      0.20598  29.98 0.0002709874    1.096    0.087
        45  -9.6490    165.0228    145.5206   4.5838790269e+01   1.8316171909e+01    0.5526454    0.3180052 -54.80  0.001943553    2.013    0.503
        46 -10.3881    160.0793    145.5727   4.6956586625e+01   1.9249170863e+01    0.5149243    0.3935086 -15.75  0.001906378    1.495    0.331
        47 -13.3544    244.0831     93.8331   1.9540444231e+01   1.2686604012e+01     1.679137     0.782431  53.72  0.007782624    2.677    0.626
        48  -7.3877    128.4545    249.4459   7.0318609872e+01   4.7967352531e+00    0.1146836   0.09134882  35.17  8.14633e-05    1.018    0.018
        49  -9.3560     68.4301    144.7299   7.0791110634e+01   3.5385234292e+01     0.622884    0.2947487  56.17  0.002343969    2.584    0.613
        50  -8.9637    181.8633    151.2179   4.3503267085e+01   1.4013593599e+01    0.4090081    0.2263718 -50.05 0.0009832862    1.979    0.495
        51  -7.0667    108.2278    141.0448   5.8925713273e+01   3.0023428632e+01    0.1940823    0.1229516 -54.50            0    1.512    0.339
        52  -7.8122     49.9683    139.5829   7.5394352326e+01   3.9127036001e+01    0.2684269    0.1902535  -6.01  0.001270875    2.149    0.535
        53  -8.9850     14.6363    139.0247   8.5607941651e+01   4.2737072607e+01    0.2107348    0.1856595  58.70 0.0002394527    1.227    0.185
        54 -10.0732    155.3917    137.3651   4.6160303546e+01   2.1936605039e+01    0.3278227     0.305778  59.39  0.001261746    1.193    0.161
        55 -10.6201    164.4530    133.8558   4.3273024880e+01   2.0896583552e+01    0.6303235    0.3085829  34.81  0.002369126    2.412    0.585
        56 -10.1397    160.8061    128.7239   4.2855883790e+01   2.2735314920e+01    0.4937354    0.3299827 -59.73  0.001843949    1.783    0.439
        57  -9.7056    135.7462    126.9902   4.8465778746e+01   2.8224827851e+01    0.7913139    0.1217642 -48.94   0.00160214    6.643    0.849
        58  -9.8089    135.0000    119.9861   4.6915121880e+01   3.0026317190e+01    0.4774657    0.2927087 -49.38  0.001981359    1.553    0.356
        59  -9.5727    138.1643    118.2001   4.5648931917e+01   2.9788935014e+01    0.3520659    0.3036409 -66.65 0.0008215535    1.233    0.189
        60  -8.5143    149.7409    127.9553   4.5245735142e+01   2.5162749914e+01    0.2320835     0.192575 -41.19 0.0005014172    1.135    0.119
        61 -10.1157     37.0556    127.1911   7.7606697463e+01   4.3899702439e+01    0.2508896    0.2294263  79.45 0.0002749356    1.123    0.110
        62  -9.8900    171.1977    123.4539   3.9256689832e+01   2.1724830062e+01    0.4922975    0.1972777 -47.24 0.0009835344    2.479    0.597
        63  -9.1789    173.8382    117.3790   3.7157533002e+01   2.2437287701e+01     0.433321    0.1870401 -41.76  0.001355886    2.107    0.525
        64 -11.2126    172.4417    112.1378   3.6092780906e+01   2.3816688440e+01    0.8179348    0.5877693 -36.39  0.003820122    1.281    0.219
        65 -11.5033      9.7263    117.6150   8.5134050698e+01   4.8786061399e+01    0.9309421    0.6117063 -67.25  0.005124046    1.282    0.220
        66 -10.6513     41.4042    116.5436   7.4623348925e+01   4.6355458954e+01    0.4797252    0.4419474  25.15  0.001449316    1.300    0.231
        67 -11.0365     58.2085    118.4639   6.9412794246e+01   4.3833850499e+01    0.6760581    0.4285267 -55.35  0.001968737    1.434    0.302
        68 -11.8309     51.3363    116.2330   7.1267467876e+01   4.5307778378e+01     1.035565    0.8817917 -45.05   0.00509488    1.253    0.202
        69  -7.8861    211.1644    151.4822   3.7903238975e+01   8.7866339935e+00    0.2368497    0.1686287 -15.81  0.001247845    1.375    0.273
        70 -10.3497    155.7768    105.4404   3.7962813772e+01   2.8868897968e+01    0.6003625    0.3705248 -41.34  0.002520555    1.497    0.332
        71  -7.5989    224.0753    151.1310   3.5565983212e+01   6.7027895483e+00    0.1714509    0.1459569 -38.39 0.0003870256    1.277    0.217
        72  -9.5136    201.5386    148.7388   3.9080324205e+01   1.0941366416e+01    0.4847136    0.2926901 -55.71  0.002057662    2.315    0.568
        73  -9.4142    133.9948    104.7567   4.3116140454e+01   3.3804047865e+01     0.599592    0.2711144 -45.93  0.001823394    2.069    0.517
        74 -10.5344     15.6236    119.2825   8.3423744456e+01   4.7926465802e+01     0.699618    0.3095646 -61.41  0.003139772    1.879    0.468
        75 -10.5331    170.5159    102.5284   3.3922224373e+01   2.6215039701e+01    0.4444664    0.3575905 -36.36 0.0009101749    1.140    0.123
        76  -8.3165    141.1794    104.1874   4.1121117625e+01   3.2367585498e+01    0.3002131    0.2461251 -74.83  0.001160385    1.434    0.302
        77  -7.9982    117.8434    101.3410   4.6557268996e+01   3.8052695307e+01    0.2454419      0.20238  69.83 0.0007058811    1.417    0.294
        78  -7.7735    111.3253     97.5752   4.7370879362e+01   4.0314814747e+01    0.2016044    0.1603244  28.46 0.0003791962    1.445    0.308
        79  -9.8853    151.4902    148.5375   4.9581558854e+01   2.0241639849e+01    0.4510019    0.3931013 -64.20  0.002036615    1.270    0.213
        80  -9.7933    186.0569     91.6903   2.7884740090e+01   2.4888813825e+01    0.3310768    0.2103329 -25.65 0.0009104231    1.675    0.403
        81 -10.6224    188.8477     83.0493   2.4988856378e+01   2.5868108040e+01    0.8818775    0.3295169 -33.37  0.002780099    2.567    0.610
        82 -11.2307    144.4871    142.8712   4.9995204565e+01   2.2836005818e+01    0.9951968     0.775892 -62.08  0.004819329    1.409    0.290
        83  -9.6620    179.0008     82.8425   2.6704034764e+01   2.8163350311e+01    0.3784209    0.2134991 -34.04  0.001285191    1.654    0.395
        84 -10.1968    183.3705     78.7255   2.4727779412e+01   2.7913035208e+01    0.6510004    0.3488162  46.79  0.002660286    2.135    0.532
        85 -10.2385    133.9616    144.8164   5.3004590397e+01   2.4393380313e+01     1.072083    0.4986745 -53.20  0.004009464    2.186    0.542
        86  -8.5896     83.9761     81.9927   5.1475420443e+01   4.9470164751e+01    0.2292854    0.2109013 -46.21  0.001187165    1.012    0.012
        87  -9.9460    178.2139     71.9521   2.3673055043e+01   3.0347840475e+01    0.7037338    0.3709331 -36.26  0.002723325    1.712    0.416
        88  -8.0247    205.4797     72.6117   1.9453827573e+01   2.3957633810e+01    0.2628933    0.1352379 -23.73  0.001020681    2.272    0.560
        89  -9.9235    202.2222     66.5803   1.8279133248e+01   2.5687306016e+01    0.5470929    0.2865772  42.42  0.002077692    2.551    0.608
        90  -9.7716    205.9475     64.3808   1.7149943791e+01   2.5205068995e+01    0.4200393    0.3101767 -31.46  0.001363387    1.251    0.201
        91  -8.2122    134.9570     63.9600   3.0112536683e+01   4.2339793639e+01    0.2282988    0.2192694 -41.04  0.001188604    1.020    0.020
        92  -8.5314    181.6814     61.7768   2.0056915320e+01   3.1284992639e+01    0.3196441    0.1391239 -25.74  0.001081416    2.759    0.638
        93  -8.8680    209.6871     53.7922   1.3778229345e+01   2.6018057541e+01    0.2822662    0.2133629  31.60  0.001262994    1.797    0.444
        94  -9.1500    186.0378     49.2632   1.5655005581e+01   3.2242250584e+01    0.4359029    0.2068012  40.48  0.001551857    3.212    0.689
        95  -9.4692    200.2758     49.3271   1.3733601808e+01   2.8848052452e+01    0.6259748    0.3481374  27.41  0.002191397    3.891    0.743
        96  -8.7102    173.3254     46.9083   1.6851842285e+01   3.5722619939e+01    0.3691989    0.2554195 -17.03  0.001698763    1.690    0.408
        97  -8.5282    150.4847     45.5030   2.0351891171e+01   4.1688910100e+01    0.1538887    0.1422454 -56.93 0.0008102284    1.036    0.034
        98  -7.6193    125.4913     39.5082   2.3419997228e+01   4.8936540812e+01    0.1489756    0.1463025 -22.24 3.491539e-05    1.019    0.019
        99  -7.9486    198.0393     35.0128   9.9530196780e+00   3.1419241207e+01    0.2006678    0.1664427  15.50            0    1.601    0.375
       100  -8.3551    144.8418     31.3879   1.6412184567e+01   4.5207036111e+01    0.2411734    0.1722924  26.78 0.0006546101    1.770    0.435
       101  -9.0469    248.3183     25.3214   2.9548400003e+00   2.1693607551e+01    0.3818505    0.1276101  56.85  0.001588915    3.807    0.737
       102  -7.6269    134.2587     26.5922   1.6584476164e+01   4.8558485188e+01    0.1582796    0.1013803 -55.15 0.0006079637    1.733    0.423
       103  -9.5338    231.1659     24.4746   4.0142349888e+00   2.5320271148e+01    0.3978692     0.171897 -62.16  0.001714507    2.517    0.603
       104  -8.2887    198.0000    247.0261   5.7181006617e+01  -3.7739113251e+00    0.1573681   0.05958565 -39.37 0.0008021396    2.940    0.660
       105  -7.2912     82.2793    246.6314   7.8905324719e+01   1.1156109118e+01    0.1186834   0.06961002  61.03 0.0002018567    1.687    0.407
       106  -7.1488     77.2702     20.3281   2.8543800428e+01   6.3075081553e+01    0.1429386     0.101661  11.75 0.0002775706    1.580    0.367
       107  -9.2485    211.8569     17.1348   3.6878195196e+00   3.0460033730e+01    0.2094504    0.1926583 -73.56 0.0002696592    1.150    0.130
       108  -7.5221     67.7463    162.0283   7.3490617892e+01   3.1011903908e+01    0.1772122    0.1140761 -71.33 0.0003824373    1.467    0.318
       109  -8.7644    128.6360    158.0810   5.7045285670e+01   2.2300549468e+01    0.3598786    0.2523907 -34.86  0.001035247    1.584    0.369
       110  -7.9652     93.4544     15.9863   2.1342750634e+01   5.9982338749e+01    0.2021542     0.134848 -24.30 0.0004367011    1.503    0.334
       111  -8.6263     21.3839    245.0066   9.0170059292e+01   1.8284792740e+01    0.1757258    0.1275333  43.76 0.0004346073    1.269    0.212
       112  -8.4640    206.8120    241.9450   5.4918503750e+01  -4.2187458021e+00     0.145385    0.1371352 -71.35 0.0009512467    2.006    0.502
       113  -7.2881    122.4296    234.5694   6.9865888909e+01   7.9670364090e+00    0.1183935   0.09958322  32.59 0.0001125116    1.044    0.042
       114  -9.6371    245.1257    232.1486   4.7013809684e+01  -7.5042620728e+00     0.190559    0.1687615   3.40   0.00152121    1.605    0.377
       115  -8.4319     23.9547    221.0318   8.8642850029e+01   2.2597878169e+01    0.1768796    0.1358188  65.66 0.0005240003    1.035    0.033
       116  -9.5198    192.3275    153.8325   4.1965395201e+01   1.1631456849e+01    0.5848785    0.2609978 -52.87    0.0020441    3.329    0.700
       117  -7.8515    152.9703    219.9574   6.1866333758e+01   6.1142066470e+00    0.1881201    0.1467712  62.68  0.001127064    1.727    0.421
       118  -7.4711     30.4477    219.4545   8.7269902273e+01   2.2251804409e+01    0.1171724   0.09071377  64.92 0.0002292541    1.024    0.023
       119  -7.3988    234.4475    216.4740   4.6214830720e+01  -4.3936563423e+00    0.1160298    0.0877419  -2.60 2.699838e-05    1.031    0.030
       120  -7.7547      4.7892    216.2164   9.2189792267e+01   2.5393463495e+01    0.1349905    0.1176658  88.17 0.0004512149    1.330    0.248
       121  -6.9013     55.7331    214.7561   8.1746620472e+01   2.0394023081e+01   0.09817575   0.09436103 -17.04            0    1.431    0.301
