#   1 NUMBER                 Running object number                                     
#   2 MAG_AUTO               Kron-like elliptical aperture magnitude                    [mag]
#   3 X_IMAGE                Object position along x                                    [pixel]
#   4 Y_IMAGE                Object position along y                                    [pixel]
#   5 X_WORLD                Barycenter position along world x axis                     [deg]
#   6 Y_WORLD                Barycenter position along world y axis                     [deg]
#   7 A_WORLD                Profile RMS along major axis (world units)                 [deg]
#   8 B_WORLD                Profile RMS along minor axis (world units)                 [deg]
#   9 THETA_WORLD            Position angle (CCW/world-x)                               [deg]
#  10 FWHM_WORLD             FWHM assuming a gaussian core                              [deg]
#  11 ELONGATION             A_IMAGE/B_IMAGE                                           
#  12 ELLIPTICITY            1 - B_IMAGE/A_IMAGE                                       
         1 -13.7847      7.6174     14.4256   1.2292571635e+02   7.1275301880e+01     2.585723    0.7911547 -53.11   0.01266346    2.207    0.547
         2 -13.4169    189.0099     27.4280   7.3773158890e+01   3.4249029394e+01      1.28823     1.186274  37.45  0.005699671    1.099    0.090
         3 -13.9984    201.2137     10.0038   6.6609120536e+01   3.2901637182e+01     2.106804     1.234529  41.39  0.009366752    1.858    0.462
         4 -10.2424     81.5267    248.6437   1.3640772105e+02   1.9114143144e+01    0.2101958    0.1072283  60.17 0.0009778151    1.526    0.345
         5 -10.6463    248.6678    249.9932   1.1231331369e+02  -3.7277311711e+00    0.2740284   0.09140638  46.15  0.001532774    2.610    0.617
         6 -11.7818    139.5143    248.8371   1.2784631517e+02   1.1560505924e+01    0.3418908    0.2308847  51.31  0.002775906    1.093    0.085
         7 -11.4275    124.5414    249.9672   1.3016279834e+02   1.3461690128e+01    0.4278708   0.09736183  44.84  0.002075605    3.004    0.667
         8 -10.5670     98.5354    249.4737   1.3396607530e+02   1.6907739400e+01    0.2228883     0.127523  54.34  0.001190734    1.234    0.189
         9 -10.6511    102.6655    247.7657   1.3323288618e+02   1.6594791718e+01    0.2057638    0.1119754  62.29  0.000857509    1.617    0.382
        10 -10.3973     67.4143    249.9567   1.3853560304e+02   2.0606675370e+01    0.1786813    0.1237581  60.63 0.0008875329    1.052    0.050
        11 -11.0527     29.6677    249.4372   1.4386006698e+02   2.4733699482e+01    0.3253902    0.1104032  50.28  0.001868421    1.842    0.457
        12 -11.4786     34.9799    244.5674   1.4292065606e+02   2.4859479621e+01    0.3425635    0.2842691  52.00  0.003371378    1.535    0.348
        13 -10.0907     16.7757    249.9616   1.4565195466e+02   2.5915194936e+01    0.1605553    0.1307652  21.69  0.001468635    2.437    0.590
        14 -13.8470      5.7857    187.0540   1.4503246617e+02   3.6510530050e+01     1.703679    0.6476035 -79.24   0.01094223    2.248    0.555
        15 -14.6430      3.4054    234.7658   1.4704498792e+02   2.9254576872e+01     7.906681    0.4769109 -76.15   0.01114579    8.654    0.884
        16 -13.7533     10.0562    207.3753   1.4514934974e+02   3.2791034914e+01    0.9995697    0.5767837 -72.18   0.00306553    1.878    0.467
        17 -14.4843     57.0666    212.2645   1.3785474988e+02   2.7183734978e+01     6.885299          nan  46.89   0.02089273    8.091    0.876
        18 -10.5159     94.4716    241.7385   1.3401932935e+02   1.8406808115e+01    0.1850915     0.089898 -62.39  0.001293753    2.593    0.614
        19  -9.9396     75.2034    243.8330   1.3703882507e+02   2.0501740210e+01    0.1485332   0.08882463  61.67 0.0008609111    1.239    0.193
        20  -9.6518    152.4760    248.4604   1.2588929759e+02   9.8055445671e+00    0.1009215   0.07106996  45.49 8.533425e-05    1.023    0.023
        21 -12.1219     11.5534    239.5763   1.4604518403e+02   2.7834586345e+01     0.379197     0.203605  83.90  0.002917044    1.538    0.350
        22 -12.6161     44.1751    233.5016   1.4107856691e+02   2.5448339075e+01    0.2487449    0.2080781  81.97 0.0007642599    1.408    0.290
        23 -10.2063    183.3276    238.3671   1.2023418895e+02   6.4423958217e+00    0.1568358   0.09982695  24.83 0.0008207203    1.682    0.405
        24 -10.1998     46.4626    248.5369   1.4146306810e+02   2.3119730608e+01    0.2464357   0.09571304  63.49 0.0009031465    2.087    0.521
        25 -10.4338    232.8224    235.6507   1.1266778341e+02  -4.8013786169e-01    0.1923215    0.1569787 -61.85  0.001460731    2.529    0.605
        26  -9.9993    229.9505    230.4211   1.1238635320e+02   3.6241481521e-01    0.2269815    0.1321979 -48.62  0.001379928    3.472    0.712
        27 -10.2387     66.5017    242.7791   1.3826223757e+02   2.1665057926e+01    0.1729034    0.1119837  60.56  0.000524579    1.063    0.060
        28  -9.3642     35.0112    229.9218   1.4227682322e+02   2.6929028348e+01    0.1435745   0.09425404  63.57 0.0004852205    1.012    0.012
        29  -9.7746     20.0173    227.9894   1.4442417931e+02   2.8705420848e+01     0.112034   0.07308639  69.59 0.0008221051    1.069    0.064
        30 -10.7619     83.7499    244.3818   1.3580612560e+02   1.9397574783e+01    0.3186457    0.1332357  64.59  0.001923297    2.532    0.605
        31 -10.9268    173.5239    221.9358   1.1981040576e+02   9.6665590809e+00    0.3341115    0.2355038  66.82  0.002311397    1.804    0.446
        32  -9.7343     27.6948    221.6555   1.4300939103e+02   2.8898187759e+01    0.1710176    0.1034909  63.57 0.0004538318    1.124    0.110
        33 -10.9379    197.5679    244.0089   1.1877838104e+02   3.8381189582e+00    0.2414573    0.1713879 -79.66  0.001524648    3.587    0.721
        34  -8.8770    152.4717    212.9466   1.2211465805e+02   1.3989119656e+01    0.1255253     0.109891 -59.49 0.0003978097    1.460    0.315
        35 -12.3554     27.7500    203.7672   1.4215385740e+02   3.1689112305e+01    0.3828917    0.1532288  50.14  0.001910335    1.821    0.451
        36 -11.3970     68.4574    198.7094   1.3495988504e+02   2.7982986312e+01    0.2652699    0.1987574 -53.08  0.001748853    1.925    0.481
        37 -10.1930    194.2042    197.2326   1.1318203023e+02   9.2239146871e+00    0.3491228    0.1931113 -58.81  0.001669352    3.918    0.745
        38 -11.6157     73.6232    190.9794   1.3340323401e+02   2.8612342520e+01    0.2093499    0.1890769 -81.79 0.0007940994    1.378    0.274
        39  -8.6308    105.3577    181.2345   1.2659940027e+02   2.5874686343e+01    0.1350495   0.09900362 -84.95 0.0001364744    1.446    0.308
        40 -10.8053     82.5573    178.3316   1.3055308351e+02   2.9601634000e+01    0.1993922     0.167839  74.28 0.0003212997    1.093    0.085
        41 -13.2369     70.0340    176.1139   1.3269996215e+02   3.1632923681e+01    0.3759539    0.2439351 -47.40  0.001932722    2.286    0.563
        42  -8.9656    172.0176    173.9979   1.1336201177e+02   1.6022050817e+01    0.1803415    0.1395818  71.99 0.0005350497    1.602    0.376
        43 -11.9134     89.1749    168.6472   1.2821508901e+02   3.0399438102e+01    0.7823105     0.470642  59.48  0.004750441    1.497    0.332
        44 -10.4620    193.0909    156.8477   1.0666448346e+02   1.4568690776e+01    0.3231655    0.2463968 -74.42  0.001163588    2.097    0.523
        45 -11.1642     32.6850    156.1592   1.3825005948e+02   3.9594121525e+01    0.2715359    0.1345167  88.33  0.001618383    1.860    0.462
        46  -9.7015    100.9053    152.4904   1.2375788911e+02   3.1624822033e+01    0.2382473    0.2023889  58.89 0.0007897451    1.095    0.087
        47 -11.9685     89.9164    151.8720   1.2596171847e+02   3.3387811386e+01    0.2236695    0.2175077 -86.45 0.0005449548    1.289    0.224
        48 -12.5077     67.0194    143.9192   1.2982251799e+02   3.8072392051e+01    0.7346843    0.4216021  74.42  0.004068175    1.897    0.473
        49 -11.7462     58.0028    132.2862   1.3038458019e+02   4.1538589887e+01     1.005205     0.352342 -80.38  0.003198026    5.698    0.825
        50  -9.8998     43.2405    149.4013   1.3549889267e+02   3.9799454403e+01    0.1594184    0.0828856  51.24 0.0009576053    1.717    0.418
        51  -8.9325    103.7390    148.1303   1.2252817843e+02   3.1999812381e+01    0.1799048    0.1404461 -31.70  0.001062058    1.869    0.465
        52 -12.4490     28.9291    139.6906   1.3766815708e+02   4.3179527326e+01     0.494892     0.213601  63.46  0.002647836    2.325    0.570
        53 -10.1402    174.3606    137.8530   1.0639716419e+02   2.1005173732e+01    0.3445677    0.2445486  83.99  0.001670801    2.244    0.554
        54  -9.5785    111.2823    137.3308   1.1919148455e+02   3.2825218005e+01    0.2542688    0.2093308 -16.97  0.001481874    1.812    0.448
        55 -10.7523     98.9406    135.0461   1.2152017967e+02   3.5270695681e+01    0.2791104    0.2074219 -50.84 0.0007837142    1.479    0.324
        56  -8.4952    192.0137    143.9773   1.0437873732e+02   1.6590131290e+01    0.1534987    0.1401681  25.94  0.000376833    1.028    0.028
        57  -9.7134    168.0717    132.0107   1.0640833350e+02   2.3201059562e+01    0.2036548    0.1853484  70.03 0.0005678728    1.171    0.146
        58  -9.1165    108.0687    124.1707   1.1756649950e+02   3.5925955479e+01    0.1727808    0.1661984  55.74 0.0002696404    1.158    0.136
        59 -13.8700     50.3599    224.2303   1.3964762749e+02   2.6125563425e+01    0.8575525     0.526329  73.15  0.006046378    1.306    0.235
        60  -9.6092    155.7762    120.9567   1.0651270016e+02   2.7561872105e+01    0.3816929    0.2482647  83.02  0.001603447    2.708    0.631
        61  -9.7164    235.4980    150.5117   9.8420422287e+01   7.4464563602e+00     0.125669    0.1062168  18.23 0.0008105154    1.017    0.017
        62 -10.6712    168.0906    113.3191   1.0229124322e+02   2.6309034081e+01    0.3433708    0.2814012 -80.41 0.0009591489    1.540    0.351
        63 -10.7293     53.1022    110.4123   1.2855159967e+02   4.6701951906e+01    0.3159907    0.1602948 -78.96  0.001579749    2.045    0.511
        64  -9.2063    203.4488    111.4935   9.5255439244e+01   1.8957575101e+01    0.1407819     0.127598  15.59 0.0002175197    1.043    0.042
        65  -8.5740    125.6395     99.2532   1.0815300973e+02   3.7643343698e+01    0.1405796    0.1067443  80.90 0.0006959701    1.616    0.381
        66  -9.4429     29.5865     90.9699   1.3196562996e+02   5.3342756406e+01    0.2370172    0.1374868  47.66  0.001375654    1.861    0.463
        67  -8.4500    184.3397     77.3364   8.9853749922e+01   2.8500096580e+01    0.1591408    0.1120961  19.42 0.0007051045    1.757    0.431
        68  -9.4130    155.3218     75.6811   9.5121696957e+01   3.5634689997e+01    0.1518603    0.1164983 -73.12  0.000337096    1.668    0.401
        69 -10.0082     20.8515     67.7310   1.3086665231e+02   5.9145677634e+01    0.1993648    0.1678797  71.71 0.0005496573    1.283    0.221
        70 -10.8471     18.4206     56.9501   1.2966007689e+02   6.1671429983e+01    0.4633647    0.1547787  41.87  0.001992166    3.573    0.720
        71 -14.9121     20.2165    172.5013   1.4176279348e+02   3.7767016528e+01     5.592501     1.598916  86.02   0.02080229    5.699    0.825
        72  -9.1591    156.6441    249.6841   1.2539072644e+02   9.0924913630e+00   0.09772615   0.06350766  27.69 0.0007045198    1.745    0.427
