#   1 NUMBER                 Running object number                                     
#   2 MAG_AUTO               Kron-like elliptical aperture magnitude                    [mag]
#   3 X_IMAGE                Object position along x                                    [pixel]
#   4 Y_IMAGE                Object position along y                                    [pixel]
#   5 X_WORLD                Barycenter position along world x axis                     [deg]
#   6 Y_WORLD                Barycenter position along world y axis                     [deg]
#   7 A_WORLD                Profile RMS along major axis (world units)                 [deg]
#   8 B_WORLD                Profile RMS along minor axis (world units)                 [deg]
#   9 THETA_WORLD            Position angle (CCW/world-x)                               [deg]
#  10 FWHM_WORLD             FWHM assuming a gaussian core                              [deg]
#  11 ELONGATION             A_IMAGE/B_IMAGE                                           
#  12 ELLIPTICITY            1 - B_IMAGE/A_IMAGE                                       
         1 -14.1072     57.3157    127.8875   1.1029019157e+02   4.2811895802e+01     2.585994    0.8444963 -73.25  0.007116846    5.417    0.815
         2 -14.4039    209.9583     22.4793   4.4864935475e+01   2.9551702111e+01     1.211606    0.8682306  32.33  0.006184516    1.834    0.455
         3 -14.5260    198.3538     35.3973   4.9845175426e+01   3.0905641650e+01     1.769541     1.207855  29.04  0.008145675    1.965    0.491
         4 -13.5182      2.4871     13.4232   1.0189590616e+02   7.2320427876e+01     1.867674    0.2231531 -53.77  0.005898073    6.112    0.836
         5  -9.9670     61.3001      7.6992   7.0714840618e+01   6.6310769013e+01    0.1079483   0.09851027 -45.69 0.0002204995    1.583    0.368
         6 -10.8697    234.4777      1.4829   3.7376943123e+01   2.5914458383e+01    0.3834327     0.114372  74.98  0.001470579    3.169    0.684
         7 -10.9003     66.6746    204.9860   1.1800964789e+02   2.4166954303e+01    0.3753579    0.1751109 -45.73  0.001578894    3.896    0.743
         8 -15.8103    198.0837    229.5284   9.5313885983e+01  -1.4314116547e+00     1.943179      1.17286  40.51  0.007687026    1.406    0.289
         9 -13.3492    218.5663    249.1825   9.4655017309e+01  -7.0804052157e+00    0.5766163    0.3367369  33.69  0.002181625    1.333    0.250
        10 -15.6331    228.8561    239.6692   9.1409650151e+01  -7.5275612064e+00     1.279339     1.214616  -4.35  0.005662076    1.488    0.328
        11 -13.9845    175.2445    248.2664   1.0221676232e+02  -2.5596375041e-01    0.7161587    0.3430207  45.99  0.003427349    1.776    0.437
        12 -16.6840     95.2371    237.7365   1.1571062121e+02   1.3945155937e+01     6.078731     2.390605  39.81   0.02869402    2.210    0.547
        13 -16.2577      8.9325    167.4611   1.2669746747e+02   3.8539130707e+01     5.928217     1.916637 -69.28   0.02170044    2.418    0.586
        14 -16.1139     40.0050    205.3875   1.2328034569e+02   2.7419320420e+01     1.444524    0.6238448 -78.29  0.006541056    2.155    0.536
        15 -14.3575     14.1283    240.2278   1.2986861493e+02   2.3653931528e+01    0.7764091    0.4152291 -87.21  0.004967274    1.589    0.371
        16 -10.5040    156.3960    200.1521   9.8742803941e+01   1.0485084813e+01    0.3261325    0.2286471  86.57  0.001560501    2.310    0.567
        17 -11.2961    195.4955    198.9955   9.0660043460e+01   3.5065496125e+00    0.3047572    0.2116725 -63.83  0.001496751    2.392    0.582
        18 -11.2213    193.2253    192.0232   8.9825841357e+01   5.0482572259e+00    0.4645033    0.3927968 -40.32  0.002740729    1.338    0.252
        19 -11.5411     15.6007    197.7721   1.2738365473e+02   3.1547963195e+01     0.209615     0.121706  61.59 0.0005924385    1.401    0.286
        20 -14.2777     55.0203    195.2253   1.1943147474e+02   2.7703386926e+01     1.260476    0.7440684 -56.18  0.007123511    1.953    0.488
        21 -12.4236     17.6775    191.6081   1.2659520066e+02   3.2611970959e+01    0.2073854    0.1562231  70.47 0.0004804067    1.099    0.090
        22 -11.4237    149.3083    189.2643   9.8410026980e+01   1.3811998165e+01    0.4487075    0.2262822 -68.05  0.001541151    4.084    0.755
        23 -12.0752     97.2166    189.6306   1.0981309370e+02   2.2861580911e+01    0.5239565    0.3268479 -37.73  0.002223542    2.484    0.597
        24 -11.2812     99.3870    180.6887   1.0807504212e+02   2.4418788937e+01    0.2388642    0.2288376  69.38 0.0006514135    1.157    0.136
        25 -12.0089     69.6463    178.7264   1.1451298476e+02   2.9334511470e+01    0.3929709    0.2630149 -39.16  0.002033868    2.237    0.553
        26 -11.8853     74.0210    173.4996   1.1286141123e+02   2.9885668341e+01    0.2987095    0.2312135 -50.04  0.001006903    1.524    0.344
        27 -13.0422    122.3243    173.9887   1.0177949716e+02   2.1905301003e+01    0.8096744    0.2541753  40.64    0.0027653    3.031    0.670
        28 -17.5695     41.2002    226.5234   1.2457125925e+02   2.3171526082e+01     2.126124     1.158026  58.09   0.01161562    1.434    0.303
        29 -13.5941     70.6281    159.6451   1.1176986188e+02   3.3525014676e+01    0.6103535    0.4290222 -38.29  0.001250052    1.931    0.482
        30 -15.5729     68.5356    144.2333   1.0997050081e+02   3.7435940939e+01     5.295811     2.029775  61.21  0.004076858    7.354    0.864
        31 -11.4821    142.9808    172.0296   9.6723121134e+01   1.8434816015e+01    0.2336437     0.215852  50.95  0.001232295    1.010    0.010
        32 -13.9945     89.3351    156.8145   1.0675039488e+02   3.1394817007e+01     1.707465    0.8783939 -69.58  0.001514019    2.128    0.530
        33  -9.7549    163.4830    169.0101   9.1578199515e+01   1.4986055384e+01    0.2097065    0.1456835 -48.92  0.001009128    1.553    0.356
        34 -10.3899    193.4547    166.2493   8.4670166033e+01   9.4380889798e+00    0.2578132    0.2474911  38.93  0.001029755    1.124    0.110
        35  -9.6252    204.4632    164.5196   8.2099742500e+01   7.5345351859e+00    0.2513046    0.1299256 -49.01 0.0008815256    2.386    0.581
        36 -11.9710    134.0000    144.0004   9.3203931960e+01   2.6224400893e+01     1.068709    0.3221961 -56.76  0.002634212    5.506    0.818
        37 -10.4112    174.7280    148.9801   8.4862971846e+01   1.6600712182e+01    0.2127537    0.2036533 -33.31  0.000613149    1.073    0.068
        38 -12.6420     53.3792    147.3863   1.1431709751e+02   3.8641165188e+01    0.4471511    0.3295964 -61.57  0.002614711    1.282    0.220
        39 -12.0936     40.9818    146.9968   1.1737205194e+02   4.0145122643e+01     0.254155    0.2246784 -78.60  0.001149039    1.133    0.117
        40 -12.4070     43.8155    144.3866   1.1633048672e+02   4.0450491106e+01    0.4377384    0.2267649  51.68   0.00218546    2.022    0.505
        41 -12.4159     90.4247    141.4287   1.0377457231e+02   3.4825094992e+01    0.2848329     0.252172 -48.74  0.001605767    1.208    0.172
        42 -11.8000    102.9057    141.1823   1.0047335638e+02   3.2773294753e+01    0.5631794    0.3580672 -26.60  0.002284654    2.601    0.616
        43 -10.7059    112.0756    131.2381   9.5983710471e+01   3.3423806720e+01    0.3182497     0.236407  13.99  0.001242212    1.881    0.468
        44 -10.4943    105.9172    130.7028   9.7501803772e+01   3.4688826169e+01    0.3188459    0.2778417 -71.74  0.001151428    1.129    0.114
        45 -12.4418     67.3287    126.8430   1.0731696358e+02   4.1764488401e+01    0.5846496    0.2837207 -68.12  0.002485892    2.074    0.518
        46 -12.2066    118.4930    126.8374   9.3291787894e+01   3.3205787594e+01    0.6164283    0.3654862 -60.88  0.002270349    1.873    0.466
        47 -11.2100     98.9299    127.6211   9.8718997255e+01   3.6660281015e+01    0.3450312    0.2655619  16.67 0.0009946509    1.695    0.410
        48 -10.3528    160.9731    127.4927   8.2894082652e+01   2.4010708948e+01    0.2270653    0.1390632  70.13 0.0008103242    2.612    0.617
        49 -10.4193    125.6583    127.3276   9.1535312431e+01   3.1662455011e+01    0.2393318    0.1822268  86.42 0.0003232547    1.695    0.410
        50 -10.9027    135.6266    123.7915   8.8129053102e+01   3.0381913843e+01    0.2282922    0.1447062 -56.83  0.000677249    1.716    0.417
        51 -10.0489    108.1832    119.8702   9.4428111060e+01   3.6799156918e+01    0.2134058    0.1959251 -84.81 0.0002632106    1.109    0.099
        52 -14.6413      4.4753    247.2464   1.3165283718e+02   2.3406750714e+01    0.9187617    0.4518689  70.73  0.006565332    1.464    0.317
        53  -9.9511    167.8616    112.7359   7.7539801093e+01   2.5464161151e+01    0.3075729      0.20635 -66.71  0.001222717    2.087    0.521
        54 -12.4346    118.5146    109.7214   8.9066753121e+01   3.7104361307e+01    0.6069781    0.4444768  62.54  0.002784273    1.597    0.374
        55 -10.0185    205.4207    110.1445   6.9117075509e+01   1.7119672477e+01    0.2584776    0.2060851  37.99    0.0006478    1.317    0.241
        56  -9.3024     94.3602    104.7870   9.4662461579e+01   4.2816279987e+01    0.1948222     0.130846 -44.69  0.000248375    1.432    0.302
        57  -9.5690     89.2115    101.1834   9.5279634763e+01   4.4535603390e+01    0.1880758    0.1655631  87.65 0.0003046555    1.272    0.214
        58 -12.5257     82.7232    163.8108   1.0945960560e+02   3.0806782649e+01    0.5834547    0.3501555  66.38 0.0004275437    1.895    0.472
        59 -10.6606     41.8177     91.8887   1.0814963140e+02   5.3120824977e+01    0.1973585    0.1556749 -44.65 0.0004947287    1.188    0.158
        60 -10.2956     13.3957     59.8892   1.1122979284e+02   6.2607159486e+01    0.1673139    0.1576311 -60.67 0.0004455853    1.227    0.185
        61 -11.4334    149.5117     53.2359   6.3941355825e+01   4.1017552786e+01     0.510608    0.3255278 -77.42  0.001482085    2.650    0.623
        62 -11.9222     64.2559    238.2391   1.2133732361e+02   1.8168777850e+01    0.3394319    0.2014033  44.15  0.001182027    1.478    0.324
        63 -13.4501    189.2250     41.7945   5.3006053428e+01   3.2410953521e+01    0.7250199    0.5220933  32.44 0.0009257361    1.691    0.409
        64 -14.7492     39.8438    168.5731   1.2006277149e+02   3.5310087322e+01     1.426442    0.8597132  70.27  0.003813508    1.582    0.368
        65 -10.7683    151.1144     46.6095   6.1393669737e+01   4.1622701911e+01    0.3128113    0.2389677 -79.46  0.000821276    1.646    0.392
        66 -14.9303      7.6011    207.6348   1.2939501096e+02   3.0341690814e+01     1.539815    0.6724759 -70.50  0.009235748    2.082    0.520
        67 -10.3601     29.2501    248.0072   1.2783617449e+02   2.0692413344e+01     0.303349    0.1732493 -70.85  0.002143276    1.895    0.472
