#   1 NUMBER                 Running object number                                     
#   2 MAG_AUTO               Kron-like elliptical aperture magnitude                    [mag]
#   3 X_IMAGE                Object position along x                                    [pixel]
#   4 Y_IMAGE                Object position along y                                    [pixel]
#   5 X_WORLD                Barycenter position along world x axis                     [deg]
#   6 Y_WORLD                Barycenter position along world y axis                     [deg]
#   7 A_WORLD                Profile RMS along major axis (world units)                 [deg]
#   8 B_WORLD                Profile RMS along minor axis (world units)                 [deg]
#   9 THETA_WORLD            Position angle (CCW/world-x)                               [deg]
#  10 FWHM_WORLD             FWHM assuming a gaussian core                              [deg]
#  11 ELONGATION             A_IMAGE/B_IMAGE                                           
#  12 ELLIPTICITY            1 - B_IMAGE/A_IMAGE                                       
         1 -14.3943    127.6928     97.1074   7.4808291496e+01   3.7988596109e+01     2.075948     1.233098 -39.16   0.00576183    1.688    0.407
         2 -13.1578      1.9452     86.0950   1.1419865650e+02   5.8017443349e+01     1.464839   0.04844984 -68.16  0.003370304    8.553    0.883
         3 -13.2034    220.0199     16.7826   3.6128136989e+01   2.8370424394e+01    0.8625749    0.6336175 -36.52  0.003343144    1.411    0.291
         4 -13.7710    207.6454     43.8139   4.3955740603e+01   2.7880750562e+01    0.9539623    0.8593867 -49.59  0.002977514    1.123    0.110
         5 -13.4573    214.1310     32.9412   4.0519161959e+01   2.7789190617e+01    0.9522369    0.6620865 -73.67   0.00400964    1.401    0.286
         6 -12.9951    221.1506     26.8710   3.8355542300e+01   2.6929462224e+01    0.5749519    0.4433859  40.89  0.001674231    1.723    0.420
         7 -12.1822    188.3068     15.3414   3.8941899368e+01   3.6001836689e+01    0.5123683    0.3142141  74.57  0.002279301    1.479    0.324
         8 -13.8668    161.5912     25.0883   4.5197606902e+01   4.1544691348e+01     1.266738    0.9446675  56.89  0.004629825    1.253    0.202
         9 -13.0718    173.8848     14.4408   4.0405416082e+01   3.9631392826e+01     1.114408    0.3241094  62.68  0.004195596    2.781    0.640
        10 -12.6615    183.4609     35.1439   4.4873357880e+01   3.4886630142e+01    0.6845949    0.5588233 -37.30  0.002350364    1.278    0.218
        11 -13.2014    175.5545     26.0212   4.3434482570e+01   3.7955278585e+01     1.219504    0.5086961 -47.15  0.004952619    2.546    0.607
        12 -13.3851    227.4959      2.7826   3.2407783363e+01   2.8210514587e+01    0.9803005     0.360815  73.95  0.003766623    2.464    0.594
        13 -13.9777    243.8403     23.0769   3.5503626166e+01   2.2416037894e+01     1.246089    0.5577501 -64.91  0.005782108    2.397    0.583
        14 -14.5032    235.8420     13.7972   3.4155665975e+01   2.5204208067e+01     1.807877    0.7321893 -49.37  0.008758449    2.101    0.524
        15 -12.9919    202.0762     25.0744   3.9903875466e+01   3.1591517464e+01    0.7256317    0.4810611 -61.74  0.002215101    1.464    0.317
        16 -12.9199    150.0666     18.9108   4.5116916249e+01   4.5089044837e+01      1.01149    0.5513961  38.85  0.004078222    2.116    0.527
        17 -10.6121    131.2565     19.2272   4.8532033758e+01   4.9687158949e+01    0.3685286    0.2749862 -11.95   0.00202636    1.538    0.350
        18 -14.0285    165.2466      4.4662   3.8651603647e+01   4.2714453634e+01     1.230388    0.6011034  79.33  0.004924598    1.980    0.495
        19 -12.7965    141.1009      3.9365   4.1748142043e+01   4.8697885951e+01    0.6524654    0.3997613  68.68  0.001940056    1.424    0.298
        20 -10.2810     86.9964      3.0313   5.2229657924e+01   6.1318500027e+01    0.3478788    0.1940272  17.86   0.00174398    2.053    0.513
        21  -9.9440     91.5697      1.4831   5.0403139289e+01   6.0459647887e+01    0.2505172    0.1405886  65.65  0.001006821    1.840    0.456
        22 -10.6058      2.1960      3.1683   8.9187426355e+01   7.4306521501e+01    0.2460196    0.0523022 -40.84  0.001037496    3.479    0.713
        23 -11.0975    183.7557      2.0207   3.5945423477e+01   3.8418612325e+01    0.5692326    0.2039002  76.98   0.00230378    2.648    0.622
        24 -12.7600    140.3360    200.6615   9.4747472575e+01   1.2449450279e+01      1.11173    0.7866234   2.12  0.005233665    2.078    0.519
        25 -12.5312     97.6372    246.2414   1.0990416814e+02   1.0572833705e+01    0.6945297    0.2325564  30.22  0.002382491    4.478    0.777
        26 -13.3003     82.8507    243.8918   1.1256814040e+02   1.3118062131e+01    0.8421676    0.5821977  12.62  0.004601451    2.437    0.590
        27 -13.0369     60.0443    249.1816   1.1736453535e+02   1.5200777680e+01     1.144228    0.4201696  31.05  0.004941528    3.376    0.704
        28 -12.4544     83.9818    249.6532   1.1288576881e+02   1.1907873032e+01    0.9147027    0.2623982  32.61    0.0032184    4.386    0.772
        29 -11.9199     70.5863    247.7299   1.1527024753e+02   1.4088356655e+01    0.5561696    0.3150547  60.29   0.00325906    1.565    0.361
        30 -11.3361     36.5385    248.4825   1.2159421437e+02   1.8194427758e+01    0.3088819    0.1431815  51.57  0.001818309    1.659    0.397
        31 -12.0972     29.3590    249.2053   1.2290445945e+02   1.8874990360e+01    0.5616409    0.4230171   2.47  0.003560062    2.738    0.635
        32 -11.1911     28.5265    245.5034   1.2283968537e+02   1.9657274273e+01    0.2382648    0.1905681  42.99  0.001448158    1.413    0.292
        33 -14.2388     85.2603    226.3107   1.1031015766e+02   1.6159559572e+01     2.464989    0.7187212  53.11  0.002431229    4.451    0.775
        34 -14.8218    122.9943    229.7475   1.0283128933e+02   9.7148448591e+00     4.227726    0.8283359  35.00   0.01093522    6.275    0.841
        35 -13.1601     26.7542    208.3962   1.2077634100e+02   2.7327662656e+01    0.4919935    0.4001832 -49.47  0.001011763    1.670    0.401
        36 -16.0312     35.7960    196.0082   1.1788218470e+02   2.9072289465e+01     8.494946     3.167336  81.14   0.02739319    5.025    0.801
        37 -13.4289     59.2757    161.0700   1.0828751874e+02   3.4531143500e+01    0.5291409    0.3086243 -44.70  0.001714707    2.003    0.501
        38 -13.1578     58.5270    133.8706   1.0414451397e+02   4.1401899263e+01     2.483975     1.050437 -82.41  0.005922364    7.200    0.861
        39 -13.4056     79.0408    157.7263   1.0253176642e+02   3.2593847441e+01     1.713728    0.9320787  66.89  0.006587832    2.732    0.634
        40 -11.8813     69.5384    145.5073   1.0303710480e+02   3.7010617879e+01    0.3609329    0.2769261  26.91  0.001103552    1.495    0.331
        41 -12.3655     67.7695    142.5742   1.0302060098e+02   3.7990839855e+01    0.4450154    0.3095723  56.13  0.001396875    1.564    0.360
        42 -13.0482     15.6025    215.0816   1.2342745071e+02   2.7054259065e+01    0.4951556    0.3296322  87.08  0.003318723    1.220    0.181
        43 -11.8979    116.3694    153.2280   9.1765606775e+01   2.7369165439e+01      0.56635    0.4145349 -65.25  0.001638685    1.459    0.315
        44  -9.6689    124.7833    153.7926   8.9704656951e+01   2.5641229294e+01     0.210956    0.1769899  88.33 0.0005412505    1.374    0.272
        45 -13.9217     10.3574    206.6641   1.2393843906e+02   2.9332239053e+01    0.8395768    0.5613619  25.46  0.003479979    1.958    0.489
        46 -13.1890    112.0510    142.6507   9.0675019615e+01   3.0704835468e+01    0.9191048    0.7904279 -12.84  0.002980874    1.385    0.278
        47 -11.3551    106.9541    132.0357   8.9705390332e+01   3.4213467924e+01    0.5432438    0.3843084 -60.97  0.001563192    1.455    0.313
        48 -10.5155     95.1332    143.7071   9.5536549629e+01   3.3473567935e+01    0.3061272    0.2585561 -40.04 0.0008008863    1.253    0.202
        49 -10.1511     98.6679    140.4846   9.3886447062e+01   3.3654438736e+01    0.3860848    0.2150801 -28.96  0.001344043    3.051    0.672
        50 -12.4067     83.2893    142.2947   9.8571864355e+01   3.5762268282e+01    0.3295649    0.2683185 -53.76 0.0005867098    1.183    0.155
        51 -12.5940    141.6499    191.9874   9.2963979887e+01   1.3989793386e+01    0.7160664    0.6094667  31.85  0.003635415    1.132    0.117
        52 -10.0960     94.5916    128.2026   9.2362395789e+01   3.7370857704e+01    0.2832895    0.2282256 -15.43  0.001372979    1.540    0.351
        53 -11.4887     72.6494    164.8186   1.0535510105e+02   3.1791265379e+01    0.2801619    0.2334748 -61.76 0.0004455659    1.176    0.150
        54  -9.3342     97.3156    121.3158   8.9957122108e+01   3.8562073892e+01    0.1558741    0.1192884 -18.37 0.0007036853    1.647    0.393
        55  -9.7602    105.2270    120.1827   8.7370539286e+01   3.7378562788e+01    0.2203889    0.2019588 -18.41 0.0004416486    1.167    0.143
        56 -14.6385    190.7674    103.3745   6.2069974654e+01   2.2120266732e+01     2.241799     1.357869  79.94  0.008176169    2.937    0.660
        57 -10.4207     40.4935    246.7666   1.2077649680e+02   1.8053278362e+01    0.1995538   0.09710258 -84.61   0.00113104    2.066    0.516
        58 -12.0684    156.5391     98.5236   6.7987030393e+01   3.1084805306e+01    0.7660331    0.5467405  56.84  0.002417202    1.476    0.323
        59 -13.3949    112.4429    243.4399   1.0666485640e+02   8.8693954816e+00    0.7309574    0.2781276  36.10  0.003220472    2.346    0.574
        60 -10.5841    152.0393     90.0568   6.6632812625e+01   3.3822440293e+01    0.3912186    0.2247466 -47.09  0.001582505    1.786    0.440
        61 -12.4322    122.4543    107.3948   7.9135884995e+01   3.6880868459e+01    0.7819506    0.5897783 -61.87  0.002736867    1.490    0.329
        62 -11.6030    211.8948     85.2884   5.3781848566e+01   2.0513180286e+01     0.492728    0.3870347 -66.95  0.001495958    1.349    0.259
        63  -9.4772     24.7851     82.7527   1.0516699130e+02   5.7328500866e+01    0.1596255    0.1408932 -85.67 0.0003475974    1.296    0.229
        64 -11.5627    243.6140     80.8975   4.8277802670e+01   1.4387928699e+01    0.3502558    0.2016657 -48.21  0.001433017    1.545    0.353
        65 -10.5850    230.9744     81.9736   5.0181504614e+01   1.6856875324e+01    0.2321886    0.1534313 -63.61  0.001138843    1.680    0.405
        66 -13.0077    166.2289     71.0572   5.8035876690e+01   3.3847153658e+01     1.153485    0.7271866 -30.71  0.004062673    1.683    0.406
        67 -13.5826    150.4693     66.4138   5.9945930052e+01   3.8509439861e+01     1.500796     1.002803  43.06  0.005353634    1.541    0.351
        68 -11.9210    179.6466     72.8359   5.5973583767e+01   3.0250931969e+01    0.9984927    0.4224241 -45.76   0.00365183    2.412    0.585
        69 -11.6305    174.8063     65.4492   5.4783688319e+01   3.2660196423e+01    0.4784098    0.3600391 -36.68  0.001419749    1.336    0.251
        70 -10.0198    213.9352     74.0411   5.0671240519e+01   2.1904970926e+01    0.2168268    0.1754224  21.40 0.0008690192    1.648    0.393
        71  -9.4323    168.4912    113.5001   6.9319962398e+01   2.5266641033e+01    0.1573675    0.1509977 -62.75 0.0008097963    1.065    0.061
        72 -10.2500    218.8428     94.1605   5.4875399976e+01   1.7454827721e+01    0.2275888    0.1874165 -60.63 0.0008515505    1.222    0.181
        73 -11.7436    229.9509     60.4399   4.5252100882e+01   2.0411603766e+01    0.6326658    0.3830244  84.54  0.003065358    1.982    0.495
        74 -11.1317     13.2115     60.1637   1.0439550837e+02   6.3169959147e+01    0.2141334    0.1604482 -45.02 0.0004590228    1.046    0.044
        75 -11.0616    133.0234     51.9548   5.9283064983e+01   4.5075036449e+01    0.6093667    0.4001082 -73.74  0.002509681    2.467    0.595
        76 -12.3199    135.6152     44.2161   5.6115009456e+01   4.5582004493e+01    0.9164091    0.6649777 -88.77  0.004034109    1.819    0.450
        77  -9.7701     29.8411     53.1552   9.5100373693e+01   6.3291750129e+01    0.1724795    0.1622146 -35.01 0.0004484751    1.237    0.192
        78 -12.2596    233.0450    197.5600   7.5161333651e+01  -2.9782726594e+00    0.5875604    0.4945216 -16.45  0.003754365    1.122    0.108
        79 -13.2959    221.1707    188.2652   7.5536005469e+01   4.0697644721e-01    0.9254222    0.7301157  45.73  0.003707953    1.510    0.338
        80 -12.3097    221.4874    180.5713   7.3936268168e+01   1.6321873770e+00    0.6565294      0.37721  34.91  0.002264463    1.763    0.433
        81 -10.8437     34.2751    237.8682   1.2133688897e+02   2.0468206095e+01     0.194353    0.1173531  55.03 0.0004641659    1.311    0.237
        82  -9.0524     30.3372     46.7129   9.2707417543e+01   6.4503831146e+01    0.1090697   0.09991717  69.35 0.0003310492    1.633    0.387
        83 -15.2332      7.3054    238.1414   1.2616999033e+02   2.3267863818e+01     4.349761     1.055846 -79.48    0.0190442    3.763    0.734
        84 -11.8692    167.2299     36.2905   4.7636213384e+01   3.8783869945e+01    0.6031014    0.5184622 -20.67   0.00295867    1.314    0.239
        85 -10.8821     61.3898    234.8604   1.1595554875e+02   1.7747744503e+01    0.2464796    0.1792199  77.40 0.0005364338    1.232    0.189
        86 -12.7332    168.6408    232.1241   9.3753601040e+01   1.8938224430e+00    0.6685027    0.3912035  42.36  0.002265228    1.547    0.354
        87 -13.6113    167.5377    222.2137   9.2424370494e+01   3.7312138053e+00    0.8750683    0.5975752  36.22  0.002840308    1.286    0.222
        88 -11.4022     39.5468    233.4289   1.2005422372e+02   2.0728833446e+01    0.4178587    0.1906357  75.14  0.001368435    2.366    0.577
        89 -11.9992    195.8183    227.0375   8.7529448675e+01  -1.6533264819e+00    0.6003714    0.5052246 -88.00  0.003505827    2.092    0.522
        90 -11.9137     56.0870    180.6163   1.1164535017e+02   3.0219563188e+01    0.3998275    0.2712356 -37.53   0.00137622    2.061    0.515
        91 -11.8924     61.9945    174.7551   1.0946998915e+02   3.0850174470e+01     0.312629    0.2508219 -49.16 0.0004346143    1.409    0.290
        92 -10.6359    137.2423     32.9448   5.2003374873e+01   4.6671391446e+01    0.3541776    0.3061342  21.62  0.002005265    1.244    0.196
        93 -10.1647    125.9875     32.6357   5.4291995435e+01   4.9438589701e+01    0.3570337    0.2348616 -89.92  0.001587664    2.262    0.558
        94 -10.9803    169.9058    175.0237   8.3341016420e+01   1.2159011005e+01    0.4253601    0.3305696  81.14   0.00168795    1.911    0.477
        95 -10.7248    131.6548     31.1240   5.2539636475e+01   4.8257439084e+01    0.2533338    0.1883588  54.97 0.0003947354    1.227    0.185
        96 -11.1246    215.6229    219.6067   8.2447460572e+01  -3.6153522601e+00    0.3317238    0.2865615  14.55  0.001383393    1.135    0.119
        97 -14.8365    177.2505    151.6758   7.6690646170e+01   1.5451935251e+01     1.643516     1.044162 -49.39  0.004358446    1.652    0.395
        98 -15.7581    161.8560    148.7257   7.9491424927e+01   1.9275714695e+01     2.650635     1.818391 -60.15  0.008136097    1.742    0.426
        99 -10.0458    123.1692    217.2956   1.0110165112e+02   1.2064267317e+01    0.2583478    0.1712079  86.15  0.001232467    2.249    0.555
       100 -11.5557    209.6347    209.2344   8.1729157734e+01  -1.0850000770e+00     0.414775    0.3445989  15.84  0.001337813    1.062    0.059
       101 -11.7592    202.6222    209.2274   8.3093560181e+01   5.8218394263e-02    0.4627067    0.2619044  37.45  0.001729983    1.658    0.397
       102 -11.3781    223.2775    203.9911   7.8171022649e+01  -2.4404732782e+00    0.4711374    0.3288871 -50.62  0.002557077    1.979    0.495
