#   1 NUMBER                 Running object number                                     
#   2 MAG_AUTO               Kron-like elliptical aperture magnitude                    [mag]
#   3 X_IMAGE                Object position along x                                    [pixel]
#   4 Y_IMAGE                Object position along y                                    [pixel]
#   5 X_WORLD                Barycenter position along world x axis                     [deg]
#   6 Y_WORLD                Barycenter position along world y axis                     [deg]
#   7 A_WORLD                Profile RMS along major axis (world units)                 [deg]
#   8 B_WORLD                Profile RMS along minor axis (world units)                 [deg]
#   9 THETA_WORLD            Position angle (CCW/world-x)                               [deg]
#  10 FWHM_WORLD             FWHM assuming a gaussian core                              [deg]
#  11 ELONGATION             A_IMAGE/B_IMAGE                                           
#  12 ELLIPTICITY            1 - B_IMAGE/A_IMAGE                                       
         1 -14.8120    212.9651      5.6159   4.3004109962e+01   3.0656446050e+01      3.00563     1.865603  44.10   0.01086228    1.873    0.466
         2 -13.8990    174.5249     49.7230   6.1654686960e+01   3.5267843359e+01     1.716339     1.257138  30.73 0.0008309955    1.563    0.360
         3 -14.2869    189.0504     36.2724   5.4983336520e+01   3.3350989970e+01     1.255524     1.063311  35.64  0.004686306    1.273    0.214
         4 -13.6986    193.6307     30.0170   5.2389168194e+01   3.2946285097e+01    0.8307932    0.7099378  47.72  0.001810909    1.219    0.180
         5 -12.4751     58.8671      3.4672   7.2950722616e+01   6.8126231610e+01    0.5631425    0.2462526  35.02  0.002549433    2.434    0.589
         6 -12.2984    194.1696    196.5513   9.3584314958e+01   6.3533792089e+00     1.239935    0.7148166 -55.76   0.00562668    2.946    0.661
         7 -16.4451     71.9192    146.5100   1.1181279446e+02   3.6357087548e+01     7.450707     3.653251  71.43   0.02916566    3.213    0.689
         8 -10.7794     81.6802    195.4171   1.1554712086e+02   2.4825903012e+01    0.2922724    0.2648892 -28.32  0.001939352    1.636    0.389
         9 -10.6196    159.9591    197.0535   1.0012956534e+02   1.2163100296e+01      0.18959    0.1641106  41.95  0.000372824    1.033    0.032
        10 -10.6313     97.2773    194.8861   1.1234422404e+02   2.2698049100e+01    0.2312197    0.1623334  40.72  0.000818507    1.353    0.261
        11 -11.0899    207.5354    194.0040   9.0727626908e+01   4.4263227495e+00    0.1992358    0.1485551  31.97 0.0004148513    1.143    0.125
        12 -12.5236    149.5453    187.1732   1.0065670220e+02   1.5600133560e+01    0.4010558    0.3246086  85.01  0.001633806    1.549    0.355
        13 -18.7160     34.5320    242.9476   1.2741673833e+02   2.2225893018e+01     6.269598     2.365677  36.83   0.03709898    2.475    0.596
        14 -19.1907     16.8616    105.5043   1.2106909219e+02   5.1686370596e+01     16.38177    0.7025449 -72.42   0.02688036   17.373    0.942
        15 -11.8438     96.0791    200.4575   1.1321024819e+02   2.1843133866e+01    0.3743113    0.3332128  21.06  0.001558048    1.485    0.327
        16 -11.0977     99.4485    180.7434   1.1016457505e+02   2.5088724643e+01    0.2283167    0.1958653  54.94 0.0005774095    1.086    0.079
        17 -10.7455    204.4235    176.1542   8.8059942992e+01   7.4830241955e+00    0.3922044     0.212151 -50.96  0.001759011    2.764    0.638
        18 -12.2704    203.9318    199.8933   9.2376378750e+01   4.2443392494e+00    0.4616562    0.2510642  36.56  0.002489981    1.566    0.362
        19 -11.8847    141.3634    174.8008   1.0034858010e+02   1.9248444349e+01    0.2726313    0.2160838  27.87  0.001557868    1.343    0.256
        20  -9.9048    184.8235    169.7821   9.0574794031e+01   1.2088317363e+01    0.1757641    0.1617995  69.36 0.0007199797    1.317    0.241
        21 -10.2636    163.6664    169.4548   9.4762124170e+01   1.6125247910e+01    0.2468609    0.2146242 -86.96 0.0005759461    1.432    0.302
        22  -9.1520    200.6702    168.3000   8.7247987570e+01   9.3500058905e+00    0.1246667    0.1082202  79.49 0.0007031229    1.644    0.392
        23 -11.0360    230.1157    166.4174   8.1580373632e+01   4.2530332939e+00    0.2497362    0.1637782 -44.84 0.0009165122    1.945    0.486
        24  -9.9338    162.7044    201.9075   1.0033630997e+02   1.0934522132e+01     0.187564    0.1420329  79.42 0.0006944383    1.919    0.479
        25 -10.1855    192.5826    164.6891   8.8077567135e+01   1.1440594262e+01    0.2358803    0.2291282  19.17 0.0006392626    1.149    0.130
        26 -12.4053     97.2521    153.3086   1.0672319796e+02   3.1109949658e+01    0.5759515    0.4418778 -26.87  0.001835041    1.902    0.474
        27 -10.8721    188.9931    154.5110   8.6715320909e+01   1.3804441169e+01    0.5294136    0.2991051  36.77  0.002443569    1.728    0.421
        28 -11.7033    133.9316    145.7353   9.6738109232e+01   2.6295162721e+01     1.112452     0.298926 -55.02  0.003001304    5.342    0.813
        29 -10.1431    113.1217    151.3352   1.0264451600e+02   2.8900759958e+01    0.2550381    0.1927242 -75.17 0.0007361671    1.424    0.298
        30 -10.5085    174.3931    148.5812   8.8426926873e+01   1.7751512629e+01    0.3283488    0.2512151 -78.39  0.001312974    1.945    0.486
        31 -11.4900    144.2326    146.9002   9.4616773909e+01   2.4079130793e+01    0.3821291    0.2764515 -76.12  0.001831948    1.855    0.461
        32 -10.4640    115.0158    143.6602   1.0080634879e+02   3.0207765958e+01    0.3714433    0.2151439  78.48  0.001349684    3.361    0.702
        33 -11.8874    108.2608    139.3929   1.0165283659e+02   3.2317880724e+01    0.5438983    0.3605727 -36.53  0.002590709    1.921    0.479
        34 -11.1421    153.5500    200.7675   1.0192635225e+02   1.2658859093e+01    0.2639807     0.126458 -51.67  0.001281514    2.546    0.607
        35 -12.5980     96.6134    138.7990   1.0444062159e+02   3.4403405939e+01    0.2614885    0.2494852 -88.06 0.0007369904    1.083    0.077
        36  -9.6506    128.1006    139.3223   9.6824948804e+01   2.8733848820e+01    0.2089259    0.1764215  50.19  0.000839391    1.147    0.129
        37 -11.2724    135.9159    128.4083   9.2626882123e+01   2.9509511516e+01    0.6259419    0.1904612 -51.23   0.00190933    3.668    0.727
        38 -11.3827    105.9355    130.8042   1.0057621460e+02   3.4622693588e+01    0.3885448    0.3097865 -76.10  0.001224526    1.296    0.228
        39 -11.2828    103.1601    125.5385   1.0022757876e+02   3.6286100218e+01    0.2821827     0.246588   4.47 0.0007273589    1.460    0.315
        40 -11.1030    115.2961    129.7911   9.7999691757e+01   3.3174422253e+01    0.3115678    0.2500547 -30.35  0.000617234    1.498    0.333
        41 -10.2520    160.4708    127.7125   8.6780986223e+01   2.4560631018e+01    0.3479632    0.2604775 -63.35  0.001659071    1.625    0.384
        42 -10.9277    120.5495    123.2119   9.5255145583e+01   3.3634322668e+01    0.4466313    0.2619161 -21.84  0.001514817    3.706    0.730
        43 -10.0207    110.4537    118.9195   9.6900933590e+01   3.6474081517e+01    0.2008985    0.1923623  66.87 0.0003202944    1.053    0.051
        44 -11.6886     64.9355    113.9475   1.0842507905e+02   4.4819161901e+01    0.3280297    0.2404642 -76.57 0.0009102575    1.281    0.219
        45 -10.1430    167.9291    112.7656   8.1473100517e+01   2.5820144402e+01     0.383134    0.2641219 -76.39  0.001547365    2.384    0.581
        46 -10.5959    135.0000    112.0838   8.8988800902e+01   3.3141544050e+01    0.4220742   0.08508122 -45.43  0.001050208    4.924    0.797
        47 -11.4435    119.1376    110.3718   9.2619043027e+01   3.6724741135e+01    0.5869708    0.3327395  53.95  0.002457434    1.971    0.493
        48 -10.3329    205.3862    110.1027   7.3282879931e+01   1.7849089091e+01    0.3182834    0.2174448  42.18 0.0009746504    1.490    0.329
        49  -9.6977    134.6989    105.5098   8.7385193879e+01   3.4592606279e+01    0.2844134    0.1359436 -44.66  0.001081438    2.064    0.515
        50 -16.2036     56.7717    207.5793   1.2146331982e+02   2.5762417715e+01      3.04635     2.082341  70.95   0.01767393    1.196    0.164
        51  -9.0838    153.6598     80.7071   7.5760894122e+01   3.5269073278e+01    0.1607222    0.1221414  15.72 0.0003851607    1.652    0.394
        52 -12.0809    165.0861     65.5421   6.8553303449e+01   3.5168506485e+01    0.8815941     0.501988 -42.87 0.0005471425    1.762    0.432
        53 -11.5393    158.2574    237.1928   1.0587482190e+02   6.5964352896e+00    0.3405854    0.2720486  63.60  0.002448211    1.440    0.306
        54 -10.5433    168.9957    235.6268   1.0381370806e+02   5.1650222264e+00    0.1707398    0.1605566  10.30  0.000259062    1.260    0.207
        55 -10.1950     87.3713    202.9720   1.1519030961e+02   2.2625852375e+01    0.3108417    0.2090296  87.10  0.001933939    1.556    0.357
        56 -10.6341      1.6579    210.7713   1.3145648463e+02   3.0875088350e+01    0.1658273   0.07869744  65.42  0.001127076    1.530    0.346
