#   1 NUMBER                 Running object number                                     
#   2 MAG_AUTO               Kron-like elliptical aperture magnitude                    [mag]
#   3 X_IMAGE                Object position along x                                    [pixel]
#   4 Y_IMAGE                Object position along y                                    [pixel]
#   5 X_WORLD                Barycenter position along world x axis                     [deg]
#   6 Y_WORLD                Barycenter position along world y axis                     [deg]
#   7 A_WORLD                Profile RMS along major axis (world units)                 [deg]
#   8 B_WORLD                Profile RMS along minor axis (world units)                 [deg]
#   9 THETA_WORLD            Position angle (CCW/world-x)                               [deg]
#  10 FWHM_WORLD             FWHM assuming a gaussian core                              [deg]
#  11 ELONGATION             A_IMAGE/B_IMAGE                                           
#  12 ELLIPTICITY            1 - B_IMAGE/A_IMAGE                                       
         1 -13.7847    212.4223      3.2321   5.3286290896e+01   3.2362668397e+01      1.25571    0.4939249  63.42  0.005025045    2.255    0.557
         2 -15.1417    189.1613     32.1022   6.1812391965e+01   3.4229511210e+01     2.418539     1.644557  24.76   0.01216935    2.685    0.628
         3 -11.2601     57.4991      3.9887   7.9983266489e+01   6.4819627162e+01     0.158203    0.1026838 -16.15  0.001042577    1.619    0.382
         4  -9.8423     71.7891    229.6269   1.3068937777e+02   1.6566655214e+01    0.1700713    0.1082205  51.41 0.0001840806    1.422    0.297
         5 -16.9914     65.9285    248.4851   1.3389779201e+02   1.3345214739e+01     10.24681      3.35358  28.21   0.02663068    7.186    0.861
         6 -11.4251     40.0414    207.8818   1.3519456817e+02   2.5815495573e+01    0.2820434    0.1633784  54.33 0.0004206369    1.655    0.396
         7 -12.2640     73.2421    212.5600   1.2830452975e+02   2.0258043481e+01    0.2748752    0.2189547  76.98 0.0004951874    1.170    0.145
         8 -10.4556     76.8962    207.1614   1.2675420312e+02   2.0990928603e+01    0.3788499    0.2237898 -55.85  0.001318198    1.708    0.414
         9 -12.7492     56.2725    212.0918   1.3206696628e+02   2.2755407154e+01    0.4628094    0.2924298  49.11  0.002458734    1.500    0.333
        10 -12.4640     61.2889    204.4177   1.3001077960e+02   2.3895007880e+01    0.3826363    0.2744179 -52.46  0.001438221    1.523    0.343
        11  -9.9852    198.6707    222.8617   1.0209637635e+02  -3.0860669892e+00    0.1821969    0.1639456 -24.37 0.0005078138    1.112    0.101
        12 -12.1366    135.8782    209.7593   1.1340425150e+02   1.0504652889e+01    0.3273919    0.2111832 -59.09  0.001227714    1.671    0.401
        13 -11.9956     64.2355    208.2456   1.2981188849e+02   2.2571678763e+01    0.4922771     0.393851 -41.21  0.002419347    1.587    0.370
        14 -13.3459     51.3729    219.2557   1.3392951033e+02   2.1738973816e+01    0.6645148    0.2613652  56.53  0.002652921    2.841    0.648
        15 -10.7689     95.2085    200.2874   1.2142783444e+02   1.9756246044e+01    0.3597732    0.2302936 -85.26  0.001226696    1.931    0.482
        16  -9.7808    163.2868    203.9059   1.0613864412e+02   6.7873608567e+00    0.1981725    0.1824724 -37.84 0.0003633585    1.101    0.092
        17 -10.2900    156.5138    202.0064   1.0730522733e+02   8.4404195766e+00    0.3235582    0.2172213  84.90  0.001282845    2.700    0.630
        18 -11.4940    155.5425    197.5011   1.0668160215e+02   9.6040504888e+00    0.5381463    0.3504472 -86.91  0.002041227    2.925    0.658
        19  -9.9686     85.9557    201.4570   1.2381640840e+02   2.0963029739e+01    0.4508334    0.1870801  57.94  0.001459196    3.644    0.726
        20 -12.7057    120.8417    199.0567   1.1508380795e+02   1.5639431305e+01    0.4938463    0.2845652 -43.96  0.001658311    1.918    0.479
        21 -12.3845    102.6926    196.9049   1.1908560637e+02   1.9318352372e+01    0.7136611    0.4763486 -11.39  0.002798134    2.961    0.662
        22 -11.6980    115.1543    200.1900   1.1663449095e+02   1.6382708280e+01    0.2987994    0.2177263 -75.84  0.001117601    1.535    0.348
        23 -12.9559    112.9406    196.0587   1.1646529067e+02   1.7748393062e+01    0.7134022    0.4623474 -12.89   0.00263894    3.209    0.688
        24 -12.1914    193.3530    192.7096   9.7487360569e+01   3.6201074547e+00    0.8818568    0.4780861 -54.72  0.003255746    2.173    0.540
        25  -9.4103     75.2885    200.6886   1.2624215625e+02   2.2784113092e+01    0.1458191   0.09954333  73.47 0.0004867609    1.581    0.368
        26 -17.3842     30.1229    242.3282   1.4032081215e+02   1.9279397604e+01      9.89061     3.864488 -57.95   0.04647765    2.838    0.648
        27 -10.3578     82.1302    195.2077   1.2380732470e+02   2.3075110707e+01    0.2682703    0.2445668 -54.73  0.001531605    1.198    0.165
        28 -10.7898     73.0180    180.7991   1.2385897244e+02   2.8021979311e+01    0.5206947    0.3628213  70.38  0.001498749    1.594    0.373
        29 -12.5899     69.9970    191.6636   1.2623725998e+02   2.5765962670e+01    0.7200854    0.5277328  86.60  0.003411563    1.393    0.282
        30 -12.1732     72.8726    189.1225   1.2516274255e+02   2.5972539021e+01    0.4817028    0.3733388 -87.32  0.001459752    1.261    0.207
        31 -10.0928     28.7481    192.8112   1.3613469021e+02   3.0700263390e+01    0.1661512    0.1168023  55.35 0.0006004293    1.403    0.287
        32 -11.0479     98.2105    190.8313   1.1917898158e+02   2.1545083918e+01    0.2677861    0.2184374 -47.62 0.0008288397    1.308    0.235
        33 -10.7639    209.7213    199.1945   9.5444804287e+01  -5.1275185711e-01    0.2450678    0.2060441 -64.97 0.0007092133    1.510    0.338
        34 -12.6986    110.5902    188.6856   1.1575837903e+02   1.9931574231e+01    0.6123725    0.3884948 -19.99  0.002278158    3.014    0.668
        35 -11.3034     99.5257    180.8008   1.1712878239e+02   2.3786855769e+01    0.2720026    0.2592323  71.48 0.0005406767    1.047    0.045
        36 -11.5752    145.2601    179.5749   1.0558416654e+02   1.5625402442e+01    0.3104833    0.2583862 -33.43  0.001096511    1.289    0.224
        37 -10.0675     51.1692    174.3999   1.2845256455e+02   3.2618367812e+01    0.2273326    0.1664896 -59.97 0.0005659568    1.263    0.208
        38 -12.1335    137.2734    170.5879   1.0568373787e+02   1.9299259467e+01     0.657408    0.2954187  29.10  0.002075742    3.311    0.698
        39 -11.7229    195.3545    168.8148   9.2180610315e+01   8.1734888938e+00    0.3821701    0.3480284  79.16 0.0005790582    1.274    0.215
        40 -12.5486     40.6993    213.6452   1.3564442213e+02   2.4386773754e+01    0.3485715    0.1834646  52.11  0.001677324    1.797    0.443
        41  -9.2345    141.7775    158.9679   1.0210923817e+02   2.1156461376e+01    0.2003831    0.1268535 -49.08 0.0002270773    1.547    0.354
        42 -12.7369     97.5539    154.8849   1.1271117516e+02   3.0589182238e+01    0.7594919     0.487696 -32.60   0.00318982    1.994    0.498
        43 -11.2287    189.5768    155.1622   9.0430726113e+01   1.2200081420e+01     0.398287    0.3767848 -39.42  0.001227737    1.020    0.020
        44 -11.2476    134.3847    148.2071   1.0155687651e+02   2.5208442170e+01    0.5094939    0.2603242 -56.16  0.001896247    2.092    0.522
        45 -11.6010    134.0000    143.9775   1.0068727605e+02   2.6287605767e+01    0.9437827    0.3181646 -57.66  0.002398809    4.635    0.784
        46 -10.1401     80.7264    220.8219   1.2767466886e+02   1.7226632946e+01    0.2244332    0.1848787  31.85 0.0007204916    1.379    0.275
        47 -10.3901    174.8797    149.1381   9.2213539641e+01   1.6534806187e+01    0.2414847    0.2114137 -83.62 0.0006238854    1.273    0.215
        48 -19.1482     17.1040    105.5474   1.2695864670e+02   5.2805268350e+01     16.95433    0.9730483 -63.20   0.03011158   13.694    0.927
        49 -11.9133    108.4479    140.0298   1.0652617993e+02   3.2274997309e+01    0.6194962    0.3490318 -34.21  0.002354454    2.269    0.559
        50 -12.4559     96.8202    140.2081   1.0978983672e+02   3.4349389976e+01    0.3012185    0.2822062 -29.71 0.0004068024    1.120    0.107
        51 -11.7158     78.4993    133.4563   1.1356273671e+02   3.9052350697e+01    0.4617486    0.2851985 -60.28  0.001438442    1.582    0.368
        52 -11.1489    105.9828    130.8357   1.0507084279e+02   3.4944339023e+01    0.3933633    0.3256419 -69.95  0.001139368    1.295    0.228
        53 -11.2689    103.2651    126.5732   1.0481418742e+02   3.6460020919e+01    0.2992115    0.2472824 -20.24 0.0006006961    1.389    0.280
        54 -11.7062    115.8753    130.1396   1.0218010828e+02   3.3204460473e+01    0.6144871     0.395057  25.10  0.001996974    1.988    0.497
        55 -10.9641    120.3385    124.3273   9.9552886971e+01   3.3660490546e+01    0.3291174    0.2055299 -30.74 0.0009118841    1.988    0.497
        56 -11.5549    135.9291    122.7190   9.5089278492e+01   3.0776838186e+01    0.5582569    0.2750501 -48.06  0.001759463    2.005    0.501
        57 -10.6065    160.8940    127.5616   9.0295519333e+01   2.4279411664e+01    0.3366501    0.2044337 -61.83  0.001334362    2.004    0.501
        58 -10.4230    110.7868    119.1284   1.0086282918e+02   3.6748798462e+01    0.2419608    0.2214422  39.77 0.0005098762    1.122    0.108
        59 -12.0625     66.6026    115.3758   1.1308124386e+02   4.5150436407e+01    0.3892798    0.2653749 -65.31  0.001459345    1.580    0.367
        60 -10.2891    168.0329    112.7589   8.5107345260e+01   2.5822376659e+01    0.2831483    0.2063265 -70.92  0.001025933    1.632    0.387
        61 -11.1118    120.2396    111.0050   9.6184594668e+01   3.6657974377e+01    0.4211917    0.1905043  57.94  0.001313477    3.481    0.713
        62 -10.2325    205.6796    110.1164   7.7236480971e+01   1.8018150176e+01    0.2571882    0.2124114  49.38 0.0006901369    1.340    0.254
        63 -10.8067     31.8880     96.1894   1.2003603926e+02   5.3630090648e+01    0.1786845    0.1651819 -55.82 0.0002822839    1.160    0.138
        64  -9.9792     41.6970     91.9670   1.1563276888e+02   5.3536784934e+01    0.1836011    0.1507753 -41.22 0.0004207443    1.058    0.055
        65 -10.0581     52.0510     90.5473   1.1168632743e+02   5.2617994357e+01    0.1969081    0.1302558  27.56  0.001036682    1.617    0.381
        66 -11.7638    167.9071     67.7970   7.3776025937e+01   3.4116431985e+01    0.7608872    0.4076165 -81.60  0.002366719    4.570    0.781
        67 -11.0439     43.8041    210.2309   1.3461640392e+02   2.4802554737e+01    0.2702191    0.1554711  61.85  0.001368394    1.723    0.419
        68 -13.6901    174.5805     47.0572   6.7421233074e+01   3.5637417523e+01     0.652462    0.5325691 -31.96 0.0008418623    1.435    0.303
        69 -12.5599     69.5439    218.6218   1.2988756243e+02   1.9385759724e+01    0.3554426    0.2474493  76.67  0.001171933    1.435    0.303
