#   1 NUMBER                 Running object number                                     
#   2 MAG_AUTO               Kron-like elliptical aperture magnitude                    [mag]
#   3 X_IMAGE                Object position along x                                    [pixel]
#   4 Y_IMAGE                Object position along y                                    [pixel]
#   5 X_WORLD                Barycenter position along world x axis                     [deg]
#   6 Y_WORLD                Barycenter position along world y axis                     [deg]
#   7 A_WORLD                Profile RMS along major axis (world units)                 [deg]
#   8 B_WORLD                Profile RMS along minor axis (world units)                 [deg]
#   9 THETA_WORLD            Position angle (CCW/world-x)                               [deg]
#  10 FWHM_WORLD             FWHM assuming a gaussian core                              [deg]
#  11 ELONGATION             A_IMAGE/B_IMAGE                                           
#  12 ELLIPTICITY            1 - B_IMAGE/A_IMAGE                                       
         1 -15.5645    243.7417     87.3334   2.8949824445e+02   5.3559181053e+00    0.4420202     0.068531 -63.03   0.02220838    6.898    0.855
         2  -8.9142    138.6693    143.3388   2.9103579266e+02   5.2939277348e+00   0.00687394  0.004861388  60.82 0.0007051864    1.739    0.425
         3  -8.8208    197.6553    247.3503   2.9096162670e+02   3.8047415196e+00  0.006991412  0.004820027  60.68 0.0007041595    1.810    0.448
         4  -9.2208    178.1989    243.7838   2.9116477385e+02   3.9498025931e+00   0.01103561  0.006182749  61.34 0.0009355614    2.706    0.631
         5  -8.7419    226.6866    240.3441   2.9058695530e+02   3.7269431374e+00  0.006795692  0.004896443  62.35 0.0007047014    1.709    0.415
         6  -8.7741    219.5232    240.5081   2.9067029353e+02   3.7637636479e+00  0.006419176  0.006234383  48.55 0.0001160692    1.087    0.080
         7  -9.7027    219.8589    233.7777   2.9062727625e+02   3.8376915678e+00   0.01611309  0.008690104  53.32   0.00142445    2.432    0.589
         8 -10.0079    241.0106    232.9420   2.9037916788e+02   3.7328910209e+00   0.01065757  0.007458841  57.35 0.0009869562    1.716    0.417
         9  -9.7988    235.4688    231.8008   2.9043624697e+02   3.7756581791e+00   0.01257923   0.01004297  64.01  0.001169408    1.468    0.319
        10  -9.5595    226.1617    232.0345   2.9054463928e+02   3.8232833078e+00     0.010573  0.007319219  78.34  0.001063703    1.965    0.491
        11  -9.2019    195.4625    231.9882   2.9089753914e+02   3.9894867619e+00   0.01014979  0.006349718 -62.35  0.001036774    1.612    0.379
        12  -9.6258    230.0186    228.4888   2.9047964501e+02   3.8423554376e+00   0.01204054  0.009277749  88.81 0.0008485006    1.575    0.365
        13  -9.1516    211.2704    227.9738   2.9069230283e+02   3.9493686431e+00  0.009162809  0.008448333 -59.50  0.000709248    1.102    0.093
        14 -10.4206    248.4945    227.3181   2.9026038051e+02   3.7557386816e+00   0.01727042  0.007973632  34.43  0.001553305    2.092    0.522
        15  -9.4181    218.3334    225.4513   2.9059637095e+02   3.9396293932e+00   0.01083864   0.00795367  84.58  0.001141918    1.739    0.425
        16 -10.2355    246.4316    221.2078   2.9024851391e+02   3.8356260041e+00   0.01508052  0.009845106  86.18  0.001121944    2.171    0.539
        17 -10.0134    244.6796    217.3409   2.9024613719e+02   3.8885965719e+00   0.01597111  0.009630205  74.14  0.001400682    2.680    0.627
        18  -9.9906    237.8637    205.1589   2.9025355908e+02   4.0624858012e+00   0.01391708   0.01027572  60.54 0.0009531772    1.624    0.384
        19  -9.2246    234.7004    202.6986   2.9027560991e+02   4.1072618922e+00  0.009091285  0.007676227  70.09  0.001056546    1.368    0.269
        20 -10.7068    242.5276    211.4896   2.9023680090e+02   3.9660554770e+00    0.0138399   0.01157921 -84.06 0.0009174882    1.348    0.258
        21 -10.6297    240.5168    208.5188   2.9024261879e+02   4.0103450169e+00   0.01439487  0.009057992 -59.32 0.0007443734    1.567    0.362
        22  -9.8945    237.4388    222.2173   2.9035779914e+02   3.8728482575e+00   0.00887728  0.006384719 -79.51 0.0006142825    1.627    0.386
        23 -11.1320    234.0987    216.6040   2.9036352542e+02   3.9540505441e+00   0.01852015   0.01131925  72.89  0.001660895    2.567    0.610
        24 -10.4667    223.8719    221.1337   2.9050752969e+02   3.9583143638e+00   0.01823482  0.009295177  54.44  0.001519619    2.772    0.639
        25 -11.6899    242.3486    180.7833   2.9005990331e+02   4.3124880074e+00    0.0263302     0.017464 -67.02  0.002788911    1.588    0.370
        26 -11.9642    237.3468    199.0847   2.9022411335e+02   4.1336221818e+00   0.04119932    0.0158591 -65.20  0.003266335    2.805    0.644
        27 -10.3235    249.3787    218.2243   2.9019725123e+02   3.8532668109e+00   0.02334654   0.01223868 -84.66   0.00184395    3.232    0.691
        28 -11.8117    235.6590    187.5581   2.9017635380e+02   4.2724358000e+00   0.04928926   0.02568937  75.05  0.003310861    4.732    0.789
        29 -10.7293    235.6450    182.0456   2.9014438191e+02   4.3345335979e+00   0.01814707   0.01140996  53.97  0.001661389    1.935    0.483
        30  -9.6976    241.6518    192.1226   2.9013402209e+02   4.1886832162e+00    0.0159817   0.01251595 -62.27  0.001196332    1.293    0.227
        31 -10.4171    249.5397    213.0157   2.9016505758e+02   3.9109939750e+00   0.01488344   0.01209324  51.88  0.001094205    1.349    0.259
        32 -10.2221    243.4888    187.4955   2.9008591997e+02   4.2308092109e+00   0.01402792   0.01052654 -67.83  0.001068205    1.400    0.286
        33  -9.8081    249.9685    201.9898   2.9009588214e+02   4.0327158656e+00   0.01147031  0.009348738 -64.18 0.0007047299    1.257    0.204
        34 -11.1817    247.4595    194.6794   2.9008212787e+02   4.1285217755e+00   0.04611068   0.02438438  78.39  0.003193463    4.452    0.775
        35 -10.7473    247.9913    207.9723   2.9015347838e+02   3.9761006389e+00   0.01716709   0.01422495  85.18  0.001117917    1.412    0.292
        36 -10.3441    245.3177    202.8196   2.9015420014e+02   4.0485202201e+00   0.01784551    0.0122748 -81.22  0.001410781    1.768    0.434
        37 -10.4188    243.3924    198.1943   2.9014938894e+02   4.1109633365e+00   0.01693457   0.01300568  81.41  0.001365389    1.615    0.381
        38 -10.4019    227.5894    218.2963   2.9044824880e+02   3.9701665970e+00   0.01232817  0.006543322 -70.80  0.001116007    2.184    0.542
        39  -9.6602    210.9675    218.2755   2.9063935132e+02   4.0601551429e+00    0.0121392  0.008977049  75.13  0.001299455    1.727    0.421
        40 -10.2332    238.6273    213.8738   2.9029554198e+02   3.9603049398e+00   0.01427072   0.00806687 -82.71  0.001003192    2.559    0.609
        41 -11.7079    233.2294    206.6601   2.9031560949e+02   4.0706352643e+00   0.03304878   0.01198904  43.10  0.002494909    3.138    0.681
        42 -11.0208    217.9593    209.8179   2.9050966969e+02   4.1175883063e+00   0.02321567    0.0111538 -66.67  0.002015709    2.260    0.558
        43  -9.4365    170.0000    213.9531   2.9108575097e+02   4.3298656031e+00   0.01067688  0.003659012 -62.47  0.000799211    2.920    0.658
        44  -9.3506    230.0000    209.0387   2.9036661097e+02   4.0613180966e+00   0.01026319  0.005836589 -79.62 0.0006206348    2.371    0.578
        45 -10.5428    225.7201    209.1433   2.9041645428e+02   4.0832612062e+00   0.01684944  0.008943022 -70.60  0.001538073    2.175    0.540
        46  -8.3493    206.6740    206.6911   2.9062132448e+02   4.2137193610e+00  0.006920611  0.004720665 -26.35 0.0007038342    1.655    0.396
        47  -9.0733    186.2059    201.2609   2.9082532189e+02   4.3853329043e+00  0.009981419  0.005360241 -75.76 0.0007416342    2.399    0.583
        48 -10.3946    230.0792    199.7807   2.9031177111e+02   4.1650660603e+00   0.01281478   0.01142295 -11.89  0.001056359    1.129    0.115
        49  -9.2251    210.4020    200.2482   2.9054090691e+02   4.2661034182e+00  0.009030662  0.006332853 -78.15  0.000947023    1.666    0.400
        50 -10.3329    224.4447    197.7967   2.9036503807e+02   4.2178351496e+00   0.01200841  0.006546261 -68.32  0.001121127    2.015    0.504
        51  -9.2599    215.4243    196.2166   2.9045962889e+02   4.2843492444e+00  0.008974733  0.006347768 -80.57 0.0006978544    1.683    0.406
        52  -9.1421    195.5360    196.0286   2.9068745002e+02   4.3938699692e+00   0.00928466  0.005658962  82.29 0.0008095397    2.606    0.616
        53  -9.1547    185.8245    194.9891   2.9079320729e+02   4.4579957327e+00   0.01066475  0.007389995  76.94  0.001074408    1.959    0.489
        54  -9.7180    232.7968    191.5565   2.9023258583e+02   4.2429179966e+00   0.01241509  0.008612718 -86.78 0.0009339393    1.834    0.455
        55  -9.5784    222.6636    191.8092   2.9035064823e+02   4.2948361667e+00  0.009144752  0.006146656 -74.73 0.0009406836    1.702    0.412
        56  -9.0821    250.4666    191.2657   2.9002764547e+02   4.1506662151e+00  0.009931404   0.00642191 -62.82 0.0007860872    1.567    0.362
        57  -9.9829    248.5311    185.5167   2.9001638795e+02   4.2258050674e+00   0.02020563   0.01161605 -88.39  0.001685058    2.751    0.636
        58 -10.7672    227.3751    190.1815   2.9028695095e+02   4.2876929284e+00   0.01861016   0.01004097  64.85  0.001473868    3.248    0.692
        59  -9.0045    210.6192    188.8326   2.9047191775e+02   4.3934079202e+00  0.009181118  0.006255957 -79.84 0.0009401984    1.767    0.434
        60  -9.6889    229.6122    186.6519   2.9024064126e+02   4.3153177838e+00   0.01295661   0.00799702 -72.85 0.0009326265    1.858    0.462
        61  -9.3862    224.7051    183.7549   2.9028022075e+02   4.3744372360e+00   0.01230008  0.007800573  84.74  0.001142932    2.335    0.572
        62 -10.6138    249.3210    177.0241   2.8995778006e+02   4.3170694103e+00   0.01978072   0.01233703 -87.43  0.001421255    2.254    0.556
        63  -9.1978    226.1292    179.1641   2.9023707507e+02   4.4183975595e+00  0.008883324  0.007682604  76.64  0.000960319    1.325    0.246
        64 -10.4734    232.4855    174.2775   2.9013544402e+02   4.4390158869e+00   0.01943326   0.01081536  55.41  0.001740158    2.414    0.586
        65 -10.2435    249.2670    168.8189   2.8991054226e+02   4.4096614108e+00   0.02278046   0.01196672 -84.97  0.001795938    3.248    0.692
        66  -9.9310    244.4953    169.4631   2.8996919032e+02   4.4282271330e+00   0.01311537  0.006453068 -63.88  0.001185189    2.091    0.522
        67  -8.7400    217.2987    167.6730   2.9027171849e+02   4.5954342979e+00  0.006645265  0.004925791  62.53 0.0004100363    1.635    0.388
        68  -9.1950    233.4314    247.2435   2.9054953876e+02   3.6129032715e+00  0.008819691  0.006370698 -79.55 0.0008013415    1.618    0.382
