#   1 NUMBER                 Running object number                                     
#   2 MAG_AUTO               Kron-like elliptical aperture magnitude                    [mag]
#   3 X_IMAGE                Object position along x                                    [pixel]
#   4 Y_IMAGE                Object position along y                                    [pixel]
#   5 X_WORLD                Barycenter position along world x axis                     [deg]
#   6 Y_WORLD                Barycenter position along world y axis                     [deg]
#   7 A_WORLD                Profile RMS along major axis (world units)                 [deg]
#   8 B_WORLD                Profile RMS along minor axis (world units)                 [deg]
#   9 THETA_WORLD            Position angle (CCW/world-x)                               [deg]
#  10 FWHM_WORLD             FWHM assuming a gaussian core                              [deg]
#  11 ELONGATION             A_IMAGE/B_IMAGE                                           
#  12 ELLIPTICITY            1 - B_IMAGE/A_IMAGE                                       
         1 -12.9021    208.2235     45.3936   7.3916827456e+00   2.7130778308e+01     3.202709     1.283642 -61.42   0.01120916    3.868    0.741
         2 -13.4976    216.3259     56.2118   9.0715875167e+00   2.3952762974e+01     1.157624     1.020383 -18.74  0.003632126    1.308    0.236
         3 -13.6504    242.2910     61.9370   7.6446925265e+00   1.8003717473e+01    0.8556021    0.6353589 -30.06  0.002287735    1.314    0.239
         4  99.0000     30.2745     20.7333   4.6343488353e+01   7.1016058140e+01    0.8425395    0.6126893 -36.64  0.005024257    1.374    0.272
         5 -12.0390     85.5460      1.7071   1.2834839212e+01   6.2302400126e+01    0.5015182    0.1655931  56.45  0.001161636    2.303    0.566
         6 -14.1819      7.9863     67.5826   7.5139430797e+01   6.3094845828e+01     1.907927      1.48013 -11.32   0.01156083    1.347    0.258
         7 -12.6385     47.2945     32.0255   4.2387063803e+01   6.6541408116e+01     1.589414     1.397585 -87.03   0.00920064    1.748    0.428
         8 -10.8541     92.1203     34.0217   2.5262124191e+01   5.7126040652e+01    0.7089366    0.6830555 -84.10  0.003935263    1.180    0.152
         9 -12.4213     79.1412      9.4198   1.8275261347e+01   6.3125647378e+01    0.6997372    0.5206661  63.03  0.003079854    1.307    0.235
        10 -12.5145     53.2819     21.2587   3.4171606028e+01   6.7188563698e+01      1.28559    0.8046718  69.39  0.005177014    3.570    0.720
        11 -14.0519      4.3857     52.9671   7.3978224791e+01   6.6719742219e+01     2.335247    0.9219775 -58.07   0.01002277    1.984    0.496
        12 -12.5590     26.0764     40.7220   5.7783773616e+01   6.7767822454e+01     1.722178      0.77358 -39.80  0.007754979    2.097    0.523
        13 -13.3889     53.2060     57.5688   4.9968494721e+01   6.0713752506e+01     2.077396     1.461885  77.63  0.008960137    2.729    0.634
        14 -13.9697     36.2655     56.5404   5.7831961783e+01   6.3256195752e+01     2.020948     1.313036 -25.83   0.01003325    1.630    0.387
        15 -13.4939     63.0986     34.2681   3.6018947645e+01   6.3339607151e+01     1.175289    0.9034668 -30.63   0.00449882    1.343    0.256
        16 -14.0747     75.3836     21.9003   2.5458376262e+01   6.2567952833e+01     2.674998     1.785205 -64.27   0.01005984    2.546    0.607
        17 -13.1826     13.9672     33.7051   6.2558103400e+01   7.0343113467e+01      1.40076    0.7070644  38.26  0.005309369    2.445    0.591
        18 -13.6251    116.9017     61.9393   2.8476074516e+01   4.6798710541e+01     1.022396    0.8832356  24.29  0.001770282    1.241    0.194
        19 -13.7294     79.3600     43.8625   3.3657917609e+01   5.8465248801e+01     1.197397      1.12693  49.22  0.006925702    1.139    0.122
        20 -12.1137     52.6101     13.1527   3.0186942752e+01   6.8410109869e+01    0.3578644    0.2683515  47.06 0.0004059663    1.327    0.247
        21 -12.3403    226.1854     22.6886   4.9892639680e-01   2.5989128616e+01    0.5120999    0.3263047  73.87  0.001825056    1.592    0.372
        22 -11.3953    210.0479     22.5253   1.7418727155e+00   2.9468254234e+01    0.4367391    0.3523074 -68.84  0.002821847    1.058    0.055
        23 -11.4557    212.6089     19.2240   7.5794195523e-01   2.9266800013e+01    0.3649769    0.2044909 -33.32  0.001955997    1.713    0.416
        24 -11.3339    103.0408     26.3518   1.9035539623e+01   5.5504481879e+01    0.5008125    0.3587233 -45.60   0.00135235    1.590    0.371
        25 -11.0833    112.3466     24.1233   1.5906701567e+01   5.3443809131e+01    0.4193351     0.322803  11.91  0.001895459    1.568    0.362
        26 -12.5335    176.4336     23.3583   5.2649965465e+00   3.7227583730e+01    0.3340817    0.2874952  35.81  0.000574311    1.425    0.298
        27 -10.1631    101.5977      8.2983   1.1972185814e+01   5.7785291178e+01    0.3315703    0.2042894 -41.87 0.0008584528    1.865    0.464
        28 -11.7763    124.1994     23.1907   1.3060459998e+01   5.0527402887e+01    0.7445192    0.4826591  80.70  0.003143728    1.641    0.391
        29 -11.3612    124.9485     11.4547   8.6882220339e+00   5.1545558205e+01    0.7000022    0.3691007 -22.44   0.00324274    2.186    0.543
        30 -11.0699    120.6592     16.2235   1.1199828042e+01   5.2182151711e+01    0.6693057    0.4051195 -78.41  0.002423938    2.183    0.542
        31  -9.8680    104.6984      6.1230   1.0416976825e+01   5.7198577377e+01    0.2278867    0.1558698  55.36  0.000389353    1.252    0.201
        32 -11.6495    108.5519      9.5729   1.1024108626e+01   5.5916770472e+01    0.5166898    0.3247809 -31.35 0.0009812696    1.767    0.434
        33 -10.6212    111.3126      4.6257   8.5338180564e+00   5.5648978308e+01    0.8230756    0.3598168  86.09  0.002930382    3.352    0.702
        34 -11.5482    114.9255     12.7439   1.0993614953e+01   5.3995807289e+01    0.2732841    0.2183829  82.26 0.0003977728    1.232    0.188
        35 -11.2414    116.5016      9.5609   9.4819931173e+00   5.3891749362e+01    0.3174586    0.2328648  70.31  0.001099014    1.209    0.173
        36 -10.5816     20.2825     22.5065   5.3652102837e+01   7.1930129781e+01    0.6597068    0.2988747 -56.42  0.002927335    2.805    0.644
        37 -12.1678    244.2565     22.3080   3.5916393967e+02   2.2414923011e+01    0.5814078    0.3166444  81.81  0.003426835    1.912    0.477
        38 -11.8185    201.9878     20.8053   2.0261557340e+00   3.1465302517e+01    0.4553238    0.2429192 -47.02  0.002371718    1.666    0.400
        39 -10.0789    203.9400     16.9380   9.2054569496e-01   3.1440285397e+01    0.3938557    0.1929638 -77.03  0.001569005    2.270    0.560
        40 -10.1152     93.9575     14.4823   1.6432755425e+01   5.9076450160e+01    0.5636681    0.2431091 -27.77  0.002384742    2.523    0.604
        41 -12.5942    221.5408      8.7475   3.5774239272e+02   2.8441093109e+01    0.5479549     0.187441 -45.24  0.002589913    2.294    0.564
        42 -11.7944    232.2660      3.3128   3.5593928299e+02   2.6763962401e+01    0.6997457    0.1970206 -48.07  0.003192267    2.632    0.620
        43 -13.8651    244.4189      8.2866   3.5630359446e+02   2.3866698774e+01    0.9565689    0.3875478 -73.58  0.003800467    2.712    0.631
        44 -11.7480    229.2724     10.4169   3.5761818191e+02   2.6660980678e+01    0.5610478    0.3213528 -68.32  0.002259661    1.567    0.362
        45 -10.1388    187.2350     14.0783   1.6688205414e+00   3.5611717813e+01    0.2415337    0.1396173 -35.38  0.001270388    1.694    0.410
        46 -11.7169    141.2723     14.1998   7.0582628383e+00   4.7070528002e+01    0.2243792    0.2160372  35.11 0.0003684112    1.190    0.160
        47 -11.0759    149.2822     12.9222   5.5344913036e+00   4.5139143022e+01    0.4417816    0.2286915  83.45  0.001970057    1.970    0.492
        48 -10.5095     88.1300     11.9839   1.6881336877e+01   6.0742755866e+01    0.2825414     0.184177  64.12    0.0014435    1.448    0.310
        49 -10.7015     26.3790      9.6760   4.2667947523e+01   7.3308030230e+01    0.2641982     0.179937   1.08  0.000977798    1.452    0.311
        50 -11.5405    193.9100      7.7783   3.5949306374e+02   3.4673746425e+01    0.2569157     0.223156  62.94 0.0009777382    1.302    0.232
        51 -13.0446    173.1759      5.4766   6.8135955601e-01   3.9846299963e+01    0.4737332    0.3132604  -8.15  0.002527893    2.069    0.517
        52 -11.2504     47.3046      8.4455   3.0037314439e+01   7.0003497608e+01    0.3314726    0.2534892  29.02 0.0009689297    1.119    0.107
        53  -9.9895    215.9415      8.0521   3.5795293627e+02   2.9706886656e+01    0.1780086    0.1388507 -65.62 0.0003428151    1.045    0.043
        54  -9.9953    131.2540      8.2648   6.5468831936e+00   5.0213059972e+01    0.2368216    0.1481489  67.66 0.0005968006    1.376    0.273
        55  -9.4406    156.6865      7.6849   3.0171589462e+00   4.3751332646e+01    0.1345085   0.09242082  44.79 0.0004100546    1.641    0.391
        56 -10.9453      3.5677      5.8566   5.7648913301e+01   7.6469603202e+01    0.3275223    0.1703811  -5.76  0.001722099    2.078    0.519
        57  -9.2323     91.4187      5.1287   1.2947793976e+01   6.0587134378e+01    0.3390209    0.2431299  37.32  0.001875603    1.342    0.255
        58  -8.1040    182.5509      3.0457   3.5920735279e+02   3.7800210883e+01    0.4846713    0.2008838 -75.49  0.001955593    2.904    0.656
        59  -9.3483    187.2893      1.2969   3.5837975467e+02   3.6834535701e+01    0.1813639   0.08234705  54.01 0.0005570262    2.451    0.592
        60 -11.1037    218.0375      2.0259   3.5647266994e+02   2.9847794886e+01     0.253109    0.1868817  77.88   0.00167431    1.344    0.256
        61  -9.5861    213.0930      2.1676   3.5680563808e+02   3.0899646353e+01    0.2114072    0.1444571  85.11 0.0007999073    1.341    0.254
        62 -10.5859     47.3750      1.8154   2.6065561215e+01   7.0737058814e+01     0.427488    0.1475205  42.01  0.001778646    2.494    0.599
        63  -9.7457    126.5751      1.8341   4.9864954008e+00   5.1964839497e+01    0.3325313    0.1664309 -84.90  0.001382594    2.467    0.595
        64 -10.9039    113.4438    246.4464   6.7459890976e+01   9.2943002885e+00    0.2753364    0.1858009 -20.98  0.001570795    2.112    0.526
        65 -10.4836    180.9700    243.9630   5.3254301837e+01   5.4609215317e-01    0.1717103    0.1364151  44.54  0.001138796    1.689    0.408
        66 -12.5871    229.1446     66.5068   1.0002798506e+01   1.9926781801e+01    0.5616617    0.3127026  45.13 0.0004964258    2.315    0.568
        67 -12.9242    189.8297     43.5831   9.0822534241e+00   3.1559075725e+01    0.8842871    0.7223797 -58.55  0.002985086    1.135    0.119
        68 -12.1997    237.9766     51.0958   5.7257910417e+00   2.0225536828e+01    0.4333736    0.2850379 -47.87  0.002282023    1.270    0.213
        69 -11.9812    229.6732     47.7862   5.7718263083e+00   2.2289391588e+01    0.3758762    0.3384941  23.03  0.001855255    1.474    0.321
        70 -11.6439    234.3725     46.1758   4.9847674530e+00   2.1551171394e+01    0.3189931    0.1977275 -86.61  0.001012126    1.825    0.452
        71 -10.6564    170.4547     97.9444   2.6628084582e+01   2.7595069682e+01    0.3448943    0.2632259 -53.04   0.00143255    1.376    0.273
        72 -10.8194     46.2418     99.1006   6.4700572807e+01   5.1932287628e+01    0.2474927    0.2061357  34.13 0.0002830586    1.244    0.196
        73 -11.9538     11.7077     97.7811   7.8385456378e+01   5.5402773534e+01    0.3706444    0.2521292 -52.61  0.001319726    1.334    0.250
        74 -10.8523    140.9454     96.1903   3.2719124241e+01   3.4683436552e+01     0.374405    0.3192751  54.32   0.00127459    1.174    0.148
        75 -13.2950    112.7355     81.6843   3.6063256595e+01   4.4057016160e+01     1.694968     1.162619  -4.10  0.006772579    2.325    0.570
        76 -13.1931     97.4527     74.4747   3.8528393384e+01   4.8895242687e+01      1.90906    0.8700563 -55.63  0.006303961    3.193    0.687
        77 -12.9117    144.2666     67.7995   2.3667174809e+01   3.9100308898e+01     2.576478    0.8799834  44.31   0.00798785    3.383    0.704
        78 -11.8625    100.3124     55.0005   3.0863349455e+01   5.1919336431e+01     1.095759    0.7003157  51.25  0.003450547    1.498    0.332
        79 -11.6564     90.4319     51.1245   3.2614595065e+01   5.4827325749e+01    0.2550084     0.221871  40.82  0.001194111    1.080    0.074
        80 -15.1463     65.6538     82.7550   5.2766410664e+01   5.3160096078e+01     2.859105     1.824332  51.53   0.01267716    1.860    0.462
        81 -14.2378     38.2465     80.5159   6.3757209021e+01   5.7464570684e+01     1.902596     1.057921 -45.15   0.00546381    1.699    0.412
        82  -9.3585    110.3124    240.6901   6.7511195315e+01   1.0681422883e+01    0.1259558   0.08121121  52.40 0.0007028105    1.627    0.385
        83  -9.7042    218.5219    239.5231   4.5634667595e+01  -3.5769692175e+00    0.1149638   0.08482806   6.49 0.0001328629    1.030    0.029
        84 -10.5436     88.3975    238.8247   7.2121472585e+01   1.3947232845e+01    0.1494347    0.1146308 -46.73 0.0005350562    1.651    0.394
        85 -12.1674     86.5151     63.2061   3.8429953783e+01   5.3456230799e+01    0.4173224    0.3683982  24.82 -0.0002188172    1.104    0.094
        86 -13.7975     78.0695     58.9232   3.9994120638e+01   5.6011928137e+01     1.205745    0.4632311  41.47  0.003440037    2.519    0.603
        87 -10.0948     15.8128    238.4106   8.7684207874e+01   2.2326502003e+01    0.1414023   0.09783886  22.26 0.0005181607    1.611    0.379
        88  -9.7335    157.7009    222.6980   5.4915384296e+01   6.9225073490e+00    0.1288264   0.08839429   2.33 0.0007000295    1.583    0.368
        89  -9.8854    236.7199    146.0054   2.5992914884e+01   6.8733071932e+00    0.1749594    0.1374957 -23.30 0.0003264181    1.069    0.064
        90 -12.9665     61.6747     44.2476   4.0969044452e+01   6.1895102730e+01    0.8183845    0.5914719 -84.25  0.003535056    2.849    0.649
        91 -12.5262     51.5443     44.7164   4.5825798619e+01   6.3550174594e+01     1.063352    0.4238758  25.44  0.001541792    3.642    0.725
        92  -9.0365    250.0102    132.1910   2.1329016084e+01   6.8380602383e+00    0.1312662   0.09470169  42.36 0.0008155312    1.636    0.389
        93 -10.9347    181.5977    119.0810   2.9658086261e+01   2.1350851961e+01    0.3329848     0.255565  60.47      0.00074    1.504    0.335
        94 -10.3966    183.0199    115.7738   2.8591676048e+01   2.1652100154e+01    0.3855216    0.2402401  57.14  0.001376495    1.844    0.458
        95 -10.8483     72.9955    119.0057   5.9138905590e+01   4.3167991469e+01    0.2162355    0.2124517  68.77  0.001194148    1.019    0.019
        96  -9.3842     49.9977    116.9738   6.6851728996e+01   4.6922617636e+01    0.1707807    0.1640499 -70.92 0.0003183028    1.006    0.006
        97 -10.2019    202.9534    115.7757   2.4968705855e+01   1.7607867351e+01    0.3859918    0.2242564  75.05  0.001426928    3.738    0.733
        98 -10.4434     93.3522    115.8776   5.1634245489e+01   4.0438709766e+01    0.2182956    0.1389283 -41.70 0.0003739556    1.665    0.399
        99 -11.6208    211.4329    112.1072   2.2735688144e+01   1.6560991728e+01    0.2691103    0.2120315  50.86 0.0004965982    1.405    0.288
       100 -12.1721     12.1777     24.9914   6.0301551007e+01   7.2237112152e+01     0.405644     0.282297 -41.60  0.001410012    1.266    0.210
       101 -11.4836    136.9434    112.7977   3.8178389596e+01   3.2198209567e+01    0.4258682    0.2118952  42.20  0.001624787    1.992    0.498
       102 -10.1703     65.6560    113.3345   6.0479238559e+01   4.5715498323e+01    0.1594474    0.1130833  66.88 0.0007050049    1.764    0.433
       103 -10.3749    250.0970     94.1014   1.3579015746e+01   1.2233388887e+01    0.2116186    0.1534144 -33.74 0.0009041962    1.161    0.138
       104 -11.7358    208.7267     58.0564   1.0394690226e+01   2.5333266365e+01     0.416011    0.2629425 -66.79  0.001591986    1.767    0.434
       105 -12.3013     55.1734     94.1031   5.9995080496e+01   5.2019004710e+01    0.4315785    0.2864436  55.95  0.001482677    1.857    0.461
       106 -11.6099     49.7119     94.9976   6.2393526754e+01   5.2526723432e+01    0.2734599    0.2282946  63.75 0.0007440368    1.368    0.269
       107 -11.9165     45.5482     91.6009   6.3297791244e+01   5.3891435981e+01    0.3748468    0.3490791 -34.29  0.001373777    1.038    0.036
       108 -12.4747    104.1308     66.0515   3.3579614151e+01   4.9053789118e+01    0.4104979    0.3299406  31.20 0.0003631667    1.274    0.215
       109 -10.3285     89.1159     93.5972   4.7203655131e+01   4.6467890347e+01    0.2246013    0.2021369 -41.57 0.0002859581    1.124    0.111
       110  -9.9989    191.1995    111.8811   2.6128261568e+01   2.0641158038e+01    0.2290827    0.1541103 -16.01  0.000478538    1.844    0.458
       111 -10.2516    226.4642     92.1505   1.6058898879e+01   1.6776125861e+01    0.2383466    0.1686897  82.16  0.001020092    1.892    0.471
       112 -12.0941    216.0116     90.4875   1.7105662962e+01   1.9068879580e+01    0.4162794    0.1887517 -33.73  0.001824856    2.043    0.511
       113 -10.3010    168.1493     90.1704   2.5045988369e+01   2.9507027182e+01    0.3135517    0.2412972  71.47  0.001376396    1.469    0.319
       114  -9.7448     86.1449     89.8581   4.7161511790e+01   4.7889409709e+01    0.2138675    0.1814078  -4.84 0.0005958991    1.324    0.245
       115 -11.9987      6.8317     88.6700   7.9135181518e+01   5.7973420003e+01    0.4519241    0.2139245  85.45  0.001443722    2.635    0.620
       116 -10.8426    247.8057     83.4115   1.1612905589e+01   1.4110510633e+01    0.3362114    0.2307854  87.09  0.001970382    1.967    0.492
       117 -10.4656    244.9965     80.5089   1.1308397452e+01   1.5009054048e+01    0.2498178    0.1999133  68.81  0.001639079    1.469    0.319
       118 -11.7316    223.9266     87.0779   1.5255696154e+01   1.8018520591e+01    0.4801673    0.2641631  33.10  0.002112788    2.900    0.655
       119 -10.3859    212.2061     89.1871   1.7344263776e+01   2.0036423887e+01     0.189895    0.1468872 -58.16 0.0006532448    1.335    0.251
       120 -12.4699    232.2236     75.4421   1.1641059229e+01   1.8087508937e+01     1.374196    0.3877704 -28.04  0.004050385    5.374    0.814
       121 -11.5349    237.9430     86.4788   1.3381677280e+01   1.5454045845e+01    0.2588907    0.2288652  74.65  0.000928666    1.309    0.236
       122 -11.4581    234.1458     85.1601   1.3548583824e+01   1.6345464316e+01    0.2597153    0.2259407 -75.07 0.0003384023    1.252    0.201
       123 -11.7273    161.2712     84.5150   2.4900478052e+01   3.2108188244e+01    0.7615266    0.4236638  44.15  0.003194671    1.893    0.472
       124 -11.5600    147.8761     84.7416   2.7852921223e+01   3.5241064397e+01    0.4635758    0.4205187  70.00  0.001403176    1.128    0.114
       125 -11.9616    147.2831     79.2838   2.6413682029e+01   3.6371697205e+01    0.3492527    0.3120456 -30.32 0.0002651927    1.168    0.144
       126 -10.3761    248.0362     87.4585   1.2432390491e+01   1.3511618332e+01    0.2186953    0.1358636 -45.66 0.0001266461    1.396    0.284
       127 -11.9580    238.0574     80.8899   1.2162555904e+01   1.6222056481e+01    0.2440623    0.2171141   2.33  0.000379016    1.352    0.261
       128  -9.4961    173.4979     78.5157   2.0907690000e+01   3.0255746590e+01    0.2456291    0.1423285  57.10 -3.875336e-05    1.748    0.428
       129 -12.0041    168.8556     80.5160   2.2310009299e+01   3.1011145032e+01    0.4241096    0.3817693 -84.55 0.0008674364    1.161    0.139
       130 -10.5203    168.3540     76.3079   2.1253985329e+01   3.1834080829e+01    0.2797447    0.2269963  49.56 0.0007448342    1.258    0.205
       131 -11.8962    220.5786     79.8231   1.4039982364e+01   1.9749167642e+01    0.2720244      0.22745 -16.29 0.0007771404    1.327    0.247
       132 -12.7828    220.8262     69.9052   1.1731012809e+01   2.1125957012e+01    0.4299921    0.3804387 -87.02  0.001587561    1.182    0.154
       133 -12.2335    217.3158     75.2697   1.3406408534e+01   2.1075357406e+01    0.3274002    0.3005622  26.21 0.0002478583    1.296    0.228
       134 -12.0208     82.4643     76.3941   4.4363155273e+01   5.1574386462e+01    0.6919102    0.3413374 -44.41  0.001241811    2.060    0.514
       135 -10.8851     86.8021     74.2044   4.2085387221e+01   5.1178044859e+01    0.5350716    0.2788778 -43.45  0.002124409    1.965    0.491
       136 -10.1319    156.2454     76.9135   2.3802491685e+01   3.4629288552e+01    0.3280138    0.2061292  65.47  0.001221295    1.748    0.428
       137 -10.4423    103.9181     75.8231   3.6891039302e+01   4.7209282180e+01    0.2338522    0.2073829  14.70 0.0005352706    1.196    0.164
       138 -12.4561     73.2954     74.4243   4.7192651282e+01   5.3723271355e+01    0.7352651    0.5677461  43.56  0.002158673    1.322    0.244
       139 -11.0125    250.3187     73.6308   9.3133256373e+00   1.4991107402e+01    0.2832789    0.2408057 -38.48  0.001182424    1.084    0.077
       140 -10.2565    248.5963     69.5324   8.6311250465e+00   1.5843444837e+01    0.2726237    0.2236132 -16.60  0.001017881    1.400    0.286
       141 -12.4294    196.3836     48.7087   9.5876601883e+00   2.9361718324e+01    0.8110289    0.3929243  53.68  0.001948208    2.188    0.543
       142 -11.9777     75.9813     52.0226   3.8189950447e+01   5.7731539547e+01    0.2657138    0.2490726 -36.13 0.0003543801    1.150    0.130
       143  -9.9474     78.4283     66.8084   4.2670604360e+01   5.4370726932e+01    0.2061784    0.1394969 -31.43 0.0005435128    1.604    0.377
       144 -10.0128    140.8169     61.6561   2.2530793544e+01   4.0969844121e+01     0.279478    0.1515602  61.72 0.0005120352    1.878    0.467
       145 -10.1191    136.7897     62.0716   2.3561188737e+01   4.1902300005e+01    0.2853898    0.2790073   9.18 0.0007244077    1.091    0.083
       146  -9.8094    137.2500     57.9910   2.2159969984e+01   4.2448599179e+01    0.2342955    0.2192556  68.01 0.0006418623    1.021    0.021
       147 -11.0043    127.4239     58.6175   2.4651527310e+01   4.4791325649e+01    0.4857043     0.281932  35.45  0.001746241    2.088    0.521
       148 -11.3006    161.9235     57.0948   1.6989614752e+01   3.6431842629e+01    0.4951574    0.4092557  88.24 0.0008358132    1.246    0.197
       149  -9.8182    155.1590     54.6423   1.7488249377e+01   3.8479339954e+01    0.2741781     0.116449  49.71 0.0006380812    2.355    0.575
       150 -10.0601    146.2057     58.0729   2.0275517776e+01   4.0195917731e+01    0.4268143    0.2445212  -6.37  0.001305653    3.629    0.724
       151 -11.5711    174.3083     56.2286   1.4674255352e+01   3.3528677408e+01    0.4794435    0.2833403  49.22  0.001324861    1.788    0.441
       152 -10.5863    248.7567     55.7714   5.7486367029e+00   1.7597141127e+01    0.3028807    0.1699542  45.71  0.001633578    2.488    0.598
       153 -11.6128    145.7724     52.1198   1.8512101945e+01   4.1211921714e+01    0.8489704    0.4265423  31.55  0.001821771    3.646    0.726
       154 -10.8096    155.2827     42.7793   1.3882291545e+01   4.0132009431e+01       0.6082    0.4338262  53.14  0.003094593    1.381    0.276
       155 -11.6961    149.8764     42.1474   1.4624424059e+01   4.1587618077e+01    0.4684376    0.3330687 -30.57 0.0004536561    1.513    0.339
       156 -11.0242    146.1777     39.7924   1.4544823699e+01   4.2844881750e+01    0.4921001    0.3267542   0.88  0.002177764    2.298    0.565
       157 -11.5837    161.3558     40.1732   1.2111945261e+01   3.8947358040e+01    0.4175193    0.3063641  49.87  0.001030227    1.413    0.292
       158 -11.8289    159.1185     36.2092   1.1277934831e+01   4.0020363285e+01    0.6387073    0.2157985  58.49 0.0009638323    2.604    0.616
       159 -11.3371    142.4223     46.5691   1.7416870782e+01   4.2868330344e+01     0.268593     0.234282  56.37 1.660022e-05    1.103    0.094
       160 -11.5732    144.9978     44.0045   1.6101625658e+01   4.2574186138e+01    0.2162213    0.2103184  -7.97 0.0003264652    1.147    0.128
       161  -9.9458     69.5367     55.5407   4.2104819974e+01   5.8319925493e+01    0.2997659    0.1378429  40.37  0.001190425    2.107    0.525
       162 -11.2440    183.8952     52.5005   1.2227095841e+01   3.1760509441e+01    0.4803518    0.3065998  89.96  0.002280899    1.855    0.461
       163 -10.7827    136.1214     52.8147   2.0740553153e+01   4.3539612356e+01    0.6098679    0.2067266  61.68   0.00193907    3.161    0.684
       164 -10.5484    245.2146     50.2727   4.9084586537e+00   1.8946438850e+01    0.2289445    0.1456106 -38.31 0.0002283778    1.331    0.248
       165 -10.2836    167.5546     51.8716   1.4528867460e+01   3.5804736423e+01     0.260257    0.1813189  48.13 0.0006021626    1.516    0.341
       166 -10.0729    161.4399     48.4989   1.4557355992e+01   3.7798194003e+01    0.3807192    0.2883071 -31.23   0.00198144    1.403    0.287
       167 -10.5180    249.3132     48.0085   4.0925675070e+00   1.8462880476e+01    0.3616438    0.1710114 -56.15  0.001868884    2.054    0.513
       168 -11.3234    247.0079     42.1478   3.0646589563e+00   1.9605279359e+01    0.5053946    0.2069791 -57.96  0.002127138    2.619    0.618
       169 -10.9746    135.4017     42.8512   1.7616785142e+01   4.5178254538e+01    0.7211844     0.440862  -0.95  0.002850022    2.805    0.644
       170 -10.8523    133.0210     40.2156   1.7224497157e+01   4.6148224628e+01    0.5142098    0.2266916  56.22  0.001861041    2.030    0.507
       171  -9.7963     99.2868     47.4386   2.8367381270e+01   5.3419672691e+01    0.2516269    0.1798198 -20.92   0.00119945    1.610    0.379
       172 -10.0573    167.6923     42.0065   1.1677517804e+01   3.7124016279e+01    0.2187817    0.1770111 -65.66 0.0004753949    1.222    0.182
       173 -12.0171    173.1889     44.4353   1.1556035507e+01   3.5445549011e+01    0.7048798    0.3512008  45.96  0.002228494    2.347    0.574
       174 -12.0458    177.2865     38.6840   9.3857515544e+00   3.5192948997e+01    0.7318169    0.4017798  38.20  0.002590802    2.607    0.616
       175  -9.8597    105.3882     44.2639   2.5375664791e+01   5.2466670093e+01    0.3887867    0.2405657 -62.57  0.001581013    2.466    0.594
       176  -9.7866    240.9958     39.9467   3.0820904217e+00   2.1016321394e+01    0.3478715    0.3027546 -18.99  0.002173344    1.403    0.287
       177 -11.1321    229.5850     40.1039   4.0753728929e+00   2.3261440639e+01    0.3491875    0.2829716  42.99  0.001572828    1.619    0.382
       178 -10.2731    215.1266     41.9357   5.8472602998e+00   2.6063866806e+01    0.3759198    0.2616602  78.20  0.001724939    1.467    0.318
       179 -10.2149    236.4565     39.4850   3.3541976589e+00   2.1959185163e+01    0.2408245    0.1581659 -35.98 0.0006665963    1.379    0.275
       180 -10.6556    233.1834     36.3932   2.9549441523e+00   2.2981420819e+01    0.2578988    0.1553977 -53.52 0.0005562394    1.426    0.299
       181 -10.2429    217.3519     34.7192   3.9514681125e+00   2.6468802298e+01     0.215195    0.1785187  83.31 0.0005965168    1.209    0.173
       182 -11.0525    223.9314     42.0666   5.0269588012e+00   2.4183117488e+01    0.3294119    0.2517716  55.87  0.001281872    1.526    0.345
       183 -12.1418    220.7555     38.1526   4.4299116341e+00   2.5329701836e+01    0.3073572     0.227779 -40.06  0.000316663    1.241    0.194
       184 -10.3462     99.6504     41.9670   2.6159534206e+01   5.4188518415e+01    0.3797285    0.2575882   4.02  0.001292084    2.097    0.523
       185  -9.7833    114.3689     38.9024   2.0992838892e+01   5.1045138170e+01    0.2338134    0.1773109 -57.40  0.001163787    1.537    0.349
       186  99.0000    123.6462     43.6076   2.0448529007e+01   4.8051260094e+01    0.7963836    0.2544122  48.21  0.002609522    3.000    0.667
       187 -10.9131    121.9628     32.9014   1.7027553041e+01   4.9933694197e+01    0.2943759    0.2112152 -39.98 0.0009851377    1.498    0.333
       188 -11.0531    131.5955     33.7266   1.5304860989e+01   4.7367089972e+01     0.297771    0.2144295 -49.79  0.000799095    1.501    0.334
       189 -10.3108    111.8907     33.1544   1.9459360533e+01   5.2442937097e+01    0.3540384    0.2390322  29.17  0.001666314    1.743    0.426
       190  -9.1389    152.5012     33.9016   1.1617080176e+01   4.1988422322e+01     0.180277     0.139922 -33.73 0.0003612742    1.373    0.272
       191 -10.1972    170.7374     32.6847   8.5807265789e+00   3.7547856595e+01    0.4239788    0.1293427  71.69  0.001372869    3.650    0.726
       192 -11.0009    163.0103     30.5721   9.0285983228e+00   3.9731593704e+01    0.3717716      0.23054 -61.82 0.0009320752    1.750    0.428
       193 -11.0233    159.0482     26.0139   8.2279556501e+00   4.1263797337e+01    0.4002588    0.2152182 -31.74  0.001865354    1.934    0.483
       194 -10.2736    242.0474     30.0091   9.1050143593e-01   2.1978153951e+01     0.196553    0.1540346 -78.33 0.0007585147    1.201    0.168
       195 -10.0428    237.7815     30.6509   1.3585970460e+00   2.2738722337e+01    0.2524622    0.1327676  81.78  0.001379239    2.050    0.512
       196 -10.5871    226.6354     30.8755   2.2776703481e+00   2.4966012934e+01    0.4389945    0.1921974  62.45   0.00217594    2.385    0.581
       197 -11.3467    196.3551    108.0146   2.4295458293e+01   2.0241544742e+01    0.6943926    0.4278971 -71.46  0.002723206    3.089    0.676
       198 -10.8392    218.3528     28.8515   2.5102756480e+00   2.6944282764e+01    0.2747807    0.2485196 -55.99 0.0008562203    1.136    0.119
       199 -10.7602    216.1749     25.3473   1.8870053825e+00   2.7812982767e+01    0.6478746     0.373602  30.67  0.002877189    3.515    0.715
       200 -10.9249     62.0911    110.4839   6.1144953689e+01   4.6955411676e+01    0.2220869    0.1461949  29.88 0.0006022582    1.546    0.353
       201  -9.4128    233.4878    109.0146   1.8797329087e+01   1.2962463165e+01    0.1830607    0.1106547 -34.34 -8.062079e-05    1.428    0.300
       202 -10.3957    152.4072     29.5175   1.0272609563e+01   4.2544881766e+01    0.2378282    0.2245095 -35.77 -1.79953e-05    1.175    0.149
       203  -9.5162    153.4403     25.5067   8.8754419190e+00   4.2747056141e+01    0.1395019    0.1246223 -89.63   9.3273e-05    1.026    0.026
       204  -9.4282    181.3255     29.6265   6.4070977162e+00   3.5319422868e+01    0.1506915   0.08743582 -62.71            0    1.822    0.451
       205 -12.0686    161.5420    106.5640   3.0720119274e+01   2.7996898596e+01    0.4257322    0.2247434 -44.43  0.001733379    1.906    0.475
       206 -11.5182     97.9111     22.0984   1.8635849422e+01   5.7272524039e+01    0.2651406    0.2263299  -9.15 0.0005975317    1.302    0.232
       207  -9.8145    102.4328     19.4761   1.6399445744e+01   5.6454771923e+01      0.21385    0.1128934  50.53 0.0009598443    1.657    0.396
       208 -11.4273    135.2814     26.5657   1.2164222115e+01   4.7289603853e+01    0.4752966    0.3248223 -72.56  0.001887892    1.711    0.416
       209  -9.6925    114.3623     28.2608   1.7022213951e+01   5.2441776679e+01    0.1514323   0.09751204  38.68 0.0006978247    1.634    0.388
       210 -11.7138    144.6412    103.3168   3.3757526245e+01   3.2427281868e+01    0.5725425    0.3551632 -29.98  0.002395771    1.850    0.459
       211  -8.7738    169.2863     26.6917   7.0630524862e+00   3.8615487482e+01    0.2268626    0.1667703 -74.84 0.0007547879    1.344    0.256
       212  -9.3393    166.3097     26.2441   7.3173996174e+00   3.9409302906e+01    0.1397679    0.1197025 -83.77            0    1.065    0.061
       213 -10.1337    234.0017     24.3413   2.8809015911e-01   2.4207469661e+01    0.3003758    0.2317857 -11.30  0.001916048    1.758    0.431
       214 -11.1118     16.3132    106.0631   7.7703623207e+01   5.2992954940e+01    0.3823428     0.254088 -14.08  0.001861397    1.809    0.447
       215 -10.7294    147.2241     25.8071   9.9123410653e+00   4.4303578561e+01    0.3229553    0.1983447  48.26 0.0002403497    1.671    0.402
       216 -10.2074    210.5211    105.2796   2.1324832449e+01   1.7839572644e+01    0.2997255    0.2475367  62.99  0.001738269    1.387    0.279
       217 -10.8173    109.4325    104.3650   4.3634822089e+01   3.9936828497e+01    0.2840527    0.1520601 -42.72  0.000840095    1.938    0.484
       218 -13.0242    122.2986     99.5559   3.8560090401e+01   3.8215422146e+01    0.7508776    0.4650803 -31.98  0.003091464    1.869    0.465
       219 -13.3219    130.7383     95.1790   3.5035435136e+01   3.7225958886e+01    0.9605122    0.6713469  36.50  0.004092579    1.490    0.329
       220 -13.0608    124.9647     87.8598   3.4466855680e+01   4.0024174431e+01     1.133729    0.6357093  53.18  0.002996222    1.829    0.453
       221 -11.0928    126.8354     81.2168   3.1976232299e+01   4.0892414112e+01    0.4367791     0.327732   5.24 0.0009820048    1.836    0.455
       222 -11.4301    131.9994     83.1351   3.1210024760e+01   3.9308091431e+01    0.2880848    0.2738562 -28.64 0.0003103265    1.089    0.082
       223 -12.2625    136.7104     80.9374   2.9377397925e+01   3.8604756454e+01    0.8170931    0.6047807 -88.39 0.0006652836    1.858    0.462
       224 -11.5593    227.0756    100.3715   1.7797538906e+01   1.5428138604e+01    0.4369644    0.2839862 -56.58  0.001072076    1.751    0.429
       225 -10.1574    228.7662     97.2131   1.6873840708e+01   1.5587184760e+01     0.179956    0.1753937 -73.14 0.0003534321    1.147    0.128
       226 -10.6002    183.2604    102.0136   2.5189928196e+01   2.4040665975e+01    0.2013485    0.1813474 -36.54 0.0002812781    1.066    0.062
       227 -10.2201     95.6471    101.2183   4.7127715053e+01   4.3447861680e+01    0.2870652    0.2038539 -39.44  0.001297582    1.473    0.321
       228 -10.5802    215.9227    100.6776   1.9452487790e+01   1.7509657897e+01     0.294018    0.1985731  -6.46  0.001273735    2.076    0.518
       229 -10.0364    163.5057     20.9148   6.1239902504e+00   4.0705368057e+01    0.1931835    0.1619663  83.15 0.0003006477    1.069    0.064
       230 -10.8072    192.1781     19.1790   2.5177080452e+00   3.3908050759e+01    0.3990269    0.1902661  55.21  0.001870535    2.240    0.554
       231 -10.8712    130.6438     19.3482   1.0504010372e+01   4.9286761503e+01    0.3352748    0.1920489  80.82  0.001059785    1.856    0.461
       232  -9.7964    165.5361    101.5164   2.8562499656e+01   2.8049974205e+01    0.1470469    0.1448383 -31.88 2.616363e-05    1.005    0.005
       233 -11.3722    152.1963    108.1956   3.3247559638e+01   2.9763897627e+01    0.3239203    0.2127744 -68.00  0.001294725    2.292    0.564
       234 -12.5521    150.9408     96.0141   3.0297843868e+01   3.2412333678e+01    0.8310524    0.5008467 -67.96   0.00240483    2.849    0.649
       235 -10.1387    157.2054     95.5808   2.8778150475e+01   3.1049279859e+01    0.4596085    0.1775547  49.32  0.001279997    2.561    0.610
       236 -13.0418     84.6861     98.7261   5.0158313782e+01   4.6114755659e+01    0.8570455    0.4378181  28.10  0.003197076    2.295    0.564
       237 -12.0034    110.2513     92.9199   4.0177934089e+01   4.2270222521e+01    0.5164196    0.3343175  74.08  0.001912046    2.637    0.621
       238 -12.3639     95.7318     90.2884   4.4010840433e+01   4.5899528036e+01    0.7155857    0.5038369  52.06 0.0009352828    1.506    0.336
       239  -9.7292    159.9698     14.3104   4.6112536146e+00   4.2284497099e+01    0.1825006     0.151811  76.61 0.0003470515    1.084    0.078
       240 -12.2534    102.3975     96.4073   4.3613379710e+01   4.3174022559e+01    0.4939412    0.3645548 -42.21 0.0005596019    1.389    0.280
       241 -10.3177    156.0496     12.9049   4.6667322616e+00   4.3416165263e+01    0.1958243    0.1696595 -85.69 0.0003632764    1.039    0.037
       242 -10.0260    133.6974     12.4446   7.6124244032e+00   4.9194635297e+01    0.2545094    0.1245642  73.78  0.001104175    1.905    0.475
       243 -11.8693    107.0819     96.1353   4.2070623075e+01   4.2252897397e+01    0.3937031    0.3075481 -43.81  0.001164259    1.311    0.237
       244  -8.9807    179.4592     11.4747   1.7144462788e+00   3.7740465614e+01    0.1365748    0.1063194 -70.84 0.0008044846    1.152    0.132
       245 -10.1376    244.4350     98.4065   1.5139741623e+01   1.2597053931e+01    0.3210442    0.1360536 -28.33  0.001411797    2.425    0.588
       246 -11.2261    199.7568     96.2022   2.0905751753e+01   2.1498863004e+01    0.4626706    0.2985912 -45.29  0.001404463    1.480    0.324
       247 -12.0443    185.0664     91.7569   2.2291992164e+01   2.5404833689e+01    0.4166795    0.3607039  34.72 0.0006163285    1.259    0.205
       248 -11.7722    175.7878     85.7308   2.2409393340e+01   2.8516927670e+01    0.6942757    0.4666395  12.31  0.002499561    2.466    0.595
       249 -12.9718    187.7352     59.8139   1.3611569515e+01   2.9819037436e+01     1.201094     0.500367  56.35  0.004918273    2.373    0.579
       250 -10.8955     36.3072    249.1375   8.3996013180e+01   1.8284275612e+01    0.1575242    0.1426178 -65.58  0.001209678    1.460    0.315
       251 -11.9653    202.6870     33.7142   5.1258867197e+00   2.9823912107e+01    0.5207293    0.3487745 -76.79   0.00026106    1.500    0.333
       252 -12.1428    232.0036     57.3910   7.6742564825e+00   2.0584077808e+01    0.7535041    0.6679124  58.38  0.003571101    1.328    0.247
       253 -13.9828    196.4701     82.8146   1.8160746121e+01   2.4352893904e+01     1.266054     1.189163  -3.96    0.0043509    1.175    0.149
       254 -11.6902    207.7493     79.1656   1.5605737519e+01   2.2491218823e+01    0.2977196    0.2817928  46.04 0.0003091552    1.179    0.151
       255 -12.7840    178.3830     73.4347   1.8687796940e+01   2.9936169356e+01     1.352368    0.8129845 -70.12  0.004737697    2.455    0.593
       256 -11.9403    165.6304     65.6826   1.8790702406e+01   3.4205326189e+01     1.041219    0.4928612  53.93  0.004246428    2.056    0.514
       257 -13.4941    198.4765     68.6240   1.4330886482e+01   2.6081745518e+01     1.781162    0.6190836  66.09  0.004362849    3.612    0.723
       258 -13.0565    202.4307     60.9854   1.1897772311e+01   2.6308209880e+01     0.876605    0.6459891 -78.59  0.002591782    1.478    0.323
