#   1 NUMBER                 Running object number                                     
#   2 MAG_AUTO               Kron-like elliptical aperture magnitude                    [mag]
#   3 X_IMAGE                Object position along x                                    [pixel]
#   4 Y_IMAGE                Object position along y                                    [pixel]
#   5 X_WORLD                Barycenter position along world x axis                     [deg]
#   6 Y_WORLD                Barycenter position along world y axis                     [deg]
#   7 A_WORLD                Profile RMS along major axis (world units)                 [deg]
#   8 B_WORLD                Profile RMS along minor axis (world units)                 [deg]
#   9 THETA_WORLD            Position angle (CCW/world-x)                               [deg]
#  10 FWHM_WORLD             FWHM assuming a gaussian core                              [deg]
#  11 ELONGATION             A_IMAGE/B_IMAGE                                           
#  12 ELLIPTICITY            1 - B_IMAGE/A_IMAGE                                       
         1 -13.1313    207.5443      1.8519   6.1186308214e+01   3.1989836638e+01     2.008176     0.761173  71.73  0.007372138    2.649    0.623
         2 -14.2243    185.6454     24.2493   7.1176495546e+01   3.5619727119e+01     2.088646     1.458341 -10.63  0.005653744    1.460    0.315
         3 -13.7449    192.0034     17.3232   6.7962311016e+01   3.4663931865e+01     1.672761    0.9173489 -40.14   0.00497575    1.856    0.461
         4 -13.3807    199.0430      9.6663   6.4577891007e+01   3.3537322108e+01     0.912166    0.8319639   0.74   0.00153386    1.089    0.082
         5 -11.6527     32.6753     14.8094   1.1101697557e+02   6.9144402130e+01    0.4273061   0.08453436 -47.53   0.00146697    3.789    0.736
         6 -11.5470     29.6656      2.3228   1.0632634463e+02   7.1687237080e+01    0.4677837    0.2641621 -10.34  0.002397117    2.358    0.576
         7 -13.2862     68.3817    222.4180   1.3707745065e+02   2.3932996312e+01    0.6704949    0.2535129  57.58  0.001854475    2.370    0.578
         8 -12.0896    249.1435    250.2057   1.1169651444e+02  -3.8431915134e+00    0.4073395    0.2683946  42.69  0.003181054    1.612    0.380
         9 -12.5660    140.1776    248.2182   1.2778277815e+02   1.1361002498e+01    0.4789364    0.2785192  53.05   0.00349259    1.453    0.312
        10 -12.9837    100.1193    247.1091   1.3383603271e+02   1.6709782112e+01    0.4963005    0.3998222  44.00  0.002281109    1.281    0.219
        11 -11.5486    105.7813    245.9887   1.3288586318e+02   1.6141822241e+01    0.2582086    0.1782775  72.05 0.0007527389    1.486    0.327
        12 -13.8212     53.1043    228.5574   1.3988571649e+02   2.4731479083e+01     0.907533    0.4001793 -84.97  0.003519204    2.529    0.605
        13 -15.2150     33.9530    246.8140   1.4361214173e+02   2.4115832629e+01     8.717052     2.374088  31.67   0.02738018   12.176    0.918
        14 -11.7666     40.8815    213.7158   1.4100625032e+02   2.8260943977e+01    0.2995397    0.1909814  63.51  0.001471567    1.155    0.134
        15 -13.9040     10.7633    206.5722   1.4551286899e+02   3.2229718836e+01    0.9558612     0.465862  27.77  0.004946698    2.827    0.646
        16 -10.6428    229.9279    207.4405   1.0843712939e+02   2.4380286059e+00    0.1912677    0.1613238  23.25 0.0003859221    1.237    0.191
        17 -10.9500     36.0954    206.5002   1.4139704801e+02   2.9890028973e+01    0.2574768    0.1230462  51.23   0.00180324    1.581    0.368
        18 -10.8096    193.0241    194.8207   1.1252642061e+02   9.7270294176e+00    0.6353595    0.3304228 -59.01  0.002285684    6.672    0.850
        19 -16.0708      9.9694    238.2022   1.4670988626e+02   2.7535362071e+01     5.563337     1.275703 -74.42   0.03265932    4.061    0.754
        20 -11.9922     74.8202    193.2365   1.3371061144e+02   2.7774877571e+01    0.3007646    0.2156952 -49.21   0.00211098    1.931    0.482
        21 -11.9358     79.0805    186.4421   1.3229545086e+02   2.8395354184e+01    0.2296666    0.1976826 -63.30 0.0007042027    1.411    0.291
        22 -12.1192    172.7555    220.5129   1.1955913906e+02   9.8840512442e+00     0.480358     0.209143  28.92  0.002284094    2.965    0.663
        23  -8.9032    181.5158    192.4257   1.1415314999e+02   1.1936658894e+01    0.1209513   0.09579172  32.43 3.420443e-05    1.039    0.038
        24 -11.4370     86.9159    174.7030   1.2956565295e+02   2.9429958909e+01    0.2047097    0.1834277  68.58 0.0004062771    1.114    0.102
        25 -12.2693    104.9066    172.5499   1.2573470947e+02   2.7285888031e+01     2.362834   0.09979805  43.41  0.005518907    9.440    0.894
        26 -12.7803     58.2252    131.4987   1.3056247067e+02   4.1458482595e+01     2.269871    0.7089421 -77.13  0.006257165    7.309    0.863
        27 -12.4533     92.6448    166.5209   1.2744873906e+02   3.0124200989e+01    0.5455835    0.4581888  39.41  0.001410525    1.280    0.219
        28 -11.8285     80.6728    161.6166   1.2932127009e+02   3.2663578124e+01    0.8845678     0.416976  64.41  0.004117238    2.783    0.641
        29 -13.2031     67.7078    144.3638   1.3001604749e+02   3.7686781215e+01    0.9028361    0.5018556  79.45  0.004645016    2.244    0.554
        30 -13.3879     74.9479    171.9809   1.3164292258e+02   3.1479380255e+01    0.3715944    0.2446013 -44.54  0.001516835    2.151    0.535
        31 -10.7586    137.8544    171.5296   1.1906112646e+02   2.2302608232e+01    0.2284897     0.192238  10.45  0.001040909    1.459    0.314
        32 -16.0711      1.7372     76.4027   1.3883856378e+02   5.8222635837e+01     13.32877    0.5857865 -73.96   0.02787025   12.272    0.919
        33 -10.5931     37.2752    160.8575   1.3817241425e+02   3.7809834238e+01    0.3281802    0.1657841  80.93  0.001922163    1.963    0.490
        34 -10.5523    104.0391    149.3193   1.2266138697e+02   3.1674124222e+01    0.2546373    0.2332192  78.85 0.0007900943    1.035    0.034
        35  -9.8785    106.4784    145.5444   1.2153485645e+02   3.2019642444e+01    0.2891659    0.1928736 -38.20  0.001159717    1.927    0.481
        36 -12.3201     93.0963    149.0823   1.2501992355e+02   3.3348057472e+01    0.2325151    0.2260597  66.91 0.0004939698    1.178    0.151
        37 -10.1334    133.8353    144.5743   1.1540250288e+02   2.7641962335e+01    0.7539706    0.1648072 -53.82  0.001808149    8.350    0.880
        38 -11.5165     55.7661    144.6956   1.3271751851e+02   3.9031570457e+01    0.3325205    0.2876906  75.36  0.001833854    1.080    0.074
        39 -10.2502     39.9688    143.6220   1.3609645874e+02   4.0926110037e+01     0.156986    0.1252825  66.59 0.0006905388    1.132    0.117
        40 -15.1204     60.6463    214.0576   1.3778345620e+02   2.6084833407e+01      2.37056    0.7906142  49.94   0.01355761    2.252    0.556
        41 -10.2506    113.4200    135.5140   1.1827411826e+02   3.2845373814e+01    0.2564662    0.2236324 -14.45 0.0008803276    1.456    0.313
        42 -11.0660     70.8507    135.0764   1.2807152276e+02   3.9183757275e+01    0.4651637    0.1635853  47.88  0.002006024    2.868    0.651
        43 -10.9253    101.2350    132.4654   1.2054388184e+02   3.5409983740e+01    0.2679138    0.2114496 -30.21 0.0006613509    1.638    0.389
        44 -11.0887     44.7057    129.6491   1.3354057500e+02   4.3320203024e+01    0.2184101    0.1192536 -61.66  0.001080975    1.677    0.404
        45  -9.8290    118.7699    128.0381   1.1564245895e+02   3.3400915713e+01    0.2145405    0.1541699 -21.93  0.001074609    1.996    0.499
        46  -9.7839    109.3089    122.9750   1.1688031450e+02   3.6017757324e+01    0.2010922    0.1778138  50.08 0.0004630911    1.123    0.110
        47  -9.5142    135.0000    120.0268   1.1022877979e+02   3.2002792821e+01    0.2279322   0.07853311 -45.73  0.000806535    2.971    0.663
        48 -10.9325    168.1918    113.0096   1.0127360485e+02   2.6560890845e+01    0.3407581    0.2860878 -85.20 0.0009733824    1.607    0.378
        49 -10.8090     44.9584    114.4780   1.3157909019e+02   4.6526236161e+01    0.1670623    0.1141929  38.76 0.0008754697    1.614    0.381
        50  -9.5869    205.3268    110.3535   9.3342165055e+01   1.8949177108e+01    0.3376177    0.1539534  38.00   0.00132638    2.282    0.562
        51 -10.7687     21.9383     93.0505   1.3493888740e+02   5.3270427095e+01    0.4065087    0.1210044  37.11  0.001877105    3.390    0.705
        52  -9.6485    154.1566     75.8452   9.4217868445e+01   3.6149772068e+01    0.2129768    0.1764341   8.34 0.0005785812    1.303    0.232
        53 -10.8323    163.2667    249.0401   1.2431737076e+02   8.1020600723e+00    0.2245236    0.1675321  73.61  0.001734719    1.936    0.483
        54 -11.1451    205.6558    249.6799   1.1796982970e+02   2.1175974022e+00    0.3056861   0.06547443  41.45  0.001367448    3.248    0.692
        55 -12.2194    126.5055    244.7400   1.2958220809e+02   1.3604549188e+01     0.344966    0.1745805  55.69  0.002285731    1.800    0.445
        56 -10.1710    198.4872    245.5147   1.1855270780e+02   3.4985630695e+00      0.10499   0.07296126  33.61 2.335438e-05    1.015    0.015
        57 -11.6450    110.6946    248.9186   1.3236147421e+02   1.5154858174e+01    0.2997151    0.2373641  21.98  0.002187777    1.755    0.430
        58 -11.1946    224.8758    245.2105   1.1456338307e+02  -1.7803448068e-01    0.2148809    0.1013596  29.98  0.001382557    1.657    0.397
