#   1 NUMBER                 Running object number                                     
#   2 MAG_AUTO               Kron-like elliptical aperture magnitude                    [mag]
#   3 X_IMAGE                Object position along x                                    [pixel]
#   4 Y_IMAGE                Object position along y                                    [pixel]
#   5 X_WORLD                Barycenter position along world x axis                     [deg]
#   6 Y_WORLD                Barycenter position along world y axis                     [deg]
#   7 A_WORLD                Profile RMS along major axis (world units)                 [deg]
#   8 B_WORLD                Profile RMS along minor axis (world units)                 [deg]
#   9 THETA_WORLD            Position angle (CCW/world-x)                               [deg]
#  10 FWHM_WORLD             FWHM assuming a gaussian core                              [deg]
#  11 ELONGATION             A_IMAGE/B_IMAGE                                           
#  12 ELLIPTICITY            1 - B_IMAGE/A_IMAGE                                       
         1 -13.0299    152.0262     49.4795   8.4442411077e+01   4.1299416574e+01     1.281455     1.128399 -22.41  0.003763686    1.188    0.159
         2 -12.5546    164.2760     19.7399   7.2296532717e+01   4.2017467420e+01    0.8998672    0.6340485  -6.49  0.003663986    1.722    0.419
         3 -12.5550    158.6085     18.0899   7.2665360516e+01   4.3685687057e+01    0.9906743    0.6623012  -8.91   0.00396281    1.802    0.445
         4  -9.9163    189.4370     15.3466   6.7396351153e+01   3.5859342689e+01    0.2953324    0.1852414  47.69  0.001080159    1.681    0.405
         5  -9.1667    236.0268      2.2307   5.9365527327e+01   2.5485549369e+01    0.2211215    0.1731227 -42.73 0.0007037632    1.239    0.193
         6  -9.8526    236.6686    158.7858   9.7019269924e+01   2.8452195377e+00    0.2330127    0.1662827 -38.12 0.0005548248    1.461    0.315
         7 -10.2755    248.3173    247.1327   1.1103747575e+02  -1.0014962845e+01    0.4386875    0.1676347 -25.93  0.002294372    3.065    0.674
         8 -14.6785    113.0649    212.5004   1.3059249034e+02   1.6852973065e+01    0.7318523    0.3843332  50.12   0.00384301    1.595    0.373
         9 -19.1718     87.4941    227.1502   1.3702900630e+02   1.8156645298e+01     5.562345     4.308884  56.03   0.02689056    1.108    0.097
        10  -9.7494    192.4854    158.8398   1.0525817916e+02   1.1691736892e+01    0.3668177    0.3097042  45.35  0.001803833    1.146    0.127
        11  -8.4750    192.5089    154.0305   1.0422741185e+02   1.2539454074e+01    0.3158777    0.1853995 -23.56   0.00123374    2.221    0.550
        12 -12.3655    134.0646    146.9462   1.1552231461e+02   2.6209904110e+01     1.535241    0.4578867 -56.48  0.004142911    4.952    0.798
        13 -14.3141     65.7805    248.7625   1.4257335132e+02   1.7460386162e+01    0.2900146    0.2492696  66.77  0.001698824    1.325    0.245
        14 -12.0287     11.0358    207.2025   1.4938468548e+02   3.1173207904e+01    0.4118979    0.3868504  69.00  0.003545857    1.550    0.355
        15  -9.7482    154.4286    153.2022   1.1213457964e+02   2.0742795534e+01    0.2810062    0.2273445  65.14 0.0006574779    1.304    0.233
        16 -11.4521    144.0874    146.8936   1.1316821781e+02   2.4182384238e+01    0.7559332    0.3840716 -66.36  0.002525812    3.470    0.712
        17 -10.3153     27.6401    146.4014   1.4151270763e+02   4.2255056240e+01    0.3522458    0.2203928 -75.91  0.002146095    1.310    0.236
        18  -9.0243     13.6656    142.9699   1.4447839341e+02   4.4247203944e+01    0.1785734    0.1357497 -61.22 0.0005004184    1.383    0.277
        19 -10.8920    187.5441    230.9921   1.1898925385e+02   1.2902349399e+00    0.2829712    0.2166388 -38.47 0.0006801168    1.615    0.381
        20 -10.1679     14.6048    196.9481   1.4818402846e+02   3.2814094471e+01    0.2334199    0.2111769 -13.44  0.001036674    1.963    0.491
        21 -11.8123    136.2318    131.9759   1.1177322056e+02   2.8988166248e+01     1.079878    0.3097672 -51.92  0.003083314    4.013    0.751
        22 -11.4616    135.0736    122.1362   1.0975901484e+02   3.1359249378e+01    0.5423763    0.5009036   8.88  0.002198576    1.239    0.193
        23 -11.1437    134.4280    106.2721   1.0591554230e+02   3.4905644659e+01    0.5287543    0.2990603 -37.77  0.002050338    1.901    0.474
        24  -9.0283      6.1526    229.0427   1.5120682296e+02   2.7643175171e+01    0.1441795    0.0977967  74.09 0.0004488725    1.045    0.043
        25 -10.3506     23.3542    191.5965   1.4620650786e+02   3.3016404414e+01    0.2088176    0.1548383 -78.51 0.0006557447    1.308    0.235
        26 -11.0064    160.4523    128.9070   1.0536144699e+02   2.4377443778e+01    0.4227415    0.4146036  10.17  0.001439453    1.061    0.057
        27 -10.5035    237.5264    126.0050   8.9604875131e+01   7.7442969046e+00    0.2669031    0.2387033 -21.53  0.001544583    1.041    0.040
        28  -9.0291    101.0971    126.8728   1.1958064393e+02   3.6938917416e+01    0.2213969     0.184812  77.10 0.0004523018    1.245    0.197
        29  -9.6589    207.9426    225.0778   1.1444003923e+02  -1.3403317913e+00    0.2486175     0.194772 -27.87  0.001212991    1.481    0.325
        30  -9.1349     40.7612    124.1239   1.3543747627e+02   4.6045140530e+01    0.2077466    0.1611035  55.16  0.001297411    1.359    0.264
        31  -9.5979    142.8490    122.4665   1.0793390365e+02   2.9614934674e+01    0.4122399    0.2602051  70.00  0.001420886    2.247    0.555
        32 -10.1477     17.2505    188.4334   1.4716760716e+02   3.4257916628e+01     0.329744    0.1657259 -77.49  0.001497686    1.669    0.401
        33 -10.1539     90.1365    119.4580   1.2096342161e+02   4.0519843435e+01    0.2787395    0.2419576  63.32 0.0003890107    1.175    0.149
        34 -11.0299    134.5553    112.8117   1.0758076200e+02   3.3480814360e+01    0.6132414    0.2517436 -47.58   0.00215786    2.451    0.592
        35  -9.3162     22.3273    185.7674   1.4600564778e+02   3.4303620682e+01    0.2034405    0.1232577  65.94  0.000434051    1.349    0.259
        36  -8.8471     20.4787    179.9370   1.4596040176e+02   3.5686639239e+01     0.214366    0.1200025 -57.81  0.001054866    2.059    0.514
        37 -12.5427     65.5214    106.9584   1.2535993752e+02   4.7112991795e+01     1.005175    0.6465713 -42.08   0.00463665    1.665    0.399
        38 -10.0088    187.9163    175.7493   1.0959345565e+02   9.6835789289e+00    0.4378549    0.2534577 -58.76  0.001777991    2.639    0.621
        39  -9.1496    240.4773    106.9772   8.4650600810e+01   1.0127843256e+01    0.2049812     0.106323 -52.19 0.0007316538    2.421    0.587
        40  -8.2933    191.5780    133.8124   9.9855942299e+01   1.6415090023e+01    0.1908034    0.1421781 -49.82 0.0003995102    1.449    0.310
        41 -10.6239    174.0421    175.9565   1.1243907636e+02   1.2405326818e+01    0.4143083    0.3454079  52.55  0.002328319    1.167    0.143
        42  -9.7226    113.3470     95.1161   1.0850076756e+02   4.1742972028e+01    0.2460939    0.2080891  31.86 0.0004183117    1.279    0.218
        43 -11.3013    177.5040    171.2691   1.1082719002e+02   1.2551825674e+01    0.7124582    0.4473746 -64.95  0.003087598    2.472    0.595
        44  -9.8710    139.9333     82.3763   9.7754389170e+01   3.8536963278e+01    0.2903401    0.2311717 -29.88 0.0005159247    1.316    0.240
        45 -12.7999    142.8660     63.8252   9.1224596418e+01   4.1252505583e+01     1.370058     1.203792 -58.17  0.005450622    1.218    0.179
        46 -10.8166    230.4456    168.5961   1.0014632915e+02   2.5546034916e+00    0.4445422    0.2013609 -45.63  0.001826175    2.799    0.643
        47 -12.0322    155.5514     40.0663   8.0587195835e+01   4.1764873540e+01    0.5583987    0.5407009 -25.36 0.0008150847    1.078    0.072
        48  -9.3370     26.0361    221.2815   1.4754710247e+02   2.7015671659e+01    0.1938592    0.1214878 -76.18 0.0008023744    1.559    0.359
        49  -8.7627    132.0415     52.6365   9.0100889857e+01   4.5756328409e+01    0.2093072    0.1826336  49.03 0.0003524466    1.126    0.112
        50 -10.0180    246.7805     50.3978   7.0004713514e+01   1.7143861384e+01    0.2387421    0.2223482  49.63 0.0005711109    1.238    0.192
        51 -10.3178    142.0074     28.8635   7.9448873323e+01   4.6717570335e+01    0.2228256    0.2046651  -2.69 0.0002610275    1.144    0.126
        52 -11.6975     37.1987    158.0987   1.4049596904e+02   3.8683616210e+01     0.677893    0.3290481 -76.09  0.003306009    1.788    0.441
        53 -11.5749     48.0971    157.5358   1.3792291676e+02   3.7592861579e+01    0.6345092    0.3849724  62.66  0.003566575    1.594    0.373
        54  -8.9902     31.7190    163.0233   1.4221026402e+02   3.8172011462e+01     0.185835    0.1510576  66.81 0.0004143438    1.165    0.142
