#   1 NUMBER                 Running object number                                     
#   2 MAG_AUTO               Kron-like elliptical aperture magnitude                    [mag]
#   3 X_IMAGE                Object position along x                                    [pixel]
#   4 Y_IMAGE                Object position along y                                    [pixel]
#   5 X_WORLD                Barycenter position along world x axis                     [deg]
#   6 Y_WORLD                Barycenter position along world y axis                     [deg]
#   7 A_WORLD                Profile RMS along major axis (world units)                 [deg]
#   8 B_WORLD                Profile RMS along minor axis (world units)                 [deg]
#   9 THETA_WORLD            Position angle (CCW/world-x)                               [deg]
#  10 FWHM_WORLD             FWHM assuming a gaussian core                              [deg]
#  11 ELONGATION             A_IMAGE/B_IMAGE                                           
#  12 ELLIPTICITY            1 - B_IMAGE/A_IMAGE                                       
         1 -15.4017    228.0436    100.2960   5.3090358255e+01   1.4899535699e+01     4.011462     2.430997 -68.28   0.01032189    2.363    0.577
         2 -14.9085    235.1900     59.7728   4.2950977621e+01   1.9828157491e+01     1.886831     1.035221 -62.66  0.009089487    1.974    0.493
         3 -17.0602    246.3788     64.2219   4.2699730144e+01   1.6883636150e+01     6.741081     4.456753 -38.79   0.02096916    1.362    0.266
         4 -15.2398    248.8065     36.3755   3.6585588260e+01   2.0228045654e+01      3.75746     1.221606 -61.19    0.0121941    5.055    0.802
         5  -9.8115    180.7968      4.8531   3.5665662753e+01   3.8979995190e+01    0.2498347    0.1856432  22.10  0.001018205    1.909    0.476
         6  -8.8791    204.1135      4.1918   3.3337694745e+01   3.3612339682e+01    0.1774616    0.1176212 -70.43 0.0008055115    1.357    0.263
         7  -8.4816    250.6411      3.7891   2.9943642341e+01   2.3701950441e+01    0.1002258    0.0768545  65.86  0.000234295    1.554    0.356
         8  -8.3107    158.7007      2.6483   3.7528561896e+01   4.4473929212e+01      0.13052   0.08653981  41.56 0.0007036861    1.693    0.409
         9 -11.0701    192.4276    194.0439   7.9970175010e+01   4.6372822375e+00    0.8996537     0.443731 -61.91  0.002387989    7.272    0.862
        10  -9.1131     44.9615    192.2656   1.1350008534e+02   2.8947389162e+01     0.171616    0.1482535  69.95 0.0001819984    1.074    0.069
        11  -8.4297    182.5740    190.4884   8.1320847208e+01   7.0211823259e+00    0.1403315    0.1280266   2.22 8.790261e-05    1.018    0.018
        12  -8.7954    203.4674    225.9279   8.3517061392e+01  -2.4629761380e+00    0.1539465    0.1145101 -66.09 0.0008075994    2.477    0.596
        13 -14.4141    168.9839     85.9092   5.9673879786e+01   3.0681030335e+01     3.369328     1.129458  43.20    0.0100082    3.813    0.738
        14 -10.1859    223.2084    219.3236   7.8668225210e+01  -4.4031694325e+00    0.2038987    0.1784804   2.90 0.0002929669    1.148    0.129
        15  -9.0693    191.3735    220.1442   8.4895011408e+01   3.2938743040e-01    0.1591446    0.1225815 -47.84 0.0003360453    1.571    0.363
        16 -10.7542    184.1974    147.4514   7.1959780493e+01   1.5156254696e+01    0.2781719    0.1998589 -77.60  0.001187005    2.211    0.548
        17 -11.4394     68.0976    144.3869   1.0096116295e+02   3.7662387218e+01    0.7274733    0.3914948  49.88  0.003137328    2.062    0.515
        18 -11.5143     44.2821    143.2581   1.0759482960e+02   4.0950444055e+01    0.3765672    0.3042322  17.97 0.0009238808    1.504    0.335
        19 -13.7066     55.6031    139.2234   1.0367483739e+02   4.0620073499e+01     1.933224     1.284023   2.57  0.006092304    2.264    0.558
        20 -12.1035    188.8617    137.8710   6.8794098390e+01   1.6112832261e+01    0.5795335     0.403523 -69.44  0.002517907    2.073    0.518
        21 -11.8314    191.5712    132.5448   6.7001283994e+01   1.6599136332e+01    0.4933129    0.3213171  66.90  0.002103344    2.149    0.535
        22 -10.3195    158.4951    143.0223   7.6623642647e+01   2.1413375597e+01    0.2526901    0.2096329  41.88 0.0008650635    1.223    0.183
        23 -13.8960    249.2472     43.6841   3.8062837087e+01   1.9181477147e+01    0.4793083    0.3873529 -62.96  0.001478573    1.013    0.013
        24 -10.2487    231.9749    216.9099   7.6653790893e+01  -5.3097919048e+00    0.2095979    0.1657154  14.58 0.0003550667    1.134    0.118
        25 -10.2704    136.1232    129.4787   7.8850920389e+01   2.9127546972e+01    0.4889586   0.09963733 -46.01   0.00117809    4.813    0.792
        26 -11.0685    219.0589    128.3530   6.0944738196e+01   1.1772390996e+01    0.2939689    0.1934354 -44.88 0.0009211961    1.415    0.293
        27 -11.8002    209.1218    127.4543   6.2483599550e+01   1.3933303449e+01    0.4510249     0.320898 -89.88  0.002013211    2.268    0.559
        28 -11.1704    160.9362    128.2243   7.2518437173e+01   2.4074625625e+01    0.4076688    0.3166818 -66.15  0.001899005    1.507    0.336
        29 -12.4790    184.7410    124.5073   6.6452152348e+01   1.9646924824e+01    0.5540018    0.5042525  -7.33  0.002958164    1.173    0.147
        30 -10.5871    191.8180    144.0231   6.9612496980e+01   1.4287452471e+01    0.2459517    0.2183134  36.03 0.0004577696    1.173    0.147
        31 -11.0558    218.0589    122.4554   5.9769066267e+01   1.3038407621e+01    0.2689478    0.1918108 -23.69 0.0006006891    1.500    0.333
        32  -9.9990    196.6761    126.1197   6.4482958845e+01   1.6773608765e+01    0.2449681     0.177926 -55.44  0.001168635    1.478    0.324
        33 -10.3323    135.2650    120.1930   7.6745673980e+01   3.1396694488e+01    0.3756589    0.1839448 -48.64  0.001236864    2.044    0.511
        34 -11.5614    222.4991    172.7105   6.9921535981e+01   3.2174611368e+00    0.3247949    0.2816221  50.17 0.0008014168    1.421    0.296
        35 -10.8039    167.3395    115.4741   6.7876271181e+01   2.5318983707e+01    0.2936959    0.2532839 -35.32   0.00105034    1.148    0.129
        36 -11.0699    211.0929    110.3215   5.8116674384e+01   1.6670936470e+01    0.2927457    0.1949328 -47.00 0.0006597595    1.410    0.291
        37 -12.6320    205.2771    110.0920   5.9063909353e+01   1.7953322998e+01    0.7437718    0.5220414   9.13  0.003268424    2.260    0.558
        38 -11.9166    192.2122    110.5741   6.1560706861e+01   2.0716402519e+01    0.5295631    0.2892537 -30.30  0.001425373    2.044    0.511
        39 -12.4420    189.5029    108.4721   6.1552414881e+01   2.1717837243e+01    0.7506942    0.4944544 -56.18  0.002197675    1.664    0.399
        40 -12.8318    125.6035    104.6961   7.5174897734e+01   3.6884772724e+01    0.8042387    0.5763953 -62.01  0.003586277    1.622    0.384
        41  -9.4309     78.9812    107.2750   8.9717828647e+01   4.5169673854e+01    0.1959413     0.189316 -19.93 0.0002084592    1.059    0.056
        42 -11.6816    135.3357    109.6906   7.3972259974e+01   3.3690265306e+01      0.78849    0.2612146 -42.63  0.002432329    3.010    0.668
        43  -9.4972    146.9747    106.0097   7.0076166490e+01   3.1878963240e+01    0.2379494    0.2353964  -1.77  0.000524866    1.031    0.030
        44 -12.3655    134.0238    101.9739   7.2201609073e+01   3.5628776293e+01     1.113509    0.4647785 -53.08    0.0033303    2.997    0.666
        45  -8.3697    174.3068    103.6240   6.3328376912e+01   2.6096789155e+01    0.1626762    0.1178448 -71.82  0.000702932    1.775    0.437
        46 -11.1669    156.3092    102.3450   6.6892278935e+01   3.0497938855e+01    0.4605536    0.3031878  35.76  0.001980534    1.733    0.423
        47 -11.7343    170.5918     97.4127   6.2457194218e+01   2.8153520365e+01    0.7006781    0.3940766  39.38  0.002815577    2.074    0.518
        48 -11.3810    140.4531     96.3566   6.9003350215e+01   3.5346249661e+01    0.4196205    0.3829194 -15.01 0.0007451455    1.171    0.146
        49 -12.1580    230.0906    166.8203   6.7357446059e+01   2.9382993458e+00     0.518595    0.2743516 -48.13  0.002229911    2.114    0.527
        50 -10.2509    178.1972     94.4641   6.0141823407e+01   2.6937651935e+01    0.2718827     0.246483 -46.43 0.0003210676    1.064    0.060
        51 -12.5069    112.9620    104.2086   7.8549426617e+01   3.9639515858e+01    0.7730343    0.4728312 -58.86  0.003177379    1.907    0.476
        52 -10.1373     96.4938     88.0069   7.8816943196e+01   4.6425544183e+01    0.2576835    0.2130006  35.31 0.0001318919    1.238    0.192
        53 -10.1829    151.0035     71.3883   5.9294809798e+01   3.7563729449e+01    0.2989864    0.2133792 -39.22 0.0005194088    1.411    0.292
        54 -10.4813    168.2482     67.9852   5.4827868727e+01   3.3963671289e+01    0.2786687    0.1775706 -40.50 0.0004896331    1.552    0.356
        55  -9.5686    126.1715     68.1281   6.4130599456e+01   4.3986916396e+01    0.2194788    0.1974312  10.93 0.0003242796    1.184    0.156
        56 -10.8591    182.0100     63.1884   5.1068686214e+01   3.1403478080e+01    0.6110011    0.1968533 -36.32  0.001589445    2.974    0.664
        57 -10.1907    158.1923     65.2576   5.5995146205e+01   3.6851850432e+01    0.2912452    0.2254609  -3.93  0.001156116    1.693    0.409
        58  -9.1666    143.6578     64.7311   5.8900655728e+01   4.0452294835e+01    0.1506684    0.1125294  26.98 0.0002161566    1.607    0.378
        59  -9.5411    110.5827     60.3256   6.5730515933e+01   4.8827272023e+01    0.2558304    0.1379476 -40.27 0.0006562537    1.897    0.473
        60 -11.0479    169.8221     58.7101   5.1921474399e+01   3.5051797145e+01    0.3593117    0.1990938 -34.00  0.001575073    1.857    0.462
        61 -11.0714    157.8505     56.3896   5.3455549065e+01   3.8332221140e+01    0.3337198    0.2439232  -8.53   0.00122808    1.816    0.449
        62 -11.3889    164.3783     53.6816   5.1454684786e+01   3.7140118270e+01    0.3431614    0.2913258  25.40  0.001850541    1.398    0.285
        63 -12.0188    158.4548     42.9540   4.9364676429e+01   4.0112632286e+01    0.5566046    0.3217622  -8.05  0.002191985    2.930    0.659
        64 -11.1079    140.2675     44.7664   5.3383672353e+01   4.4311653096e+01    0.2552016    0.1827624 -37.54  0.001296394    1.460    0.315
        65 -11.1299    186.4529     42.4261   4.4828753207e+01   3.3346827011e+01    0.3245189    0.2723603  27.79 0.0006674537    1.518    0.341
        66 -11.8393    132.7871     39.1091   5.3114683694e+01   4.6879098933e+01    0.5631514    0.2579266 -24.65  0.002252189    2.610    0.617
        67  -9.6394    182.7426     37.4201   4.4012295713e+01   3.4899837242e+01    0.2248389    0.1774703 -39.40 0.0004475852    1.303    0.233
        68 -10.9174    191.8076     35.3591   4.2270705322e+01   3.2985697494e+01    0.4291389    0.2436595  49.07 0.0007883941    1.979    0.495
        69 -10.3953    158.1491     35.8689   4.7314756523e+01   4.1111903086e+01    0.1900766    0.1593952  38.07  0.000357595    1.309    0.236
        70  -9.3525    211.0963    163.0196   7.0020314396e+01   6.9514702547e+00    0.2081054    0.1884031 -15.48 0.0003635911    1.007    0.007
        71  -9.8772    170.2992     31.5366   4.4165901606e+01   3.8664444791e+01    0.2154024    0.1681215  10.22  0.000925313    1.740    0.425
        72 -11.8450    142.6977     30.8923   4.8494043132e+01   4.5508105931e+01    0.5169721    0.2319478  71.07  0.002023579    2.527    0.604
        73 -11.0499    125.7473     30.2535   5.1637741500e+01   4.9665979354e+01    0.2575898    0.2407272  40.28 0.0006712009    1.049    0.047
        74 -10.7356    124.1425     26.3449   5.0634623260e+01   5.0498848984e+01    0.2443795    0.2228487  -4.37 0.0005414999    1.193    0.162
        75 -10.2809    179.5884     24.3078   4.0918803522e+01   3.7253424628e+01     0.407022     0.288269  79.31  0.002258247    1.306    0.234
        76 -12.2648     16.4070    156.0612   1.1677089866e+02   4.0505650660e+01    0.6207108     0.463233   9.93  0.003760489    1.814    0.449
        77  -9.4793     44.2174     19.0005   7.2361646664e+01   6.7323389792e+01    0.1913414    0.1389728   0.98  0.000407599    1.235    0.191
        78 -10.3344     44.6853     15.7152   7.0593395920e+01   6.7675327421e+01    0.2570002    0.1572255  -3.58 0.0004157017    1.760    0.432
        79 -12.2794     15.5059    150.5667   1.1644094193e+02   4.1915237956e+01    0.6569369    0.4537202   9.43  0.003800216    1.983    0.496
        80  -9.0915    192.7827    215.3972   8.3795695252e+01   8.8523412622e-01    0.1783224    0.1130666  25.81 0.0003557408    1.506    0.336
        81 -12.2400    199.5215    162.9933   7.2256612450e+01   9.1062905407e+00    0.7381594    0.4167003 -64.56  0.002505128    3.927    0.745
        82 -10.9382    134.1668    148.4458   8.3770754441e+01   2.5189102049e+01    0.7371484     0.277062 -55.78  0.002274935    3.261    0.693
        83  -8.7180    193.3025    210.7058   8.2865012386e+01   1.5858226218e+00    0.1199143    0.1065671  67.80  0.000250727    1.575    0.365
        84 -10.0592    160.4166    205.2187   8.8744211529e+01   8.1384922157e+00    0.2400341    0.2191721  29.41 0.0003253238    1.033    0.032
        85  -8.4704     46.5701    176.5020   1.1139576083e+02   3.2484122537e+01    0.1332083    0.1148231 -89.27 0.0001940476    1.025    0.025
