#   1 NUMBER                 Running object number                                     
#   2 MAG_AUTO               Kron-like elliptical aperture magnitude                    [mag]
#   3 X_IMAGE                Object position along x                                    [pixel]
#   4 Y_IMAGE                Object position along y                                    [pixel]
#   5 X_WORLD                Barycenter position along world x axis                     [deg]
#   6 Y_WORLD                Barycenter position along world y axis                     [deg]
#   7 A_WORLD                Profile RMS along major axis (world units)                 [deg]
#   8 B_WORLD                Profile RMS along minor axis (world units)                 [deg]
#   9 THETA_WORLD            Position angle (CCW/world-x)                               [deg]
#  10 FWHM_WORLD             FWHM assuming a gaussian core                              [deg]
#  11 ELONGATION             A_IMAGE/B_IMAGE                                           
#  12 ELLIPTICITY            1 - B_IMAGE/A_IMAGE                                       
         1 -10.2347    202.9277     26.2114   5.9020185610e+01   3.1961881515e+01    0.7804781     0.593419  13.10   0.00437093    2.402    0.584
         2 -10.9987    228.0586     33.5605   5.7911793786e+01   2.5628527079e+01      0.71915    0.3297439 -58.79  0.003566669    2.101    0.524
         3  -9.3932    222.7418      5.4606   5.2964287882e+01   3.0064308704e+01    0.4542281    0.2845448 -86.67   0.00240973    1.308    0.236
         4 -10.9885    224.9283     22.8124   5.6103869189e+01   2.7633284007e+01    0.4637624    0.4279268 -57.94  0.003058503    1.374    0.272
         5  -9.8805    240.2137      2.3063   5.1082715479e+01   2.6867547451e+01     0.293011    0.1472737 -86.19  0.001091221    1.752    0.429
         6 -10.4250    250.1493     18.5576   5.3209176665e+01   2.3055360633e+01    0.5166358    0.2077785 -34.57  0.002531412    3.039    0.671
         7  -9.6414    231.7020      2.4820   5.1723837646e+01   2.8548547277e+01    0.4197355    0.1759747 -87.04   0.00170315    2.478    0.596
         8 -10.7850    249.1586      5.2648   5.0979974758e+01   2.4796385111e+01    0.5874256    0.2331939 -42.53  0.003277675    2.276    0.561
         9 -10.6280    245.9508     13.1102   5.2566023892e+01   2.4522651252e+01    0.5881204    0.1864354  67.71  0.002851842    2.811    0.644
        10 -11.0467    235.2650      9.3840   5.2705738877e+01   2.7073896811e+01    0.7542692    0.4688216  47.42  0.003717754    2.557    0.609
        11  -9.8036    234.3559     19.6619   5.4670733269e+01   2.6064368609e+01    0.2633793    0.2351112  68.22   0.00193429    1.469    0.319
        12 -10.6343    244.1593     21.6680   5.4230609282e+01   2.3850596489e+01    0.3547068    0.2769762 -66.71  0.002201125    1.131    0.116
        13 -10.9561    239.1126     17.3810   5.3858321144e+01   2.5375057886e+01    0.5639813    0.3139863 -64.48  0.003408756    1.533    0.348
        14 -10.8854    220.9389     15.0397   5.4951687180e+01   2.9383746975e+01    0.6398312    0.4404591  89.32  0.004189965    1.190    0.160
        15 -10.6137    212.9955      8.4463   5.4363374097e+01   3.1791165415e+01    0.3899699    0.3465288 -69.81  0.002690463    1.262    0.208
        16  -9.8114    199.1481      8.3064   5.5621153739e+01   3.4787913000e+01    0.4708967     0.345263   7.00   0.00277751    2.548    0.608
        17  -9.6621    199.7655     15.1319   5.6996185683e+01   3.3928135677e+01    0.2637921    0.1894949 -85.94 0.0008086523    1.178    0.151
        18  -9.4037    201.6176     11.7747   5.6103247546e+01   3.3885597851e+01    0.1981556    0.1616424 -57.41 0.0008819709    1.263    0.208
        19  -9.6415     67.9700     11.1354   7.9773130638e+01   6.2450691320e+01     0.237247    0.1834556  -2.50  0.001646347    1.286    0.223
        20  -9.4064    187.3067      9.8118   5.7158990522e+01   3.7240404582e+01    0.3507174    0.1771108 -58.14  0.001836105    2.093    0.522
        21  -9.2964    112.6165     10.8229   6.8519565439e+01   5.3754984428e+01    0.1592111    0.1080555 -39.45 0.0009551868    1.771    0.435
        22 -10.0891    155.3683      9.4035   6.0961124589e+01   4.4449658407e+01    0.2876942    0.2058925 -40.60   0.00145945    1.587    0.370
        23  -9.2063    206.7003      6.6564   5.4570807202e+01   3.3324421045e+01    0.2330168    0.1325185 -50.26  0.001394195    1.683    0.406
        24  -8.8917    103.3372      7.6935   6.9449327463e+01   5.5958819377e+01    0.1131162   0.08933201 -83.24 0.0007041336    1.676    0.403
        25  -9.3512    171.4855      5.5255   5.7962649197e+01   4.1185067094e+01    0.2078662    0.1189002 -31.02 0.0009711059    2.077    0.519
        26  -9.0740    116.5366      6.4953   6.6416367077e+01   5.3280055372e+01    0.1204482    0.1000413  56.98 0.0008093899    1.026    0.025
        27  -8.2815    165.0000      2.8880   5.8107891068e+01   4.2873662444e+01     0.282444   0.06900255 -27.06  0.001054689    4.965    0.799
        28  -8.9397    194.7811      1.9206   5.4704503707e+01   3.6376056940e+01    0.2383079     0.119624 -79.25  0.001225965    2.120    0.528
        29  -8.8185    190.1093      2.1269   5.5199812425e+01   3.7376329940e+01    0.1736504    0.1369359  68.18 0.0006189284    1.237    0.192
        30  -9.6378     63.9797      1.9548   7.7403330422e+01   6.3923144819e+01     0.175718    0.1377461  29.54  0.001112068    1.022    0.021
        31  -9.7960    186.7098    213.1913   1.0313256964e+02   7.0133356021e-01    0.3597051    0.1895024 -51.77  0.001558632    2.137    0.532
        32  -9.3748    132.5085    213.8961   1.1521524461e+02   1.0161546809e+01    0.2112366    0.1429094 -55.32 0.0007756445    1.544    0.352
        33  -8.4892    212.2930    219.6517   9.9123185457e+01  -4.7202273152e+00    0.1226572    0.1087022 -83.11  0.000703004    1.670    0.401
        34  -9.3035    206.6565    208.3301   9.8125818008e+01  -1.7485563895e+00    0.2036072    0.1728812  86.36  0.001108686    1.759    0.432
        35  -8.7151     86.3265    208.6535   1.2508684300e+02   1.9138799372e+01    0.1531517    0.0999577  72.01 0.0007050052    1.749    0.428
        36  -9.5144    235.4916    203.7958   9.1747426086e+01  -5.5028393635e+00    0.2230189    0.2090594 -79.10 0.0008575226    1.490    0.329
        37  -8.8086    187.9925    203.9443   1.0112258334e+02   2.3010420558e+00    0.2206597    0.1806976  84.20  0.001125725    1.755    0.430
        38  -9.1435    249.8370    201.3331   8.8736843507e+01  -7.1825691366e+00    0.2130347    0.1534065 -42.25  0.000744954    1.341    0.254
        39  -8.6244    193.3423    202.6603   9.9756321933e+01   1.6144147695e+00    0.1403365    0.1153188  85.32 0.0007049135    1.773    0.436
        40  -8.5848    160.3792    202.2537   1.0681970667e+02   7.6546966673e+00    0.1950265    0.1400286 -59.71 0.0004310159    1.558    0.358
        41  -8.5280    218.3176    201.6599   9.4556898947e+01  -2.4244575214e+00    0.1293686    0.1104886 -80.25 0.0004629995    1.709    0.415
        42  -9.2495     16.1180    201.3069   1.3998963931e+02   2.9907297962e+01    0.1709257    0.1395936  75.32 0.0006572185    1.113    0.102
        43  -9.3099    241.2158    199.9288   8.9980433870e+01  -5.6858195128e+00     0.266183    0.2151293  24.87  0.001632803    1.320    0.242
        44 -10.1238    229.3828    199.4370   9.2035174693e+01  -3.7883409022e+00     0.308833    0.2286106  -5.91 0.0008795572    1.461    0.316
        45  -8.7156    203.4866    197.5078   9.6675766778e+01   8.5741267310e-01    0.1420543    0.1285445 -13.71 1.830591e-05    1.027    0.026
        46  -8.8498     64.8509    202.8029   1.2928350934e+02   2.3724284729e+01    0.1984494    0.1469681  76.47 0.0009762241    1.316    0.240
        47 -10.3376    247.8042    193.8722   8.7669429631e+01  -5.6082357979e+00    0.3382058    0.2972403  64.31  0.001578924    1.630    0.386
        48  -9.4908    231.2781    194.3770   9.0705250283e+01  -3.1709844883e+00    0.2303517    0.2092814  40.93 0.0007983951    1.311    0.237
        49 -11.0635    237.8650    190.6352   8.8785676874e+01  -3.5287534692e+00    0.6663141    0.2891671 -46.23  0.002867694    2.220    0.550
        50  -8.8029    193.9853    188.4553   9.6825137677e+01   4.3580737510e+00    0.2161465     0.142015  41.53   0.00102156    1.582    0.368
        51 -10.0836    249.5987    184.6483   8.5587454363e+01  -4.2590133371e+00    0.3936306    0.2062253 -46.44   0.00191802    1.796    0.443
        52  -8.7268    218.3701    184.2091   9.1107395487e+01   8.6735289738e-01    0.2039697    0.1224177 -50.65 0.0009445642    1.738    0.425
        53  -8.6603    203.6691    184.3257   9.4009769109e+01   3.4364484760e+00    0.1413148    0.1160362 -85.36 0.0007050852    1.707    0.414
        54  -8.8869    105.6008    184.3699   1.1656732434e+02   2.1829043994e+01    0.3036255    0.1100614  49.24 0.0009566293    3.231    0.691
        55 -10.4139    242.2650    180.3640   8.6002009113e+01  -2.3595687925e+00    0.5169153    0.2605257 -42.49  0.002074644    1.734    0.423
        56  -9.7334    245.6682    178.3338   8.5020681951e+01  -2.5267180393e+00     0.185873    0.1722411  83.57  0.001167857    1.431    0.301
        57  -9.1432    236.1548    180.5651   8.7109643232e+01  -1.4182723315e+00    0.2766667    0.1632059 -53.89  0.001095009    1.948    0.487
        58 -10.6500    227.4018    179.5460   8.8481941054e+01   2.2088172763e-01    0.4482045    0.3277299  59.08  0.001888842    1.843    0.457
        59  -9.9505    157.5257    179.0292   1.0292375558e+02   1.3350494822e+01    0.3594129    0.2534504 -30.88   0.00114435    1.623    0.384
        60  -9.7656    225.0497    184.8557   8.9979387353e+01  -3.8999008951e-01    0.3357943    0.1932196 -45.71  0.001256715    1.642    0.391
        61  -8.2653     64.3450    179.3117   1.2613691429e+02   2.9583738296e+01    0.1423388    0.1068993 -33.40 0.0007046108    1.707    0.414
        62  -9.8187    219.3037    178.5497   8.9786436074e+01   1.8019931196e+00    0.3930492    0.1724108  49.99    0.0015159    2.903    0.656
        63 -10.5102    233.6857    174.6440   8.6364358721e+01   9.2251790662e-02    0.3898264    0.2507164 -47.03  0.001664481    1.460    0.315
        64  -9.9253    225.2520    172.0926   8.7365345829e+01   2.0167329710e+00    0.4739557    0.2914659 -52.09  0.002263421    1.689    0.408
        65 -10.5326    212.5107    169.4950   8.9216661102e+01   4.8070433667e+00    0.4941376    0.2317261 -42.68  0.001981149    1.954    0.488
        66  -9.1188    237.5001    169.9754   8.4757845508e+01   3.3194217901e-01     0.213133    0.1195995 -42.70 0.0007900427    1.557    0.358
        67  -8.7475    170.0000    168.9867   9.7969947138e+01   1.3142842795e+01    0.2585908   0.08551382 -47.01 0.0008016711    2.937    0.660
        68  -9.7706    147.3784    167.8544   1.0298990594e+02   1.7943054350e+01    0.2832205     0.253022  53.35 0.0004612347    1.147    0.128
        69  -8.8570    249.2546    167.4065   8.2269621121e+01  -1.1108022949e+00    0.1626705    0.1292321  60.31 0.0007339245    1.664    0.399
        70  -9.0519     10.4984    167.5138   1.3797288815e+02   3.8484078222e+01    0.1285252     0.102107 -78.34 0.0008104935    1.014    0.014
        71  -9.8836    193.1347    165.7074   9.2276117007e+01   9.2652017895e+00    0.3241318    0.2490419 -54.43  0.001069047    1.326    0.246
        72  -9.3100    234.1233    164.3952   8.4213308340e+01   1.9567990762e+00    0.3050277    0.2041977 -59.53  0.001373431    1.772    0.436
        73  -9.2897    240.4950    163.0766   8.2856811534e+01   1.1222675323e+00    0.2156907    0.1184571 -40.87  0.000783346    1.571    0.364
        74  -8.7219    250.5064    158.4827   8.0298765462e+01   3.1535737875e-01     0.247806    0.1124674 -44.81 0.0008216127    1.881    0.468
        75 -10.9337    246.8995    158.1427   8.0808817182e+01   9.7042149776e-01    0.5230431    0.3953545 -23.40  0.002961047    1.377    0.274
        76  -8.4507     52.0098    159.5029   1.2628596805e+02   3.6197881264e+01    0.1986977    0.1020064  55.99 0.0008095892    2.460    0.593
        77  -9.5456    226.4067    157.0632   8.4055926346e+01   4.7315400081e+00    0.3363792    0.2394203 -19.13  0.001428909    1.692    0.409
        78  -9.5659    234.8824    147.8310   8.0680548654e+01   4.9843810717e+00    0.2512523    0.2317133 -38.74  0.001512376    1.068    0.063
        79  -9.0488    233.0264    152.5453   8.1968574422e+01   4.4142903797e+00    0.3631162    0.1886179 -38.83  0.001348462    1.741    0.426
        80  -9.3566    229.1836    152.1945   8.2554865428e+01   5.1744435210e+00    0.3021067    0.2471051 -72.45  0.001026045    1.448    0.309
        81  -8.6869    217.9913    158.0000   8.5773085703e+01   6.0928286347e+00    0.2215024   0.08347365  45.31 0.0008024448    2.942    0.660
        82  -8.4968     41.4701    157.5491   1.2880909364e+02   3.7932639103e+01    0.1383603    0.1185106 -67.11 5.854483e-05    1.045    0.043
        83 -10.1036    249.9096    151.2139   7.8943718215e+01   1.7462659820e+00    0.6133144    0.2291487 -47.08  0.002459598    2.383    0.580
        84  -9.8350    250.2147    140.1634   7.6682017164e+01   3.7249665356e+00    0.3681261    0.2520039  36.60  0.001595108    1.861    0.463
        85  -9.9991    242.8648    153.1552   8.0457671363e+01   2.5770696099e+00     0.317185    0.2802525 -61.51  0.001227291    1.205    0.170
        86 -11.0174    244.1508    148.6145   7.9329818920e+01   3.2043962979e+00    0.6929685    0.3584124 -44.12   0.00217181    1.647    0.393
        87 -10.2140    249.2114    135.1309   7.5820175352e+01   4.8223797061e+00    0.4214481    0.2317862 -51.48  0.001185273    1.663    0.399
        88 -10.3822    248.7953    130.5919   7.4966184656e+01   5.7274360629e+00    0.3781994    0.2629868 -78.62  0.001713125    1.953    0.488
        89  -9.5246    221.7637    152.9354   8.4017743618e+01   6.3949483956e+00    0.3378057     0.225088 -54.92  0.001199357    1.536    0.349
        90  -9.0054    118.5225    153.0564   1.0705630771e+02   2.7189221075e+01    0.2448291    0.1513162 -54.18  0.001025693    1.580    0.367
        91  -9.9780    197.1149    149.7501   8.7996163066e+01   1.1841477392e+01    0.3488181    0.2003744 -57.02  0.001128452    1.970    0.492
        92  -9.5589    229.8295    147.7366   8.1512900718e+01   5.9199384692e+00    0.2841195    0.1858709 -48.37 0.0009260555    1.381    0.276
        93 -10.8634    222.6752    146.4305   8.2477764077e+01   7.5071261566e+00    0.7172599     0.325397  42.02   0.00291062    2.575    0.612
        94  -9.5494    206.5137    147.1760   8.5598655840e+01   1.0491839215e+01    0.2802901     0.197531   1.46  0.001106362    2.312    0.568
        95  -9.0803    111.8985    147.1597   1.0752106962e+02   2.9891735045e+01    0.2407212    0.2128713  86.45 0.0009973464    1.221    0.181
        96  -8.6802     16.9727    146.9677   1.3387045300e+02   4.2939330405e+01    0.1611586    0.1288594 -70.36 0.0007063142    1.016    0.016
        97 -10.4659    230.6020    141.0020   7.9970775606e+01   7.0777259767e+00    0.4168683    0.2848477 -49.56  0.001121593    1.319    0.242
        98 -10.7419    225.4762    138.3311   8.0270173827e+01   8.5612242565e+00    0.4862974    0.2731672 -37.35  0.002207176    1.704    0.413
        99  -8.2656     88.5226    143.4852   1.1316529795e+02   3.4948726484e+01    0.1516252    0.1419554 -66.35 0.0003933158    1.020    0.019
       100  -8.3022    182.3000    150.3380   9.1181131583e+01   1.4751105427e+01    0.1553473    0.1214152  -9.83 0.0005690847    1.663    0.399
       101  -9.0291      8.8635    141.0490   1.3527314685e+02   4.5004948924e+01     0.219202    0.1250451  79.86  0.001086046    2.117    0.528
       102  -9.4348    219.4446    138.9661   8.1448800501e+01   9.5997770251e+00    0.2933901    0.2220211  89.83   0.00098518    1.762    0.433
       103  -9.7556    216.0194    135.2667   8.1251173750e+01   1.1005871682e+01    0.2529078    0.1865632 -59.41 0.0006401011    1.376    0.273
       104  -9.8396    209.5213    137.9815   8.3018451605e+01   1.1761910589e+01    0.2219937    0.2052644  59.47  0.001246381    1.178    0.151
       105 -10.7917    241.7032    133.5403   7.6636161487e+01   6.4531226908e+00    0.5619572    0.4149767 -42.30  0.002302922    1.177    0.151
       106 -10.7175    233.8670    133.2804   7.7816083151e+01   7.9457807352e+00     0.703227    0.2118977 -40.71  0.002399171    3.033    0.670
       107  -9.0659    164.7078    136.0297   9.1747485127e+01   2.1629527535e+01    0.2276515    0.2019822 -49.59  0.001006033    1.087    0.080
       108  -8.8894     52.8141    135.8158   1.2193558551e+02   4.2023847780e+01    0.1879898    0.1592864  85.44 0.0005109631    1.289    0.224
       109  -9.5563    169.9016    134.3132   9.0182054700e+01   2.0882681788e+01    0.2806944    0.2206585 -36.60 0.0005874663    1.301    0.231
       110  -9.4999     86.6133    129.7914   1.1069530381e+02   3.8623572672e+01    0.3679198    0.2324756 -85.68  0.001392835    2.729    0.634
       111 -10.1610    229.1551    126.1367   7.7066417812e+01   1.0201978042e+01    0.5191457    0.2753671 -47.69   0.00236175    1.670    0.401
       112  -9.0584    221.2972    129.2804   7.9037705702e+01   1.1135664264e+01    0.2287297     0.205563  72.14 0.0006899444    1.220    0.181
       113  -8.7603     61.5777    129.5058   1.1807140773e+02   4.2447439233e+01    0.1442499    0.1278663 -53.43 7.698721e-05    1.015    0.015
       114  -9.5216    193.1103    127.6894   8.3809915980e+01   1.7274927829e+01    0.2722574    0.2000279 -56.86 0.0009848166    1.352    0.260
       115  -8.8465     68.8314    128.1917   1.1561164410e+02   4.1761008058e+01    0.2024444    0.1617743 -32.88 0.0005662326    1.303    0.232
       116 -10.0442    206.3127    126.6102   8.1078380168e+01   1.4705823796e+01     0.284137    0.2522068 -50.11 0.0006507629    1.038    0.037
       117 -10.2536    212.1321    124.2872   7.9522195585e+01   1.3962119863e+01    0.4687134    0.3996489 -19.77  0.002493731    1.384    0.278
       118 -10.7019    241.3747    124.3881   7.4803125112e+01   8.2133383802e+00    0.4052968    0.3348411 -69.43  0.002115992    1.229    0.186
       119  -8.8589    244.1104    119.4763   7.3391948400e+01   8.6080137662e+00    0.3073587    0.1794865 -63.16  0.001435559    1.994    0.499
       120  -9.4492    189.0513    123.2710   8.3580843084e+01   1.9058395279e+01     0.409188    0.2128402 -38.14  0.001631783    1.971    0.493
       121  -9.3204    161.5818    124.0974   8.9588703876e+01   2.4925436940e+01    0.2451545    0.2156651  79.19 0.0005237276    1.221    0.181
       122  -9.3169    221.6473    121.1831   7.7224792661e+01   1.2629582202e+01    0.2842239    0.2069305  64.02   0.00132956    1.552    0.356
       123  -9.4051    196.9341    121.5092   8.1653781740e+01   1.7713432011e+01     0.371076     0.124883  40.14  0.001032962    4.714    0.788
       124  -8.3932    124.7814    119.9737   9.7593124532e+01   3.3771511521e+01     0.201397    0.1246111 -46.59 0.0003088977    1.581    0.367
       125 -10.4404    230.4865    116.1213   7.4729111540e+01   1.1828489745e+01    0.4762669    0.3345972  57.65  0.002080175    1.592    0.372
       126  -9.8564    235.4922    115.9959   7.3941874632e+01   1.0876304475e+01    0.4964728    0.1948502 -49.11  0.001965708    2.320    0.569
       127 -10.1787    217.4847    115.4879   7.6667671307e+01   1.4565166888e+01    0.4577355    0.2207757  51.71  0.001939872    2.266    0.559
       128 -10.9099    213.2748    115.1781   7.7302655443e+01   1.5496525555e+01    0.6011906    0.3798873  21.41  0.002295271    3.352    0.702
       129 -10.6018    240.1347     66.9488   6.3250522369e+01   1.8353931930e+01    0.7353462    0.4124938 -70.20  0.003679533    1.942    0.485
       130 -10.1687    226.0959     86.0051   6.8956937919e+01   1.8122324322e+01    0.4431341    0.3961411  -9.79  0.002636051    1.561    0.359
       131 -10.0762    231.8923     83.2150   6.7584791836e+01   1.7397476081e+01    0.5605692    0.2769556 -55.26  0.002430391    1.941    0.485
       132 -10.6512    236.6086     99.5691   7.0352424582e+01   1.3626237596e+01    0.7373939    0.4316553 -51.64  0.003714897    1.497    0.332
       133 -10.4309    237.2106     89.7165   6.8231343322e+01   1.5219349169e+01    0.4204157    0.3487346 -77.86  0.001651807    1.127    0.112
       134 -10.2949    241.8205    104.8702   7.0724615134e+01   1.1671470621e+01    0.5113255    0.2470136 -45.22  0.002369061    1.766    0.434
       135  -9.7602    238.1406     84.1756   6.6972678873e+01   1.5970758067e+01    0.4012308    0.2063073 -56.30  0.001221779    1.840    0.457
       136 -12.1359    247.6601    107.8287   7.0527877848e+01   1.0041071608e+01     1.414409    0.5125604 -37.38  0.005375096    2.885    0.653
       137 -10.0284    245.1289     97.7182   6.8822981863e+01   1.2291349983e+01    0.3854284    0.1849453 -47.21  0.001609579    1.761    0.432
       138 -10.4079    243.2325     92.6995   6.8054041749e+01   1.3521999241e+01    0.3840875    0.3027889 -69.48   0.00146685    1.151    0.131
       139 -11.9596    245.4934     81.0351   6.5428570651e+01   1.5036634469e+01      1.23354    0.6257346 -61.60  0.005801245    2.072    0.517
       140 -10.5337    235.4833     74.3179   6.5289635195e+01   1.8128507962e+01    0.7463596    0.2143005 -46.06  0.002810194    2.949    0.661
       141  -8.6935    203.6273    115.7180   7.9099941897e+01   1.7429134841e+01    0.2076046    0.1266571 -51.66 0.0006042554    1.560    0.359
       142  -9.1531    183.0777    116.0951   8.3071597614e+01   2.1836014533e+01    0.2988166    0.2255572  47.00  0.001454237    1.406    0.289
       143  -8.8341     52.2966    113.0791   1.1740065326e+02   4.7554313358e+01    0.2004598    0.1625567 -53.13 0.0006148173    1.107    0.097
       144 -10.1911    104.4463    111.7002   1.0107016963e+02   3.9667823704e+01    0.2755952     0.250439  -1.51 0.0004786263    1.177    0.150
       145  -9.5467    183.3151    108.6995   8.1251649432e+01   2.3267097725e+01    0.3274705    0.1289832 -45.37  0.001160393    2.428    0.588
       146  -9.8054    236.1826    107.7909   7.2125090982e+01   1.2240538097e+01    0.3184858    0.2173125  62.60  0.001701706    1.642    0.391
       147 -10.4608    214.7891    107.3307   7.5308239915e+01   1.6668829097e+01    0.4576437    0.2843015  75.02  0.002061231    2.093    0.522
       148  -8.7298     73.9880    108.2746   1.0935986872e+02   4.5677621852e+01    0.1770773    0.1273836  32.53 0.0008841887    1.481    0.325
       149  -9.6814     15.2555    111.8595   1.2898113662e+02   5.1438716425e+01    0.1815789    0.1716179  55.51 0.0005021347    1.287    0.223
       150  -8.7513    196.0369    103.2775   7.7583942285e+01   2.1485499127e+01    0.2033187    0.1818433  76.23 0.0005343435    1.129    0.114
       151 -10.5240    222.2031    100.7787   7.2702909965e+01   1.6328275791e+01     0.393811    0.2371692  82.48   0.00172401    2.367    0.578
       152  -9.0038    160.5507     99.4970   8.3650341639e+01   3.0244843900e+01    0.1508233    0.1437677 -78.93 0.0002295316    1.014    0.014
       153  -8.5698     70.7065     99.6854   1.0819642877e+02   4.8080079145e+01    0.1449067     0.103133 -20.72 0.0003692683    1.598    0.374
       154  -9.6977    130.1321     97.9667   9.0409157944e+01   3.7348530574e+01    0.2263718    0.2219197 -15.46 0.0006763662    1.041    0.039
       155  -9.1395    195.9801     97.1969   7.6169310696e+01   2.2641307954e+01    0.2238664    0.1498279 -62.97  0.001045242    1.597    0.374
       156  -9.5790     51.1362     95.5449   1.1360517005e+02   5.1643861400e+01    0.2210394    0.1729512 -57.04 0.0003925308    1.285    0.222
       157 -10.0534    230.6529     94.0654   7.0031210941e+01   1.5788704037e+01    0.3863813    0.3039419 -45.21  0.001392783    1.211    0.174
       158  -9.1937    224.5767     94.1290   7.0912574980e+01   1.7026152037e+01    0.3516837    0.1274734 -38.70  0.001305405    2.759    0.638
       159  -8.7448    207.8457     95.0364   7.3677384795e+01   2.0423459174e+01     0.207813    0.1507346  89.35  0.001036335    1.570    0.363
       160  -9.2995     88.1229     95.0024   1.0142494495e+02   4.6252144828e+01    0.2040147    0.1911898 -12.83            0    1.020    0.020
       161  -9.1641    171.8766     91.1670   7.9184529728e+01   2.9236422624e+01    0.2004632    0.1785582  26.75 0.0005553755    1.339    0.253
       162 -10.2283    216.3089     89.0034   7.1014763279e+01   1.9671028365e+01    0.3857972    0.3334627 -69.24  0.002270101    1.020    0.019
       163  -9.2383    176.4277     87.2911   7.7332616412e+01   2.8897989956e+01    0.2071868    0.1307323 -53.24  0.000939259    1.614    0.380
       164  -8.9784    139.5828     87.1941   8.5138974426e+01   3.7358923837e+01     0.205387    0.1433937 -28.31 0.0008328732    1.652    0.395
       165  -8.4771    117.2930     84.6789   9.0053276688e+01   4.2674463244e+01    0.1438162    0.1169048 -83.31 0.0002893632    1.610    0.379
       166  -8.3705    134.7295     83.3829   8.5246630119e+01   3.9146821447e+01    0.1507123    0.1139428 -73.85 0.0005035959    1.700    0.412
       167  -8.4798     88.1550     82.1827   9.7736575844e+01   4.8813412757e+01    0.1797685    0.1687845 -89.07  0.000398394    1.309    0.236
       168  -8.5154     21.2984     81.6832   1.2067815602e+02   5.7611723664e+01     0.111215   0.09564317  82.68 0.0002373729    1.612    0.380
       169  -8.9246    196.4993     79.5039   7.1931800611e+01   2.5677937476e+01    0.2129776    0.1202738 -52.85 0.0009614004    1.748    0.428
       170  -9.5355    119.4901     78.9781   8.7826024645e+01   4.3260951607e+01    0.2406372    0.1913314  45.88 0.0008955756    1.224    0.183
       171  -9.4459    175.6570     77.4825   7.5024903488e+01   3.0799560052e+01     0.287029    0.1703431 -44.76  0.001320309    1.671    0.402
       172  -9.7354    226.6847     74.3223   6.6401812394e+01   1.9947583054e+01    0.4182475    0.3563625  76.89  0.001757579    1.203    0.169
       173  -8.9030    230.3868     71.7900   6.5400889200e+01   1.9583383451e+01    0.1949606    0.1496098 -52.52 0.0007369086    1.179    0.152
       174  -9.8844    214.0272     75.4014   6.8349368904e+01   2.2476484637e+01    0.3479255    0.2381894  61.90  0.001781453    1.491    0.329
       175  -8.6031    126.5128     76.4932   8.5312295750e+01   4.2191140276e+01    0.1429016    0.1380921  42.87 0.0002242563    1.003    0.003
       176  -8.7806    203.3603     72.7042   6.9294697669e+01   2.5271931819e+01    0.1469672   0.09722006 -76.92   0.00070324    1.706    0.414
       177  -9.4259    250.0541     70.3480   6.2806506148e+01   1.5862893909e+01    0.2301717    0.1963742 -51.41  0.001058978    1.242    0.195
       178 -10.2819    250.1256     65.0561   6.1778785229e+01   1.6669275028e+01    0.8180445    0.3287999 -58.91  0.003495044    2.667    0.625
       179  -9.2218    226.6721     60.1140   6.3434427574e+01   2.2181680589e+01    0.4035086     0.131923 -49.97  0.001578682    2.847    0.649
       180 -10.6819    225.8417     66.4692   6.4859498138e+01   2.1378009286e+01    0.7857282     0.438993 -82.83  0.003591347    2.331    0.571
       181  -9.6971    221.0569     61.0478   6.4314320142e+01   2.3234092966e+01    0.2511504    0.1826722 -66.91 0.0007714708    1.233    0.189
       182  -9.5694    219.0214     68.5199   6.6169394685e+01   2.2508822374e+01     0.194252     0.124389  68.47 0.0006474804    1.560    0.359
       183  -8.3546    139.3214     67.6581   7.9761618545e+01   4.0827992701e+01    0.1468768    0.1101345 -79.01 0.0002746437    1.723    0.420
       184  -8.7851    154.3016     66.6599   7.6309447265e+01   3.7550390340e+01    0.1465884    0.1070256 -75.85 0.0007037631    1.671    0.402
       185  -8.9313    198.0564     63.8818   6.8057636624e+01   2.7872721460e+01    0.2150403    0.1675169 -74.39 0.0006092474    1.223    0.183
       186 -10.1839    207.0516     60.0278   6.5912673952e+01   2.6448068237e+01    0.3693717    0.1668898 -50.06  0.001633837    2.123    0.529
       187  -9.7822    236.2711     59.8346   6.2267411551e+01   2.0228896801e+01     0.417713    0.2062283  71.73  0.001752871    2.126    0.530
       188  -9.2297    195.0034     57.4980   6.7026749068e+01   2.9538262528e+01    0.2656201    0.1266761  68.52  0.001154773    2.137    0.532
       189 -10.5811    199.9102     52.9782   6.5300964118e+01   2.9092802776e+01    0.4704976    0.3041021 -69.64  0.002455379    1.610    0.379
       190 -10.0774    199.3891     46.6951   6.3951622065e+01   3.0102107652e+01     0.403736    0.1677397 -36.45  0.001754494    2.546    0.607
       191  -9.9072    171.7624     58.8258   7.1014312458e+01   3.4699396135e+01    0.3518157    0.2248204  54.22  0.001350378    1.510    0.338
       192  -9.2755    126.5825     58.2794   7.9974088309e+01   4.5143034470e+01    0.2470367    0.1312944 -40.50 0.0007445846    2.002    0.500
       193  -9.8238    214.0423     57.2847   6.4392579209e+01   2.5320734324e+01    0.3120794    0.2536798  64.09  0.001755695    1.306    0.235
       194  -9.5976    250.2786     54.4008   5.9734631054e+01   1.8235464655e+01    0.2882984    0.1561739 -44.88  0.001129713    1.642    0.391
       195  -9.5395    232.9780     43.7711   5.9429665559e+01   2.3232755384e+01    0.3262277    0.2076038  42.09   0.00169548    2.617    0.618
       196 -10.6478    229.0024     52.0714   6.1516215610e+01   2.2884016511e+01    0.5131943    0.4103607 -76.36  0.003105053    1.033    0.032
       197  -9.7908    237.2528     53.6307   6.0926976063e+01   2.0949523240e+01    0.4212895     0.236346  82.29  0.002216498    1.876    0.467
       198 -10.1084    131.8405     54.7206   7.7722910841e+01   4.4500018900e+01    0.2603668    0.1543967 -45.72   0.00123929    1.868    0.465
       199 -10.8628    244.4126     41.8890   5.7942212786e+01   2.1169115480e+01    0.3787139    0.2903216 -53.32  0.001640574    1.245    0.197
       200 -10.6085    244.6155     51.4057   5.9730570429e+01   1.9787383293e+01    0.4107608    0.2575183 -71.20  0.001687525    1.456    0.313
       201 -10.1530    249.8875     46.3547   5.8263802752e+01   1.9466253897e+01    0.5322347    0.1951929 -40.67  0.002468144    2.517    0.603
       202  -8.7438     41.5328     54.5670   1.0522842251e+02   6.0734306751e+01    0.1223515    0.1033222 -12.13 -6.523992e-05    1.050    0.047
       203  -9.2293    221.4762     52.9065   6.2551382871e+01   2.4357812711e+01    0.2614288    0.1554852  64.01  0.001405613    1.658    0.397
       204  -8.7814    207.5625     53.5311   6.4406723936e+01   2.7301706587e+01    0.1321454    0.1128116 -80.15 5.143977e-05    1.012    0.012
       205  -9.2111    163.0694     52.5383   7.0910368330e+01   3.7643382218e+01    0.2670568    0.1773493 -55.80  0.001140955    1.632    0.387
       206  -8.8285    222.7359     43.3618   6.0433696256e+01   2.5440839326e+01    0.2057754    0.1385018 -74.81  0.001007582    1.361    0.265
       207  -8.8601    214.9937     46.4990   6.1967137436e+01   2.6673120306e+01    0.1877739    0.1109743  82.98 0.0009696467    1.702    0.412
       208 -10.1232    216.1151     41.4358   6.0771307004e+01   2.7126873649e+01     0.369425    0.2960625  30.56  0.001876715    1.997    0.499
       209  -8.9481    219.7539     42.2566   6.0534894351e+01   2.6230320586e+01    0.2217871    0.1818935 -34.36  0.001399501    1.523    0.343
       210  -8.9127    238.4821     44.8288   5.9078877435e+01   2.1956354234e+01    0.2108926    0.1513277  82.91 0.0008248662    1.280    0.219
       211  -9.4089    189.4976     43.9978   6.4666185875e+01   3.2714566941e+01    0.3102767    0.1613476 -32.28   0.00110202    2.253    0.556
       212 -10.2947    191.3077     40.4919   6.3608072446e+01   3.2770479086e+01    0.4012995    0.1472804  58.61   0.00169082    2.456    0.593
       213 -10.0833    186.1068     38.8510   6.3928713358e+01   3.4170414387e+01    0.2687176    0.1969424 -57.84 0.0006425034    1.344    0.256
       214 -10.5925    184.6990     35.6657   6.3372443183e+01   3.4898976399e+01    0.3732927       0.1928  43.15   0.00162125    2.650    0.623
       215  -8.4720     76.7670     43.9999   8.9064221161e+01   5.7146405775e+01    0.1584669    0.1021364 -30.75 0.0006301258    1.590    0.371
       216  -8.6896    183.6268     43.1611   6.5295349634e+01   3.4171633078e+01    0.1683899    0.1284483 -24.20 0.0007219275    1.687    0.407
       217  -9.0821    178.0284     43.0160   6.6078951397e+01   3.5480445497e+01    0.3202124    0.1789845 -76.13  0.001394946    2.483    0.597
       218  -9.7307    173.9433     39.9799   6.5946482211e+01   3.6821541700e+01    0.2189963    0.1445109 -73.61  0.001010341    1.707    0.414
       219  -8.4452    134.3504     42.6771   7.3677522396e+01   4.5583228095e+01    0.1369624    0.1008985 -80.36 0.0002187442    1.749    0.428
       220  -9.2403    209.0666     39.4468   6.1159541044e+01   2.8933167073e+01    0.2391394    0.1470799 -58.87 0.0007630769    1.534    0.348
       221  -9.1954    234.3084    247.7074   9.9897864426e+01  -1.2444913395e+01    0.2643051    0.1715304  50.05  0.001435543    2.435    0.589
       222 -10.7708    201.1210     38.5858   6.1923320356e+01   3.0809062986e+01    0.4448854    0.2452643 -30.92  0.002225198    2.230    0.552
       223 -10.1661    203.3398     31.7029   6.0155780876e+01   3.1197722618e+01    0.3001417    0.1682043 -89.20  0.001456443    1.885    0.470
       224  -9.0457    165.5658     39.7308   6.7184603810e+01   3.8792011843e+01    0.2172259    0.1335343 -29.84   0.00110675    1.921    0.480
       225 -10.0895    238.5410     38.2909   5.7815330190e+01   2.2840549721e+01    0.2681673    0.1970755 -89.84  0.001014723    1.180    0.153
       226  -9.3181    186.9135    247.1384   1.0899220901e+02  -5.5115861179e+00    0.1857371    0.1704999  38.60 0.0005114553    1.224    0.183
       227 -10.2513    235.0932     31.6121   5.6862578050e+01   2.4424965352e+01    0.4643838    0.2183365  64.33   0.00246852    2.061    0.515
       228  -9.6329    240.8679     27.3476   5.5544346747e+01   2.3799238500e+01    0.8548674   0.06487312  63.68  0.002544227    6.886    0.855
       229  -9.9239    250.3343     35.6564   5.6252633900e+01   2.0844168161e+01    0.2291079    0.1203629 -56.60  0.001135316    1.582    0.368
       230 -10.8985    247.9734     31.8056   5.5754082832e+01   2.1814279514e+01    0.4944217    0.3477385 -66.25    0.0021339    1.122    0.109
       231  -8.4021     61.5005     37.5389   9.1863003745e+01   6.0555557502e+01    0.1241783    0.1027955   8.87 0.0008093897    1.006    0.006
       232  -9.8564    242.1554     33.8122   5.6634136406e+01   2.2706832718e+01     0.332442    0.1726686 -58.43   0.00151405    1.665    0.399
       233  -9.4130    221.3142     31.0251   5.8079148252e+01   2.7377604526e+01    0.3406013     0.235478 -46.92  0.002113358    1.430    0.301
       234 -10.5431    215.0468     30.3233   5.8580731940e+01   2.8809549626e+01    0.5352615    0.3140983  62.63  0.003032394    1.658    0.397
       235  -9.9857    190.9780     33.3114   6.2005413741e+01   3.3766077046e+01    0.1817302    0.1516491  83.71 0.0007573473    1.042    0.040
       236  -8.3638    164.3070     33.3124   6.5745556663e+01   3.9877815353e+01    0.1279806   0.09387193  38.75   0.00043169    1.621    0.383
       237  -8.3405    181.3069     32.6597   6.3122338094e+01   3.6047485471e+01    0.1358156   0.08713574 -72.22 0.0007042471    1.684    0.406
       238 -10.0569    170.1556     30.7062   6.4213961822e+01   3.8841015874e+01    0.3174782    0.1916645 -12.22  0.001501661    2.796    0.642
       239  -9.7452    118.4684     24.7405   7.1635055547e+01   5.1180050210e+01    0.3140471    0.1901681 -53.68  0.001430471    2.253    0.556
       240  -8.7058    191.3316    245.3119   1.0780090951e+02  -5.8887275371e+00    0.1343395   0.09297163   0.54 0.0007043757    1.675    0.403
       241  -9.3216    225.2342    243.5868   1.0088481022e+02  -1.0596369640e+01    0.2802969    0.1948901  56.96  0.001477721    2.556    0.609
       242  -9.2474    239.6013    240.3106   9.7653506086e+01  -1.2039279026e+01    0.2300776     0.175354  53.08  0.001371855    2.120    0.528
       243  -8.8233    246.7176    240.5880   9.6418370668e+01  -1.3001699965e+01    0.1486176     0.106705  34.03 0.0007031041    1.562    0.360
       244  -8.4217    182.6529    239.3367   1.0857635796e+02  -3.4892912049e+00    0.1300568     0.104503  68.60 0.0007047975    1.778    0.438
       245  -9.3323    230.8268    236.8458   9.8664514329e+01  -1.0322958795e+01    0.2504705    0.1600279 -38.88 0.0008965223    1.559    0.358
       246 -10.1097    206.0692    236.0758   1.0328932968e+02  -6.5964074416e+00    0.3694193    0.3200095  67.69  0.002229878    1.708    0.414
       247  -8.9303    243.7170    236.2334   9.6194749469e+01  -1.1963545029e+01    0.1726419    0.1434659 -39.50 0.0008782522    1.447    0.309
       248  -9.4028    219.3994    235.3570   1.0056513389e+02  -8.4631288884e+00    0.2490656     0.149161  34.46  0.001343663    1.638    0.390
       249  -9.4794    238.4447    231.4749   9.6308360652e+01  -1.0526244011e+01    0.3727372    0.2005362  47.43  0.001810963    2.700    0.630
       250  -9.6150    229.5798    228.2747   9.7374858000e+01  -8.7781308401e+00    0.3194497    0.2070086 -47.22  0.001432785    1.771    0.436
       251  -8.6096    145.6058     24.8392   6.6532569304e+01   4.5128757393e+01    0.1681491    0.1123695 -47.44 0.0009052412    1.680    0.405
       252  -9.3647    248.1232    227.2265   9.3806993275e+01  -1.1159335246e+01    0.2038663    0.1634329 -36.05   0.00077672    1.326    0.246
       253  -8.5560    211.3020    228.3185   1.0088947046e+02  -6.0771331260e+00    0.1352105    0.0932155  -5.44 0.0005864573    1.623    0.384
       254  -8.8660    199.5042     20.4939   5.8167667435e+01   3.3386992761e+01    0.1236335    0.1008755  89.85 0.0008105029    1.027    0.026
       255  -8.7935    176.3065     20.6449   6.0934618983e+01   3.8575958193e+01    0.1322144    0.0830499 -71.34 0.0007041688    1.719    0.418
       256  -9.3423    165.4735     19.9484   6.2212190316e+01   4.1116922271e+01    0.1777408   0.08590417 -56.34 0.0008092356    2.529    0.605
       257  -8.7682     67.7601     18.0000   8.2464674554e+01   6.1826430896e+01    0.1425283   0.09393402 -20.73  0.000663023    1.591    0.372
       258  -8.5633    141.6230     17.3037   6.5130739095e+01   4.6800458858e+01    0.1294225    0.0881917 -79.78 0.0003109668    1.769    0.435
       259  -8.9972    164.2770    228.5461   1.1063079142e+02   1.5645518928e+00    0.2681555    0.1238239  42.18  0.001127161    2.057    0.514
       260  -9.0103     99.1450    225.9139   1.2457048437e+02   1.3148013119e+01    0.2212864      0.16998  70.44  0.001204254    1.304    0.233
       261  -9.5249    228.4089    221.5990   9.6383868669e+01  -7.5042563598e+00    0.3827973    0.2645924 -65.34  0.001865588    2.694    0.629
       262  -8.3932    187.4267     16.4998   5.8632711433e+01   3.6516011823e+01    0.1234823    0.1004508  89.89  0.000114298    1.020    0.020
       263  -9.0011    162.7320     15.1392   6.1394238341e+01   4.2234444921e+01    0.2172926    0.1104866 -70.28 0.0009556105    2.834    0.647
       264  -8.5952    105.3327     14.6909   7.1295338307e+01   5.4944221592e+01    0.1158261   0.09225431 -82.92 0.0003531542    1.671    0.402
       265  -8.7025    207.5274     13.4905   5.5881782113e+01   3.2417018216e+01    0.1200541    0.0960733 -88.64 3.947039e-05    1.041    0.039
       266  -8.7571    204.3372    220.3084   1.0082299748e+02  -3.5730818623e+00     0.140809   0.09825654  -3.01 0.0003986545    1.680    0.405
       267  -8.2876     58.6180     12.2850   8.3205796604e+01   6.3923791117e+01    0.1010072   0.09076472  70.31 0.0007011876    1.733    0.423
       268  -9.7957    193.7040    219.3687   1.0281210056e+02  -1.6605615043e+00     0.284566    0.2395626  83.04  0.001558076    1.755    0.430
       269 -10.7062    247.5860    216.5449   9.1962626438e+01  -9.3906858704e+00    0.5026786    0.3223455 -48.07  0.002742548    1.787    0.440
       270  -8.6547     48.5177    219.5335   1.3485285740e+02   2.1972023038e+01    0.1317534    0.1088378  80.56 0.0001162827    1.002    0.002
       271  -8.3369    168.2769     10.3416   5.9494792006e+01   4.1450720344e+01    0.1171806   0.08456799  43.02 0.0003703846    1.621    0.383
       272  -8.3833    160.4742    218.5359   1.0974058357e+02   4.2201156240e+00    0.1406879    0.1329315  23.55   0.00017919    1.005    0.005
       273 -10.5371    239.1711    220.4539   9.4186127172e+01  -8.8601838900e+00    0.4224723    0.3529801 -71.85  0.002512386    2.011    0.503
       274 -10.9666    214.8566    215.0557   9.7770509288e+01  -4.3063240589e+00    0.4097765    0.2855484 -48.79  0.002203284    1.589    0.371
       275  -9.3528    219.4873    215.0134   9.6864588843e+01  -5.0238345527e+00    0.2413334    0.1966227 -35.69  0.001283914    1.207    0.171
       276  -8.4760    109.4721    216.4857   1.2089505483e+02   1.3562165843e+01    0.1425145    0.1307119  67.69 0.0002970009    1.008    0.008
       277  -8.8218     62.9928    216.3235   1.3136376530e+02   2.0781157943e+01    0.2317403   0.06642218  51.99 0.0003278349    4.306    0.768
       278  -9.6521    232.6948    212.9828   9.3992361622e+01  -6.6750995022e+00    0.3143782    0.2016634 -46.08  0.001174278    1.638    0.390
