#   1 NUMBER                 Running object number                                     
#   2 MAG_AUTO               Kron-like elliptical aperture magnitude                    [mag]
#   3 X_IMAGE                Object position along x                                    [pixel]
#   4 Y_IMAGE                Object position along y                                    [pixel]
#   5 X_WORLD                Barycenter position along world x axis                     [deg]
#   6 Y_WORLD                Barycenter position along world y axis                     [deg]
#   7 A_WORLD                Profile RMS along major axis (world units)                 [deg]
#   8 B_WORLD                Profile RMS along minor axis (world units)                 [deg]
#   9 THETA_WORLD            Position angle (CCW/world-x)                               [deg]
#  10 FWHM_WORLD             FWHM assuming a gaussian core                              [deg]
#  11 ELONGATION             A_IMAGE/B_IMAGE                                           
#  12 ELLIPTICITY            1 - B_IMAGE/A_IMAGE                                       
         1 -15.3124     67.8686    143.0486   7.3314489013e+01   3.7799277909e+01     2.504672     1.284491  86.80  0.009229368    3.153    0.683
         2 -14.1742    237.5982     21.9496   6.5957274467e+00   2.3256005956e+01      0.86762     0.721403 -51.61  0.004157963    1.025    0.024
         3 -11.5406      2.8205     10.8043   6.9006130864e+01   7.5411831684e+01    0.1449569    0.1385848 -62.39 0.0008633996    1.343    0.255
         4 -10.3959     76.2802    244.4863   8.2158568955e+01   1.5770077540e+01    0.2174245   0.09328263 -64.25  0.001196259    2.789    0.641
         5 -13.1163    109.1262    240.9423   7.5475215074e+01   1.2005344175e+01    0.5319586    0.2609217 -59.81  0.002988831    2.593    0.614
         6 -13.0503    115.8504    249.3177   7.4990285928e+01   9.8031702152e+00    0.6748053    0.2794985  35.42  0.003261158    1.877    0.467
         7 -13.5428    148.0388    227.8886   6.6324145063e+01   8.4314598475e+00    0.3732297    0.3354326 -32.91  0.001732384    1.354    0.262
         8 -13.9752    125.3036    246.6916   7.2925335993e+01   8.8937751140e+00    0.8573666    0.5253887  45.16  0.005463068    1.336    0.252
         9 -15.5002    122.1240    229.8965   7.1735042707e+01   1.1930976312e+01     2.975499     1.199946  43.07   0.01448165    1.999    0.500
        10 -11.2441    101.1217    250.2456   7.7876360421e+01   1.1640608714e+01    0.1862962    0.1784166 -22.30  0.001494669    1.419    0.295
        11 -11.7194    101.6871    245.6605   7.7361975541e+01   1.2274769537e+01    0.1958313    0.1424842  32.39 0.0009230543    1.245    0.197
        12 -12.9631    102.8919    239.8666   7.6593689517e+01   1.3030404093e+01    0.5117508    0.3028153 -36.16  0.001949696    2.831    0.647
        13  99.0000     34.6612    249.0896   9.0215617584e+01   1.9844214694e+01    0.3949209    0.1841745  24.88  0.002150933    2.751    0.637
        14 -14.7684     48.5695    176.9875   8.2538405297e+01   3.2340373038e+01     2.338476     1.621875  -4.44   0.01018459    2.498    0.600
        15 -13.6174     20.7042    195.0170   9.0307297208e+01   3.1416725267e+01     0.484439    0.3088296  65.57  0.001114316    1.264    0.209
        16 -16.7040      5.3695    153.5072   9.1598092358e+01   4.1877539666e+01     6.775348     1.530741 -78.66    0.0251264    3.678    0.728
        17 -10.0982     34.9665    241.0512   8.9784604303e+01   2.1177319367e+01     0.134941    0.1107829  52.81  0.001060702    1.200    0.167
        18 -10.6684     90.1122    235.7032   7.8739542539e+01   1.5439423745e+01    0.1873158     0.141506  75.63 0.0006512181    1.422    0.297
        19 -11.2341     73.2905    232.3036   8.1812336860e+01   1.8217030914e+01    0.1951024    0.1524618  83.72 0.0008218533    1.344    0.256
        20 -16.0811      8.1987    207.7656   9.3521329381e+01   2.9998682849e+01    0.7945545    0.6065257  -2.03  0.005422451    2.184    0.542
        21 -12.2333     89.7031    226.3665   7.7971527671e+01   1.7099896341e+01    0.3966191    0.1810895  52.19  0.001245074    2.011    0.503
        22 -11.3168     72.7986    226.6709   8.1460802791e+01   1.9279665913e+01    0.1965835    0.1499962  57.50 0.0002730032    1.082    0.076
        23 -10.8280     80.9123    220.4948   7.9250527908e+01   1.9339508745e+01    0.1795027    0.0991862  38.11 0.0003767966    1.497    0.332
        24 -13.1165    126.7392    213.1528   6.8766739879e+01   1.4036320218e+01    0.3454426    0.2485165  57.04  0.002050683    1.457    0.314
        25 -12.8229     98.3795    225.9084   7.6143606354e+01   1.5984419296e+01    0.4087383    0.2781984 -73.24    0.0024031    1.791    0.442
        26 -11.7549     34.3395    197.1010   8.7438579914e+01   2.9601506100e+01    0.4513543    0.2016952 -85.23  0.002286347    2.269    0.559
        27 -12.2778     38.1855    195.4856   8.6473844346e+01   2.9522572166e+01    0.5602761    0.4166241  56.47  0.003709164    1.096    0.087
        28 -12.2634     82.5122    194.8924   7.6315330644e+01   2.4078791847e+01    0.4905614    0.3382817  81.23  0.002106072    1.600    0.375
        29 -12.4492     53.2813    238.8513   8.6196837307e+01   1.9512665222e+01    0.3667767    0.2656968 -83.56  0.002648553    1.508    0.337
        30 -12.5098     59.9798    229.3058   8.4253381501e+01   2.0402940503e+01    0.6373898     0.517908 -30.75  0.004358557    1.956    0.489
        31 -11.3127     76.9653    183.7934   7.6355586379e+01   2.7181216422e+01    0.2943276    0.1987712  58.64 0.0008019328    1.381    0.276
        32 -10.5571     49.9935    184.1728   8.2850945298e+01   3.0590157219e+01    0.1846137    0.1515245  64.62  0.000330456    1.010    0.010
        33 -11.8964     98.9978    180.9634   7.0696755921e+01   2.4517965337e+01    0.2976347    0.2556665  51.03 0.0007675289    1.030    0.030
        34 -10.3770    129.3147    181.3006   6.3618042841e+01   1.9481939230e+01    0.1338836    0.1053169   1.78  0.000348319    1.612    0.380
        35 -11.4103    172.6342    177.0642   5.3398135772e+01   1.2681564332e+01    0.2633986     0.231482 -27.01 0.0008640401    1.199    0.166
        36 -11.5834    103.8395    171.5613   6.8148333147e+01   2.5741424219e+01    0.2750624    0.1692709  71.98  0.001207387    2.278    0.561
        37 -11.6660    179.2403    167.3538   5.0200914589e+01   1.3166295686e+01    0.2814888    0.2014251  57.89  0.001162078    1.790    0.441
        38 -10.9748     32.4773    168.5113   8.5778816049e+01   3.6025991654e+01    0.1265684    0.1042215  72.95 7.937656e-05    1.002    0.002
        39 -12.5331     82.1691    164.1791   7.2535444736e+01   3.0763660544e+01    0.5001312    0.3118902  24.27  0.001708889    1.911    0.477
        40 -13.8284     55.2343    146.5131   7.7395969980e+01   3.8631525280e+01    0.8155836    0.5834471 -78.49  0.004460757    1.328    0.247
        41 -10.7505    241.7936    249.5950   5.2655757505e+01  -6.8922409569e+00    0.1345196   0.07910276  33.05 0.0003526464    1.580    0.367
        42 -12.6692     72.0394    158.9794   7.4468951632e+01   3.3429653460e+01    0.4447612    0.3446935 -38.62  0.001597356    1.626    0.385
        43 -10.4593     39.3239    161.1766   8.3379472165e+01   3.6995557720e+01    0.1998465    0.1486676 -65.46  0.001184485    1.373    0.272
        44  -9.6392     48.2969    156.6760   8.0538232682e+01   3.7040608084e+01     0.140686   0.08636443  66.14 0.0003789882    1.624    0.384
        45 -11.0977     87.4855    154.3612   6.9658736318e+01   3.2202882645e+01    0.3112219     0.276044 -70.25  0.001364331    1.148    0.129
        46 -11.8833     80.8510    151.3947   7.0982208637e+01   3.3916927208e+01    0.3052595    0.2516632 -80.70 0.0005024681    1.206    0.171
        47 -11.6916    133.8308    145.7464   5.6049537834e+01   2.5935737288e+01    0.8943042    0.2246243 -53.82  0.002228308    5.779    0.827
        48 -12.6914     87.0136    146.8786   6.8558101001e+01   3.4023369851e+01    0.5223976    0.3894277 -29.31  0.001225584    1.795    0.443
        49 -11.5337     88.5546    140.7583   6.7061697939e+01   3.5221894572e+01    0.3066528    0.1922809  81.76 0.0009881553    2.282    0.562
        50 -10.9830     40.1799    146.6457   8.1649201806e+01   4.0353918752e+01     0.266817    0.1717053 -69.46  0.001440034    1.442    0.307
        51 -12.9127     66.7979    126.8301   7.0971588729e+01   4.1921057721e+01    0.7106137    0.4010421 -72.04  0.003160704    1.849    0.459
        52 -12.8169     24.3197    137.6110   8.5220796921e+01   4.4112135903e+01    0.3669887    0.2025117  86.84  0.001170322    1.740    0.425
        53 -11.8762    104.4192    131.9519   6.0897716476e+01   3.4562977857e+01    0.6899528    0.4552712 -14.78  0.002684709    2.786    0.641
        54 -12.3987     89.4026    132.9309   6.5360986843e+01   3.6947777705e+01    0.2763874     0.258923 -61.95 0.0004242767    1.094    0.086
        55 -13.3864     43.9732    129.7005   7.8441240818e+01   4.4093396575e+01      0.56986    0.2864034 -87.28  0.002413996    2.315    0.568
        56 -12.2917     39.6969    127.1566   7.9412311200e+01   4.5192135903e+01    0.2815811      0.22519  61.92 0.0003503001    1.216    0.177
        57 -13.9287     23.5417    202.1448   9.0081071019e+01   2.9676720376e+01    0.6579923    0.2980406  37.98   0.00367812    1.850    0.459
        58 -10.2254    111.1862    126.7859   5.7901902009e+01   3.4498413218e+01    0.2064424    0.1804002   0.64 0.0006133697    1.368    0.269
        59 -10.1297     80.6826    127.3478   6.6848881710e+01   3.9712393940e+01    0.1555085     0.108242  73.58 0.0004376878    1.728    0.421
        60  -9.8927     93.5410    125.0128   6.2555817203e+01   3.8137206085e+01     0.211265    0.1440914 -57.96 0.0001176959    1.460    0.315
        61 -12.4138     43.8043    122.7925   7.7509771820e+01   4.5835069360e+01    0.3335898    0.2050846 -64.95 0.0008467051    1.473    0.321
        62 -10.8288     98.3678    122.0169   6.0493840241e+01   3.7993362748e+01    0.2586759    0.2106081  13.65 0.0005909508    1.504    0.335
        63 -12.2256     28.1738    121.6694   8.2319291613e+01   4.7694521059e+01    0.4333801    0.1359378  48.04  0.001584091    3.449    0.710
        64 -17.9021      9.0122    227.5361   9.4080518272e+01   2.6177537336e+01      3.90686     2.607603  17.41   0.02111864    2.132    0.531
        65  -9.9343    107.5436    116.4909   5.6561645382e+01   3.7573250367e+01    0.1502811    0.1475665 -89.92 0.0001021951    1.010    0.010
        66 -11.7017     39.3919    113.0624   7.7472720024e+01   4.8754352052e+01    0.2399726    0.1885156  47.64 0.0003748666    1.320    0.242
        67 -12.9667     31.8628    108.9901   7.9399587903e+01   5.0528509950e+01    0.5879556    0.2607399  48.99  0.002515281    2.496    0.599
        68 -11.9040     54.2170    110.1679   7.1988912234e+01   4.7764990031e+01     0.289105    0.2066176  10.75   0.00144112    1.813    0.449
        69 -10.9880     49.3773    104.7361   7.2621242047e+01   4.9724664656e+01    0.2129957    0.1138494 -55.94 0.0006716641    1.698    0.411
        70 -10.4824     45.3155    105.3046   7.4142805772e+01   5.0057372619e+01    0.1404789   0.09927718 -37.08 0.0002790455    1.622    0.384
        71 -11.4806     38.8466    102.0228   7.5836274078e+01   5.1587946398e+01    0.4229479    0.1249643  40.59  0.001504662    3.418    0.707
        72 -10.6194    205.4646    110.2175   3.2522441693e+01   1.7809246037e+01    0.2428697    0.2004753  44.98 0.0006439828    1.283    0.220
        73 -12.2775     67.7327    163.0769   7.6147708307e+01   3.3076183484e+01    0.3214728    0.2886886  -9.91  0.001177834    1.456    0.313
        74 -10.4105     41.6803     87.3193   7.1918606271e+01   5.4956090771e+01    0.1407556    0.1010853  71.05 0.0002799833    1.664    0.399
        75 -11.4675     59.4989     79.3017   6.3023818320e+01   5.4651839206e+01    0.3502691     0.191372  58.37   0.00135952    2.801    0.643
        76 -10.2920     67.4607    240.7881   8.3590318543e+01   1.7483981087e+01    0.2349034    0.1075308 -71.98  0.001319851    2.577    0.612
        77 -12.7574    189.1298     61.1447   2.2308634236e+01   2.9439499969e+01    0.3877042    0.3763077   0.04 0.0007521643    1.120    0.107
        78 -11.7967     13.4575     60.2640   7.8115181675e+01   6.3984173284e+01    0.2271969    0.1972449 -77.10  0.000541018    1.146    0.127
        79 -14.1886    204.3827     50.4753   1.7185239845e+01   2.7291178346e+01     1.156844    0.9145557  43.43  0.004534883    1.451    0.311
        80 -13.5826    211.5739     44.8252   1.4794348458e+01   2.6351571305e+01    0.6367885    0.5758794  46.32  0.001047934    1.266    0.210
        81  -9.9919    131.7841     57.1833   3.2269038551e+01   4.4493318219e+01    0.2030191     0.176059  25.22 0.0004095074    1.257    0.205
        82 -10.8176     56.8887    246.1744   8.5958846532e+01   1.7846301595e+01    0.1590365    0.1314393  86.19  0.000447342    1.334    0.250
        83 -10.4962     60.6344     21.0176   3.9964646524e+01   6.6236035268e+01    0.1889058    0.1596055 -16.66 0.0004396932    1.116    0.104
