#   1 NUMBER                 Running object number                                     
#   2 MAG_AUTO               Kron-like elliptical aperture magnitude                    [mag]
#   3 X_IMAGE                Object position along x                                    [pixel]
#   4 Y_IMAGE                Object position along y                                    [pixel]
#   5 X_WORLD                Barycenter position along world x axis                     [deg]
#   6 Y_WORLD                Barycenter position along world y axis                     [deg]
#   7 A_WORLD                Profile RMS along major axis (world units)                 [deg]
#   8 B_WORLD                Profile RMS along minor axis (world units)                 [deg]
#   9 THETA_WORLD            Position angle (CCW/world-x)                               [deg]
#  10 FWHM_WORLD             FWHM assuming a gaussian core                              [deg]
#  11 ELONGATION             A_IMAGE/B_IMAGE                                           
#  12 ELLIPTICITY            1 - B_IMAGE/A_IMAGE                                       
         1 -13.5626    228.9639      3.7044   3.6263955507e+01   2.7453476100e+01     1.682188    0.7325813  57.60  0.004473655    2.440    0.590
         2 -14.1785    195.5556     38.3898   4.8602336178e+01   3.1453142864e+01     1.536636     1.202605 -25.78  0.003415626    1.387    0.279
         3 -14.6679    205.0584     28.3042   4.4654251500e+01   3.0375919500e+01     1.644656     1.334389  28.26  0.001573148    1.579    0.367
         4 -11.8387     33.1202     14.9152   8.3209121179e+01   6.9390758286e+01    0.3362367    0.1141764 -39.07  0.001519558    2.628    0.620
         5  -9.3115     65.3424      9.6575   6.7013327703e+01   6.5223902256e+01    0.1147087   0.09991888 -59.37 0.0007047903    1.781    0.439
         6 -11.8517     59.8541      2.9508   6.5663729856e+01   6.6899080400e+01    0.4130635    0.1691108  47.04  0.001979009    2.290    0.563
         7 -11.0957     30.9810      3.0354   7.8110872687e+01   7.1263991152e+01    0.1913081     0.144075  -4.16  0.001333234    1.016    0.016
         8 -15.5094     68.5239    144.1802   1.0739431832e+02   3.7390638738e+01     7.177345     3.356136  62.48   0.02568419    3.440    0.709
         9 -12.2104    139.5136    248.1245   1.0622528239e+02   4.8596790141e+00    0.4676299    0.3547837 -49.52  0.003118149    1.646    0.393
        10 -14.0007     47.6425    222.6958   1.2106932808e+02   2.2594435463e+01     1.626033    0.8186827  71.15  0.008571921    1.926    0.481
        11 -13.9624     59.3473    189.6265   1.1570023878e+02   2.8016872654e+01     1.381679    0.9730751  36.79  0.008177516    1.547    0.354
        12 -14.4176     86.2386    225.5948   1.1392129123e+02   1.6888782117e+01     1.680011     1.427276  58.16  0.004790212    1.107    0.096
        13 -10.9687    112.2092    197.0798   1.0504482793e+02   1.8525909244e+01    0.3170699    0.2746994  -8.86  0.001841145    1.579    0.367
        14 -11.3244    207.8858    194.4920   8.4581336862e+01   1.8845204760e+00    0.2936924     0.186456 -32.13 0.0008079981    1.613    0.380
        15 -10.1781     30.1164    195.1004   1.2235166002e+02   3.0264100917e+01    0.3133083    0.1516293  55.76  0.001665932    1.831    0.454
        16  -9.8256     81.9007    194.9338   1.1139171864e+02   2.3741932876e+01    0.2037888    0.1755283  72.66  0.001185215    1.015    0.014
        17  -8.9317     96.9849    191.0157   1.0755110990e+02   2.2282856296e+01    0.1572563    0.1392488  76.45            0    1.030    0.029
        18 -16.5128      2.6000    116.0988   1.2153780082e+02   5.0634450478e+01      15.7498    0.9973077 -73.33   0.03066469   12.365    0.919
        19  -9.7651     94.8512    187.3669   1.0752185922e+02   2.3411689134e+01    0.2090944    0.1688288  88.60 0.0003329286    1.210    0.174
        20  -8.9140    153.6761    184.3401   9.3828378144e+01   1.3709485793e+01     0.144979     0.110966  77.15 0.0005303926    1.725    0.420
        21 -10.8037     98.9619    181.2306   1.0569292993e+02   2.4104567031e+01    0.3863615    0.2764141 -33.01  0.001931498    1.985    0.496
        22 -10.7610    146.3173    182.5820   9.5131219387e+01   1.5444585027e+01    0.2653476    0.2404855  15.40 0.0006505417    1.189    0.159
        23 -10.2192    204.4808    176.0534   8.1610719157e+01   5.5680005313e+00    0.4010208    0.2127225 -52.17  0.001653508    2.591    0.614
        24  -9.6187    197.1013    176.8576   8.3236235774e+01   6.8207923688e+00    0.2086525    0.1980407  52.30  0.001228944    1.225    0.184
        25 -12.2419     72.7225    174.8239   1.1089894096e+02   2.9543357593e+01    0.4322673    0.2784652 -39.40  0.002119767    2.194    0.544
        26 -12.1516     76.8501    169.9623   1.0925003642e+02   3.0074743203e+01    0.3161967    0.2812531 -38.72  0.001650665    1.404    0.288
        27 -15.3462     10.2987    206.5105   1.2694376468e+02   2.9871616781e+01    0.5925061    0.4756588 -73.11  0.002552815    1.427    0.299
        28  -9.2793    188.6936    175.0000   8.4564019752e+01   8.7649053823e+00    0.1984625    0.1798844 -25.70 0.0004595824    1.120    0.107
        29 -11.1072     47.3302    172.7871   1.1655435425e+02   3.3296653912e+01    0.4154732    0.2528585 -60.13  0.001002252    1.608    0.378
        30  -9.8704     51.8649    171.5645   1.1536770213e+02   3.3035926786e+01    0.3400451    0.1856534 -85.95  0.001275873    1.876    0.467
        31  -9.6594     52.4068    166.8043   1.1467611897e+02   3.4075206428e+01    0.2595055    0.1472831 -69.63 0.0006202907    1.570    0.363
        32  -9.9072     53.7117    163.6741   1.1397747252e+02   3.4648939448e+01    0.1898189    0.1631269  64.86 0.0006149696    1.142    0.124
        33 -10.6764    229.9829    166.2560   7.4777870525e+01   2.4995343789e+00    0.2739731    0.1650916 -56.10  0.001174375    2.695    0.629
        34 -10.4361    159.1585    162.3070   8.8306245591e+01   1.7099682698e+01    0.4108058     0.283868 -76.37  0.001746434    2.239    0.553
        35 -17.6067      6.4904    240.0463   1.2924711854e+02   2.3814343308e+01     5.186072       1.2337 -70.64   0.02526994    3.666    0.727
        36 -12.3162     91.5959    154.0198   1.0306390934e+02   3.1563937746e+01    0.7025598    0.5294239 -16.65  0.003390599    2.028    0.507
        37 -16.8708     37.5689    249.0019   1.2460275117e+02   1.8898820373e+01     8.764503     2.514796  30.28   0.02450085   10.581    0.905
        38 -11.4048    133.7597    144.7146   9.0537816115e+01   2.6046597997e+01     1.195798     0.318146 -54.64   0.00292673    5.334    0.813
        39 -11.2076    174.2679    148.8488   8.2014054278e+01   1.6730125041e+01    0.3746914     0.329302 -41.45  0.001171909    1.147    0.128
        40  -8.7026     99.2739    200.3401   1.0830600448e+02   1.9947952426e+01    0.1208967    0.1042766 -25.47  0.000277137    1.612    0.380
        41 -10.1558    152.0797    196.8610   9.6372185885e+01   1.1581287548e+01    0.2589841    0.1918358 -55.01  0.001390773    1.522    0.343
        42 -10.4066    143.8664    146.0063   8.8359095035e+01   2.3704193094e+01    0.3709559    0.2060484 -68.72  0.001247964    3.167    0.684
        43 -10.9029     85.7627    144.8428   1.0293366185e+02   3.4688788758e+01    0.3364083    0.2406481  72.10  0.001264656    1.599    0.375
        44 -12.3260     91.9168    139.4892   1.0027567385e+02   3.4988267664e+01    0.2785856    0.2473636 -53.30 0.0003642173    1.131    0.116
        45 -11.0711    104.3697    139.4054   9.6934474146e+01   3.2872839409e+01    0.5439019    0.3484798 -28.58   0.00225376    2.289    0.563
        46  -9.1368     94.2184    250.1823   1.1480005202e+02   1.1339415205e+01    0.1610748    0.1065644  62.34 0.0004537994    1.320    0.242
        47 -11.3965    135.5966    126.7830   8.5919832448e+01   2.9712366955e+01     1.046844    0.1978479 -48.15  0.002414341    5.462    0.817
        48 -10.7575    105.9665    130.7694   9.4649493356e+01   3.4635987341e+01     0.360962    0.3101977 -75.78  0.001251923    1.192    0.161
        49 -10.5618    112.9397    129.9759   9.2591982987e+01   3.3525419993e+01    0.3462762    0.2883879  -6.70   0.00121216    1.532    0.347
        50  -8.8406    103.3040    213.2982   1.0910380562e+02   1.6695829856e+01    0.1153706    0.1022217  -1.76 0.0001997837    1.586    0.369
        51  -8.8833     96.5860    128.5571   9.6732901024e+01   3.6829074123e+01    0.2538946    0.2243328  -3.87 0.0001211599    1.376    0.273
        52 -11.2076    100.2400    126.0771   9.5169096329e+01   3.6782447251e+01    0.3142698    0.2486869 -31.88 0.0009128184    1.438    0.305
        53 -10.4241    160.9111    127.6388   7.9991656174e+01   2.4026505199e+01    0.3224355    0.2355071 -51.68  0.001127148    1.417    0.294
        54 -11.7927    118.8560    124.2081   8.9653455650e+01   3.3723927670e+01    0.7410056    0.4363946 -26.46  0.002711087    2.676    0.626
        55 -10.1588    108.7825    119.0242   9.1141201550e+01   3.6882461922e+01    0.2293683    0.2143134  47.04 0.0003487629    1.113    0.101
        56 -10.0557    167.8085    112.6766   7.4585218319e+01   2.5570209372e+01    0.4090124    0.2740768 -74.25   0.00157097    2.381    0.580
        57 -10.5484    134.5558    104.7609   8.0459139696e+01   3.4809494296e+01    0.8984942    0.1540562 -43.13  0.001980632    5.794    0.827
        58 -11.8761    118.1826    109.7668   8.6190073975e+01   3.7170952190e+01    0.6695544    0.4846744  65.50  0.002537757    1.714    0.417
        59 -13.8432     73.2147    156.3039   1.0811784760e+02   3.3814465672e+01    0.6266439    0.5912646  69.61    0.0019986    1.129    0.114
        60 -10.2295    205.4395    110.0829   6.6253925775e+01   1.7383070525e+01    0.3158399    0.2279218  44.40  0.001012778    1.467    0.318
        61  -9.7817     60.5550     97.5270   1.0048123649e+02   4.9747241092e+01    0.2277904    0.1223389  45.08 0.0007076311    2.188    0.543
        62 -10.8847     53.1587     91.1124   1.0139821066e+02   5.2172234975e+01    0.3054684    0.1590053 -46.92  0.001098385    1.698    0.411
        63 -12.6994    196.2111    199.2063   8.7728293602e+01   3.1815533623e+00     1.322465     1.133342 -62.27  0.007803523    1.583    0.368
        64  -9.3271    161.4367     88.5353   6.9333440404e+01   3.1877120774e+01    0.1556459    0.1519927 -50.19 0.0001073544    1.015    0.015
        65 -10.1665    157.0038     81.2836   6.8196953618e+01   3.4326770796e+01    0.2184851    0.2073876  53.43  0.000453162    1.063    0.059
        66  -9.6279    184.5195     77.0579   6.1311857317e+01   2.8296706716e+01    0.2343417    0.1489934 -34.45   0.00056185    1.555    0.357
        67  -9.9867     61.6701     68.7705   9.2232471785e+01   5.6049419557e+01    0.2385284    0.2191995  57.31 0.0009842054    1.348    0.258
        68 -12.0707    172.3644     61.1612   5.8974823927e+01   3.3996685855e+01     0.548957    0.2748507 -38.65  0.002194196    1.949    0.487
        69 -10.7535    113.5885    207.8041   1.0624501631e+02   1.6130883985e+01    0.3260678    0.2127903  74.80  0.001171188    1.892    0.471
        70 -13.9451    185.1030     46.7240   5.2509824111e+01   3.2947342261e+01     1.263224    0.9960337  33.05 0.0009042016    1.491    0.329
        71 -10.9437    108.3396    203.4813   1.0677601481e+02   1.7851707589e+01    0.2247815    0.2096577  89.48 0.0007980039    1.128    0.114
        72  -9.2875     72.3266    231.1843   1.1712708431e+02   1.7783596717e+01    0.2575704     0.128715  88.15 0.0009578062    2.543    0.607
        73 -11.2160    150.7832     54.1360   6.1117358553e+01   4.0546552073e+01    0.4403929     0.304461 -76.79 0.0006095233    2.049    0.512
        74 -11.2600    152.6382     47.8901   5.8707250800e+01   4.1030935399e+01    0.3336488    0.2776195 -77.21 0.0006390983    1.370    0.270
        75  -9.0167     37.0513     37.7707   9.1332828139e+01   6.5190848200e+01    0.1438391     0.098891  23.14 0.0004081082    1.567    0.362
        76 -11.3918     21.4753     34.8887   9.7357275515e+01   6.7242449565e+01    0.2421851    0.1404477  -7.60  0.001345662    1.996    0.499
        77 -15.1498     50.5696    202.1776   1.1879090532e+02   2.6413742379e+01      6.92329     1.449836  49.10   0.01251372    4.172    0.760
        78  -9.7461    189.5126     14.9718   4.2871542544e+01   3.5779372652e+01    0.2081694     0.173405  80.78 0.0005710615    1.094    0.086
        79  -9.1749     64.4185    222.4509   1.1786046073e+02   2.0517325504e+01    0.1817626    0.1103778  62.99 0.0001269709    1.425    0.298
        80  -9.6277     61.4496    220.0446   1.1822183829e+02   2.1379723312e+01    0.1930904      0.14723  78.22 0.0007587129    1.110    0.099
