#   1 NUMBER                 Running object number                                     
#   2 MAG_AUTO               Kron-like elliptical aperture magnitude                    [mag]
#   3 X_IMAGE                Object position along x                                    [pixel]
#   4 Y_IMAGE                Object position along y                                    [pixel]
#   5 X_WORLD                Barycenter position along world x axis                     [deg]
#   6 Y_WORLD                Barycenter position along world y axis                     [deg]
#   7 A_WORLD                Profile RMS along major axis (world units)                 [deg]
#   8 B_WORLD                Profile RMS along minor axis (world units)                 [deg]
#   9 THETA_WORLD            Position angle (CCW/world-x)                               [deg]
#  10 FWHM_WORLD             FWHM assuming a gaussian core                              [deg]
#  11 ELONGATION             A_IMAGE/B_IMAGE                                           
#  12 ELLIPTICITY            1 - B_IMAGE/A_IMAGE                                       
         1 -14.9813    212.2666      8.0981   4.1305789795e+01   3.0740812018e+01      3.13753     1.988215  40.21     0.015769    2.024    0.506
         2 -13.9001    175.0349     51.9152   5.8863653566e+01   3.4700906469e+01     1.562251     1.236234  38.75  0.004322898    1.354    0.261
         3 -14.2769    189.3302     38.3896   5.2451592736e+01   3.2944201017e+01     1.137061    0.9774585  -6.30  0.004118437    1.347    0.258
         4 -13.5192    194.4120     32.3467   4.9975897678e+01   3.2430055123e+01     0.669333    0.5787818 -45.50  0.001328433    1.149    0.130
         5 -12.5186     53.5068      7.0011   7.3889719700e+01   6.7440224415e+01    0.6508527    0.2619525  22.36  0.002171457    5.087    0.803
         6 -12.5690     57.2593      3.9990   7.0870936608e+01   6.7185770078e+01    0.8777698     0.308783  27.23  0.002723526    5.701    0.825
         7 -10.0511     72.9179    217.6869   1.1800492682e+02   2.0684197105e+01    0.1879434    0.1424036  84.61 0.0005937021    1.190    0.160
         8 -12.3316    248.3982    246.7239   8.9473553559e+01  -1.0918767306e+01    0.5153793    0.2901439 -17.52  0.003271762    1.835    0.455
         9 -16.5881     71.5058    145.8031   1.0949729680e+02   3.6459557335e+01     7.572414     3.938723  71.02   0.02144597    3.028    0.670
        10 -11.9104    151.9409    195.0363   9.9002772314e+01   1.2245494957e+01    0.5212284    0.2103487  40.26  0.002109054    2.265    0.559
        11 -10.0863     43.0064    194.8655   1.2179445346e+02   2.9065186706e+01    0.2756888    0.1127396  47.82 0.0006019453    2.120    0.528
        12 -10.4572    163.8712    210.2866   9.9037066473e+01   7.4173791788e+00    0.2121343    0.1831761 -64.88 0.0008057123    1.414    0.293
        13 -11.4442     96.8723    191.4029   1.1019176344e+02   2.2437713582e+01    0.3241689    0.2846668 -40.51 0.0008731827    1.474    0.321
        14 -10.8395     99.5611    187.5402   1.0908695446e+02   2.2820251201e+01    0.2472534    0.2374995  10.12 0.0009486104    1.340    0.253
        15  -9.7727      1.4086    210.3982   1.3050124834e+02   3.0192989055e+01     0.105863   0.07234083  75.15 0.0001991714    1.021    0.020
        16 -18.5805     36.2185    240.6649   1.2625057992e+02   2.1041089115e+01      6.75749     3.471885  38.10   0.03055217    1.987    0.497
        17 -11.3323    153.2099    184.2792   9.6892294718e+01   1.4036652177e+01    0.3165991    0.1955266 -55.15   0.00123404    1.851    0.460
        18  -8.8813    164.7259    187.3461   9.5004478098e+01   1.1289785591e+01    0.1343857    0.1085536  82.37 0.0007000154    1.625    0.385
        19  -9.7810     59.9114    185.4180   1.1740333241e+02   2.9007759693e+01     0.224051    0.1214735 -67.94  0.001194002    1.724    0.420
        20 -10.0264      7.0064    192.2649   1.2856158144e+02   3.3278237850e+01    0.1406334   0.07068317  49.54 0.0008174788    1.745    0.427
        21 -13.0419    145.8259    182.3401   9.8141456047e+01   1.5799599655e+01    0.6280881    0.4101277 -64.12  0.002825439    1.880    0.468
        22 -12.4185    141.1584    175.2639   9.7908736699e+01   1.8094152182e+01     0.714249    0.4457907  77.35  0.002433221    2.798    0.643
        23 -11.2801     99.3510    180.7901   1.0817831960e+02   2.4289946176e+01    0.2649512    0.2394186  39.77  0.000560237    1.238    0.192
        24 -10.1140    189.3215    178.6664   8.8307860228e+01   8.1451249548e+00    0.2626397    0.1976632  60.02 0.0008568444    1.614    0.380
        25 -10.8505    188.1346    174.2390   8.7670587053e+01   9.1564299021e+00    0.4205901    0.2508102 -54.28  0.001869506    2.182    0.542
        26 -10.2623    204.1421    175.2395   8.4683669175e+01   5.8874394871e+00    0.2952728      0.23671 -53.74  0.001605593    1.555    0.357
        27 -10.6796     66.6423    174.7243   1.1470930478e+02   3.0468668289e+01    0.4213582    0.2102822 -48.03  0.001861589    2.562    0.610
        28 -10.4223    196.3691    174.2477   8.6014430186e+01   7.5516723066e+00    0.3213189    0.2664954 -62.99  0.001742039    1.577    0.366
        29 -11.3853    230.4437    167.1062   7.8074427217e+01   2.2687294975e+00    0.4456536     0.190546 -48.25  0.001629464    3.447    0.710
        30 -19.1803     15.5535    102.6627   1.1827700576e+02   5.2577352512e+01      16.4377    0.7494617 -69.33   0.02710623   16.664    0.940
        31 -10.0925    186.8010    165.2328   8.6102909655e+01   1.1049449286e+01    0.2452621    0.1911082 -47.59 0.0007500182    1.402    0.287
        32  -9.8426     37.2772    198.6619   1.2323219988e+02   2.8931360537e+01    0.1232661   0.06811825  71.07  0.000560777    1.614    0.381
        33 -10.0363    149.5206    156.0856   9.2308620910e+01   2.0429018351e+01     0.262401    0.2008676  87.52  0.001234629    1.737    0.424
        34 -11.7328    133.9740    146.0468   9.3861024866e+01   2.5708098001e+01     1.309552    0.3296612 -54.88   0.00310141    5.990    0.833
        35 -10.7000    188.0158    153.2971   8.3291215199e+01   1.3018432997e+01    0.2156171    0.1947456  37.10  0.001173662    1.088    0.081
        36 -10.2860    113.2326    151.2463   9.9972547106e+01   2.8480878904e+01     0.373187     0.250451  86.50  0.001394086    2.067    0.516
        37 -10.6740    174.3042    148.6868   8.5175224927e+01   1.6792049211e+01    0.3532895    0.2775801 -72.38  0.001341099    1.662    0.398
        38 -11.3783    144.0064    146.2950   9.1518239894e+01   2.3631037944e+01    0.4978564    0.2485645 -59.64  0.001809165    2.625    0.619
        39 -10.5407    107.5217    146.0070   1.0038303351e+02   3.0700474207e+01    0.2471647    0.1925915  62.12 0.0004186749    1.326    0.246
        40 -12.0197    108.1506    138.6360   9.8753063650e+01   3.2292761013e+01    0.6382283     0.387318 -40.67  0.002805464    1.875    0.467
        41 -10.2815     82.3308    195.2350   1.1376088239e+02   2.3841853019e+01    0.3279781    0.2173005  79.43  0.001830164    1.544    0.352
        42  -9.2202     78.4249    193.0743   1.1433054072e+02   2.4857413442e+01    0.1653353    0.1367399  88.23  0.000326422    1.099    0.090
        43 -12.5212     96.3871    137.9051   1.0165518867e+02   3.4507658263e+01    0.2968403     0.278068  71.90 0.0004769258    1.066    0.062
        44 -11.5668    105.9477    131.0070   9.7725170531e+01   3.4463637404e+01    0.4628262    0.3201345 -56.04  0.002156093    1.394    0.283
        45 -11.4152    135.7655    127.6691   8.9287017229e+01   2.9414950539e+01     1.080696    0.2184187 -49.45  0.002550096    5.433    0.816
        46 -11.0767    115.2143    129.1499   9.4882735759e+01   3.3181301895e+01    0.3392368    0.2993404 -19.48 0.0008679781    1.328    0.247
        47 -10.4070    161.4647    128.2789   8.3275104178e+01   2.3734693148e+01    0.4393873    0.3330941  85.74  0.001943588    1.839    0.456
        48 -11.2696    102.9782    125.0081   9.7207023825e+01   3.6396791311e+01    0.3120138    0.2575436 -20.01 0.0008890501    1.511    0.338
        49 -11.2085    120.6481    122.9616   9.2029554386e+01   3.3546301691e+01    0.5139521    0.3110269 -25.00  0.001918192    2.671    0.626
        50  -9.4184    151.9356    119.0924   8.3215670214e+01   2.7786900052e+01    0.3488216    0.2110047 -70.05  0.001212493    2.876    0.652
        51 -10.2006    110.3884    118.5231   9.3705553182e+01   3.6545553271e+01    0.2446133    0.2351259 -70.07 0.0002278951    1.009    0.009
        52 -10.5361    167.7607    112.6533   7.7881659199e+01   2.5517699244e+01    0.3903514    0.2988968 -86.85  0.001234847    1.798    0.444
        53 -10.4692    134.5266    105.5203   8.3970036075e+01   3.4543334938e+01    0.6367639    0.1460211 -46.74  0.001611615    4.470    0.776
        54 -11.7582    119.0217    110.3273   8.9333493963e+01   3.6732628651e+01    0.6036966     0.459973  69.71  0.002153283    1.604    0.377
        55 -10.3613    205.4364    110.2048   6.9509541360e+01   1.7224641269e+01    0.3124582    0.2477802  45.06    0.0010142    1.307    0.235
        56 -11.1417     53.0443     90.9613   1.0428599648e+02   5.1851755867e+01     0.214302    0.1821143 -54.60 0.0006401561    1.010    0.010
        57  -9.6059    184.0183     84.0037   6.6594951550e+01   2.7093963113e+01     0.252696    0.1898302 -70.86 0.0007284899    1.650    0.394
        58 -10.3072     70.3345     72.2667   9.3477053143e+01   5.3745469580e+01    0.2224842    0.2091834  57.98 0.0003879479    1.263    0.208
        59 -12.8492    163.0439     63.0715   6.4639371877e+01   3.5987570725e+01     1.237435    0.8141702  60.91  0.001148313    1.564    0.360
        60  -9.2022    168.4391    248.8825   1.0368156132e+02   8.0380493290e-01    0.1442402    0.1020268 -85.67 0.0008046869    2.660    0.624
        61 -10.7086    158.2681    235.2652   1.0375262930e+02   4.3932878685e+00    0.2399451    0.1758531  44.23 0.0008779353    1.124    0.110
        62 -10.4090    168.1734    233.3692   1.0164078539e+02   3.0477869143e+00    0.2780335    0.1753011  52.40  0.001581238    1.587    0.370
        63 -11.7486     97.6004    200.5641   1.1121528325e+02   2.0449301655e+01    0.4024629    0.3483305  11.82 0.0009166137    1.626    0.385
        64 -10.2870     87.5107    202.9286   1.1358151218e+02   2.1506089943e+01    0.2443023     0.189034  49.62  0.001073572    1.195    0.163
