#   1 NUMBER                 Running object number                                     
#   2 MAG_AUTO               Kron-like elliptical aperture magnitude                    [mag]
#   3 X_IMAGE                Object position along x                                    [pixel]
#   4 Y_IMAGE                Object position along y                                    [pixel]
#   5 X_WORLD                Barycenter position along world x axis                     [deg]
#   6 Y_WORLD                Barycenter position along world y axis                     [deg]
#   7 A_WORLD                Profile RMS along major axis (world units)                 [deg]
#   8 B_WORLD                Profile RMS along minor axis (world units)                 [deg]
#   9 THETA_WORLD            Position angle (CCW/world-x)                               [deg]
#  10 FWHM_WORLD             FWHM assuming a gaussian core                              [deg]
#  11 ELONGATION             A_IMAGE/B_IMAGE                                           
#  12 ELLIPTICITY            1 - B_IMAGE/A_IMAGE                                       
         1 -13.8492     68.6326    144.4422   9.4136130866e+01   3.7436340871e+01      4.02704     2.039578  69.52  0.002851621    4.445    0.775
         2 -13.5856    207.4884     42.7592   3.5397859802e+01   2.9010383421e+01     1.796872     1.350075  33.92  0.007785488    1.865    0.464
         3 -13.3820    220.9512     30.8548   3.1182569615e+01   2.7579757174e+01     1.090985    0.8335121  45.10  0.006627908    1.714    0.417
         4 -11.0146    249.1272      9.7799   2.4522546533e+01   2.4243704419e+01    0.3214818    0.2610076 -15.68  0.002170552    1.889    0.471
         5 -12.3742    245.4550      5.3480   2.3934194707e+01   2.5454130668e+01    0.6136845    0.5455314 -65.20  0.004734651    1.270    0.213
         6 -10.2634    119.0690    212.3190   9.2170107662e+01   1.3499381572e+01    0.2467116    0.1958995 -22.88 0.0008900337    1.591    0.372
         7 -10.0138    139.7095    249.4644   9.2838470351e+01   3.1120413924e+00    0.2918335    0.1922746 -82.87  0.001464517    2.639    0.621
         8 -10.8722    101.8697    243.4849   9.9960782383e+01   9.8494730307e+00    0.3514736    0.1614567 -52.31  0.001677361    2.513    0.602
         9  -9.8845     91.8670    250.2409   1.0273121687e+02   1.0000197274e+01    0.3273744    0.1391945  27.54   0.00137067    2.960    0.662
        10 -14.6968      5.8153    185.6466   1.1529674863e+02   3.3916241131e+01     6.237171    0.9519368 -74.64   0.01513919    4.955    0.798
        11 -12.8786     34.1276    197.1909   1.0992679888e+02   2.8605618326e+01    0.6638368    0.5256759 -47.92  0.001708217    1.544    0.352
        12 -14.0515     44.3829    187.3270   1.0658188253e+02   2.9798168348e+01     2.139805     1.415046  58.98  0.009078955    1.468    0.319
        13 -10.3182    198.1230    203.8740   7.3330261701e+01   1.9196731825e+00    0.4318887    0.2706448 -61.14  0.001919421    2.659    0.624
        14  -9.9242    191.1744    191.3581   7.2395686500e+01   5.3950912951e+00    0.4936297    0.2845798 -65.70   0.00175016    3.890    0.743
        15  -9.0182    123.1722    200.2676   8.9358737616e+01   1.5422703042e+01    0.1981991     0.160779  68.33 0.0004910249    1.370    0.270
        16  -9.2099     99.3693    180.8687   9.2036719489e+01   2.3803701843e+01    0.2602226    0.2093106  30.69 0.0006163577    1.304    0.233
        17 -11.4044     61.5946    172.6729   1.0051088215e+02   3.1286822187e+01    0.4784803    0.3111119 -32.31   0.00143442    2.146    0.534
        18 -11.2406     66.7692    167.5802   9.8426616249e+01   3.1873395752e+01    0.3423172    0.2628615 -40.29  0.001385937    1.482    0.325
        19  -9.2200    186.4161    173.3746   6.9807827927e+01   9.7627938502e+00    0.3032174    0.2567425  88.07  0.001027853    1.655    0.396
        20  -9.5660     85.8853    172.9574   9.4223772837e+01   2.7823046498e+01    0.4043714    0.2816764 -10.18  0.001788463    2.296    0.564
        21 -11.8315     83.8770    152.5094   9.1252775052e+01   3.3206585209e+01     1.425091    0.6565524 -55.83   0.00303388    2.021    0.505
        22 -11.9625     76.3188    158.5284   9.4411764077e+01   3.2815153990e+01    0.7274336    0.5393905  64.25 0.0005699882    1.487    0.327
        23 -12.8409     63.5984    154.4550   9.7264927807e+01   3.5578917815e+01    0.5118482    0.3711074 -37.18  0.001112999    1.584    0.369
        24 -10.5344    119.7522    245.0924   9.6422979159e+01   6.9018518114e+00    0.3130752    0.1664657 -56.19  0.001338664    2.168    0.539
        25  -8.6341    110.5574    167.2943   8.6775385376e+01   2.5201940108e+01    0.2718737    0.1480876 -61.35   0.00109858    1.967    0.492
        26  -9.1661     43.0292    164.4584   1.0426699127e+02   3.5520391322e+01    0.2217353    0.2093896  31.54  0.001402487    1.239    0.193
        27  -8.1527    100.7059    162.2660   8.8444179710e+01   2.8097054351e+01    0.1472675    0.1131706  70.78 0.0002461869    1.509    0.337
        28 -10.4043     33.1990    159.5971   1.0625385585e+02   3.7738390044e+01     0.268358    0.2433069 -44.73   0.00108112    1.260    0.206
        29 -10.6162     32.4711    156.4603   1.0606922339e+02   3.8586077879e+01    0.5678056    0.2899262  45.31  0.002737946    2.065    0.516
        30 -10.1044    133.8938    145.3848   7.6142842888e+01   2.6114152403e+01    0.9786348    0.2369759 -54.11  0.002202365    5.908    0.831
        31  -8.6217    175.2114    149.4064   6.7087725250e+01   1.6892206142e+01    0.2076204    0.1453425  54.00 0.0005321719    1.623    0.384
        32  -8.3886     23.3035    146.3150   1.0732393835e+02   4.1926381122e+01    0.1331089   0.08536287 -46.11 0.0002819891    1.619    0.382
        33 -10.1264     29.9428    143.6460   1.0514009452e+02   4.2009432168e+01    0.3788697    0.3305643   2.49  0.001730481    1.416    0.294
        34 -10.2290     99.1086    138.7517   8.4182274205e+01   3.4166505964e+01     0.627543    0.4021731 -16.09  0.002403182    2.617    0.618
        35 -11.6153     86.1515    138.0059   8.7780238278e+01   3.6483554605e+01    0.3090848    0.2716178 -48.84 0.0004330079    1.097    0.088
        36 -10.2237    107.3306    130.3186   7.9937256717e+01   3.4766984550e+01    0.5754541    0.3806242  19.58   0.00243211    1.940    0.485
        37  -9.6983    135.7761    129.7222   7.1992227632e+01   2.9366544047e+01    0.4696583    0.1232872 -45.03  0.001280382    3.768    0.735
        38 -10.1445     48.4286    170.1485   1.0358093200e+02   3.3509155369e+01    0.3499022    0.2708295 -57.38  0.000862679    1.276    0.217
        39  -9.5899    228.5079    171.4941   6.1099229854e+01   2.6990150055e+00    0.1379876    0.1184458 -18.39 0.0008105694    1.015    0.015
        40  -9.1758     97.0324    124.9181   8.1684017955e+01   3.7905347449e+01    0.2380425    0.2101059 -21.20  0.001016565    1.208    0.172
        41 -16.4018     16.3834    242.0156   1.1668478278e+02   2.0822270927e+01     7.020728     5.800992  50.15   0.05345136    1.295    0.228
        42  -9.6781    161.2422    118.3024   6.2858308351e+01   2.6463570950e+01    0.5178304    0.3060905 -66.31  0.001856463    2.718    0.632
        43  -9.0434    106.2627    118.3800   7.7374945231e+01   3.7809059158e+01    0.2386437      0.19348 -38.18  0.000646496    1.223    0.182
        44 -10.0394    231.1821    113.6926   4.8321761286e+01   1.2616175120e+01    0.2703643    0.2501767  86.86 0.0007540556    1.209    0.173
        45  -8.2548     78.6104    113.3031   8.4620249091e+01   4.3723709569e+01    0.1527025    0.1144061  70.91 0.0007013662    1.802    0.445
        46  -8.5336    156.2250    111.4574   6.2284773367e+01   2.9006100675e+01    0.1993035    0.1505179  62.67 0.0004785769    1.503    0.335
        47 -10.4825     53.0147    110.9896   9.2465884340e+01   4.7751089652e+01    0.2837246    0.1942148 -45.20  0.001454466    1.335    0.251
        48 -11.2591    246.7081    109.0546   4.5029536384e+01   1.0493705225e+01    0.4268054    0.1389146 -39.49  0.001632087    2.610    0.617
        49  -9.1778    205.3731    110.2516   5.1840341388e+01   1.8469206311e+01    0.2884676    0.2037298  45.57  0.001017506    1.543    0.352
        50  -9.2301    241.3083    102.6549   4.4419792795e+01   1.2581524172e+01    0.1400635   0.09371302 -63.88 0.0007044021    1.699    0.411
        51 -11.0267    240.3649    169.5723   5.8618150886e+01   1.1130781469e+00    0.2615241    0.2077033 -16.51  0.000759743    1.150    0.130
        52  -8.7630    160.7642     83.9878   5.3906474787e+01   3.3383896182e+01    0.1999447    0.1247708 -39.07 0.0004742677    1.605    0.377
        53  -8.8931     44.9603     60.9076   8.2391011565e+01   5.9835102611e+01     0.189563    0.1672823 -18.41 0.0004852363    1.071    0.067
        54 -10.3772     13.4832     59.9867   9.5454395190e+01   6.2861334990e+01    0.2444164    0.1813735 -48.27 0.0003898636    1.127    0.113
        55 -11.4408    198.3992     48.8048   3.8035079710e+01   3.0245418057e+01    0.4929594    0.4362628  77.32 0.0009617276    1.101    0.092
        56 -11.0281     94.5629    241.4734   1.0125945533e+02   1.1292146885e+01    0.5055088    0.2247249 -62.93   0.00239189    2.516    0.602
        57 -14.8414      9.6799    207.9503   1.1597160052e+02   2.8572059698e+01     4.430245     1.104976 -67.88   0.01052563    3.195    0.687
        58  -7.8775    234.3144     45.3156   3.2930513108e+01   2.2847788811e+01    0.1130764   0.09927694  27.98 0.0003427537    1.644    0.392
        59  -9.1665    198.0920     23.4992   3.1951779014e+01   3.3561700996e+01    0.2110479    0.1797439 -11.89 0.0007344135    1.561    0.359
        60  -8.8350    189.5140     15.0195   3.0875731202e+01   3.6472971581e+01     0.173418    0.1216485 -35.62 0.0007609559    1.545    0.353
        61 -10.4213    139.4502    216.8108   8.8235779932e+01   9.2401833831e+00    0.2811535    0.2070989  58.51  0.001169031    1.543    0.352
