#   1 NUMBER                 Running object number                                     
#   2 MAG_AUTO               Kron-like elliptical aperture magnitude                    [mag]
#   3 X_IMAGE                Object position along x                                    [pixel]
#   4 Y_IMAGE                Object position along y                                    [pixel]
#   5 X_WORLD                Barycenter position along world x axis                     [deg]
#   6 Y_WORLD                Barycenter position along world y axis                     [deg]
#   7 A_WORLD                Profile RMS along major axis (world units)                 [deg]
#   8 B_WORLD                Profile RMS along minor axis (world units)                 [deg]
#   9 THETA_WORLD            Position angle (CCW/world-x)                               [deg]
#  10 FWHM_WORLD             FWHM assuming a gaussian core                              [deg]
#  11 ELONGATION             A_IMAGE/B_IMAGE                                           
#  12 ELLIPTICITY            1 - B_IMAGE/A_IMAGE                                       
         1 -13.1528      2.5431     76.8389   1.2192763436e+02   5.9199515342e+01      1.02537    0.1888881 -72.86  0.003575402    3.979    0.749
         2 -12.1042    210.8957     20.9246   4.7565630791e+01   2.9564846287e+01    0.6882359    0.3314992  38.56  0.001183023    2.889    0.654
         3 -12.8953      3.2372     10.4009   1.0574099033e+02   7.3480352404e+01     1.282079    0.5265788 -36.32  0.006867036    2.065    0.516
         4 -11.2958      3.0694      3.7313   1.0290034825e+02   7.4730519912e+01    0.3558612      0.23467 -35.87   0.00240781    1.146    0.128
         5 -12.6503    220.2539      9.8446   4.3520353770e+01   2.8410074440e+01    0.7554871    0.5690594 -51.64  0.002816495    1.231    0.188
         6 -12.5141    237.7812    198.6109   8.6328090239e+01  -1.0892813516e+00    0.9511548    0.5213118 -11.52  0.005089747    2.115    0.527
         7 -12.7104    215.0250    246.4547   9.7504155062e+01  -2.8959977145e+00      0.99155    0.6056749  39.49   0.00681087    1.363    0.266
         8 -11.1123    158.2455    246.1300   1.0691563375e+02   5.4461401186e+00    0.6463218    0.4538631 -22.78  0.004390907    2.114    0.527
         9 -12.5447    199.6793    234.0715   9.8341127969e+01   6.8298869567e-01     1.444349    0.8831111 -26.61  0.009276821    2.002    0.501
        10 -13.8346    171.3233    243.0376   1.0432731616e+02   3.8858272747e+00      1.19539     1.044181  40.67  0.008916934    1.190    0.160
        11 -12.4037    140.1664    223.2159   1.0743172472e+02   1.1343669306e+01     1.162694    0.6450255  50.32   0.00672199    1.563    0.360
        12 -14.1303    138.4352    239.8888   1.0963601893e+02   9.2043829724e+00     1.278103    0.8752288  60.54  0.007037048    1.489    0.329
        13 -12.4782    152.2075    237.4764   1.0696382856e+02   7.4741829789e+00    0.7380865    0.4854191 -57.01  0.004896492    2.053    0.513
        14 -15.3814    113.0923    243.5683   1.1438695714e+02   1.2339714089e+01     4.891212     2.132826  57.54   0.02578769    2.420    0.587
        15 -14.1150     63.8562    170.9843   1.1671619253e+02   3.2093908103e+01     1.490899     1.252559 -81.97  0.006819555    1.164    0.141
        16 -15.5159     18.2760    241.7381   1.2991427276e+02   2.4086884595e+01     1.684642    0.5780209  61.39   0.01026241    2.161    0.537
        17 -13.2989      6.7892    249.7722   1.3191921126e+02   2.3928449336e+01    0.5065793    0.1167701  44.51  0.002501353    2.515    0.602
        18 -15.5284     45.8507    194.6854   1.2257669477e+02   2.9471571769e+01      3.05503     1.452458 -78.92   0.01743277    1.998    0.500
        19 -13.6977    183.7042    237.3135   1.0149410941e+02   2.7171403076e+00     1.096114     0.918228  44.18  0.008049426    1.244    0.196
        20 -10.3620    240.0459    220.0125   8.9545421674e+01  -3.7847922758e+00    0.1848476    0.1373896  16.70  0.001318635    1.016    0.016
        21 -10.8452    191.5354    216.9390   9.7283991699e+01   4.0380380684e+00    0.4533559    0.2419636  44.19  0.002527152    1.631    0.387
        22 -10.1679    169.1757    214.7057   1.0099080669e+02   7.9628112848e+00    0.2334576    0.1727658 -40.30   0.00150745    1.642    0.391
        23  -9.7136    243.4678    226.4930   9.0022866604e+01  -4.9327379596e+00    0.1140971   0.08188794  17.01 0.0004253225    1.042    0.040
        24 -10.4487    164.4573    214.1940   1.0178658618e+02   8.8049300325e+00    0.2387927    0.1478666  39.95 0.0009101478    1.320    0.242
        25 -12.4644    133.8365    205.9742   1.0646472473e+02   1.5060480566e+01     1.098787    0.6730126 -33.87  0.005827632    2.490    0.598
        26 -12.4747    127.7126    198.0598   1.0662197438e+02   1.7392850476e+01    0.8905103     0.551485 -48.23  0.005011747    1.924    0.480
        27 -12.4009    119.3855    195.9212   1.0800652110e+02   1.9108827143e+01    0.7404637    0.5196868 -89.34  0.004116948    1.764    0.433
        28 -13.4070    108.0148    199.9727   1.1078522186e+02   2.0153122153e+01     1.204087    0.7531564  87.25  0.005618291    2.093    0.522
        29 -11.2911    205.1661    207.0955   9.3342755248e+01   3.0993751413e+00    0.4216026    0.2885939  19.81  0.002582932    1.378    0.274
        30 -12.5131    215.8936    206.0588   9.1301189955e+01   1.4928561995e+00    0.4726297    0.3463571   3.17   0.00304627    1.348    0.258
        31  -9.8206     11.0376    206.1359   1.2966866667e+02   3.0873305198e+01    0.1847701    0.1370639  31.75  0.001431364    1.766    0.434
        32 -11.4764    182.1806    194.6540   9.5497244086e+01   8.6940858949e+00    0.8038436     0.304491  35.36  0.003294649    2.634    0.620
        33 -13.4396    220.9284    182.9872   8.6374666948e+01   3.6180383856e+00     1.307468    0.7492815  -7.96  0.006322583    2.322    0.569
        34 -11.5165     83.7382    189.2666   1.1447696335e+02   2.5721888629e+01    0.8571126    0.4407079  45.28  0.004201214    1.682    0.405
        35 -10.9781     87.2820    183.3887   1.1307290579e+02   2.6371909301e+01    0.3877105    0.2786081  49.38  0.002169753    1.237    0.192
        36 -10.6348    136.3956    186.2791   1.0319472474e+02   1.8028403411e+01    0.3422274    0.2829875  56.23  0.002121354    1.118    0.106
        37 -10.7337     72.5669    183.5715   1.1618637010e+02   2.8374817982e+01    0.3997079    0.2782635 -42.53  0.002327033    2.111    0.526
        38 -14.3211     42.1883    245.3097   1.2631358901e+02   2.1022422302e+01    0.9402883     0.335125  50.13  0.005627837    1.912    0.477
        39 -12.6959    173.2110    173.4782   9.3562579761e+01   1.3652602551e+01    0.9648675    0.6926379 -16.03  0.005099128    1.762    0.433
        40 -12.3215    119.3042    175.9643   1.0523750658e+02   2.2844592590e+01    0.5994387    0.5270451 -87.76  0.003774856    1.170    0.145
        41 -11.5923    100.1600    169.3529   1.0846340904e+02   2.7270017109e+01    0.4767288    0.3855396  49.59   0.00290356    1.156    0.135
        42 -10.3188     89.9010    171.7790   1.1106978033e+02   2.8335728181e+01    0.4621676    0.2315761  56.38  0.002194103    2.039    0.510
        43 -10.4551     85.5420    167.7357   1.1151112142e+02   2.9816906562e+01    0.3442371    0.2636082  29.59  0.002030584    1.562    0.360
        44  -9.7733    135.5121    171.4731   1.0104234600e+02   2.0912238155e+01    0.2660606    0.1335194 -51.21  0.001214446    2.179    0.541
        45 -10.4148      4.8382    167.4870   1.2898548411e+02   3.8909226077e+01    0.3446857    0.1739149 -83.15  0.001883758    1.584    0.368
        46 -11.9308     14.2113    161.8011   1.2670114247e+02   3.9316043332e+01    0.7434801    0.3110206  63.94   0.00393739    2.207    0.547
        47 -10.8857     99.4016    162.4727   1.0763270842e+02   2.8817136891e+01     0.496588     0.266308  27.86  0.002181158    2.547    0.607
        48 -10.3235     85.1468    161.3688   1.1074604321e+02   3.1223305150e+01    0.2044749    0.1684597 -65.02 0.0005183417    1.254    0.202
        49 -11.3082     40.5029    159.7090   1.2076989545e+02   3.7241501133e+01    0.2942315    0.1687431  62.89  0.001420931    1.611    0.379
        50 -15.4128     43.0498    231.8916   1.2546941133e+02   2.3096619444e+01     1.862492    0.6960985  68.06  0.009796394    2.765    0.638
        51 -12.9568    109.9193    151.4296   1.0341546537e+02   2.9429401478e+01     1.339067    0.7390676 -50.39  0.006286561    1.899    0.473
        52 -12.8481     20.0543    150.9495   1.2464023605e+02   4.1134251214e+01    0.9924716    0.6116103  56.49  0.004836973    1.476    0.323
        53 -11.1576     26.6969    158.0730   1.2371480540e+02   3.8985973414e+01    0.3982019    0.2999287 -34.04  0.002569605    2.085    0.520
        54 -11.5771    173.4817    148.8919   8.8681756344e+01   1.7879424996e+01    0.4602615    0.3047823  12.06  0.002019752    2.211    0.548
        55 -11.5608     99.5424    145.2417   1.0484208634e+02   3.2499109984e+01    0.3392905    0.2497194  38.26  0.001222905    1.418    0.295
        56 -10.3544     70.3421    144.7019   1.1194409146e+02   3.6977486027e+01    0.2999259    0.2143574  85.98  0.001005578    1.381    0.276
        57 -10.9737     66.2421    142.1305   1.1259846435e+02   3.8103668883e+01    0.4387718    0.2552129  54.46  0.002265378    1.725    0.420
        58 -11.2122     87.9847    144.2338   1.0751085392e+02   3.4547424956e+01      0.26433    0.2251579 -47.60 0.0004812726    1.337    0.252
        59 -10.5418     74.0108    130.8294   1.0887461309e+02   3.9642093504e+01    0.3432291      0.16132 -73.60  0.001404688    2.477    0.596
        60  -9.3305     97.7202    129.4462   1.0242160955e+02   3.6325874998e+01    0.1721912    0.1378015  26.69 0.0009113929    1.487    0.328
        61  -9.7571      1.7100    127.8593   1.2722431142e+02   4.7630878857e+01    0.2106753    0.1075515 -76.86   0.00124477    1.508    0.337
        62 -11.0808     62.7445    121.9953   1.1043771098e+02   4.3209525514e+01    0.4593517    0.3522566  20.23  0.002608776    1.695    0.410
        63 -11.5536     29.1969    236.7571   1.2798541657e+02   2.3785311595e+01    0.1555447    0.1003383  68.94 0.0005641926    1.121    0.108
        64 -15.4857     74.8971    248.1232   1.2117879591e+02   1.6737579676e+01     2.306653     0.376631  39.33  0.008937803    4.536    0.780
        65 -15.6500     59.0836    235.3697   1.2297921736e+02   2.0673874317e+01     1.526925    0.9021814  78.52  0.009051214    1.575    0.365
        66 -10.5389    195.2269     34.5504   5.3560733164e+01   3.1962632006e+01    0.2769695    0.2057022 -28.31 0.0007437019    1.327    0.246
        67 -10.2483     17.6541     35.6748   1.0713295852e+02   6.7498994280e+01    0.1311784   0.07015038 -36.02 0.0007050186    1.744    0.427
        68 -12.0867    204.4434     28.5399   5.0539060382e+01   3.0325225925e+01    0.6683213     0.523414  70.43   0.00352032    1.290    0.225
        69 -13.5508    230.7009    196.1863   8.7083454276e+01   3.1917302917e-01     1.206902    0.7027101  -4.79  0.006424529    2.077    0.518
        70 -12.4753    225.4584    216.3151   9.1345201933e+01  -1.2127380153e+00     1.033128    0.5613819  -2.37  0.005287744    2.624    0.619
        71 -12.0370    234.5155    207.8550   8.8454469547e+01  -1.6426804885e+00    0.6760562    0.4305477  18.18  0.003692244    1.401    0.286
