#   1 NUMBER                 Running object number                                     
#   2 MAG_AUTO               Kron-like elliptical aperture magnitude                    [mag]
#   3 X_IMAGE                Object position along x                                    [pixel]
#   4 Y_IMAGE                Object position along y                                    [pixel]
#   5 X_WORLD                Barycenter position along world x axis                     [deg]
#   6 Y_WORLD                Barycenter position along world y axis                     [deg]
#   7 A_WORLD                Profile RMS along major axis (world units)                 [deg]
#   8 B_WORLD                Profile RMS along minor axis (world units)                 [deg]
#   9 THETA_WORLD            Position angle (CCW/world-x)                               [deg]
#  10 FWHM_WORLD             FWHM assuming a gaussian core                              [deg]
#  11 ELONGATION             A_IMAGE/B_IMAGE                                           
#  12 ELLIPTICITY            1 - B_IMAGE/A_IMAGE                                       
         1 -17.4815    198.4658     72.7382   7.0044850628e+01   2.6365201330e+01     12.43023     4.191791  45.05   0.03773256    4.814    0.792
         2 -17.5846    163.5344    115.6456   8.7071783300e+01   2.6290789842e+01     7.257192      2.39093 -45.96   0.02295177    2.974    0.664
         3 -16.9158    214.9746     98.1017   7.3230735434e+01   1.8333028556e+01     5.867469     3.004481 -67.22   0.02155414    3.098    0.677
         4 -18.5862    192.8492    126.0215   8.3476121381e+01   1.7673614183e+01     5.996867     4.152455 -55.94   0.02820893    1.443    0.307
         5 -17.8282    173.1875    140.4915   9.0904288673e+01   1.8822391006e+01     7.490014     3.152227  37.06   0.02464752    3.059    0.673
         6 -12.2543    201.6645     22.1438   5.8287861068e+01   3.2720519513e+01    0.3068761    0.2192185 -33.99 0.0003249425    1.676    0.403
         7 -11.5402    120.2820     29.4126   7.2684440641e+01   5.0285361180e+01    0.2409298    0.1810556  41.54 0.0006225602    1.231    0.188
         8 -12.1554     13.4477     13.9109   1.0208049021e+02   6.9698022561e+01    0.2383274    0.1749436  -9.24 0.0006014377    1.050    0.047
         9 -11.5130    191.4989     14.1257   5.7653726531e+01   3.5862041667e+01    0.2320388    0.1679953  51.88  0.001435272    1.574    0.365
        10 -11.2907    205.9941     12.8206   5.5892236940e+01   3.2821879442e+01     0.191136     0.151788 -68.72 0.0004715825    1.150    0.130
        11 -11.6929     89.5842      8.8139   7.2988658146e+01   5.8636094305e+01    0.3907819    0.1723745 -38.45  0.001936429    2.889    0.654
        12 -13.2023    227.2658      6.0200   5.2709324268e+01   2.9071503717e+01    0.6320942    0.2416204 -83.85  0.002624221    3.521    0.716
        13 -12.6819    244.7564      9.0663   5.1943697540e+01   2.5223175387e+01    0.4386618    0.1960386  80.93  0.002446997    2.006    0.501
        14 -13.9015    238.1379      5.3273   5.1762856448e+01   2.6949465062e+01    0.6319658    0.5442194  61.96  0.004790411    1.601    0.375
        15 -12.4954    248.3354      4.3315   5.0876336959e+01   2.5059331741e+01    0.4786466    0.2753314 -65.12  0.002578056    1.380    0.275
        16 -12.2637    100.9792      9.2155   7.0464049326e+01   5.6318111915e+01    0.2239929    0.1924585  38.23 0.0003628338    1.070    0.066
        17 -10.8120    178.7160      5.4159   5.7114027062e+01   3.9581373133e+01    0.2272875    0.1538603 -44.19 0.0008318372    1.600    0.375
        18 -10.5645     53.9439      5.9045   8.2199689294e+01   6.5267689225e+01    0.1681696    0.1298523  23.08 0.0002948986    1.019    0.019
        19 -11.3561    214.2037      5.2422   5.3629548341e+01   3.1873762587e+01    0.1708651    0.1086601 -73.10  0.001076225    1.356    0.263
        20 -11.5133    208.2569      1.7752   5.3457264048e+01   3.3489240936e+01     0.217207    0.1355285  75.70 0.0006501895    1.331    0.249
        21  -9.7595     93.7612      2.0146   6.9657261229e+01   5.8344399064e+01    0.1300172    0.0968122 -13.41 0.0004702232    1.554    0.357
        22 -10.7858    148.9543    227.3445   1.1375378848e+02   4.4368527240e+00    0.2620687    0.2347302  75.76  0.001511643    1.253    0.202
        23 -13.0109    234.6581    250.2287   1.0026157266e+02  -1.2860509271e+01    0.9395235    0.2105281  36.14  0.003408137    4.305    0.768
        24 -13.7036    247.5560    245.2191   9.7069557613e+01  -1.3782527060e+01     1.118759    0.4785583  33.70  0.001562739    2.335    0.572
        25 -11.3230    219.0287    226.5505   9.9068551100e+01  -6.9473345980e+00    0.2357523     0.175872 -48.78 0.0009018514    1.579    0.367
        26 -11.4524    197.0936    225.8973   1.0329614051e+02  -3.4139593368e+00    0.2821915    0.2493272 -84.09  0.000924981    1.614    0.380
        27 -11.3914    202.9002    225.3378   1.0202303624e+02  -4.2444290692e+00     0.266055    0.2157101  24.37 0.0005627212    1.173    0.147
        28 -12.9945    177.9488    222.1614   1.0660796776e+02   4.6647558942e-01    0.7686839    0.3643662  43.63   0.00303904    2.122    0.529
        29 -12.0667    247.2636    220.7785   9.2793776756e+01  -1.0028235376e+01    0.3101696    0.2281505  -4.83  0.001166411    1.285    0.222
        30  -9.6436     98.0221    222.0482   1.2429050080e+02   1.4190909919e+01     0.162584    0.1468707  72.42 0.0002980268    1.013    0.013
        31 -10.1339     30.4856    222.0112   1.3883635451e+02   2.3600869442e+01    0.1812977    0.1055972 -77.29 0.0003367551    1.497    0.332
        32 -13.1781    234.7984    215.7246   9.4114510489e+01  -7.4495967956e+00    0.4900641    0.2818386 -25.56   0.00103605    1.752    0.429
        33 -10.5530     90.7855    219.0102   1.2549989549e+02   1.6031792556e+01    0.1890547    0.1677004  89.10 0.0003102367    1.068    0.064
        34 -12.4072    206.2181    215.3461   9.9531499069e+01  -2.9750844036e+00    0.4350894    0.2999115  53.63  0.001292126    1.916    0.478
        35 -10.6095    170.8467    217.7912   1.0735115826e+02   2.5502134538e+00    0.2391567     0.217847  25.88   0.00061596    1.044    0.042
        36 -12.6017    123.6671    216.1931   1.1760701289e+02   1.1202406758e+01    0.5768819    0.3728084  28.42  0.002318117    1.725    0.420
        37 -10.0575     73.1920    218.4112   1.2935801934e+02   1.8843266334e+01    0.1872801    0.1128012  50.79 0.0002909752    1.558    0.358
        38 -12.1668    143.1542    215.8596   1.1313107021e+02   7.8480174877e+00    0.2960418    0.2668956  68.42 0.0005091745    1.170    0.145
        39 -11.3783     59.0941    215.8768   1.3216988420e+02   2.1420787568e+01    0.3890549    0.2993837 -29.94  0.002120255    1.966    0.491
        40 -11.5521     92.4293    214.1742   1.2445822549e+02   1.6883931257e+01    0.3807115    0.3025636  12.91  0.001911646    1.700    0.412
        41 -16.6388    148.3981    194.7418   1.0814202148e+02   1.1539813552e+01     5.593946     3.774632  64.82   0.02445664    1.946    0.486
        42 -12.3521     87.6143    175.1268   1.1950726901e+02   2.7146448187e+01    0.5314805    0.2709285 -58.02  0.001249425    1.846    0.458
        43 -11.9321     31.7536    180.0789   1.3428152625e+02   3.3393417887e+01    0.2495139    0.1920278 -80.67 0.0002832126    1.091    0.084
        44 -11.3675     22.1612    176.1361   1.3612230435e+02   3.5337154587e+01    0.2185768    0.1838377  62.49 0.0002922663    1.235    0.190
        45 -11.0688    102.0878    172.7638   1.1534259290e+02   2.5312570146e+01    0.5331887    0.2595206  57.39  0.001842233    2.894    0.654
        46 -10.7250     62.2728    173.3210   1.2575353666e+02   3.1374853113e+01    0.2166044    0.1960205 -55.81  0.000350742    1.161    0.139
        47 -10.0420     78.8135    172.1638   1.2127857258e+02   2.9274417238e+01    0.1983812    0.1672716 -40.13 0.0003895645    1.320    0.243
        48 -10.4394    240.8731    169.3813   8.4060017997e+01  -1.1594784294e-01    0.3452984    0.1196023  54.75 0.0009359367    7.018    0.858
        49 -10.2546     37.8643    165.8221   1.3094450643e+02   3.6264083101e+01    0.1854926    0.1432153  79.68 0.0003297583    1.293    0.227
        50 -11.6588    220.7870    206.9204   9.5090589484e+01  -3.7826172399e+00    0.3566556    0.2364285 -26.74  0.001103939    1.477    0.323
        51 -10.3436    250.6391    159.8581   8.0550801177e+01   4.2529413536e-02    0.1914891    0.1088129 -40.34 0.0003681472    1.484    0.326
        52 -11.2255     85.9593    158.9512   1.1699153561e+02   3.1490224741e+01    0.3316261    0.2264887  23.74 0.0008730257    1.786    0.440
        53 -10.8824    113.9848    180.9901   1.1385687894e+02   2.1171017339e+01    0.2223036     0.213422 -81.76 -0.007547014    1.017    0.017
        54 -10.3174     42.2001    158.6441   1.2877851068e+02   3.7576254604e+01    0.1981791     0.156634 -77.93  0.001068145    1.134    0.118
        55  -9.7808      2.2711    159.3182   1.3909805432e+02   4.1099943164e+01    0.1245644   0.07573348 -52.99 0.0002407369    1.562    0.360
        56  -9.9172     30.2888    249.3249   1.4107415571e+02   1.7716182335e+01    0.1042866   0.08702039 -57.53 0.0002986486    1.610    0.379
        57 -11.5266    217.6000    210.5070   9.6384129108e+01  -3.9242330168e+00    0.2374309    0.1782321 -45.77 6.913816e-05    1.403    0.287
        58 -10.9009     78.2722    156.0212   1.1853046809e+02   3.3438372072e+01      0.20992    0.1782021 -65.45 0.0003115529    1.090    0.083
        59 -11.9595    111.5741    184.4771   1.1509837249e+02   2.0751764747e+01    0.4992492    0.2626206 -55.95  0.001628409    1.870    0.465
        60 -13.3107     80.2781    149.2148   1.1665814419e+02   3.4843056001e+01    0.4168659    0.2892614 -58.76 0.0009440496    1.338    0.253
        61  -9.8669      1.5312    214.4765   1.4398199251e+02   2.8295352809e+01    0.1192662   0.09112025  88.97 0.0004366814    1.054    0.051
        62 -11.0469     13.7023    146.9977   1.3474717049e+02   4.3198672781e+01    0.1900156    0.1417589 -71.63 0.0004070795    1.085    0.079
        63 -16.6957    234.6345    123.9857   7.5746841050e+01   9.5552439444e+00     2.718776     2.165243  68.93   0.01543345    1.439    0.305
        64 -10.3951     20.7491    145.5754   1.3266148735e+02   4.2958084036e+01    0.1732297    0.1135061  45.28 0.0009518947    1.742    0.426
        65 -10.8239    226.9636    191.4757   9.0934393171e+01  -1.9457202478e+00    0.2804947    0.1862589 -40.39  0.001468051    1.370    0.270
        66 -10.4626     11.8390    208.1134   1.4145569833e+02   2.8754077379e+01    0.1579389    0.1257243 -68.54 0.0003716928    1.302    0.232
        67 -12.9609    109.9171    134.4823   1.0516938043e+02   3.3341150266e+01    0.5471815    0.3606116 -49.61  0.002147641    1.457    0.314
        68 -11.9631    222.7929    250.2443   1.0247748664e+02  -1.1274229332e+01    0.2804545    0.1591429  32.95 0.0005770468    1.664    0.399
        69 -10.0988     18.9645    133.5072   1.3140449523e+02   4.6038907229e+01    0.1561408    0.1312655  21.00 -1.538481e-05    1.450    0.310
        70  -9.5380     51.4996    245.4792   1.3674420062e+02   1.5866415909e+01    0.1257749    0.1008948  72.54 3.335031e-05    1.007    0.007
        71 -12.4589     92.8604    126.9258   1.0820891347e+02   3.8252657112e+01    0.5487174    0.3264822 -43.45  0.002373851    1.651    0.394
        72 -10.8448     87.5235    128.3354   1.1009419065e+02   3.8823211058e+01    0.3549182    0.2275242 -26.34  0.001486048    2.084    0.520
        73 -13.0048    101.8494    124.9470   1.0514844082e+02   3.7114851994e+01    0.5869288    0.3959428 -58.79  0.002648277    1.534    0.348
        74 -10.8589     78.0538    127.9704   1.1280516888e+02   4.0437021178e+01    0.2200728    0.2077517 -51.18  0.001234721    1.018    0.018
        75 -16.4633    194.8811    201.6780   9.9247587196e+01   1.5387991797e+00     5.309807     2.272979 -48.19   0.02089682    2.412    0.585
        76  -9.7740     63.4974    122.0183   1.1587985476e+02   4.3994898088e+01    0.2072667    0.1301913 -55.46 0.0003216139    1.444    0.308
        77 -10.8650     34.9603    117.7232   1.2387270006e+02   4.8376132031e+01     0.186853    0.1662321 -34.25  0.001163553    1.133    0.117
        78 -14.2359    248.4054    114.8143   7.1835400819e+01   8.6587126702e+00    0.3869074    0.3499179 -40.30  0.001303212    1.192    0.161
        79 -10.9135    247.9651    109.4667   7.0816914894e+01   9.6939589240e+00    0.2238959    0.1537488 -64.02 0.0003284462    1.440    0.306
        80 -10.9673     85.3398    181.1561   1.2111479614e+02   2.5999356206e+01    0.2910363    0.2399685 -83.95 0.0002421779    1.189    0.159
        81 -11.0081     67.7349    115.6625   1.1311669919e+02   4.4903803896e+01    0.3341141    0.1966196 -67.34  0.001441127    2.040    0.510
        82 -10.3598    239.5777    113.5328   7.2826749798e+01   1.0543190895e+01    0.1783052    0.1629165  51.90 0.0004663662    1.310    0.237
        83  -9.6659    239.7391    110.3580   7.2146969896e+01   1.1087971372e+01    0.2190212    0.1347686 -47.04 0.0004251873    1.392    0.281
        84  -9.8280    114.5954    204.5287   1.1782516178e+02   1.5432286381e+01    0.1456142    0.1350709  78.32 5.273543e-05    1.037    0.035
        85 -11.5626     76.6648    201.0965   1.2628712634e+02   2.2424467579e+01    0.4455573    0.2399897 -57.88  0.001546836    1.790    0.441
        86 -12.0727     97.2325    107.9780   1.0219184910e+02   4.1837903724e+01     0.344334    0.2429607 -39.33 0.0008527054    1.397    0.284
        87 -10.7099    241.4578    104.2399   7.0645418949e+01   1.1853131712e+01    0.2294261    0.1178387 -41.20 0.0006016813    1.754    0.430
        88 -12.0675    100.8709    102.6593   9.9704861633e+01   4.2320923549e+01    0.4751284    0.2246313 -39.65  0.001643535    2.194    0.544
        89 -10.7080     79.1003    103.2253   1.0645664222e+02   4.6002502648e+01    0.2118225    0.1846314 -14.52 0.0003467441    1.171    0.146
        90 -10.6695    246.0879    100.9617   6.9352080278e+01   1.1544275663e+01    0.1999321     0.147697 -65.55 0.0003514406    1.264    0.209
        91 -12.3161    242.1137     95.2664   6.8721771408e+01   1.3298160411e+01    0.4055327    0.3941455  26.51  0.000929858    1.376    0.273
        92  -9.6884    247.4566     96.5923   6.8293975881e+01   1.2041232006e+01    0.1987944    0.1603734 -69.08 0.0001921149    1.123    0.109
        93 -11.0036     73.1005     97.1155   1.0674154813e+02   4.8272043554e+01    0.2190128    0.1824206 -16.68 0.0006279619    1.222    0.182
        94 -10.0093     32.6340     96.0896   1.2005707858e+02   5.3539032985e+01    0.2002338   0.09355968 -47.44 0.0009410692    1.767    0.434
        95  -9.9986     12.3336     95.3213   1.2683860883e+02   5.5367359704e+01    0.1343904   0.07274514 -37.14  0.000704983    1.702    0.413
        96 -10.9906     87.4946     88.9156   9.9900875785e+01   4.7607686751e+01    0.2945628    0.2386855 -10.12 0.0009442763    1.331    0.249
        97 -10.4597    242.4800     87.8027   6.7158749013e+01   1.4501095709e+01    0.3320219    0.1187319 -39.57  0.001312955    2.664    0.625
        98 -11.0483    226.0711    210.0349   9.4676086204e+01  -5.1633833492e+00    0.3363409    0.2285542  41.41  0.001218372    1.647    0.393
        99 -10.5090     45.9619    201.5184   1.3345974579e+02   2.6529336943e+01    0.1885128    0.1275034  38.92 0.0006723301    1.571    0.363
       100 -11.2065    230.7829     85.0961   6.8125859867e+01   1.7307664656e+01    0.2136916      0.18343  70.88 0.0002694505    1.253    0.202
       101 -10.8550    107.3194     82.9436   9.2291029460e+01   4.5042066992e+01    0.1982132    0.1788943 -27.11   0.00034715    1.108    0.097
       102 -10.9854     52.3988     81.1734   1.0932628804e+02   5.4486317486e+01    0.2277154    0.1722988 -16.25 0.0004356525    1.317    0.241
       103 -11.2843    232.6738     81.0727   6.7036533984e+01   1.7595573766e+01    0.2364245    0.1878659  72.07 0.0005799321    1.305    0.234
       104 -13.3835    110.1083     76.7579   8.9692945531e+01   4.5613455643e+01     0.600804    0.4208802  48.35  0.003010723    1.420    0.296
       105 -12.0415    107.6277     70.2702   8.8430953155e+01   4.7251238655e+01      0.33383    0.2542013 -59.24  0.001193055    1.632    0.387
       106 -10.2967    229.6096     76.8920   6.6562182744e+01   1.8917802954e+01    0.3545122    0.2042558 -22.90  0.001456192    3.242    0.692
       107 -10.1137     70.2572     77.9727   1.0225009783e+02   5.2596395793e+01    0.1844146    0.1623157 -24.33  0.000327205    1.053    0.050
       108 -10.5269     94.7883     77.3881   9.4284230088e+01   4.8501904473e+01      0.19514    0.1277258  30.95 0.0002476554    1.591    0.372
       109 -17.5665    204.7252    144.0166   8.5246401967e+01   1.1497568292e+01     2.961525     2.110145 -44.05   0.01458907    1.292    0.226
       110 -10.5739     88.6259     72.1782   9.4568278928e+01   5.0577610213e+01    0.1909977    0.1243028 -29.02 0.0003130567    1.613    0.380
       111  -9.9183     50.8208     71.9094   1.0720002278e+02   5.6489681120e+01    0.1595204    0.1485014 -49.39 0.0003190298    1.294    0.227
       112 -12.3001    243.2896     65.8580   6.2678444538e+01   1.7891148826e+01      0.88906    0.4048461 -89.82  0.003135717    4.482    0.777
       113 -11.5080    249.1258     65.2301   6.1918884633e+01   1.6837243294e+01    0.1998092    0.1739576  81.35 0.0003942196    1.268    0.211
       114 -10.4676    226.8372    198.6238   9.2352056342e+01  -3.2387319939e+00     0.234919    0.2088097  39.20  0.001084867    1.307    0.235
       115 -10.6318     11.0296     65.7560   1.2057560820e+02   6.1563308965e+01    0.1640748    0.1260467 -29.36 0.0004143686    1.072    0.067
       116 -11.8711    110.3425     64.3120   8.5876869646e+01   4.7681783498e+01     0.382645    0.2289875  26.72  0.001688689    2.127    0.530
       117 -11.1594    100.4169     62.1380   8.7939154096e+01   5.0037913982e+01    0.2657029    0.2102833  21.88   0.00100014    1.287    0.223
       118 -10.3933     97.9837     58.5370   8.7492841925e+01   5.1083158514e+01    0.2032746    0.1792046 -22.66 0.0005509801    1.161    0.139
       119 -11.6208    131.2273     60.5581   7.9562530516e+01   4.3767252826e+01    0.2876258    0.2046987   2.63 0.0008616632    2.038    0.509
       120  -9.9616     34.2062    198.1916   1.3574169520e+02   2.8723575327e+01    0.1780234    0.1278995  73.97 0.0003139628    1.284    0.221
       121 -11.0795    132.0025     44.9919   7.4844333187e+01   4.5809459295e+01    0.2741988    0.1874266  65.47 0.0008740877    1.455    0.313
       122 -13.4618    140.5931     47.9627   7.3914916048e+01   4.3469898797e+01     1.081944     0.400905 -26.99  0.003810713    3.854    0.741
       123 -11.8971    136.2038     43.6170   7.3567952483e+01   4.5043550167e+01    0.3199029    0.2689959 -80.56 0.0009376276    1.343    0.256
       124 -10.1110     54.3470     59.6556   1.0209108420e+02   5.8228306669e+01    0.1176126    0.1044229  80.87 0.0007044172    1.800    0.444
       125 -10.3559     32.3880     58.7881   1.1014520272e+02   6.1021383146e+01    0.1699422   0.09438887 -36.82 0.0002795797    1.551    0.355
       126 -10.4976     11.4029     58.1444   1.1837135207e+02   6.2971266840e+01    0.1808494    0.1315501 -17.65 0.0004542949    1.218    0.179
       127 -10.9899    233.0753    195.5685   9.0607980052e+01  -3.6697173170e+00    0.3121744    0.1904852 -37.83  0.001077337    1.461    0.316
       128  -9.4414     67.2627     57.6795   9.6872514038e+01   5.6658895159e+01     0.113975    0.1047827 -72.79 0.0002853118    1.552    0.356
       129 -11.9806    213.5654    195.2282   9.4226260282e+01  -4.2829742666e-01    0.5290343    0.4321158  19.05  0.002992018    1.266    0.210
       130 -11.3848    116.2894     54.9952   8.1481011002e+01   4.7864772923e+01    0.3143794    0.1772324 -25.50  0.001112158    2.127    0.530
       131 -10.7033    121.5692    243.3757   1.2208769593e+02   5.8135487286e+00    0.2568552    0.2061698  68.12  0.001030936    1.293    0.227
       132 -11.5815    129.1175     55.3112   7.8510791261e+01   4.5021451489e+01     0.232734    0.1622449  35.14  0.001186045    1.530    0.346
       133 -10.4417     90.6882     54.7469   8.8396800984e+01   5.3063912239e+01    0.2577751    0.1638713 -13.95  0.001254192    1.971    0.493
       134 -11.4517    249.4994     53.2069   5.9586362666e+01   1.8561836209e+01    0.2133254    0.1612329 -73.18  0.000381086    1.075    0.070
       135 -11.6906    121.1314     53.3395   7.9791449913e+01   4.7062438524e+01    0.2922296    0.2108944  67.72 0.0009922296    1.552    0.356
       136  -9.6598     51.7041     54.7021   1.0142654325e+02   5.9417990343e+01    0.1279129   0.08598733  -8.14 0.0001869965    1.569    0.363
       137  -9.4214     61.7079     53.7240   9.7479609000e+01   5.8148771709e+01    0.1269863   0.08873254  -0.78   0.00016383    1.522    0.343
       138 -10.4804     57.2222     52.9463   9.8817100543e+01   5.8932816304e+01    0.2026614    0.1608874  20.25 0.0005008095    1.186    0.157
       139 -10.8127     99.9827     50.9955   8.4509765444e+01   5.1813744719e+01    0.3813979    0.1335525  55.01  0.001208454    3.489    0.713
       140 -12.7890    118.2684    191.0046   1.1462696917e+02   1.7977244266e+01    0.5335219    0.4231203 -47.94  0.002327011    1.301    0.232
       141 -16.0296    174.4890    120.6636   8.5932549363e+01   2.2798261028e+01     2.054538    0.7424182 -40.05  0.006685135    2.874    0.652
       142 -10.0111    112.4480     48.5103   8.0435197092e+01   4.9602345019e+01    0.1337031    0.1212567  35.71 -2.088108e-06    1.011    0.011
       143 -10.2340    234.1337    190.2997   8.9389764364e+01  -2.8814190325e+00    0.1698884    0.1550832  -8.41 0.0003058081    1.090    0.083
       144 -11.2652    230.5122     46.9768   6.0324664874e+01   2.3296953448e+01    0.2159824    0.1623079  80.66 0.0003919843    1.235    0.190
       145 -11.3372    213.6134     45.4354   6.1904172404e+01   2.7122237426e+01    0.3342077    0.2465076  26.06 0.0009681204    2.465    0.594
       146 -10.4585     76.0461     46.9656   9.0319825774e+01   5.6853068729e+01    0.1884232    0.1604541   9.99  0.001189337    1.039    0.037
       147 -12.1275    155.7594     44.3276   7.0037467712e+01   4.0467582525e+01    0.3735447    0.2594578 -33.89    0.0020252    1.607    0.378
       148 -10.9068    202.3955     44.9595   6.3175265464e+01   2.9667564551e+01     0.228911    0.1601603  87.52 0.0007168984    1.344    0.256
       149 -11.8894    150.5668     44.5283   7.1030745173e+01   4.1641125050e+01    0.2656547     0.255116  89.44  0.001172345    1.087    0.080
       150 -11.4814    146.1225     43.5163   7.1584361642e+01   4.2796308219e+01    0.2569217    0.1805194 -27.56  0.001291312    1.657    0.397
       151 -12.0934    124.7324     42.7531   7.5762719114e+01   4.7716367916e+01    0.3422169    0.2295832 -19.63  0.001307766    1.804    0.446
       152 -12.1486    118.4828     41.4529   7.6787111863e+01   4.9246471204e+01    0.3859364    0.2006048 -32.41  0.001844692    2.116    0.527
       153 -10.3887     99.5134     44.5385   8.2538824232e+01   5.2802019701e+01    0.1317387    0.1165671  29.42 8.786476e-05    1.007    0.007
       154 -10.3207     95.5200     44.4992   8.3626223889e+01   5.3598083900e+01    0.1306804    0.1164903  27.03  0.000116662    1.013    0.013
       155  -9.9123     90.4777     44.5317   8.5073051395e+01   5.4568480896e+01    0.1304655    0.1146406  23.00 0.0001289072    1.002    0.002
       156 -11.1943    211.7199     39.6356   6.0892483815e+01   2.8325940450e+01    0.2603692    0.1613446  77.02  0.000875924    1.488    0.328
       157 -10.3211    208.2493     39.0143   6.1162329325e+01   2.9170563146e+01    0.1760276    0.1599442  86.89 0.0002255937    1.191    0.160
       158 -12.2902    191.9946     38.7498   6.3117181886e+01   3.2842790233e+01    0.3810632    0.2552239 -13.82  0.001203011    2.483    0.597
       159 -12.2634    183.6620     38.9346   6.4285796079e+01   3.4719137421e+01    0.4049866    0.2386862 -65.92  0.001388525    1.917    0.478
       160 -11.2852    155.1525     38.7011   6.8643918501e+01   4.1331162739e+01    0.3766843    0.1344605  59.66 0.0008737021    2.431    0.589
       161 -10.1635     25.8399     39.1719   1.0630470867e+02   6.4949436722e+01    0.1590323    0.1334485 -10.02 0.0003369085    1.148    0.129
       162 -10.7791    196.4837     38.0366   6.2378058842e+01   3.1921078569e+01    0.1731212    0.1243212 -39.36 0.0006583669    1.520    0.342
       163 -10.4073     92.6060     37.6986   8.2164062749e+01   5.5048322442e+01    0.1659361    0.1186065 -38.60 0.0009471927    1.595    0.373
       164 -10.6009    131.3454     37.0972   7.2668944641e+01   4.6954358611e+01    0.2075961     0.159687  48.23 0.0002918139    1.183    0.155
       165 -10.9435    133.3513     33.8288   7.1311167213e+01   4.6893907422e+01    0.2144139    0.1667926  37.74 0.0007156399    1.314    0.239
       166 -11.6514    233.2347     35.5700   5.7800144650e+01   2.4289724182e+01    0.2211172    0.1792921 -74.51 0.0004034403    1.061    0.057
       167 -12.1705    218.6007     33.7615   5.8913238609e+01   2.7606503811e+01    0.3594685    0.1746576 -53.83   0.00183588    1.913    0.477
       168 -12.0590    145.4653     33.8412   6.9029702854e+01   4.4147703021e+01    0.4531378    0.2586064 -57.93  0.001480984    2.275    0.560
       169 -11.4144    148.0938     29.0520   6.7258019528e+01   4.4099251793e+01     0.351562    0.2192677  78.82  0.001823246    1.705    0.414
       170 -12.0877    199.6087     33.1063   6.0898248490e+01   3.1851345444e+01    0.2904556    0.2090462 -70.52 0.0007467972    1.289    0.224
       171 -10.2111    171.0933     33.5356   6.4777451788e+01   3.8286170050e+01     0.207287    0.1625735 -81.06 0.0009113166    1.248    0.199
       172 -11.1843    166.9201     32.6615   6.5181329133e+01   3.9353326916e+01    0.2682019    0.1963912 -85.58 0.0007561303    1.394    0.283
       173 -10.7836    187.9740     32.6824   6.2245698021e+01   3.4525109778e+01    0.1866254     0.144269  79.32  0.000796169    1.120    0.107
       174 -10.0660     99.5394     32.9978   7.8723562080e+01   5.4241111452e+01    0.1817863    0.1245576 -26.58  0.001033611    1.602    0.376
       175 -10.7070     55.2240     33.5650   9.2630358227e+01   6.2042525579e+01    0.1684741   0.09861334  25.92 0.0007863616    1.608    0.378
       176 -10.5755     21.6904    243.1142   1.4220296785e+02   2.0003949802e+01    0.1864706    0.1266123  63.09 0.0002255693    1.206    0.171
       177 -12.1039    182.3651     27.9334   6.1868719261e+01   3.6372903208e+01    0.2988821    0.2012655 -66.96 0.0004700251    1.514    0.340
       178 -11.8370    203.1611     28.3529   5.9453825742e+01   3.1651214329e+01     0.266603    0.1896576 -77.33 0.0008046955    1.268    0.211
       179 -10.0684      2.2506    242.7149   1.4565900273e+02   2.2154375806e+01    0.1421929    0.1117101 -78.46 0.0009882958    1.336    0.251
       180 -11.6752    188.5119     27.5142   6.0992868094e+01   3.5028293568e+01    0.2405407    0.2021924  83.85 0.0005553226    1.042    0.040
       181 -10.8545    161.8868     27.1714   6.4549706928e+01   4.1149563429e+01    0.1960213    0.1557295 -84.98 0.0005082854    1.237    0.192
       182 -10.7916     32.9575    242.4793   1.4005446560e+02   1.8830001614e+01    0.1701437    0.1068436  43.06  0.000507283    1.551    0.355
       183 -11.2349    210.7659     25.2577   5.7980777064e+01   3.0360418166e+01    0.2416373    0.1410684  66.99   0.00110971    1.560    0.359
       184 -12.2151    226.4964     23.7998   5.6151440394e+01   2.7185300539e+01    0.3630291     0.125179  63.37  0.001679315    2.640    0.621
       185 -10.8113    235.2112     21.7963   5.4996749580e+01   2.5632311359e+01    0.1455175    0.1249898  79.30 0.0003872885    1.325    0.245
       186 -10.3728    175.0906     22.5482   6.1545674131e+01   3.8643766167e+01    0.1918643    0.1075673  69.80 0.0005431838    1.542    0.351
       187  -9.9693    168.5809     21.7371   6.2224508573e+01   4.0216845149e+01    0.1638613    0.1095266 -50.77 0.0007218625    1.585    0.369
       188 -12.0641    214.1723     31.8240   5.8982989720e+01   2.8809089370e+01    0.2678254    0.1939576 -45.71  0.001663962    1.418    0.295
       189  -9.9879    107.0042     22.3181   7.3393686486e+01   5.3866390250e+01    0.1718075    0.1383808  48.33 0.0002993194    1.062    0.058
       190 -13.7746    246.1433    185.6195   8.6363045220e+01  -3.9073846175e+00    0.4148135    0.3151117   3.22  0.001437375    1.492    0.330
       191 -10.3352    194.0202     19.7205   5.8602097675e+01   3.4690555120e+01    0.1703868    0.1322962  81.02 0.0001916656    1.084    0.077
       192 -10.8081     16.0413     19.9692   1.0336723110e+02   6.8668507160e+01    0.1664757    0.1242246  -8.04  0.000350737    1.024    0.023
       193 -10.8162     19.0750     16.4514   1.0054586189e+02   6.8813932805e+01    0.1582231    0.1309254 -10.13 0.0003480903    1.279    0.218
       194 -12.4640    238.8721     15.6898   5.3569623716e+01   2.5623382733e+01    0.2487342    0.1658554 -85.95   0.00165335    1.215    0.177
       195  -9.9591    162.4302     15.8018   6.1600773023e+01   4.2236594754e+01    0.1404121     0.123144   1.07 0.0003662148    1.520    0.342
       196 -11.1144    190.0379    241.5229   1.0743274929e+02  -5.0431809372e+00    0.3383974    0.1189911  36.06   0.00133916    2.657    0.624
       197  -9.7701     56.7225    241.6532   1.3535953319e+02   1.5982887398e+01    0.1142764   0.09540212 -46.41 0.0007006781    1.634    0.388
       198 -11.6490    235.0664    235.1658   9.7582721512e+01  -1.0643089448e+01    0.2650218     0.193037  34.62  0.001083515    1.490    0.329
       199  -9.9781    128.3695     13.2705   6.6265274137e+01   5.0131049588e+01    0.1307464   0.07678191  42.14 0.0006997647    1.669    0.401
       200  -9.4960    154.6421     12.7079   6.1908372729e+01   4.4304282383e+01    0.1278221   0.07995033  45.09 0.0007029223    1.691    0.409
       201  -9.8734     52.9913    236.0414   1.3557064871e+02   1.7691941288e+01    0.1528683    0.1241505  70.97 0.0002963508    1.029    0.028
       202  -9.5579     76.6872     11.6816   7.7422225539e+01   6.0839591234e+01    0.1244635   0.07389826  26.09 0.0005414689    1.647    0.393
       203 -10.4217     32.2720    234.7114   1.3956068008e+02   2.0578562320e+01    0.3123865    0.1127618  66.05  0.001139006    3.899    0.744
       204 -11.3920    245.9243    233.4844   9.5313711088e+01  -1.1834232747e+01     0.240862    0.1613682  -7.82  0.001004125    1.455    0.312
       205 -10.6816    249.8531    232.3822   9.4420352466e+01  -1.2175915725e+01    0.1949293     0.175061 -14.68 0.0005836519    1.267    0.211
       206 -11.3032    193.0767    232.4341   1.0526534855e+02  -3.9374277877e+00    0.2324435    0.1922884 -45.47 0.0004420963    1.349    0.259
       207 -11.4941    178.3589    231.7396   1.0818648934e+02  -1.4126254396e+00    0.2628206    0.1892007  39.70 0.0005128506    1.338    0.253
       208 -11.4623    176.5811    228.5197   1.0800795719e+02  -5.1438714106e-01    0.2530299     0.235134 -11.60 0.0005552795    1.075    0.070
       209 -10.9156    144.6985    230.9464   1.1526219053e+02   4.4398407512e+00    0.2462519    0.1845216  46.18 0.0002736432    1.264    0.209
       210 -10.3660     81.7460    230.0365   1.2890553290e+02   1.4943868257e+01    0.1831912    0.1602967  82.43 0.0003064809    1.057    0.054
       211 -10.2309     69.1604    230.1802   1.3161310454e+02   1.6758884067e+01    0.1824384    0.1725017  75.89 0.0003980575    1.200    0.167
