#   1 NUMBER                 Running object number                                     
#   2 MAG_AUTO               Kron-like elliptical aperture magnitude                    [mag]
#   3 X_IMAGE                Object position along x                                    [pixel]
#   4 Y_IMAGE                Object position along y                                    [pixel]
#   5 X_WORLD                Barycenter position along world x axis                     [deg]
#   6 Y_WORLD                Barycenter position along world y axis                     [deg]
#   7 A_WORLD                Profile RMS along major axis (world units)                 [deg]
#   8 B_WORLD                Profile RMS along minor axis (world units)                 [deg]
#   9 THETA_WORLD            Position angle (CCW/world-x)                               [deg]
#  10 FWHM_WORLD             FWHM assuming a gaussian core                              [deg]
#  11 ELONGATION             A_IMAGE/B_IMAGE                                           
#  12 ELLIPTICITY            1 - B_IMAGE/A_IMAGE                                       
         1 -15.7242    232.7305     12.6224   6.2145813142e+01   2.5168257126e+01      2.31987     1.669626   8.47  0.009510208    2.083    0.520
         2 -17.2198    248.1084     22.3327   6.3140020008e+01   2.0419478927e+01     9.258097     7.817511  33.92   0.03481353    1.554    0.356
         3 -14.9503    248.6883      5.5474   5.9199786193e+01   2.2179787552e+01    0.7543869    0.5916333  -0.68  0.003640344    1.795    0.443
         4 -11.2993    119.5058     27.6095   8.4036779830e+01   5.2382101339e+01    0.3995677    0.3325222 -82.95  0.002145139    1.528    0.346
         5  99.0000    184.4758      5.9882   6.5238829596e+01   3.8113893511e+01     1.015059    0.4535642  28.60  0.003255747    4.595    0.782
         6 -11.0918    178.6611     10.7696   6.7392740349e+01   3.9171114042e+01    0.6611565    0.2519012 -27.40  0.002121292    2.678    0.627
         7 -10.4993    179.3710      6.7599   6.6083418736e+01   3.9378831359e+01    0.3267326    0.2686704  -4.33  0.001287977    1.449    0.310
         8  -8.3608    181.4046      1.4607   6.4250101923e+01   3.9339666551e+01    0.2540773    0.1220226  87.85  0.001025606    2.332    0.571
         9  -8.6730    213.6202    188.2839   1.0706351235e+02   2.7586038724e+00    0.1259626    0.1041459  71.01 0.0007012298    1.725    0.420
        10 -11.0354    220.6331    176.5747   1.0351586733e+02   3.2031145418e+00    0.5629748    0.4157396 -41.52   0.00314217    1.532    0.347
        11 -10.4876    224.1746    171.8504   1.0192794831e+02   3.2477360519e+00    0.4126604    0.2535166  55.63  0.001991181    2.008    0.502
        12  -9.0614    218.3476    169.5822   1.0252810944e+02   4.7081679899e+00    0.3334143    0.1695758  56.65  0.001360724    2.667    0.625
        13 -11.8753     70.3362    147.3923   1.3122366090e+02   3.7053236463e+01     1.340981    0.9579878 -88.23  0.006029306    1.362    0.266
        14 -11.6457     62.3958    157.5524   1.3457183165e+02   3.5817845255e+01     0.702831    0.4278556  72.71  0.001935331    1.735    0.424
        15 -11.4668     49.3860    167.5405   1.3874280023e+02   3.5225537433e+01    0.3972767    0.3492524 -52.77  0.001347073    1.468    0.319
        16 -11.9170     56.7111    162.3139   1.3649175469e+02   3.5482471069e+01    0.7546198    0.5667076  72.74  0.002660385    1.182    0.154
        17 -10.2223    230.5162    167.3354   9.9875233877e+01   2.7293213005e+00    0.2792191    0.2205593 -65.72  0.001492635    1.962    0.490
        18  -8.9682     59.8356    248.5405   1.4354026415e+02   1.8262028127e+01    0.1637974    0.1212919  85.16 0.0002707879    1.270    0.213
        19  -8.1452     37.7475    226.9696   1.4587578878e+02   2.4676562840e+01    0.1461708    0.1062094  76.09 0.0005083462    1.081    0.075
        20 -11.4411      5.0158    206.2378   1.5038445859e+02   3.1920298056e+01    0.4449055    0.2006788 -87.20  0.002783953    1.789    0.441
        21  -9.8722    191.9732    133.7550   9.9762670345e+01   1.6337193534e+01    0.2463041    0.2133538 -33.47 0.0004036148    1.170    0.145
        22 -10.3430    146.1246    101.1908   1.0163791586e+02   3.3332260702e+01    0.3478897    0.3251027   3.29  0.000882749    1.171    0.146
        23  -9.1955    133.7628    147.8819   1.1578466031e+02   2.6070159598e+01    0.2859237    0.1853171 -56.76  0.001320889    1.626    0.385
        24 -11.0052    155.7856     94.4314   9.7461668713e+01   3.2410945328e+01    0.6198719    0.4119297  20.78  0.002441381    2.252    0.556
        25  -9.8840    204.8035    128.0145   9.5881112433e+01   1.4497372767e+01    0.3324887    0.2215687 -12.01  0.001432215    1.991    0.498
        26 -12.2342    168.8436     86.4800   9.2280126257e+01   3.0728229837e+01     1.025115    0.7636963 -15.87  0.002814775    1.631    0.387
        27 -10.9215    152.4989     85.1405   9.5548129865e+01   3.5003202544e+01    0.3952961    0.3113436 -32.19 0.0004684536    1.314    0.239
        28 -11.2686    158.2987     83.3744   9.3695819624e+01   3.3918881421e+01    0.6638677    0.4853603 -75.86  0.002547667    1.833    0.454
        29  -9.8577    139.3607     91.1135   1.0047398557e+02   3.6940378755e+01    0.4059808    0.3012068 -59.71  0.001154207    1.510    0.338
        30 -10.6174    123.4798    102.4868   1.0775092250e+02   3.8067310970e+01    0.5033597    0.2543923  53.12  0.001933572    2.182    0.542
        31  -8.2036    127.3565     91.3004   1.0361857722e+02   3.9601162463e+01    0.1571966    0.1226177   7.73 0.0007037135    1.708    0.414
        32 -10.9500    135.1836    128.3845   1.1120631072e+02   2.9983715315e+01    0.5081073    0.3668781 -43.64  0.002414245    1.434    0.303
        33 -10.3045    160.4464    128.6819   1.0530902598e+02   2.4424541784e+01    0.3930795    0.2885095 -52.99  0.001529391    1.442    0.306
        34  -8.8765    124.2265    128.1283   1.1387304102e+02   3.2286565482e+01    0.2050973    0.2002987 -36.88 0.0003103058    1.115    0.104
        35 -12.0164    185.0645    120.7604   9.8029204226e+01   2.0340016164e+01    0.6523091    0.5295973  -4.62  0.003091848    1.470    0.320
        36 -10.0194    127.7520     68.6573   9.6577266047e+01   4.3970218019e+01    0.2949681    0.2462619 -59.62 0.0008335029    1.326    0.246
        37 -11.5087    168.0711    114.5322   1.0008765875e+02   2.5518913235e+01    0.5636202    0.4567625 -50.70  0.001457556    1.272    0.214
        38 -12.1251    113.2076     56.7912   9.6539129969e+01   4.9359289461e+01    0.7531263    0.5711944   4.36  0.003662521    1.618    0.382
        39  -9.0997    126.9812    143.0843   1.1642094607e+02   2.8449791302e+01    0.2132394    0.2026466  74.11 0.0003307991    1.020    0.019
        40 -10.8785    134.6893    105.7000   1.0569754450e+02   3.4969731861e+01    0.9092482    0.2251721 -48.70  0.002352514    4.521    0.779
        41  -9.4274    160.1249     28.6104   7.5915730004e+01   4.2072425357e+01    0.3212855    0.2419614 -18.57  0.001130592    1.467    0.319
        42 -10.3430    112.6291     29.1644   8.6390527965e+01   5.3767452256e+01    0.2364843    0.1964016  63.55 0.0009900796    1.316    0.240
        43 -11.9305      3.6487    187.2911   1.4967131304e+02   3.5727709776e+01    0.8556572    0.2935245 -88.27  0.004316731    2.556    0.609
        44  -8.6604    153.7202     24.8063   7.5778514917e+01   4.4201648299e+01    0.2649128    0.1861265 -49.79 0.0007852596    1.569    0.363
        45  -8.6032    159.9347     18.7402   7.2665424321e+01   4.3267626415e+01    0.2158015     0.177176  41.73 0.0005236192    1.231    0.187
        46  -9.7907    181.5897    197.0981   1.1474060223e+02   7.3551400851e+00    0.2340769    0.1801769  43.68 0.0003271496    1.149    0.130
        47  -8.1072    223.4994    192.4226   1.0604364701e+02   3.7534169002e-01    0.1304881    0.1096572  19.88 8.304351e-05    1.013    0.013
        48 -12.8369     21.6143    185.5284   1.4612870567e+02   3.4423226677e+01    0.8014133    0.5740046  80.66  0.003840112    1.044    0.042
        49  -8.5946    166.5805     13.2825   6.9846917808e+01   4.2098803589e+01    0.2670317    0.1780854  69.32 0.0009923724    1.380    0.275
        50  -9.7171    133.1823     97.3882   1.0382208774e+02   3.7051333046e+01    0.3451248    0.2570497 -66.58 0.0006629238    1.589    0.371
        51 -12.3538    198.2183    132.4807   9.8218215093e+01   1.5172762805e+01    0.7841656    0.6105995 -57.49  0.003873868    1.496    0.332
        52 -11.3104    192.3109    125.1565   9.7635954401e+01   1.7846325353e+01    0.5813147     0.318413  49.59  0.002112164    1.811    0.448
