#   1 NUMBER                 Running object number                                     
#   2 MAG_AUTO               Kron-like elliptical aperture magnitude                    [mag]
#   3 X_IMAGE                Object position along x                                    [pixel]
#   4 Y_IMAGE                Object position along y                                    [pixel]
#   5 X_WORLD                Barycenter position along world x axis                     [deg]
#   6 Y_WORLD                Barycenter position along world y axis                     [deg]
#   7 A_WORLD                Profile RMS along major axis (world units)                 [deg]
#   8 B_WORLD                Profile RMS along minor axis (world units)                 [deg]
#   9 THETA_WORLD            Position angle (CCW/world-x)                               [deg]
#  10 FWHM_WORLD             FWHM assuming a gaussian core                              [deg]
#  11 ELONGATION             A_IMAGE/B_IMAGE                                           
#  12 ELLIPTICITY            1 - B_IMAGE/A_IMAGE                                       
         1 -11.2271     87.2864     23.6562   4.2643170413e+01   6.0491949598e+01    0.6302391    0.2900921 -55.62  0.002016964    3.854    0.741
         2 -11.2222    232.4572      2.4386   1.7426603076e+01   2.7150110007e+01    0.4563341    0.1900487 -85.83  0.002229622    2.747    0.636
         3 -12.6138    249.5902      9.8418   1.8403729414e+01   2.3230522956e+01     1.079211    0.3250337 -21.77  0.004611955    3.104    0.678
         4 -12.9633    241.6044      6.8424   1.8067098155e+01   2.4989685567e+01     1.303686    0.3972182 -25.56  0.005884328    2.607    0.616
         5 -10.3054    112.1501     14.5452   3.2422240361e+01   5.5145476773e+01    0.4156756    0.2310045  28.76  0.001696407    2.349    0.574
         6 -11.1474    183.6784     15.1616   2.3743587614e+01   3.6682645424e+01     0.280351    0.1939144  37.39  0.001476669    1.799    0.444
         7 -10.0921     44.9986     12.1439   5.2604588346e+01   7.1662730589e+01    0.2295009    0.2056614  60.00 0.0006888653    1.315    0.240
         8  -9.8868     34.8520     13.9023   5.9808188230e+01   7.3282654047e+01    0.2061624    0.1701574  -4.91 0.0005618635    1.177    0.150
         9 -10.4753    162.0192     11.6948   2.4593811476e+01   4.2345125143e+01    0.1956704    0.1662049  86.13 0.0006480624    1.151    0.131
        10 -10.1176     27.3198     11.7898   6.3494036690e+01   7.4886977330e+01       0.2353    0.1457344 -41.45  0.001215916    1.564    0.360
        11  -9.8740    200.9814     11.3259   2.1365275172e+01   3.3027639527e+01      0.17512    0.1504553 -62.31 0.0004437467    1.073    0.068
        12 -11.4742     56.5802      9.5110   4.5279807391e+01   6.9564726415e+01    0.3862519    0.3078521  30.97  0.001166182    1.206    0.171
        13 -10.9319     49.4250     14.2358   5.1730381376e+01   7.0461875313e+01    0.2960529    0.2377222  -2.26 0.0007451242    1.274    0.215
        14  -9.9524    114.2951      9.2992   2.9715695126e+01   5.5083561583e+01    0.2388424    0.2018575  44.86 0.0005895736    1.194    0.163
        15  -9.6080    219.3305      9.2885   1.9732840318e+01   2.9224827007e+01      0.11307   0.09073757  32.58 0.0002312689    1.621    0.383
        16 -10.7948    213.5307      8.9103   1.9956222660e+01   3.0488616066e+01    0.2023099     0.167792 -80.02 0.0003420546    1.220    0.180
        17 -12.2188    174.9954      3.7217   2.0943395361e+01   3.9811846331e+01     0.405575    0.1971283 -54.74  0.001859003    1.968    0.492
        18 -10.4847     97.6426      7.4113   3.1881274116e+01   5.9660269956e+01     0.418543    0.2092034 -51.62 0.0009792519    2.427    0.588
        19  -9.9788      3.7103      8.8296   8.2452944250e+01   7.8298937931e+01    0.1993155    0.1540053  -3.80 0.0008241333    1.289    0.224
        20 -10.8384    124.0062      7.2501   2.7359556020e+01   5.2678973177e+01    0.3578343    0.2236389 -83.87  0.001124541    1.746    0.427
        21 -11.4858     86.6769      7.2024   3.4200905385e+01   6.2525664122e+01    0.5195217     0.220466  47.99  0.001161993    2.221    0.550
        22  -8.9384     78.2874      8.2735   3.6985929726e+01   6.4544866613e+01    0.1433431   0.09830327  33.01 0.0002491654    1.509    0.338
        23 -10.4819     23.0520      5.3383   6.1813482736e+01   7.6643915602e+01    0.2132128    0.1754498 -38.00 0.0004322496    1.267    0.211
        24 -10.2082    134.9362      4.3255   2.4799638521e+01   5.0020658154e+01    0.1969371    0.1662516  74.77 0.0003491079    1.132    0.117
        25 -11.6479    183.2127      3.3506   2.0263668997e+01   3.7856016565e+01    0.2402742    0.1602072 -78.57  0.001028279    1.468    0.319
        26  -9.7041    145.0409      2.7796   2.3146504429e+01   4.7487624307e+01    0.2068911    0.1266408 -47.05 0.0003579844    1.575    0.365
        27 -10.2158     38.4069      2.8085   4.9279180682e+01   7.4254158379e+01    0.2368052     0.216153 -72.80  0.001448171    1.459    0.315
        28 -10.1090    152.9548      2.2989   2.2237890068e+01   4.5472460034e+01    0.2316011    0.0830886 -74.50 0.0007035892    4.201    0.762
        29 -11.1975    113.9259      1.9269   2.6494690487e+01   5.5804013292e+01    0.3873777    0.1935486  74.01  0.001025358    1.896    0.472
        30 -11.6143      6.5070    169.6310   1.0693761890e+02   3.8194737435e+01    0.2984466    0.1601028 -33.60  0.001426113    3.019    0.669
        31 -11.3099     24.6266    163.9801   1.0170299519e+02   3.8007431973e+01    0.2987844    0.1829032 -71.57  0.001308209    1.630    0.387
        32 -12.2170     17.5601    159.6531   1.0340180241e+02   3.9620309008e+01    0.4606895    0.2740272  42.70   0.00255955    1.471    0.320
        33 -10.3687      7.7252    151.0746   1.0573819933e+02   4.2400666829e+01    0.2282839    0.1417146  37.82  0.001291062    1.476    0.323
        34 -12.1035    241.8236    140.0791   4.7943029876e+01   9.7032900606e+00    0.2919728    0.1353567 -23.65  0.001513768    1.891    0.471
        35 -10.3517      5.1567    138.8040   1.0585886453e+02   4.5544492528e+01    0.1722596    0.1413979 -57.59 0.0006350823    1.345    0.256
        36  -9.9017     11.4960    134.4450   1.0357970474e+02   4.6189578159e+01    0.1311302    0.1119179  71.87  0.000200464    1.024    0.023
        37 -12.7540    244.8673    122.0889   4.3871198594e+01   1.1480206042e+01    0.4003447    0.1788394 -32.25   0.00208508    1.805    0.446
        38  -9.9184      6.1061    121.8661   1.0450719537e+02   4.9722944533e+01    0.1926305    0.1511308  64.41 0.0003333093    1.161    0.139
        39  -9.8565    153.1976    114.5088   5.7537567115e+01   2.9181527396e+01    0.2197225    0.1951999 -71.34  0.001186779    1.371    0.270
        40  -9.8628      2.6848    111.9011   1.0503412406e+02   5.2476350793e+01    0.1865951    0.1447825  88.63 0.0004640831    1.121    0.108
        41  -9.5434     79.4354    111.4029   7.7072740001e+01   4.4062800582e+01     0.145831    0.1415325 -20.19  0.000797462    1.088    0.081
        42 -12.0435    247.0486    101.5275   3.9238995949e+01   1.3672121710e+01    0.3024174    0.1974621  19.64  0.001774026    1.904    0.475
        43  -9.8228    231.3462    102.6687   4.1387013807e+01   1.6113567774e+01    0.1256995   0.08759706 -52.58 0.0007049807    1.761    0.432
        44  -8.9137    117.3364    102.3014   6.3168487778e+01   3.9008910447e+01    0.1553709    0.1206421   1.55 0.0003481241    1.662    0.398
        45 -10.8348      3.7931     96.4103   1.0337596228e+02   5.6446245795e+01    0.3122289    0.2206798 -12.24   0.00112965    1.729    0.422
        46  -9.8632     64.9012     96.5017   7.8669596219e+01   5.0079623184e+01    0.2133356    0.1472767  34.35 0.0003405399    1.490    0.329
        47  -9.5692    153.5233     95.0302   5.2326246925e+01   3.2662818392e+01    0.2181541    0.1404665 -37.19 0.0003496775    1.487    0.328
        48 -11.1238    132.3840     92.6038   5.6491513082e+01   3.7765743172e+01    0.3122692    0.2640002 -50.87 0.0008887976    1.215    0.177
        49 -10.4052     49.9665     91.6985   8.3354466503e+01   5.3455184791e+01    0.1976882    0.1907146  45.42 0.0004694573    1.084    0.078
        50 -10.8230    247.7969     90.7978   3.6814779580e+01   1.4852846726e+01    0.2017451    0.1151919   9.77 0.0009557966    2.840    0.648
        51 -10.0549    107.4332     89.3042   6.2282388416e+01   4.3849724957e+01    0.2558279    0.1891406  67.47 0.0005222233    1.682    0.405
        52  -9.8368      1.3931     90.4215   1.0384202590e+02   5.8134314533e+01    0.2883729   0.05545241 -63.95 0.0009430842    3.568    0.720
        53 -11.3057     25.6934     81.9556   9.1793927568e+01   5.8723148799e+01    0.2078951    0.1739017 -73.94  0.001111538    1.099    0.090
        54  -9.4367     98.1586     79.8589   6.2192142102e+01   4.7836098933e+01    0.2038071    0.1790861  -4.52            0    1.285    0.222
        55  -9.9192    176.8435     80.6056   4.3856052231e+01   2.9932188241e+01    0.1878878    0.1401605  73.74 0.0005217897    1.650    0.394
        56  -9.9864      6.0592     80.1011   1.0064951423e+02   6.0616759005e+01    0.1944367    0.1724887 -81.99 0.0003148824    1.024    0.024
        57 -11.3548     54.3308     78.0609   7.8014843035e+01   5.6291189952e+01    0.5539794    0.3021604  47.95  0.001684698    2.079    0.519
        58  -9.8799    216.2716     78.5854   3.7605158434e+01   2.2024210993e+01    0.1524509     0.122487  38.60 0.0003328554    1.426    0.299
        59  -9.9741     77.9299     78.1849   6.8612380905e+01   5.2265441468e+01     0.215784    0.2003749  77.38 0.0002477282    1.161    0.139
        60 -10.3197      3.0960     75.9380   1.0154778729e+02   6.1858023498e+01    0.2074173    0.1966255  21.93  0.000688123    1.207    0.171
        61  -9.1542    201.3056     74.7217   3.8560988286e+01   2.5549350717e+01    0.1336836    0.0965018 -57.13 0.0001761372    1.551    0.355
        62 -11.0038     21.7136     73.9509   9.2101091819e+01   6.1169389443e+01    0.2014315    0.1670853 -68.29 0.0004910475    1.088    0.081
        63 -10.0235     11.6719     73.3176   9.6959635528e+01   6.2076228814e+01    0.1423331   0.09357646  61.38 0.0005216421    1.680    0.405
        64  -9.8694     63.9071     69.6966   7.1350116180e+01   5.6773324259e+01    0.2003715    0.1795129  36.92 0.0001596677    1.156    0.135
        65  -9.3545     58.8473     69.3823   7.3399109724e+01   5.7698342003e+01    0.2020275    0.1431512  19.71 0.0007443986    1.661    0.398
        66  -9.8012      8.0064     69.0059   9.8119109964e+01   6.3424471707e+01    0.1634663    0.1432443 -70.22 0.0004300869    1.000    0.000
        67 -10.8507    192.1231     66.0211   3.7482143144e+01   2.8703387622e+01    0.1967095    0.1887445 -44.97 0.0002627943    1.076    0.071
        68 -10.4606    150.9805     66.1616   4.4268786451e+01   3.8178069554e+01     0.247577    0.1722839 -83.20   0.00108036    2.015    0.504
        69 -11.5827     67.0017     65.0497   6.8450044740e+01   5.7295339492e+01    0.2570854     0.224937 -39.92 0.0002915775    1.112    0.101
        70 -11.0809    250.3479     63.6558   3.0518295332e+01   1.7599654406e+01     0.415678    0.1002083 -31.36  0.001666796    2.866    0.651
        71  -9.7517    204.4687     65.4910   3.5730803261e+01   2.6131953341e+01    0.1350085    0.1180686 -32.24 0.0003961729    1.008    0.008
        72  -9.1758     80.4961     65.5655   6.3348067635e+01   5.4579907262e+01    0.1492636    0.1475138 -50.79 0.0001173871    1.029    0.028
        73  -9.2637     75.2398     64.9990   6.5131562003e+01   5.5750153713e+01    0.1944017    0.1249291 -46.58  0.000441723    1.518    0.341
        74 -10.4419      3.9848     64.8340   9.9582500120e+01   6.4720412102e+01    0.2360007    0.1549874 -59.95 0.0006566364    1.316    0.240
        75 -11.9388      3.7722     59.8499   9.8904122142e+01   6.6023731948e+01    0.3847341    0.2955836   8.29  0.001697532    1.484    0.326
        76 -10.7135     99.2792     62.0448   5.5648614596e+01   5.1241356409e+01     0.405972    0.2807024 -67.09  0.001727825    1.961    0.490
        77 -10.1686     86.0976     61.7895   5.9920591619e+01   5.4206372704e+01    0.4400238    0.2061034 -31.05  0.001490957    2.858    0.650
        78 -10.5435     43.9025     63.0201   7.8198643540e+01   6.1491274355e+01    0.2255491    0.2064661 -43.26 0.0009651035    1.034    0.033
        79  -9.5918    205.0463     60.6820   3.4392575760e+01   2.6635102515e+01    0.1732511    0.1602329 -44.54  0.000270075    1.075    0.070
        80 -10.6943     56.8246     60.1692   7.1093682787e+01   6.0189303431e+01     0.213746    0.2024663 -85.67 0.0004158191    1.150    0.131
        81  -9.4151     89.5303     59.0326   5.7677638474e+01   5.4017259205e+01     0.217666    0.1482851 -40.92 -3.166948e-05    1.448    0.310
        82 -10.7701     21.9170     58.1736   8.8303333376e+01   6.5217803996e+01    0.2076009    0.1814059  72.36 0.0006615468    1.269    0.212
        83 -11.1853    248.8218     53.8504   2.8428458588e+01   1.8958555492e+01    0.4585913     0.134082 -37.87  0.002022032    2.445    0.591
        84 -10.8478     78.0242     56.0156   6.0625270203e+01   5.7091365543e+01    0.2278768    0.2238879 -35.89 0.0004570164    1.028    0.028
        85  -9.7854     40.2747     55.0622   7.7323117341e+01   6.3905631720e+01    0.1982573    0.1727913 -54.15 0.0001832209    1.092    0.084
        86 -11.2043     63.7200     53.9939   6.5632121116e+01   6.0342497064e+01    0.2182724    0.1927398 -40.98  0.000565299    1.095    0.086
        87 -11.1576     23.5197     52.7101   8.5823472256e+01   6.6437550027e+01    0.3171274    0.2145414 -43.14   0.00163631    1.389    0.280
        88  -9.1641    111.6513     51.7093   4.8145681548e+01   5.0187418043e+01    0.1578081    0.1170436  22.69 0.0007027388    1.666    0.400
        89 -11.3276     11.5112     49.0038   9.2025794198e+01   6.8355442013e+01    0.3647716    0.1531646 -46.71 0.0008934356    2.130    0.530
        90 -11.3919    249.3801     44.5878   2.6279541244e+01   1.9860572843e+01    0.4554954    0.1668133 -28.11  0.002167052    2.120    0.528
        91 -10.9129      6.8679     46.2783   9.4291894785e+01   6.9329764597e+01    0.2554063     0.177001 -53.23 0.0005238701    1.245    0.197
        92  -9.6684    137.4902     44.4692   3.9566791897e+01   4.4823064805e+01    0.1461959    0.1437059 -57.69 0.0001171111    1.013    0.012
        93 -10.4893     38.9459     43.8456   7.3678400531e+01   6.6688867335e+01    0.2623602    0.2177869 -62.31   0.00143829    1.277    0.217
        94 -10.1818     24.2336     44.3886   8.2627249396e+01   6.8393944462e+01    0.1755015    0.1265658  35.02 0.0002956328    1.516    0.340
        95  -9.7777     20.5723     44.3280   8.4904537440e+01   6.8774274554e+01    0.1988625     0.111094 -51.67 0.0009452656    1.559    0.359
        96 -10.2997     71.3997     42.7749   5.7539967316e+01   6.1080125416e+01    0.2040588     0.138501 -28.31 0.0002185588    1.574    0.365
        97 -10.5301     30.7335     43.6312   7.8365836885e+01   6.7832481119e+01    0.2626452    0.1360445  22.47  0.001142498    2.187    0.543
        98  -9.2202    185.7001     41.7151   3.1404311287e+01   3.3313611781e+01    0.1317799    0.1037144  25.09 0.0001484039    1.552    0.356
        99  -9.3316    151.9830     40.4926   3.5631256148e+01   4.1687010165e+01    0.2002005    0.1420003  64.97 0.0003560986    1.434    0.303
       100 -10.4525     95.6864     39.4537   4.7579053504e+01   5.6107532262e+01    0.2842029    0.2438004  -2.77 0.0008434394    1.276    0.216
       101  -9.5162    159.4765     39.5461   3.4167415218e+01   3.9926081374e+01    0.1415887    0.1357918 -51.50 8.378178e-05    1.021    0.020
       102 -10.2342    229.4600     37.4863   2.6094084817e+01   2.4360252089e+01     0.125797    0.1018975 -39.42 6.648253e-05    1.012    0.012
       103 -10.7056     40.6897     36.5186   6.9368861148e+01   6.8022536230e+01      0.30147     0.228432  30.12  0.001050893    1.371    0.270
       104  -9.9780     25.7327     34.4825   7.7663291070e+01   7.0526365214e+01    0.3497767    0.1233153 -61.54  0.001194451    3.384    0.705
       105  -9.0122     81.6981     35.7290   5.0368665580e+01   6.0036995412e+01    0.1473543    0.1122404  19.68 0.0002043251    1.531    0.347
       106 -10.3906     50.8080     32.4231   6.1801242298e+01   6.7118065791e+01    0.3489025     0.260686  82.36  0.001423231    2.242    0.554
       107  -9.3187    154.0165     32.2332   3.2503302838e+01   4.2207348139e+01    0.1791358    0.1180749  69.06 0.0003589877    1.537    0.349
       108  -9.9684     17.4580     31.8236   8.2239471006e+01   7.2023268381e+01    0.1944119    0.1776966  28.43 0.0003785476    1.227    0.185
       109 -10.0481      3.5389     31.8202   9.2670340714e+01   7.3075514150e+01    0.1832136    0.1633182 -25.15 0.0007958908    1.132    0.117
       110  -9.3436    153.2465     27.9205   3.1128250183e+01   4.2908976099e+01    0.1783212    0.1156021 -30.28 0.0003057751    1.483    0.326
       111  -9.0479    160.4698     27.4035   3.0004495029e+01   4.1130597506e+01    0.1402261    0.1290649 -63.95 0.0001021213    1.030    0.029
       112 -10.0055     94.8479     26.3494   4.1815357870e+01   5.8244898170e+01    0.4784115    0.2011535 -50.52  0.001569776    3.400    0.706
       113 -11.2880     82.1006    238.6579   9.3693556703e+01   1.7230487332e+01    0.3334388    0.1299258  23.14  0.001561587    2.670    0.626
       114  -9.6651     60.5155     26.5434   5.3957160369e+01   6.6242711554e+01     0.143216    0.1329425   6.68 0.0008087131    1.028    0.028
       115 -10.2578    134.6356     24.5042   3.2646951962e+01   4.8129322013e+01    0.3945135      0.18895  51.90  0.001609409    2.082    0.520
       116  -9.6056    120.5444     24.4457   3.5093654290e+01   5.1840176587e+01    0.2635571    0.1453037  -7.22  0.001032837    2.443    0.591
       117 -10.1953     98.5062     23.4250   3.9471738358e+01   5.7696538535e+01    0.2503936    0.2396248  34.16 0.0005543712    1.036    0.035
       118  -9.3594     26.6779     24.3088   7.1916340660e+01   7.2596457358e+01     0.127006     0.108212  76.17 0.0007035556    1.646    0.392
       119 -10.1396     72.8496     22.6812   4.6854978799e+01   6.4097807244e+01    0.2297215    0.1921539  -8.48 0.0004338351    1.240    0.194
       120  -9.6482     38.1791     22.8238   6.3476262301e+01   7.1143122469e+01    0.1864936    0.1504403  -5.08 0.0003518044    1.284    0.221
       121  -9.8248     27.1952    232.2075   1.0469565281e+02   2.3945170477e+01    0.1672833    0.1051059 -27.33 0.0009659484    2.905    0.656
       122 -10.6895     33.7171    238.1801   1.0360860574e+02   2.2320350646e+01    0.2572062    0.1438933  16.21  0.001554223    2.050    0.512
       123 -10.3701     26.1383    225.0787   1.0462319677e+02   2.5302411020e+01    0.1469715    0.1408603  44.88  0.001195657    1.295    0.228
       124  -9.5125    208.6562     19.3245   2.3001836149e+01   3.0564226038e+01    0.1422632   0.07615162 -53.93 0.0007050619    1.736    0.424
       125  -9.2878     31.4572     20.4834   6.6368461275e+01   7.2663131498e+01    0.1353668    0.1218365 -16.45  0.000161676    1.010    0.010
       126  -9.5708     23.4986     17.4651   7.0192168612e+01   7.4395192545e+01    0.1958999    0.1248141  15.22 0.0007424213    1.790    0.441
       127  -9.6446     20.3867     17.1834   7.2437103875e+01   7.4857350488e+01    0.1842033    0.1211862 -58.77 0.0009471333    1.735    0.423
       128 -10.8692      3.5861    221.8479   1.0927733260e+02   2.7797757740e+01    0.3713638    0.2032505  47.15  0.002480997    1.327    0.246
       129 -11.0224      9.3062    219.3510   1.0800334153e+02   2.7798449774e+01    0.3128185    0.1291782 -53.11  0.001539781    3.740    0.733
       130 -10.9008    243.5078    223.4968   6.2240492046e+01   1.5324640615e-01    0.1048843   0.07099222   1.96 -3.203833e-05    1.012    0.012
       131  -9.8631    128.2339     14.4464   2.9692920865e+01   5.0888396737e+01     0.200271    0.1326765 -88.75 0.0009381321    1.627    0.385
       132 -12.2204     52.2667    220.0435   9.8685288349e+01   2.3655188641e+01    0.2833466    0.2181505  11.86  0.001920121    1.501    0.334
       133  -9.9635     21.3583    218.9431   1.0539835598e+02   2.6850532232e+01    0.2145917    0.1328867  -8.45  0.001189578    2.808    0.644
       134 -11.3217     35.7360    214.1660   1.0200458229e+02   2.6412830164e+01    0.3350715   0.09091966  59.98  0.001149884    5.116    0.805
       135 -11.5059     45.2761    214.0117   9.9852754476e+01   2.5492024805e+01    0.2091856    0.1591144 -46.40  0.001397161    1.730    0.422
       136 -10.0988    248.9740    212.4896   5.9767484940e+01   6.6224118922e-01    0.1181329   0.08671734  44.72 0.0008103956    2.611    0.617
       137 -10.2254     14.0185    219.8640   1.0701306280e+02   2.7313454536e+01     0.206655   0.07007129  46.89  0.001085861    2.058    0.514
       138 -10.1213     10.2073    210.3931   1.0753198870e+02   2.9411402270e+01    0.1660383   0.07390889  38.32 0.0009468511    1.667    0.400
       139 -10.1257     51.6383    208.1424   9.8005126375e+01   2.5939669033e+01     0.211257    0.1060004 -89.69  0.001047689    2.505    0.601
       140 -12.1175      3.7626    198.8242   1.0863051413e+02   3.2192614350e+01    0.3568606    0.3125953 -24.37  0.002644563    1.582    0.368
       141 -11.5143    244.1369    199.1018   5.8335671309e+01   2.5717102793e+00    0.1907158    0.1228138 -22.59  0.001366401    1.373    0.272
       142 -13.4141     22.8252    197.8472   1.0413504536e+02   3.0813131062e+01    0.5919144    0.2672604  40.66  0.003225818    1.706    0.414
       143 -12.0584     18.2440    187.7857   1.0475524275e+02   3.3297936873e+01     0.286289    0.1554972  21.88  0.001578634    1.875    0.467
       144 -12.2575     24.4306    178.9538   1.0271701884e+02   3.4655296059e+01    0.3112858    0.2342175  71.15  0.001987848    1.192    0.161
       145 -13.1360     31.6055    188.5430   1.0148328761e+02   3.1927491812e+01    0.4521445     0.321491  -4.11  0.002646575    1.964    0.491
       146 -12.5740      7.7536    188.4080   1.0734878275e+02   3.4023110821e+01    0.4357906     0.283549 -40.90  0.002079317    2.191    0.544
       147 -10.7123    236.4846    187.4918   5.7526932767e+01   4.7518695173e+00    0.1140866   0.08275447  -2.37 -9.27608e-06    1.027    0.026
       148 -11.8644    238.3741    194.5363   5.8434381344e+01   3.7349284037e+00    0.1890461    0.1863578   8.13  0.001503301    1.977    0.494
       149 -11.2394    244.9601    181.3433   5.5216865925e+01   4.4126703383e+00    0.3147429    0.2602786 -68.04  0.001921468    3.365    0.703
       150 -11.0592    226.6039    179.3940   5.7627482414e+01   6.9546924510e+00    0.2105522   0.08774914 -42.69 0.0009584662    3.337    0.700
       151 -12.7771     26.0398    184.9951   1.0266257566e+02   3.3201772319e+01    0.4160627    0.1823686  33.29   0.00211411    1.887    0.470
       152 -10.9444    244.1923    190.6070   5.6916442046e+01   3.4804176780e+00    0.1517519   0.08280392  20.75 0.0009561969    1.703    0.413
