#   1 NUMBER                 Running object number                                     
#   2 MAG_AUTO               Kron-like elliptical aperture magnitude                    [mag]
#   3 X_IMAGE                Object position along x                                    [pixel]
#   4 Y_IMAGE                Object position along y                                    [pixel]
#   5 X_WORLD                Barycenter position along world x axis                     [deg]
#   6 Y_WORLD                Barycenter position along world y axis                     [deg]
#   7 A_WORLD                Profile RMS along major axis (world units)                 [deg]
#   8 B_WORLD                Profile RMS along minor axis (world units)                 [deg]
#   9 THETA_WORLD            Position angle (CCW/world-x)                               [deg]
#  10 FWHM_WORLD             FWHM assuming a gaussian core                              [deg]
#  11 ELONGATION             A_IMAGE/B_IMAGE                                           
#  12 ELLIPTICITY            1 - B_IMAGE/A_IMAGE                                       
         1 -12.9412    197.3489     32.9060   6.2089925889e+01   3.1566002849e+01     1.058223    0.7819688  26.27  0.005095423    1.490    0.329
         2 -13.7902    212.4437     14.8679   5.4564457394e+01   2.9585683120e+01     1.519785     1.019888  22.75  0.007141666    1.768    0.434
         3 -11.7071      2.3973      5.7532   1.1186424775e+02   7.2872932280e+01    0.6464732    0.1704594 -60.68  0.002765517    3.234    0.691
         4 -10.1475     16.6031      3.2168   1.0316219211e+02   7.2355430312e+01    0.1749657   0.07728063 -42.50 0.0009591134    1.710    0.415
         5  -9.7737     16.2226     25.2296   1.1178055928e+02   6.8229383510e+01    0.1446297    0.1245907 -80.06   0.00105768    1.370    0.270
         6 -10.9121    184.5930    250.3118   1.1020915513e+02   4.4355099467e+00    0.3378634   0.09933107  43.51  0.001732107    2.383    0.580
         7 -10.6666    192.1608    248.8175   1.0889946853e+02   3.4767686477e+00    0.2267101    0.1376065  32.59  0.001099086    1.337    0.252
         8 -10.8898    169.7061    248.6919   1.1229314869e+02   6.7677528686e+00    0.2614596    0.1590265  28.61 0.0007592837    1.710    0.415
         9  -8.7120    155.6426    250.2672   1.1459852964e+02   8.6294550651e+00    0.1026901   0.06061351  57.45 0.0002879223    1.636    0.389
        10 -11.2578    150.0131    248.6324   1.1529853547e+02   9.6165790602e+00    0.2557622    0.2243934 -85.18  0.002265631    1.512    0.339
        11 -10.6029    143.8832    249.6731   1.1633535066e+02   1.0369530800e+01    0.2188517    0.1365733  59.45  0.001604921    1.519    0.342
        12 -10.4552     84.8816    240.9436   1.2467528848e+02   1.9387216093e+01    0.2667893    0.1927717  68.88  0.002262492    1.170    0.145
        13 -10.9602     79.1033    224.8087   1.2443218356e+02   2.2398460752e+01    0.5103242    0.2379399  86.68  0.002855129    3.070    0.674
        14 -11.3529    133.9890    248.7087   1.1775934329e+02   1.1870934321e+01    0.4857048    0.1663363  45.72  0.002747109    2.051    0.512
        15 -11.5934     99.9635    247.6156   1.2285554969e+02   1.6586840529e+01    0.6084041    0.2603242  51.29  0.003989956    1.678    0.404
        16 -12.8358    124.3621    243.9772   1.1882184859e+02   1.3782298797e+01    0.6719645    0.5717318  39.64  0.005827397    1.346    0.257
        17 -10.7160     85.2563    234.8928   1.2418992457e+02   2.0176137427e+01    0.3626872    0.1577546  62.07  0.001485577    2.215    0.549
        18 -11.5604    112.8563    230.8941   1.1948296754e+02   1.7077186589e+01    0.3797137    0.2609397  48.61  0.001804099    1.123    0.109
        19 -10.5674    115.3834    250.3499   1.2073109527e+02   1.4214636838e+01    0.3740397    0.1243466  45.11  0.001221646    2.099    0.523
        20 -11.5276    109.3763    246.2686   1.2132014296e+02   1.5526333554e+01    0.5587016    0.2854904 -84.37  0.001277288    3.289    0.696
        21 -12.0475    104.7365    227.6005   1.2050652621e+02   1.8646497637e+01    0.5204679    0.3333181  83.05  0.003511435    1.798    0.444
        22 -10.9474     98.5671    223.3920   1.2115157287e+02   2.0080340070e+01    0.3271912    0.2713917  88.41  0.001892008    1.307    0.235
        23 -10.5761     96.8519    239.7299   1.2274200461e+02   1.8028241810e+01    0.2083348    0.1975212 -32.03  0.001169751    1.748    0.428
        24 -10.8079     91.0938    241.6972   1.2377608565e+02   1.8503211830e+01    0.2889245    0.1514009  52.97  0.001603772    1.369    0.270
        25 -10.6608     89.9451    238.0927   1.2369178313e+02   1.9138831585e+01    0.1791335    0.1591155  88.50 0.0006429383    1.408    0.290
        26 -10.0349     81.9293    246.8454   1.2551850445e+02   1.8956486250e+01    0.2177901    0.1616328 -76.91  0.001910924    1.612    0.380
        27  -9.7371     90.5262    250.5056   1.2447785439e+02   1.7412784388e+01    0.2691892    0.1086811  40.04  0.001440566    2.124    0.529
        28 -10.8966     87.0149    248.0300   1.2483523334e+02   1.8172995896e+01    0.2802785    0.1966255  47.99  0.001009813    1.234    0.189
        29 -10.8557     73.5249    244.6418   1.2663692884e+02   2.0268147631e+01    0.2898799    0.2812246   4.37   0.00274515    1.840    0.456
        30  -9.2561     62.8283    250.3607   1.2854553529e+02   2.0741707598e+01    0.1552858   0.09263438  43.28 0.0008108433    1.495    0.331
        31 -11.3366     60.3933    245.9065   1.2865839901e+02   2.1622065379e+01    0.4153298    0.2471275  50.12  0.003226448    1.250    0.200
        32 -10.4489     67.3737    243.7684   1.2750338208e+02   2.1112916808e+01    0.2715717    0.1213339  42.42  0.001854823    1.810    0.448
        33 -13.0172      2.8959    188.7129   1.3489125693e+02   3.6233986187e+01     1.781574    0.2283952 -77.59  0.007138199    5.840    0.829
        34 -11.9348     54.9672    207.2509   1.2716289423e+02   2.8009345139e+01    0.9807379    0.3655465  54.59  0.005712626    2.131    0.531
        35 -12.3465     18.5824    216.7888   1.3353523305e+02   3.0265463183e+01    0.8253636    0.6333234  -1.52   0.00239291    3.428    0.708
        36 -13.6059     10.5871    208.8865   1.3445374615e+02   3.2244603385e+01     1.555244    0.7636496 -64.80   0.01120965    2.433    0.589
        37 -12.7073     13.8504    238.6195   1.3504926420e+02   2.7444827128e+01     0.645188    0.2398094  59.54  0.001666756    1.808    0.447
        38 -12.7492     32.5738    227.3964   1.3186944550e+02   2.7276452974e+01    0.3501788    0.2503105 -79.21  0.002232043    1.554    0.356
        39 -13.8927     39.4144    218.6699   1.3038069987e+02   2.7901360098e+01     1.063864    0.5971558  38.07   0.00781888    1.860    0.462
        40 -11.6053    134.6103    231.8789   1.1606936637e+02   1.3856417556e+01    0.2933537    0.2238851 -32.12  0.001758704    2.067    0.516
        41 -11.7617    176.9037    242.8034   1.1054727114e+02   6.3293701962e+00    0.4799905    0.1619409  49.88  0.002112785    2.652    0.623
        42 -11.4707    166.3044    242.0984   1.1211264055e+02   7.9755717218e+00    0.3360437    0.1282162  45.83  0.001506206    1.908    0.476
        43 -10.6071    244.3915    241.2120   1.0019010131e+02  -3.4275808766e+00    0.1143338   0.09237641 -20.02 0.0006716902    1.657    0.396
        44 -10.9209    135.8942    225.3230   1.1519055306e+02   1.4520312111e+01     0.279505     0.203795 -61.07  0.001169576    1.769    0.435
        45 -11.1936    116.6702    238.2538   1.1952334982e+02   1.5571923650e+01    0.2839006    0.2322892 -21.87  0.001718389    2.205    0.546
        46  -9.6448     61.8429    238.7579   1.2803997753e+02   2.2451105713e+01    0.1911368    0.1288578  33.87  0.001482877    1.907    0.475
        47  -9.8774    172.9852    236.0199   1.1038876975e+02   7.6477579555e+00    0.1520129    0.1093338  62.69 0.0003301375    1.618    0.382
        48 -11.1086    165.4354    234.6108   1.1142304824e+02   8.9457873988e+00    0.2894414    0.1653863  60.33  0.001781648    2.064    0.515
        49 -11.7655     98.8975    232.6871   1.2186964794e+02   1.8721196138e+01    0.9388051     0.410038 -83.04  0.004502193    4.675    0.786
        50 -11.1122    122.5442    233.4520   1.1815954969e+02   1.5381174167e+01    0.2766251    0.2084434 -68.96  0.001782728    1.676    0.403
        51 -10.8509    156.7145    231.8547   1.1250847096e+02   1.0583265769e+01    0.1923608    0.1663931  37.01 0.0004654629    1.213    0.176
        52 -10.8418     84.7344    229.3675   1.2386727353e+02   2.1025684216e+01    0.1793254    0.1561212  67.54 0.0001361892    1.289    0.224
        53  -8.7311     62.5896    233.2233   1.2759813024e+02   2.3155658835e+01    0.1035205   0.08186828 -83.20  0.000253377    1.453    0.312
        54  -9.5376     45.7256    230.7792   1.3004165446e+02   2.5398112184e+01    0.2464522    0.1063975  78.40  0.001563382    2.413    0.586
        55  -9.4962    250.4926    231.5034   9.7950266723e+01  -3.5351971928e+00     0.107403   0.07429809  26.35 0.0008106388    1.004    0.004
        56 -10.3893    142.2758    227.4261   1.1436658547e+02   1.3298073019e+01     0.225499    0.1377293 -65.12  0.001276205    2.314    0.568
        57 -12.0046    135.2869    236.3809   1.1640473731e+02   1.3188061632e+01    0.3362842    0.2797748  19.41  0.001649634    1.619    0.382
        58 -10.8856    117.0620    224.6235   1.1822103133e+02   1.7348610906e+01    0.2616759    0.1856621  48.22 0.0005386347    1.116    0.104
        59  -9.4769     64.9936    224.5610   1.2667578658e+02   2.4149065109e+01    0.1561355    0.1269139 -67.00 0.0009526199    1.657    0.396
        60  -9.8219    160.0510    223.7706   1.1104544773e+02   1.1055617888e+01    0.1857314    0.1082435  27.48  0.001094006    2.063    0.515
        61 -10.0260     92.5158    226.4455   1.2239124294e+02   2.0442918252e+01     0.210756    0.1293601  57.10 0.0009168517    1.237    0.192
        62 -10.7858    245.9224    219.3240   9.6839200455e+01  -1.8591197484e+00    0.2258778    0.1368445 -16.71  0.001542495    1.835    0.455
        63 -10.3995     69.8831    217.8054   1.2542259971e+02   2.4588502318e+01    0.4816388    0.2296666  88.52  0.002875749    2.573    0.611
        64  -9.6047     89.7076    224.6691   1.2270458520e+02   2.1066702994e+01    0.2515455    0.1034275  52.14  0.001498612    1.871    0.465
        65  -8.9493     89.0278    218.3280   1.2230110169e+02   2.2092904120e+01     0.148674    0.1035032  57.49 0.0005761428    1.073    0.068
        66  -8.9105     62.4803    217.9577   1.2664216235e+02   2.5448243391e+01    0.1375062    0.1159327  56.28 0.0006129007    1.326    0.246
        67 -10.0666    137.3268    214.4622   1.1377059883e+02   1.5770911533e+01    0.2069835    0.1570481  80.09  0.001183933    1.548    0.354
        68  -8.8693    159.9783    213.6926   1.0983625553e+02   1.2338055122e+01    0.1562497    0.1162996  44.50 0.0003704333    1.039    0.038
        69  -9.5695     88.1603    212.9110   1.2199107669e+02   2.3029595129e+01    0.1960821    0.1224405  86.95 0.0009822425    1.730    0.422
        70  -9.0206     97.3694    210.7942   1.2023321300e+02   2.2117966967e+01    0.1566239    0.1229506 -78.64 0.0006168137    1.408    0.290
        71 -10.2732     92.6174    204.8483   1.2050432205e+02   2.3691748063e+01    0.5856383    0.2266975  49.10  0.003184147    2.044    0.511
        72  -9.1221    106.7265    209.9668   1.1854414880e+02   2.0940507476e+01    0.1440668    0.1212274  70.31 0.0005586286    1.138    0.121
        73  -9.7301    112.6082    208.2436   1.1735134405e+02   2.0357744602e+01    0.1937277    0.1473232  49.73 0.0007100206    1.110    0.099
        74  -9.2953     74.8785    208.3253   1.2387017157e+02   2.5454411423e+01    0.1963309     0.102395  46.02  0.001280969    1.553    0.356
        75 -10.7648    246.5818    206.2056   9.4704715510e+01  -7.9615248007e-01    0.2477718    0.1616251   8.14  0.001658067    1.466    0.318
        76 -10.2085    250.1595    200.9194   9.3303422002e+01  -8.6983104163e-01    0.3819244    0.1673851  -5.46  0.001610379    4.181    0.761
        77  -9.1422     32.8898    207.0350   1.3080663007e+02   3.0420390207e+01    0.1199056    0.1067259 -77.99 0.0005033368    1.567    0.362
        78  -8.9497    125.7000    206.0181   1.1482561661e+02   1.8749030664e+01    0.1494604    0.1276955  65.24 0.0005512525    1.124    0.110
        79  -9.0260     75.0302    203.6096   1.2346134447e+02   2.6192895117e+01    0.2408106    0.1516915  20.24 0.0009965986    3.279    0.695
        80  -9.4045    103.8523    203.0126   1.1835007941e+02   2.2419984811e+01    0.1529647    0.1399103  41.82 0.0007017363    1.357    0.263
        81  -9.4539    113.6618    201.8676   1.1649083929e+02   2.1177887747e+01    0.2461454    0.1707963  -1.52   0.00118803    4.185    0.761
        82  -9.8279     84.3498    201.3670   1.2163669956e+02   2.5355724169e+01    0.3016544    0.2077147 -38.29  0.001899852    2.677    0.626
        83  -9.0000     85.5674    195.5763   1.2088421301e+02   2.6144471082e+01    0.1722812    0.1148907  56.19 0.0001140336    1.200    0.166
        84  -8.8883     64.3425    201.9564   1.2518328476e+02   2.7777119591e+01    0.1429372    0.1086496  69.81   0.00051429    1.041    0.040
        85  -9.0033    183.0542    200.3458   1.0409753646e+02   1.0260001131e+01    0.1666928    0.1173822  42.31 0.0002791112    1.135    0.119
        86  -8.6986    127.9481    199.6903   1.1369536366e+02   1.9352035184e+01    0.1578558     0.120135  49.95 0.0003888351    1.066    0.062
        87  -9.6688     44.6174    199.0343   1.2837432587e+02   3.0511329517e+01    0.2503929    0.1882768  41.38  0.001995282    1.514    0.339
        88  -9.5830     27.9862    198.1797   1.3114221417e+02   3.2368673523e+01     0.230934    0.1089343 -74.58  0.001572486    1.990    0.498
        89 -11.2129     39.6719    230.4546   1.3094283504e+02   2.6089465586e+01    0.2713122    0.1832685 -88.87  0.001017451    1.412    0.292
        90  -8.5704    119.8189    199.3927   1.1511611962e+02   2.0641280144e+01    0.1486437   0.09262525  39.59 0.0002783416    1.487    0.328
        91  -9.7227     53.9730    198.2304   1.2670609678e+02   2.9607980488e+01    0.2062594    0.1151702  46.81 0.0007504734    1.505    0.336
        92  -8.6937    145.1901    198.1334   1.1042056529e+02   1.6850385685e+01    0.1515364    0.1203516  68.97 0.0003730406    1.326    0.246
        93 -10.0532    102.9855    195.9724   1.1777375995e+02   2.3665417036e+01    0.1839565    0.1740898 -61.86 0.0005433253    1.404    0.288
        94 -10.1469     96.4474    195.9238   1.1895275524e+02   2.4599830801e+01    0.3362984    0.1488361  53.81  0.001677291    1.974    0.493
        95 -10.4302    249.6572    194.0907   9.2240143402e+01  -1.5141137825e-01    0.2853276    0.1911809  20.81  0.001894606    1.218    0.179
        96 -12.1802     44.8684    207.8376   1.2888404313e+02   2.9035958221e+01    0.8950989    0.2581897  57.30  0.003567813    3.055    0.673
        97 -13.8069     28.0198    246.4222   1.3333773576e+02   2.4986603722e+01     1.491223    0.5993381  54.40   0.01117234    1.624    0.384
        98 -11.6463     59.6747    194.4965   1.2542711132e+02   2.9578336546e+01     0.327967    0.3063023 -54.37  0.001815967    1.627    0.385
        99  -8.7735     72.5359    193.0098   1.2300204303e+02   2.8265661649e+01     0.136029   0.09549224 -77.22 0.0003418081    1.439    0.305
       100 -10.0631     25.7920    192.4323   1.3120181670e+02   3.3553484883e+01    0.1958036    0.1083799  66.87 0.0008666933    1.390    0.281
       101  -9.6434    191.5082    191.4728   1.0129951368e+02   9.9348981807e+00    0.2065285    0.1703213  35.53 0.0005858215    1.028    0.027
       102  -9.2811    113.2937    191.2415   1.1536135180e+02   2.2916059218e+01    0.2534846    0.1344646 -44.45  0.001366825    2.704    0.630
       103  -8.9235     38.5362    192.4206   1.2900042700e+02   3.2277276698e+01    0.1236737   0.08224805 -75.87 0.0001288434    1.493    0.330
       104  -9.7313     40.6057    188.3682   1.2837119113e+02   3.2760055160e+01    0.2304567    0.1476413  70.57 0.0006765994    1.222    0.182
       105  -9.2988     15.5216    191.5378   1.3289990693e+02   3.4663761980e+01    0.1840747    0.0988258  84.16 0.0007159797    1.493    0.330
       106  -9.5483     31.5795    189.9224   1.3005890193e+02   3.3416698727e+01     0.283285    0.1038586  48.83  0.001704338    2.096    0.523
       107  -9.6956     28.8064    184.4570   1.3021808660e+02   3.4642313313e+01    0.2060881    0.2042885   2.97  0.001056124    1.664    0.399
       108  -9.2606     24.2292    184.0079   1.3100210835e+02   3.5161277815e+01    0.1829395    0.1152477  52.51 0.0006199336    1.343    0.255
       109 -10.2841    249.9627    187.8231   9.1116199520e+01   4.0341387394e-01    0.2744612    0.1671371   3.64  0.001641624    1.709    0.415
       110  -9.3758     77.0819    188.6337   1.2177645197e+02   2.8433256265e+01    0.1652279    0.1227224  77.77 0.0003360942    1.175    0.149
       111 -10.9777     83.7913    186.8655   1.2036216216e+02   2.7854534930e+01    0.1897577    0.1515776  70.46 0.0002355252    1.039    0.038
       112 -11.5359     66.2053    186.9543   1.2362779668e+02   3.0092668986e+01    0.2149951    0.1939427  87.93 0.0004657272    1.302    0.232
       113  -8.9084     65.7477    181.9899   1.2327398898e+02   3.1021988912e+01    0.1407129    0.1250264  44.22 0.0002167098    1.409    0.290
       114 -13.4805     39.8688    242.9504   1.3150352181e+02   2.4267459438e+01     1.064743    0.6037476  48.85  0.008810457    1.352    0.260
       115  -9.3455    140.1401    183.1779   1.0932343341e+02   1.9943994693e+01    0.1703829    0.1445677  41.97 0.0002887302    1.126    0.112
       116 -10.7312    127.7982    182.6792   1.1157939502e+02   2.2047242179e+01     0.200708    0.1717278  66.17 0.0002918199    1.090    0.083
       117  -9.2380    107.8614    182.4974   1.1534237300e+02   2.5182870277e+01    0.1608646    0.1388185  75.28 0.0004433637    1.098    0.089
       118  -9.3108     36.8348    183.0280   1.2868852244e+02   3.4090202899e+01    0.1710705    0.1064683  72.05  0.001237313    1.280    0.219
       119 -10.2290     86.1010    180.2594   1.1924411324e+02   2.8692664002e+01    0.2419925    0.1631277  76.68  0.000348903    1.442    0.307
       120 -13.1592    247.5705    100.4697   7.3270448588e+01   1.0798443654e+01     2.217376    0.7266645 -21.07  0.007296757    3.660    0.727
       121 -11.9518    247.6043    142.4780   8.2776116385e+01   5.6851772651e+00    0.6310425     0.561937  31.53  0.004118535    1.222    0.182
       122 -12.8091    248.6961    134.0706   8.0811365580e+01   6.4656239502e+00     1.297565     0.559388 -26.69  0.005840143    2.263    0.558
       123 -11.2551    248.7127    113.0109   7.6074780514e+01   9.0078307068e+00    0.4875501    0.3447528  21.91  0.002063156    1.391    0.281
       124  -9.1000     47.5338    179.7246   1.2648827152e+02   3.3542388870e+01    0.1729406   0.08113483  39.92 0.0006504426    2.014    0.503
       125  -8.7546     12.5123    178.5058   1.3277661577e+02   3.7194382100e+01   0.09891109   0.07214349  76.61 -5.151822e-05    1.048    0.046
       126  -8.9380    126.0968    177.1936   1.1116064316e+02   2.3226435766e+01    0.1634872    0.1214194  64.87 0.0002674758    1.299    0.230
       127 -10.6323    103.0251    176.0716   1.1549221964e+02   2.7013654518e+01    0.1846333    0.1639097  60.24            0    1.127    0.112
       128 -11.4557    107.7725    172.8576   1.1415597638e+02   2.6861933162e+01      0.22622    0.1905938  67.13 0.0003367819    1.030    0.029
       129 -10.7477     76.4650    174.9331   1.2054322899e+02   3.0932539645e+01    0.2072282    0.1714389  79.38 0.0004266164    1.074    0.069
       130 -11.5421     63.7639    173.7752   1.2289580967e+02   3.2745093252e+01    0.4161475    0.2269401  70.65  0.001367964    1.836    0.455
       131 -10.2009     19.1329    173.1273   1.3129052957e+02   3.7573937037e+01    0.3133717    0.1462627  65.16   0.00180719    1.791    0.442
       132 -10.4498     11.8626    173.5331   1.3263628234e+02   3.8138433352e+01    0.2552478    0.1190878 -64.56  0.001659272    2.229    0.551
       133  -9.4900     45.0000    164.9516   1.2577721805e+02   3.6537748157e+01    0.1900997    0.1276007 -78.19 0.0004498305    1.345    0.257
       134 -11.0797     45.9752    172.2661   1.2619323220e+02   3.5069108334e+01    0.2916099    0.1998293 -59.47  0.000334039    1.732    0.423
       135 -10.5307     43.6931    168.6917   1.2634373568e+02   3.5976916022e+01    0.2461754    0.2018106 -85.37 0.0009759502    1.216    0.177
       136 -10.0502     27.8954    171.6688   1.2957577369e+02   3.7025689336e+01    0.2529597    0.1522273 -64.46  0.001186333    1.781    0.439
       137  -8.3396    150.7367    170.2836   1.0537599732e+02   2.0172437783e+01    0.1178171    0.0914684  72.93 0.0006882776    1.486    0.327
       138 -11.2078      7.1080    166.9554   1.3316232455e+02   3.9727339109e+01    0.2929943    0.1555715 -80.63  0.001906915    1.554    0.356
       139  -9.0488    133.9891    167.6312   1.0823211014e+02   2.3523379874e+01    0.1739097    0.1377284  50.64 0.0008434919    1.099    0.090
       140 -11.7039     84.4212    166.4330   1.1802658277e+02   3.1423716450e+01    0.5245821    0.3612173  44.84  0.003374827    1.381    0.276
       141 -10.8412     14.6322    166.9781   1.3176726064e+02   3.9093792871e+01    0.2526628    0.2103529  53.12  0.001644699    1.368    0.269
       142  -9.7006     22.5092    163.0318   1.3002697971e+02   3.9129735952e+01    0.2181173    0.1444821   1.97  0.001072419    3.521    0.716
       143  -8.7312     58.4425    162.5207   1.2286431226e+02   3.5483375669e+01    0.1137898   0.08885182  75.77 9.757594e-05    1.035    0.034
       144 -10.2075     12.4069    161.2621   1.3185590316e+02   4.0342362906e+01    0.1790356     0.116166  85.98  0.001354249    1.177    0.151
       145 -12.4785     11.5955    153.3318   1.3153639670e+02   4.1906106904e+01    0.4882356    0.2740443 -84.04  0.002275198    1.423    0.297
       146  -9.9291     89.8027    160.0366   1.1613924933e+02   3.1864604552e+01    0.1981093    0.1534665  52.12 0.0002956708    1.188    0.158
       147 -11.0637     31.9691    155.5419   1.2760997695e+02   3.9666513099e+01    0.3011175    0.2022853 -60.90  0.001444703    1.653    0.395
       148  -8.7150     47.7003    157.7246   1.2459238860e+02   3.7623506359e+01   0.09445457   0.08270538 -53.62            0    1.535    0.348
       149 -11.0766     23.7432    155.0791   1.2923340057e+02   4.0526603303e+01    0.2776696    0.1961935  39.72  0.002074202    1.579    0.367
       150 -10.9655     23.2120    150.2818   1.2898821897e+02   4.1501393067e+01     0.265176    0.1753934 -43.01  0.001520797    2.358    0.576
       151  -8.7687    228.4376    155.4995   8.8545073036e+01   7.7304742613e+00    0.1289057    0.1099465  20.01 6.674133e-05    1.036    0.034
       152  -9.6691     84.8639    155.1798   1.1654957999e+02   3.3488374640e+01    0.1775145    0.1367492  70.69 0.0002581835    1.165    0.142
       153 -10.3553     89.9960    153.2406   1.1520264933e+02   3.3131685406e+01    0.2263358    0.1896293 -62.80 0.0003286376    1.291    0.225
       154  -9.0674    104.8240    153.4753   1.1208021018e+02   3.0855227056e+01    0.1744569    0.1115032  46.28 0.0003450038    1.444    0.307
       155 -11.4985      9.8849    143.3062   1.3124154669e+02   4.3978015901e+01    0.2777103     0.260618 -49.55  0.002402697    1.554    0.357
       156 -12.7676      2.9660    142.1499   1.3259464208e+02   4.4725326882e+01    0.8781949    0.2371289 -73.61  0.004446029    2.799    0.643
       157 -13.2473      2.8771    131.1486   1.3192235841e+02   4.6894845439e+01     1.253927    0.2522338 -75.82  0.005367009    3.656    0.727
       158  -9.2952    113.7947    151.0723   1.0980704258e+02   2.9870197557e+01    0.2391091    0.1420481 -71.95  0.001027432    2.087    0.521
       159 -10.2392     97.2537    151.0240   1.1333856173e+02   3.2485915849e+01    0.2769893     0.221663 -68.27  0.001191467    1.263    0.208
       160 -10.0297     86.0273    149.9854   1.1561326090e+02   3.4330836953e+01    0.1724429    0.1259315  83.74 0.0004736693    1.355    0.262
       161 -12.2174     68.4868    144.4441   1.1872336792e+02   3.7786891718e+01    0.5719448    0.3899495  82.42  0.002072712    1.430    0.301
       162  -9.0937    100.6388    146.3293   1.1190780979e+02   3.2874631137e+01    0.2276828    0.1401597 -38.59  0.001146849    2.335    0.572
       163  -9.4594     41.0092    147.5245   1.2503333148e+02   4.0330558908e+01    0.1539345   0.09999028  43.22 0.0006219295    1.562    0.360
       164  -9.9659    235.9891    145.9862   8.5364630827e+01   7.4631733392e+00    0.2075884    0.1678858  18.57 0.0004984114    1.061    0.058
       165  -8.8251     52.8004    146.3902   1.2238411493e+02   3.9280780922e+01    0.1341161     0.108054  31.66 0.0002796015    1.570    0.363
       166  -9.9346    133.3545    141.3910   1.0396742778e+02   2.8288360390e+01    0.4770386    0.2250295 -53.79  0.002116731    2.354    0.575
       167  -8.5704    104.9906    142.9582   1.1042372857e+02   3.2844925479e+01     0.147653     0.131493  70.95 0.0003374277    1.011    0.011
       168 -10.4867     32.7828    140.5959   1.2615876475e+02   4.2531467774e+01    0.2622323    0.1444252  82.51 0.0008869086    1.700    0.412
       169 -11.9340     16.4448    139.2233   1.2957278053e+02   4.4256841020e+01     0.499167    0.1764205  54.18  0.002632401    2.649    0.622
       170 -10.3325    249.7029    117.9155   7.7056879117e+01   8.2089731474e+00    0.4041053      0.25411  -1.57  0.001492267    1.722    0.419
       171 -11.0651     60.2865    136.6506   1.1958504183e+02   4.0377490213e+01    0.2668992    0.1944355  80.19  0.001729258    1.259    0.206
       172  -8.9238     50.6362    138.1293   1.2194834065e+02   4.1188874487e+01    0.1647613    0.1343679  42.68 0.0005495526    1.385    0.278
       173  -9.7949    109.1528    136.1436   1.0835737285e+02   3.3501146732e+01    0.3123957    0.2399529   0.41  0.001542577    2.161    0.537
       174 -10.3934      8.9455    136.7980   1.3099919042e+02   4.5330612912e+01    0.1522817    0.1209994 -77.25 0.0006564112    1.252    0.201
       175  -9.0579     37.1869    140.1651   1.2515429174e+02   4.2189046055e+01    0.1608001    0.1062478  75.95 0.0008815549    1.329    0.248
       176 -10.8925     44.7174    130.6985   1.2245138260e+02   4.3353892812e+01    0.3389531    0.2014619  79.90  0.001625702    1.688    0.408
       177  -8.6255    105.6929    129.3375   1.0794592489e+02   3.5422241924e+01    0.1357198   0.09623981  80.41 0.0003310059    1.678    0.404
       178 -10.6533     59.6507    127.9667   1.1860006200e+02   4.2247425855e+01    0.2544527     0.211473 -87.45  0.001743848    1.025    0.025
       179 -11.0439     67.3972    127.9597   1.1675656841e+02   4.1294784744e+01    0.3221053    0.1973327  63.95   0.00179706    1.723    0.420
       180  -9.9955     33.4110    128.2041   1.2480332024e+02   4.4997430980e+01    0.1670734   0.08857816 -87.29 0.0009503241    1.747    0.428
       181 -10.0565     23.4413    126.8217   1.2697388177e+02   4.6178685049e+01    0.2199799   0.08997574 -79.88   0.00114917    2.134    0.531
       182 -10.0761    209.9341    125.6914   8.5397930646e+01   1.5404493708e+01    0.2476619    0.2150963 -14.31 0.0004751923    1.152    0.132
       183  -9.6655    238.4912    122.0168   7.9735342828e+01   9.9587216768e+00    0.2041402    0.1263467 -22.01  0.001025424    1.580    0.367
       184  -9.0239     49.9890    122.4975   1.2019220961e+02   4.4500153048e+01    0.1711352   0.07703947  57.33 0.0008103402    2.534    0.605
       185 -11.4908     22.4350    121.2761   1.2667896490e+02   4.7409486522e+01    0.2653205    0.1643581  38.53  0.001767284    1.776    0.437
       186 -13.2571      3.9927    245.3371   1.3661670129e+02   2.7387657245e+01    0.8329807    0.3536138  80.52  0.006529495    1.903    0.475
       187  -8.7824     67.3570    116.3169   1.1499280135e+02   4.3750399293e+01    0.1206582   0.09350961 -32.87  0.000101767    1.751    0.429
       188 -11.4919     11.2352    115.8642   1.2884536180e+02   4.9405388070e+01    0.2581498    0.1509034 -63.43  0.000834396    1.547    0.353
       189 -12.0462      9.7512    112.1289   1.2887186823e+02   5.0286556905e+01    0.2821206    0.2267216  24.95   0.00158401    1.667    0.400
       190 -10.1901    168.0346    113.1817   9.0565511357e+01   2.6439538657e+01    0.3236293    0.2616543  87.06 0.0009222032    1.620    0.383
       191  -8.8295    203.3491    111.3219   8.3208945657e+01   1.8945818502e+01    0.1549084    0.1049156  18.79 0.0007048867    1.743    0.426
       192 -10.8426    249.5301    151.0108   8.4239200507e+01   4.3532279584e+00    0.3961127    0.2866363 -21.87  0.002406611    1.385    0.278
       193 -11.1475     15.3381    105.0098   1.2678108178e+02   5.1378054082e+01    0.2574941    0.1701359 -59.52 0.0009746009    1.442    0.307
       194 -12.8317    246.1691    159.2458   8.6412751482e+01   4.0378143655e+00     1.270813    0.7853535 -44.10  0.006756754    2.322    0.569
       195  -9.9067     16.9746     99.0509   1.2569712506e+02   5.2523074826e+01    0.1701576     0.132453 -81.81 0.0003139526    1.007    0.007
       196 -12.1093    248.4879    172.6373   8.8610346154e+01   2.1860998574e+00    0.6247126    0.3888698 -19.67  0.003747367    1.634    0.388
       197 -11.5715    199.2739    246.7326   1.0758438933e+02   2.6331103081e+00    0.3015307    0.1909167  46.56   0.00221998    1.317    0.241
       198 -10.7106    142.2225    221.5542   1.1373882358e+02   1.4069118724e+01    0.3327196    0.1763513  37.49  0.001021425    1.697    0.411
       199 -10.1731    132.4180    223.7140   1.1559614088e+02   1.5248423108e+01    0.1847588    0.1641089  88.98 0.0009591907    1.329    0.248
       200 -12.8144    135.8000    241.1672   1.1678353618e+02   1.2522583408e+01    0.8714115    0.2849238  52.67  0.004257882    2.888    0.654
