#   1 NUMBER                 Running object number                                     
#   2 MAG_AUTO               Kron-like elliptical aperture magnitude                    [mag]
#   3 X_IMAGE                Object position along x                                    [pixel]
#   4 Y_IMAGE                Object position along y                                    [pixel]
#   5 X_WORLD                Barycenter position along world x axis                     [deg]
#   6 Y_WORLD                Barycenter position along world y axis                     [deg]
#   7 A_WORLD                Profile RMS along major axis (world units)                 [deg]
#   8 B_WORLD                Profile RMS along minor axis (world units)                 [deg]
#   9 THETA_WORLD            Position angle (CCW/world-x)                               [deg]
#  10 FWHM_WORLD             FWHM assuming a gaussian core                              [deg]
#  11 ELONGATION             A_IMAGE/B_IMAGE                                           
#  12 ELLIPTICITY            1 - B_IMAGE/A_IMAGE                                       
         1 -12.9259     25.4134      3.1947   4.8895058768e+01   7.4607844319e+01    0.5658385    0.3049148  26.31  0.003047051    2.021    0.505
         2 -12.5409      1.8599     23.9796   7.5240266166e+01   7.2907116249e+01     0.824983    0.2078554 -67.67  0.002816604    4.450    0.775
         3 -13.5970      6.5152      8.5082   6.5256104179e+01   7.5708297304e+01     1.163687    0.5062146 -41.53   0.00611942    1.846    0.458
         4 -12.1172     13.9927     11.2680   6.1429408501e+01   7.4549758064e+01    0.3660981    0.1762148 -42.29  0.001522581    1.699    0.411
         5 -12.3089     16.2512      5.3564   5.6402168249e+01   7.5364569446e+01    0.4336395    0.2690648 -29.98  0.002127348    1.394    0.283
         6 -14.9198    244.7128     12.2781   5.8493758167e+00   2.2930024053e+01     2.387688    0.8051808 -37.38   0.01068082    2.176    0.540
         7 -13.7299     12.3482     21.9217   6.7709035384e+01   7.2631894920e+01    0.7866448      0.30974 -41.60  0.003720911    2.158    0.537
         8 -11.9463     26.9106     14.1947   5.4736682371e+01   7.2622528886e+01    0.2940276    0.1528837 -38.27  0.001535887    1.670    0.401
         9 -12.5609     20.3739     12.2970   5.7751448941e+01   7.3713802020e+01     0.451521    0.1979439 -34.41  0.002140005    2.200    0.545
        10 -12.7686      2.8212     38.7472   7.9158953516e+01   6.9619039584e+01    0.8122295     0.150354 -65.44   0.00285628    3.701    0.730
        11 -12.6288    247.9872    224.8492   5.0825102473e+01  -5.1161204900e+00    0.6103307    0.2797853 -12.00  0.003201507    2.756    0.637
        12 -11.5284    233.5485    249.7812   5.6730690619e+01  -5.8417751521e+00    0.3356303    0.1445968  29.11  0.001964005    1.853    0.460
        13 -12.8705    234.6561    242.8302   5.5579819139e+01  -5.2958236109e+00    0.4437908    0.2421594   1.26  0.002441833    2.007    0.502
        14 -12.0573    240.7030    237.6659   5.3889922453e+01  -5.5196441707e+00    0.2499172    0.1585998  -6.04  0.001372253    1.423    0.297
        15 -11.6632    243.8636    233.8977   5.2842267890e+01  -5.5284736861e+00    0.2288107    0.1492069 -10.93  0.001270512    1.373    0.272
        16 -11.4710    249.0172    249.2627   5.4294804621e+01  -7.6045443801e+00    0.3732579    0.1748317  25.78  0.002113894    1.699    0.412
        17 -10.9892    249.4770    243.9589   5.3467806334e+01  -7.1686902649e+00    0.2358481    0.1486503 -17.50   0.00111344    1.496    0.332
        18 -11.3339    240.9703    250.0160   5.5619338610e+01  -6.7433099670e+00    0.3463456    0.1475481  30.52  0.001723539    1.858    0.462
        19 -12.2090    243.3741    244.3231   5.4446131412e+01  -6.4886031132e+00    0.3944247    0.2097032 -10.89  0.001954244    1.944    0.486
        20 -12.1199    247.5317    238.1100   5.2907671330e+01  -6.3846504222e+00    0.3879025    0.1925144 -18.21   0.00232498    2.022    0.505
        21 -11.6431    250.0779    231.8033   5.1576306453e+01  -6.0722765946e+00    0.3144529     0.160602 -24.12    0.0017634    1.882    0.469
        22 -12.0669    225.8090    247.0370   5.7565910469e+01  -4.6291153892e+00     0.311854    0.1974436  -3.91  0.001852365    1.535    0.348
        23 -11.8139     87.4973    250.1131   8.2072370859e+01   1.3481673098e+01    0.3334601    0.1247789  37.99  0.001769086    2.046    0.511
        24 -12.2282     75.6744    249.2576   8.4145111881e+01   1.5106328757e+01    0.5252183    0.1366757  45.33  0.002477084    2.622    0.619
        25 -11.6060     51.5244    249.1932   8.8459887595e+01   1.8003565691e+01    0.4241486    0.1405494  46.53  0.002328585    2.042    0.510
        26 -11.9703     37.7568    247.8091   9.0812757788e+01   1.9768544801e+01     0.503417    0.1763518  56.24   0.00279711    2.191    0.544
        27 -11.7776     20.8940    248.0533   9.3739291610e+01   2.1494644953e+01     0.364903    0.1638853  59.55  0.001845168    1.617    0.381
        28 -11.6568      6.8814    234.9065   9.5713706011e+01   2.5103828995e+01    0.3622531    0.1729662  72.56  0.002392931    1.665    0.399
        29 -11.7554      5.2108    226.8175   9.5755445536e+01   2.6699975742e+01     0.430109    0.1631716  62.62   0.00193821    1.969    0.492
        30 -11.9288      2.6293    219.0983   9.5979346249e+01   2.8352309307e+01    0.3743804     0.208637  84.03  0.002056226    1.493    0.330
        31 -11.7278     12.8018    247.9618   9.5108982901e+01   2.2310194151e+01    0.4045087     0.152457  54.37  0.001902384    1.769    0.435
        32 -11.3812     14.4652    230.6783   9.4224527700e+01   2.5128831384e+01    0.3682854    0.1538812  61.66  0.002225185    1.810    0.447
        33 -11.3439     11.4206    224.5837   9.4552726080e+01   2.6525167820e+01    0.4084028    0.1304201  50.41  0.002253648    2.095    0.523
        34 -11.9381      4.3554    249.5934   9.6565858685e+01   2.2842742300e+01    0.3121414    0.2324843  43.21  0.001914102    1.392    0.282
        35 -12.3163      3.5320    241.6757   9.6488785829e+01   2.4245451679e+01    0.4240817    0.1884204  63.83  0.001945703    1.620    0.383
        36 -10.7110    194.9828    242.3356   6.1992115732e+01  -1.2627339751e-01    0.1872196    0.0706126  23.40 0.0007048895    4.328    0.769
        37 -11.8110     57.5174    240.4717   8.6866600195e+01   1.8751334624e+01     0.412177    0.1644902  55.37  0.002252791    2.073    0.518
        38 -11.9905     30.2920    239.4282   9.1746083232e+01   2.1984058764e+01    0.3860708    0.1891685  65.45  0.002203695    1.661    0.398
        39 -12.3475    226.3568    239.3750   5.6397153658e+01  -3.9121581399e+00    0.3099224    0.1663335 -13.44  0.001900733    2.114    0.527
        40 -11.8912     73.2910    239.1900   8.3859268499e+01   1.7040548338e+01    0.3154438    0.1326271  51.93  0.001724736    1.929    0.481
        41 -10.5498     38.7164    239.2617   9.0224519891e+01   2.1105397404e+01    0.2449057    0.1150044  59.45  0.001327294    1.677    0.404
        42 -12.1917     16.5135    239.2076   9.4173663034e+01   2.3429526126e+01    0.6254935    0.1793555  49.66    0.0034434    2.199    0.545
        43 -10.3406     65.1924    238.2026   8.5298579685e+01   1.8210659775e+01      0.16613   0.09775449  57.42  0.001076958    1.367    0.268
        44 -11.1441     45.7637    235.8647   8.8755546949e+01   2.0906122861e+01    0.2338178   0.08600388  53.75  0.001247862    2.103    0.524
        45 -12.2880    231.4772    233.0360   5.4653277861e+01  -3.8964816264e+00    0.3082124    0.1828331  -7.67  0.002013461    1.715    0.417
        46 -12.2304    144.2004    245.4853   7.1322910341e+01   6.5033163458e+00    0.3750746   0.08525487  38.64  0.001495567    3.321    0.699
        47 -11.9003    116.5593    242.8728   7.6111468116e+01   1.0722086206e+01     0.250809    0.1103515  48.73  0.001336873    1.969    0.492
        48 -10.2438      1.3940    233.6478   9.6633169528e+01   2.5830075942e+01     0.177251   0.07726743  86.29  0.001068392    2.011    0.503
        49 -11.3393     60.8814    230.1065   8.5552320170e+01   2.0137858678e+01    0.2687694    0.1125719  60.43  0.001372563    2.322    0.569
        50 -11.2716     40.0799    229.9336   8.9481298952e+01   2.2592385356e+01    0.2853301    0.1428602  69.06  0.001718008    1.796    0.443
        51 -12.3427     26.3015    227.0556   9.1907919661e+01   2.4592797487e+01    0.4396942    0.1941355  80.66  0.002508438    2.191    0.544
        52 -11.9953    236.6921    226.4033   5.2823254442e+01  -3.8576409878e+00    0.2918217    0.1653586 -17.11   0.00187454    1.744    0.427
        53 -10.5827     32.9836    227.9861   9.0706867877e+01   2.3718617901e+01    0.1892513   0.08888606  60.16  0.001116751    1.688    0.407
        54 -11.4957     19.2114    220.4482   9.2939119319e+01   2.6531437917e+01     0.306236    0.1338302  67.14  0.001557351    1.906    0.475
        55 -12.0645     12.8822    215.6743   9.3938091237e+01   2.8047478562e+01    0.4182698    0.2026782  59.95  0.002178032    1.543    0.352
        56 -10.2463     44.6094    219.7851   8.8017472531e+01   2.3940426938e+01     0.157333    0.0889551  82.35 0.0009523624    1.707    0.414
        57 -11.5601    239.0583    217.1673   5.1000296082e+01  -3.1606842067e+00    0.2696252    0.1468309 -23.18  0.001674593    1.775    0.437
        58 -12.2228    248.4442    214.1841   4.9056176134e+01  -4.0494536271e+00    0.4007825    0.1888179 -25.45  0.002353048    2.020    0.505
        59 -11.7441      2.7236    210.8228   9.5690082355e+01   2.9910018260e+01    0.3720388    0.1803851  77.36  0.001704978    1.665    0.399
        60 -11.5435      1.7485    204.5227   9.5661284646e+01   3.1220363900e+01    0.2977779    0.2096246 -70.89  0.002153063    1.625    0.385
        61 -10.9491     21.6916    210.2844   9.1992731482e+01   2.8221643577e+01    0.2134038    0.1285709  65.11   0.00134175    1.276    0.216
        62 -10.5353     49.0333    228.9833   8.7736569089e+01   2.1746314206e+01    0.1976639   0.09502409  60.27  0.001143304    1.763    0.433
        63 -12.7177     13.0220    203.5680   9.3400328643e+01   3.0387601780e+01    0.4440652    0.2254004  63.71  0.002378342    1.535    0.348
        64 -11.1312     35.0871    215.7313   8.9643200021e+01   2.5769174230e+01    0.2622202    0.1276518  77.21  0.001477604    1.975    0.494
        65 -10.2049    250.4790    199.9661   4.6366236979e+01  -2.7386425694e+00    0.1666248   0.09549289 -25.51 0.0008035951    1.591    0.372
        66 -12.3556      3.9103    195.5134   9.4898433011e+01   3.2833336490e+01    0.4319355     0.189151  70.59  0.002435672    1.862    0.463
        67 -11.2046     17.8145    194.8065   9.2001848535e+01   3.1704711513e+01    0.1732975    0.1012546  63.65   0.00108258    1.344    0.256
        68 -11.0761     11.5391    189.5258   9.3056794719e+01   3.3388602946e+01    0.2062175   0.08340584  82.78 0.0008926598    2.268    0.559
        69 -10.9961     17.9727    188.9940   9.1660148254e+01   3.2899212607e+01    0.2057824     0.098931  62.95  0.001141357    1.725    0.420
        70 -12.6274      3.9105    186.8238   9.4544981339e+01   3.4625925768e+01    0.5504918    0.1765932  64.75  0.002545852    2.721    0.633
        71 -12.0736      2.3180    177.0046   9.4463493182e+01   3.6844383000e+01    0.4467701    0.1663345  87.46  0.002183455    2.352    0.575
        72 -12.1814     12.0264    182.0688   9.2579536455e+01   3.4921958864e+01    0.3047527    0.1204895  81.92  0.001470502    2.375    0.579
        73 -12.4572      6.7453    170.5161   9.3162046831e+01   3.7893895443e+01    0.3084961    0.1297695 -88.38  0.001574528    2.037    0.509
        74 -11.2120      1.5167    169.0271   9.4280247520e+01   3.8646870074e+01    0.2841091    0.1383277 -71.81  0.001329237    1.872    0.466
        75 -12.3843      1.5241    163.4778   9.4013200377e+01   3.9877916183e+01    0.4194956    0.2142686  63.43  0.002413185    1.614    0.381
        76 -12.0566     11.2219    166.0497   9.1878503483e+01   3.8508998918e+01    0.2418817    0.1286189  75.14  0.001353789    1.596    0.373
        77 -12.3235      9.8757    154.9659   9.1526568577e+01   4.1146970917e+01    0.3031881    0.1515327 -83.85  0.001634589    1.670    0.401
        78 -12.4917      3.8092    152.4360   9.2877442068e+01   4.2210024310e+01    0.3624744    0.1398087 -79.11  0.001760551    2.125    0.529
        79 -11.7658      2.5232    141.5182   9.2553548882e+01   4.4848745154e+01    0.2581668   0.09772725 -81.65  0.001206468    2.154    0.536
        80 -10.6683      2.0000     93.0025   8.8734847256e+01   5.6664133047e+01    0.2162615   0.05805556 -76.71   0.00080439    2.956    0.662
        81 -13.5450      3.5060     49.2586   8.1329022501e+01   6.7172612357e+01     1.163948    0.1671448 -64.71  0.003968375    3.769    0.735
        82 -12.7094    211.8637    246.5104   5.9740087966e+01  -2.8160243426e+00    0.4655784    0.2546567   4.33  0.002710243    2.321    0.569
        83 -11.7695    168.1399    248.8444   6.7452917964e+01   2.7478994990e+00    0.3357314    0.1300281  30.03  0.001642716    2.465    0.594
        84 -11.9715     66.1519    247.8537   8.5766938911e+01   1.6497902186e+01    0.3849007     0.163173  52.46  0.002225228    1.841    0.457
        85 -10.6867     27.4618    248.1473   9.2616127702e+01   2.0806787429e+01    0.3047078   0.08264609  51.84  0.001605478    2.409    0.585
        86 -11.0582    110.5045    247.4914   7.7664251404e+01   1.0854517650e+01    0.1131988   0.08576034  45.38 0.0001199088    1.007    0.007
        87 -11.9230      8.4995     42.7918   7.7163582756e+01   6.8387007365e+01    0.2995063    0.1579138 -53.44   0.00156443    1.479    0.324
        88 -11.7631    127.7616    246.4235   7.4408744385e+01   8.6550217725e+00    0.2334058   0.08115003  40.94  0.001148487    2.160    0.537
        89 -12.7220     13.3439     35.8318   7.2407635352e+01   6.9618809854e+01    0.4772642    0.2161881 -66.01  0.002258341    2.116    0.527
        90 -12.0837     19.0194     29.3546   6.6766493152e+01   7.0541049739e+01    0.4411015    0.1621539 -39.50  0.001861524    2.629    0.620
        91 -12.5341     99.1137    243.7779   7.9426475010e+01   1.2948806584e+01    0.3960946    0.1689571  56.07  0.001993895    2.505    0.601
        92 -11.3295     45.8916    243.6228   8.9160066331e+01   1.9565491975e+01    0.3390976    0.1575583  50.55  0.001878204    1.547    0.354
        93 -12.4822     85.1470    242.9999   8.1947140353e+01   1.4905421299e+01    0.3072475     0.160881  55.84  0.001852685    1.671    0.402
