#   1 NUMBER                 Running object number                                     
#   2 MAG_AUTO               Kron-like elliptical aperture magnitude                    [mag]
#   3 X_IMAGE                Object position along x                                    [pixel]
#   4 Y_IMAGE                Object position along y                                    [pixel]
#   5 X_WORLD                Barycenter position along world x axis                     [deg]
#   6 Y_WORLD                Barycenter position along world y axis                     [deg]
#   7 A_WORLD                Profile RMS along major axis (world units)                 [deg]
#   8 B_WORLD                Profile RMS along minor axis (world units)                 [deg]
#   9 THETA_WORLD            Position angle (CCW/world-x)                               [deg]
#  10 FWHM_WORLD             FWHM assuming a gaussian core                              [deg]
#  11 ELONGATION             A_IMAGE/B_IMAGE                                           
#  12 ELLIPTICITY            1 - B_IMAGE/A_IMAGE                                       
         1 -13.0054    248.3809    133.3211   7.8626253854e+01   5.7227478661e+00     1.463077    0.6707835 -20.93  0.006357199    2.243    0.554
         2 -13.0983    200.5389     33.4389   5.8780632987e+01   3.0685055191e+01     1.056237    0.8470672   2.17  0.005300374    1.369    0.270
         3 -12.2806      2.0000     14.5751   1.1163515270e+02   7.2367856716e+01     1.261324    0.1837885 -61.75  0.003440099    7.300    0.863
         4 -12.4152      3.0080      3.9897   1.0661167712e+02   7.4335927088e+01    0.6058025    0.4439774 -31.90  0.004451949    1.167    0.143
         5 -13.7240    218.0634     15.3907   5.1162680855e+01   2.8209550704e+01     1.204217    0.9370601  26.49  0.005160813    1.489    0.329
         6 -10.8955    159.2769    244.0674   1.1213599386e+02   6.9010265881e+00    0.1920116    0.1317108  64.13 0.0004268602    1.669    0.401
         7 -11.5462    184.6206    248.9297   1.0875098201e+02   2.6561778064e+00    0.3465965    0.2154234  29.65  0.002457243    1.453    0.312
         8 -10.5411    176.3586    249.9676   1.1013486147e+02   3.7458529894e+00    0.3513937    0.1202627  35.40  0.001697135    2.894    0.654
         9 -10.7846    164.4909    241.9599   1.1108408151e+02   6.3801453764e+00    0.1462617    0.1192732  45.12  0.001167073    1.100    0.091
        10 -10.9396    169.1422    249.0672   1.1114506186e+02   4.8908552916e+00     0.247511    0.1912172  11.85 0.0004305494    1.629    0.386
        11 -11.6250    170.8421    244.0614   1.1032416263e+02   5.2010578396e+00    0.3603548    0.1626171  52.34  0.001353819    2.140    0.533
        12 -10.8843    162.4629    250.1902   1.1229545069e+02   5.7325897792e+00    0.2321108    0.1300863  47.45 0.0005265865    1.356    0.263
        13 -11.9462    150.0296    247.3387   1.1392573173e+02   7.8580287440e+00    0.3025822    0.2696334  79.90   0.00261192    1.363    0.266
        14 -11.6499    116.8006    238.4825   1.1831771700e+02   1.3734596687e+01    0.4908732    0.2750431 -48.84  0.003232716    2.533    0.605
        15 -10.7748    122.3007    233.2790   1.1694261761e+02   1.3674871468e+01    0.2882884    0.2016886 -47.52  0.002081186    1.986    0.496
        16 -11.6132    133.3851    249.1478   1.1668878936e+02   1.0008886865e+01    0.6561579    0.1849135  45.40  0.003277182    2.560    0.609
        17 -10.2018    135.9780    225.4318   1.1387859716e+02   1.2761022442e+01    0.2504934    0.1583005 -54.68  0.001467656    1.985    0.496
        18 -11.0757    116.1009    250.0025   1.1943390462e+02   1.2292590248e+01    0.4793653    0.2305087  42.58  0.002281761    1.622    0.383
        19 -11.3485    109.8555    247.8156   1.2021524359e+02   1.3426368329e+01    0.4367146    0.2787512 -86.30  0.003202248    1.947    0.486
        20 -11.6502    136.1255    241.4628   1.1552197080e+02   1.0591418645e+01    0.3089605    0.2069145 -45.12  0.001884154    2.091    0.522
        21 -12.5109    134.9327    234.4109   1.1500257532e+02   1.1689320420e+01    0.6237839    0.4201859 -54.58  0.004502524    1.911    0.477
        22 -11.8383    125.8351    242.1643   1.1722024159e+02   1.1968292823e+01    0.3787295    0.2756988 -79.69  0.001069396    1.716    0.417
        23 -11.6653     98.7797    223.1365   1.1987612287e+02   1.8475705558e+01    0.5595008      0.27516  64.43    0.0031937    2.150    0.535
        24 -10.8680     83.8261    240.4720   1.2369111029e+02   1.7869422689e+01    0.3595827    0.2010864  65.84  0.001449418    1.555    0.357
        25 -11.4697    105.1748    228.4776   1.1929656404e+02   1.6784691723e+01    0.3727291    0.2594303  39.30  0.002678907    1.449    0.310
        26 -10.5939     97.0933    239.1496   1.2150785768e+02   1.6332127922e+01     0.241737    0.1532028  61.51 0.0009290494    1.266    0.210
        27 -11.5374    100.3159    248.0008   1.2170020627e+02   1.4673599793e+01    0.5368468    0.2433057  47.26  0.003289653    1.599    0.375
        28 -12.4518    102.1425    239.3067   1.2072171518e+02   1.5633937097e+01    0.6211697    0.3841888 -89.12  0.004365323    1.931    0.482
        29 -11.4414     92.1717    241.7072   1.2248030096e+02   1.6616051804e+01    0.2841917     0.229419  75.27  0.001796341    1.211    0.174
        30 -11.3363    109.6118    232.5285   1.1893688515e+02   1.5575989908e+01    0.3447226    0.1895778  73.58  0.002054261    2.304    0.566
        31 -11.7615     87.8169    236.7972   1.2279213803e+02   1.7891558474e+01    0.5432684    0.2078545  55.80  0.003063511    2.206    0.547
        32  -9.9658     90.8530    250.2186   1.2330897316e+02   1.5600200085e+01    0.1939334    0.1417924  47.11  0.001109583    1.274    0.215
        33 -11.3933     86.4753    248.2648   1.2383584852e+02   1.6426891584e+01     0.304099    0.2376296  35.16 0.0009458954    1.653    0.395
        34 -10.3146     81.6156    247.7730   1.2454023836e+02   1.7107335523e+01    0.2399193    0.1452236 -84.14  0.001790776    1.812    0.448
        35 -11.5249     59.8231    245.7225   1.2769641787e+02   2.0032913690e+01    0.3673749    0.2445364  59.98  0.002100462    1.041    0.039
        36  -9.7649     66.8920    244.0250   1.2653181587e+02   1.9445512002e+01    0.2167349    0.1187581  36.89 0.0008880013    2.006    0.501
        37 -13.2842     10.5721    215.5636   1.3375036231e+02   2.9973222412e+01      1.09935    0.8887252  66.59  0.008932103    1.345    0.257
        38 -12.4201     11.1048    206.4442   1.3329297683e+02   3.1470024204e+01    0.9328285    0.5303081  20.64  0.005669407    3.683    0.728
        39 -12.8295     41.5977    206.6024   1.2825918799e+02   2.8354957195e+01     1.444694    0.5299787  71.03  0.007080858    3.138    0.681
        40 -13.7436     27.1561    247.1928   1.3253890003e+02   2.3383904605e+01     1.592312    0.6237163  36.65   0.01004166    2.777    0.640
        41 -12.8363     13.4482    238.5118   1.3417354493e+02   2.6040078074e+01    0.8233191    0.2746825  45.54  0.004010045    2.105    0.525
        42 -12.2257     44.1364    241.7898   1.2982519284e+02   2.2388555757e+01    0.5057413    0.2114211  89.12  0.001025531    2.523    0.604
        43 -11.9310     38.6038    237.3601   1.3043253709e+02   2.3660072135e+01    0.3820828    0.2540345 -62.64  0.001322023    2.104    0.525
        44 -12.9809     26.5843    225.9577   1.3171851295e+02   2.6708179713e+01    0.3999169    0.3728925  71.00  0.001017239    1.653    0.395
        45 -14.0869     32.6896    218.8179   1.3041682165e+02   2.7240760768e+01    0.9499507    0.6537122  88.44  0.007799307    1.277    0.217
        46 -10.7558    113.5530    230.7134   1.1812646018e+02   1.5283698425e+01    0.2387024    0.1985266  54.22  0.001107944    1.148    0.129
        47 -13.6924      5.5910    245.2323   1.3549823014e+02   2.5768789246e+01     1.143212    0.5469793  80.96  0.009111905    1.611    0.379
        48 -11.1504    128.9130    235.0369   1.1604160221e+02   1.2481078620e+01     0.331984    0.1781693  64.74  0.001906457    2.207    0.547
        49  -9.5723     54.8426    235.5867   1.2786890507e+02   2.2121647579e+01    0.1983256   0.08344162  65.54 0.0008795156    2.120    0.528
        50  -8.7270     70.5401    235.4662   1.2542046075e+02   2.0271768003e+01    0.1014923   0.07325485  62.34 0.0008081149    1.033    0.032
        51 -10.2237    168.7080    233.5362   1.0943788619e+02   6.7456241846e+00    0.2412398    0.1462866  24.14  0.001326969    2.019    0.505
        52 -10.0057    156.7355    232.4144   1.1124284144e+02   8.6995814098e+00    0.1568195     0.150018 -63.98  0.000484991    1.353    0.261
        53 -10.6814     84.4913    229.8282   1.2278901795e+02   1.9364746856e+01      0.22822    0.1831927 -54.61  0.001800542    1.812    0.448
        54 -10.3275    249.9920    230.9982   9.6488513740e+01  -5.0927829430e+00    0.1328227   0.09560546  20.82  0.001015536    1.020    0.019
        55  -8.9980     45.5300    230.9928   1.2904842283e+02   2.3888360115e+01    0.1301354   0.07937821 -88.83 0.0004370253    1.497    0.332
        56  -9.5655     56.8974    228.8350   1.2714201863e+02   2.2929812537e+01    0.2084223    0.1155195 -78.19  0.001085338    1.819    0.450
        57 -10.9768     79.2245    225.7782   1.2333345898e+02   2.0669692732e+01    0.3315932    0.1900638 -75.64  0.002047524    1.875    0.467
        58  -9.5237     77.1675    220.8056   1.2328754412e+02   2.1720321366e+01     0.160467    0.1073468  65.60 0.0004169299    1.175    0.149
        59 -10.2892    116.9856    224.5923   1.1696675852e+02   1.5683371825e+01    0.2522122    0.1886262  41.23 0.0009281319    1.296    0.228
        60  -9.6943     92.2160    225.9418   1.2121117429e+02   1.8938064191e+01    0.1700283    0.1105451  65.28 0.0007523587    1.292    0.226
        61  -9.8786     51.5912    225.2937   1.2776787087e+02   2.4107036665e+01    0.1669247    0.1327208  82.37 0.0004654693    1.252    0.201
        62  -9.2495     64.9087    224.3367   1.2556272340e+02   2.2686798592e+01    0.2044507    0.1503707 -47.00  0.001475747    2.340    0.573
        63 -11.7024    122.6156    246.6519   1.1813505783e+02   1.1832065350e+01    0.5032972    0.3196499 -83.49  0.002532246    2.155    0.536
        64  -9.1708    164.2969    224.0238   1.0899793613e+02   8.6053720506e+00     0.145279    0.1249761  45.65 0.0003488183    1.103    0.094
        65  -9.0916    132.0846    224.4775   1.1442592209e+02   1.3478530512e+01    0.1687351   0.08770917  43.77 0.0006904944    1.534    0.348
        66  -9.9692     87.6731    223.5499   1.2176279975e+02   1.9914702746e+01    0.2101561     0.137234  69.54 0.0009251279    1.335    0.251
        67 -11.1181     70.9851    219.5749   1.2422154928e+02   2.2702641081e+01    0.4331601     0.225926  83.31   0.00267488    2.085    0.520
        68 -10.7737    142.0969    219.8978   1.1222374093e+02   1.2606564982e+01     0.294077    0.2399503 -72.96  0.001645084    1.501    0.334
        69 -10.3345    245.7262    220.4302   9.5520862101e+01  -3.5492063369e+00    0.2580238   0.08999606 -22.68  0.001225484    3.633    0.725
        70 -10.8790    110.8724    217.2104   1.1726215859e+02   1.7680976595e+01     0.405699    0.2160976 -53.71  0.002469245    2.325    0.570
        71  -9.2566     89.3140    218.8185   1.2108605771e+02   2.0441224243e+01    0.2209212    0.1018692  58.52  0.001262053    1.938    0.484
        72  -8.6544     99.2884    218.3110   1.1934832251e+02   1.9154980923e+01   0.09187616   0.08416242  23.52 0.0003740346    1.580    0.367
        73  -8.3809     80.6830    216.7371   1.2237006914e+02   2.1921612345e+01   0.08978432   0.08041344  36.98 0.0001936157    1.546    0.353
        74  -9.6770    118.0665    214.9078   1.1578377441e+02   1.6982055376e+01    0.1684349    0.1215813  64.96 0.0003300341    1.252    0.201
        75  -9.4313     88.1134    212.8233   1.2076165008e+02   2.1571876201e+01    0.2036008    0.1288694  87.48 0.0009215569    1.650    0.394
        76 -10.7542     62.7427    208.7275   1.2479774500e+02   2.5531139365e+01    0.3635129    0.2176891 -71.58  0.002507746    1.712    0.416
        77 -10.9133     55.3504    208.1284   1.2602151934e+02   2.6522115907e+01    0.5205821    0.2582324  82.80  0.002754509    2.047    0.511
        78  -8.8435    130.7835    211.3833   1.1317719553e+02   1.5596419495e+01    0.1501876   0.09251112  39.49 0.0002090456    1.480    0.324
        79  -8.8388    106.5170    210.0003   1.1728125695e+02   1.9450146522e+01    0.1341286   0.09464691 -34.85 0.0007211706    2.475    0.596
        80 -10.3077    111.6035    206.8221   1.1604456955e+02   1.9217758632e+01    0.3223823    0.2018941  86.53  0.001480606    2.001    0.500
        81  -8.9614    156.1888    208.2072   1.0833901928e+02   1.2036878195e+01    0.1494875    0.1178307  61.42 0.0003038056    1.280    0.219
        82  -8.9362    134.3886    207.7623   1.1211116797e+02   1.5586906618e+01    0.1368677    0.1097539 -42.05 0.0008531929    1.622    0.383
        83  -8.6568     74.4449    208.4726   1.2275336721e+02   2.4105103188e+01    0.1110316    0.0818904  67.10 0.0001363102    1.039    0.037
        84  -9.7001     91.0075    204.9356   1.1951761548e+02   2.2489217327e+01    0.2859665    0.1466545  38.73  0.001145355    1.934    0.483
        85  -9.6208    106.6279    203.5317   1.1657681191e+02   2.0492467048e+01    0.2197842    0.1303157  77.45 0.0009325585    2.063    0.515
        86 -10.9420      4.0329    179.3259   1.3328041798e+02   3.6993406264e+01    0.2075229    0.2000132  79.87  0.001654799    1.615    0.381
        87 -10.3729     10.7869    188.4159   1.3252750540e+02   3.4711285087e+01    0.1910549    0.1255683  72.92 0.0008353037    1.068    0.063
        88 -11.3850      4.3930    186.2947   1.3353625365e+02   3.5664948514e+01    0.2948754    0.2104882  70.18 0.0004591762    1.103    0.094
        89 -10.7132      2.3457    193.1333   1.3417667955e+02   3.4597022866e+01     0.439225    0.1596654  63.59  0.002655608    2.108    0.526
        90  -9.8515     43.0086    200.2969   1.2761067370e+02   2.9308912662e+01    0.2262572    0.1536267 -56.81  0.001054947    2.027    0.507
        91 -11.9448     55.5149    193.9866   1.2493248989e+02   2.9009768996e+01    0.3814943    0.2410671 -59.14  0.001334736    1.922    0.480
        92 -10.7523     83.8557    201.5453   1.2047252133e+02   2.4050172848e+01     0.196347    0.1638286  80.64 0.0002753912    1.140    0.123
        93 -10.2829     21.3671    193.7100   1.3096672378e+02   3.2750972448e+01    0.2779365     0.168601 -78.86 0.0009863462    1.490    0.329
        94 -10.0814     26.9172    194.1678   1.3002930442e+02   3.2117899918e+01    0.3783684    0.1648627  84.46  0.001601809    2.098    0.523
        95 -10.6131     30.8312    192.9491   1.2927116623e+02   3.1941060435e+01    0.2347677    0.1801923 -61.63  0.000291297    1.743    0.426
        96  -8.9794    102.9853    196.4337   1.1645998286e+02   2.2230302370e+01    0.1715353   0.09699525  45.86 0.0003682084    1.521    0.343
        97 -10.4161    249.8434    193.9895   9.0529675940e+01  -1.6055427982e+00    0.2728342    0.1777733   7.24  0.001724409    1.443    0.307
        98  -8.8903     77.9810    194.0156   1.2082591938e+02   2.6169984413e+01    0.1345783    0.1045068  67.10            0    1.021    0.021
        99  -9.5704    191.4744    191.5136   9.9682366656e+01   8.4185624579e+00    0.2047134    0.1794441  28.74 0.0006042439    1.047    0.045
       100  -9.4535     66.5089    239.3894   1.2630201190e+02   2.0173528698e+01    0.2010513   0.09208833  69.18 0.0009068302    2.135    0.532
       101  -9.8337      2.4840    202.0281   1.3450565658e+02   3.3011277590e+01    0.2101196    0.1029467 -81.32  0.001462941    1.722    0.419
       102 -10.3674    250.2155    188.0932   8.9423724464e+01  -1.0521975049e+00    0.2939763    0.1425798 -15.21  0.001505367    2.337    0.572
       103  -8.9242     77.0504    188.3681   1.2044898778e+02   2.7323143688e+01    0.1565409    0.1206007  65.54  0.001093127    1.053    0.050
       104  -8.6065    145.5423    187.4471   1.0736038278e+02   1.6971788816e+01    0.1235283    0.1056796  53.23 8.532379e-05    1.020    0.020
       105 -10.1929     83.6622    186.6618   1.1902090957e+02   2.6739674199e+01    0.2011223    0.1625568  72.07 0.0002792226    1.016    0.015
       106 -10.5413     71.6187    186.8840   1.2132955267e+02   2.8314520909e+01    0.2262489     0.199794  28.09 0.0005890868    1.621    0.383
       107 -11.5985     62.1167    186.0891   1.2304869643e+02   2.9670130700e+01    0.2129984    0.1936677 -89.27 0.0004589563    1.336    0.252
       108  -9.3579     29.4952    184.6000   1.2898493224e+02   3.3628665783e+01    0.2491507    0.1479702 -54.74  0.001345501    2.329    0.571
       109  -9.1931     24.2710    184.0849   1.2990111691e+02   3.4247911809e+01    0.1586464    0.1307896  57.63 0.0009114066    1.347    0.258
       110  -8.6129     36.3764    182.7656   1.2759614796e+02   3.3260809624e+01    0.1477709   0.08222104 -69.31 0.0009495231    1.733    0.423
       111 -10.3382      3.3793    197.6381   1.3418762002e+02   3.3704163784e+01    0.2566375    0.1223126  55.07 0.0007731059    1.571    0.363
       112  -8.9165     47.2439    179.6605   1.2531569018e+02   3.2661164765e+01    0.1367828   0.09808092  37.79 0.0005184291    1.647    0.393
       113  -8.8611    102.9974    176.0015   1.1399648824e+02   2.5910649107e+01    0.1440653    0.1228362  73.49 0.0009582405    1.024    0.024
       114  -9.9360     65.1897    175.7370   1.2147850177e+02   3.1266147296e+01    0.2218341     0.151066  56.20  0.001024147    1.277    0.217
       115 -10.7582     73.3273    173.9986   1.1968296417e+02   3.0548915177e+01    0.2051016    0.1803312  87.28 0.0003811261    1.178    0.151
       116 -10.6751     19.4058    174.4008   1.3020449507e+02   3.6566232581e+01    0.2893048    0.1385368  74.60   0.00175951    1.773    0.436
       117 -11.9539    248.1306    172.5262   8.6845607687e+01   9.9136336501e-01    0.5890019    0.3955685 -18.41  0.003596351    1.423    0.297
       118 -11.6156    245.1321    162.3130   8.5306102377e+01   2.6974679751e+00    0.4094829    0.2394669 -26.88  0.002245928    1.667    0.400
       119 -12.0258    246.9444    158.0592   8.4158791927e+01   2.8904362214e+00    0.7792562    0.5981205 -67.78  0.004165241    2.593    0.614
       120 -11.4265     59.2095    172.8183   1.2237509444e+02   3.2584137318e+01     0.269335    0.2488584 -43.35 0.0007856985    1.617    0.381
       121 -10.3870     12.3756    173.0081   1.3143524267e+02   3.7477477461e+01    0.2403928    0.1381321 -70.92  0.001310565    1.647    0.393
       122 -11.3283      2.7298    172.4982   1.3318945664e+02   3.8400673047e+01    0.3827637    0.1556623  76.53  0.002234499    2.046    0.511
       123 -10.9883     14.1330    166.9620   1.3074825021e+02   3.8504162495e+01    0.4006205    0.2437211  76.63  0.002821057    1.247    0.198
       124 -11.5337     10.8486    157.8693   1.3082719276e+02   4.0607195804e+01    0.5602297    0.1674953  63.91  0.002449807    3.599    0.722
       125 -10.3718     12.3843    154.2395   1.3028321363e+02   4.1215142830e+01    0.2107835    0.1207132 -81.91 0.0006955349    1.365    0.267
       126 -10.6840      4.9994    167.0215   1.3248982219e+02   3.9275356420e+01    0.2427116    0.1906845  33.56  0.001050406    1.732    0.423
       127 -11.0658      8.8390    165.9564   1.3170273917e+02   3.9162798771e+01    0.3169901    0.1518848 -66.90  0.001747086    1.981    0.495
       128  -9.9077     27.5636    171.4304   1.2845944544e+02   3.6360747015e+01    0.2645603    0.1551634 -57.89 0.0008958367    2.056    0.514
       129 -10.0081    166.9324    170.2101   1.0053515427e+02   1.5989259589e+01    0.1847285    0.1783916  33.24  0.000340578    1.076    0.071
       130  -8.7043    124.6437    171.4716   1.0903251197e+02   2.3273573526e+01    0.1232366    0.1101859  72.99 1.515239e-05    1.044    0.043
       131  -9.0815     51.7474    171.0456   1.2369132577e+02   3.3828410566e+01    0.1566739    0.1216828  78.40 0.0006186397    1.008    0.008
       132  -8.7573     96.0686    169.1605   1.1450024409e+02   2.8271712468e+01    0.1696735    0.1207476  68.13            0    1.316    0.240
       133 -11.6843     81.0846    165.9797   1.1718202919e+02   3.1076674037e+01    0.5038704      0.36542  33.66  0.001515502    1.676    0.403
       134 -10.4907     81.9830    158.3786   1.1603013316e+02   3.2489358347e+01    0.3331824    0.2169258 -66.61 0.0007757348    1.472    0.321
       135 -10.5803     68.3377    166.3135   1.1985347844e+02   3.2729591699e+01    0.2189828    0.1737284  78.61 0.0003179893    1.027    0.027
       136  -8.8844     64.7043    167.2681   1.2070251627e+02   3.3004270468e+01    0.1425384    0.1332183  87.36 0.0003510012    1.308    0.235
       137 -10.5639     44.3874    165.3443   1.2465064789e+02   3.5810901594e+01     0.334982    0.2083882 -46.32  0.001952928    2.452    0.592
       138  -9.0616     43.2659    161.0396   1.2448887745e+02   3.6811525387e+01    0.1606702    0.1181929  83.92 0.0003418309    1.069    0.065
       139  -9.8433     31.1467    163.2556   1.2714600903e+02   3.7635515230e+01    0.2722982     0.134163  67.49  0.001227118    1.847    0.459
       140  -9.5913     37.6036    163.0556   1.2582578048e+02   3.7010117924e+01    0.2452264    0.0922353  53.25   0.00124233    2.395    0.583
       141  -9.4762     24.2217    162.0104   1.2843954060e+02   3.8566018806e+01    0.1535155    0.1118894  82.23 0.0004797198    1.013    0.013
       142  -8.8475     46.3145    156.9515   1.2346381796e+02   3.7316780266e+01    0.1989551   0.07596462  87.03 0.0007040966    4.416    0.774
       143 -11.0398     26.0264    155.3402   1.2756387185e+02   3.9757321194e+01    0.4173144    0.1337825  40.35  0.002060419    2.810    0.644
       144  -8.6992    228.4344    155.5008   8.6622248741e+01   6.5749688811e+00    0.1302297    0.1140816   9.33 0.0001447015    1.040    0.038
       145  -9.5161     32.8210    153.8549   1.2602101942e+02   3.9398280693e+01    0.1617756    0.1303455 -83.40 0.0004281214    1.183    0.155
       146 -10.8528    249.5576    150.9864   8.2284767363e+01   3.2848007146e+00    0.4475807    0.2449759 -27.42  0.002324879    1.728    0.421
       147 -13.0492    247.8894    101.1577   7.1090125305e+01   1.0094922131e+01     1.304651    0.7118067 -17.62   0.00586303    1.848    0.459
       148 -11.0722    143.3140    249.1099   1.1514620291e+02   8.6078786514e+00       0.3251    0.1560914  53.72  0.002011119    1.826    0.452
       149 -10.1720     94.9597    150.3570   1.1207270812e+02   3.2223302512e+01    0.2911211    0.2198174  60.71  0.001063869    1.241    0.194
       150 -10.5324     83.0834    149.3782   1.1455889136e+02   3.4201874067e+01    0.2273575    0.1788482 -65.36 0.0003898385    1.257    0.205
       151  -9.1378     55.2981    150.3090   1.2082631038e+02   3.7671083655e+01    0.1094871   0.08794088 -50.30 0.0003667556    1.595    0.373
       152 -10.8460     21.5044    148.9604   1.2800439260e+02   4.1505983573e+01    0.3640587   0.09828874  43.92  0.001733462    3.098    0.677
       153 -12.0464     68.2572    144.1578   1.1716843333e+02   3.7360268030e+01    0.6237733      0.39238  81.60   0.00244211    1.651    0.394
       154 -10.3431     57.5629    147.5220   1.2000107232e+02   3.7991378831e+01    0.4003591    0.2154675  39.22  0.002204679    1.965    0.491
       155  -9.8510     41.0714    147.5068   1.2364749231e+02   3.9879080032e+01    0.1582192    0.1070716  45.24 0.0006013931    1.538    0.350
       156 -13.0146      9.6088    142.0954   1.3002552541e+02   4.3963994757e+01    0.6839565     0.462324 -52.42  0.000877166    1.885    0.469
       157 -12.1493      5.5119    141.5182   1.3086352865e+02   4.4406274351e+01    0.3858098     0.325886  25.53  0.002653211    1.717    0.418
       158  -9.8987    235.9906    145.9723   8.3369175661e+01   6.4166949566e+00    0.2128525    0.1411291  13.31 0.0005217424    1.618    0.382
       159  -8.7780     98.2867    146.3226   1.1070216441e+02   3.2543110625e+01    0.1206512    0.1031183 -29.63 0.0002976362    1.601    0.375
       160  -9.7246    133.2353    140.8519   1.0196757348e+02   2.7608566271e+01     0.341378    0.1791689 -59.45  0.001325607    2.213    0.548
       161 -10.8106     16.6076    139.7394   1.2832252168e+02   4.3885245693e+01    0.2245753    0.1673208 -84.01 0.0007104697    1.112    0.100
       162  -9.6521    107.8430    135.9717   1.0674825579e+02   3.3152633131e+01    0.3090734    0.2188414 -15.60  0.001402047    2.706    0.631
       163  -9.5350     59.6520    136.4966   1.1812740184e+02   4.0125666998e+01    0.2000713    0.1020818 -68.61 0.0004708509    1.726    0.421
       164 -10.1701     47.5086    135.7034   1.2087552054e+02   4.1730066366e+01      0.20872    0.1602023  10.49  0.001274667    2.106    0.525
       165 -13.2089      3.8732    125.2267   1.3005378648e+02   4.7996569489e+01     1.050327    0.3015143 -71.54  0.002545395    2.495    0.599
       166 -12.7311      9.3891    113.2196   1.2768332166e+02   5.0234448954e+01     0.566045    0.2480196  88.09  0.002910279    2.119    0.528
       167 -10.1985    249.7048    117.9423   7.4884799322e+01   7.4781453341e+00    0.3841751    0.2551426   0.04  0.001343358    1.611    0.379
       168 -10.1771     44.6019    130.0464   1.2086991161e+02   4.3301025945e+01     0.199096    0.1463169  69.37 0.0006316353    1.269    0.212
       169 -12.1801     12.0711    127.4254   1.2832325464e+02   4.6908765281e+01    0.3976552    0.2096989  42.38   0.00195115    1.986    0.496
       170  -9.6886     48.2055    126.0598   1.1947731685e+02   4.3793373384e+01    0.1881285    0.1582001  71.16 0.0003218495    1.167    0.143
       171  -9.9544      1.5779    152.7675   1.3237387458e+02   4.2389408548e+01    0.1558051   0.07414109  86.01 0.0006930616    1.631    0.387
       172 -10.4974    231.9117    116.3742   7.7263314306e+01   1.1308826320e+01    0.2433078    0.1808967 -34.03 0.0006756854    1.322    0.244
       173  -8.8872     94.5125    133.1851   1.0936202686e+02   3.5937033144e+01    0.1739539    0.1183022 -48.81 0.0004389063    1.570    0.363
       174  -9.9266    167.7805    112.9437   8.8236519217e+01   2.5931261751e+01    0.3140601    0.2524219  89.87  0.000932097    1.618    0.382
       175 -11.9543    247.9409    142.6272   8.0749336480e+01   4.6167987490e+00     0.557236    0.4139081  -0.49  0.003260253    1.243    0.196
       176  -8.8619    203.4868    111.4985   8.0905656747e+01   1.8204339032e+01    0.1491581    0.1356593   3.53 9.661602e-05    1.057    0.054
       177 -11.8051      1.9471    106.8501   1.2898200840e+02   5.2152169229e+01    0.7171448   0.07892737 -73.55  0.002303291    5.132    0.805
       178  -9.1619     29.3857    108.7863   1.2199165752e+02   4.9612194234e+01    0.1805122   0.08567967 -62.73 0.0009479352    1.706    0.414
       179 -10.6076     18.7736    105.9642   1.2446895451e+02   5.1153062760e+01    0.1844704    0.1437688 -87.01 0.0005084436    1.055    0.052
       180 -12.2985     15.0972    101.3330   1.2490923511e+02   5.2484013099e+01    0.4485414    0.2529023 -57.56  0.001591517    1.611    0.379
       181  -8.5718     71.6765    100.2468   1.0889492722e+02   4.6745640542e+01     0.130446   0.09621686  77.36 0.0002165219    1.533    0.348
       182  -9.9675     21.0282     93.7102   1.2224672764e+02   5.3766030906e+01    0.1602403    0.1338476 -75.86  0.000379039    1.112    0.101
       183 -12.0785    247.9119    113.0006   7.3976136744e+01   8.4935373698e+00     0.811448    0.5088595  13.64  0.003855712    1.918    0.479
       184 -11.0228      2.1351     80.3308   1.2607056889e+02   5.8083482494e+01    0.3902039   0.04005522 -71.25  0.001204064    5.118    0.805
       185 -12.0558    200.5029    245.9288   1.0596540687e+02   6.5097331023e-01     0.490747    0.1432597  46.42  0.002323982    2.894    0.654
       186 -11.0063     73.8628    244.0325   1.2547201131e+02   1.8599917204e+01    0.2809139    0.2110633 -80.80  0.002391253    1.494    0.331
       187 -11.6056    179.1187    243.5714   1.0897670785e+02   4.0340738757e+00     0.356778    0.1597886  41.73  0.002144356    1.661    0.398
