#   1 NUMBER                 Running object number                                     
#   2 MAG_AUTO               Kron-like elliptical aperture magnitude                    [mag]
#   3 X_IMAGE                Object position along x                                    [pixel]
#   4 Y_IMAGE                Object position along y                                    [pixel]
#   5 X_WORLD                Barycenter position along world x axis                     [deg]
#   6 Y_WORLD                Barycenter position along world y axis                     [deg]
#   7 A_WORLD                Profile RMS along major axis (world units)                 [deg]
#   8 B_WORLD                Profile RMS along minor axis (world units)                 [deg]
#   9 THETA_WORLD            Position angle (CCW/world-x)                               [deg]
#  10 FWHM_WORLD             FWHM assuming a gaussian core                              [deg]
#  11 ELONGATION             A_IMAGE/B_IMAGE                                           
#  12 ELLIPTICITY            1 - B_IMAGE/A_IMAGE                                       
         1 -11.9280     77.1185     21.4923   7.4151410586e+01   6.2771957786e+01    0.4682775    0.4583529 -56.90  0.002374675    1.170    0.145
         2 -10.2283    100.1575     18.8549   6.5559798857e+01   5.7900850674e+01    0.4208356    0.2039145 -49.29  0.001563774    2.712    0.631
         3 -11.6341     34.6996     12.8603   8.9059292781e+01   7.1715940266e+01    0.4039735     0.269511 -54.09  0.001110101    1.676    0.403
         4 -11.5695     30.1819      7.2382   8.8433575308e+01   7.3336982980e+01    0.3590915    0.3145789  26.31  0.001510429    1.293    0.227
         5 -11.5366    234.5581     14.9913   4.4705573405e+01   2.3796288246e+01    0.2692989    0.2152904 -82.62 1.146611e-06    1.326    0.246
         6 -10.1894    203.3665     11.8257   4.6324510978e+01   3.1542321857e+01    0.1853775    0.1286701  -7.72 0.0004251132    1.573    0.364
         7 -10.0004    117.5708     12.0512   5.8211201490e+01   5.4318741196e+01    0.2658289    0.1954653  76.49 0.0007102827    1.476    0.323
         8 -11.0765     89.1385     13.8485   6.6245803659e+01   6.1180587575e+01    0.4521617    0.3372069 -65.53   0.00148908    1.804    0.446
         9 -10.1810     39.7285     10.6698   8.4920219995e+01   7.1374744645e+01    0.2330706    0.1614915 -36.28 0.0003029141    1.288    0.223
        10 -11.3577     40.9424      7.3665   8.2219429024e+01   7.1736797317e+01    0.4221448    0.2997629  35.20 0.0004978743    1.499    0.333
        11 -10.3933     14.8445      9.0895   9.9803684843e+01   7.4730262127e+01    0.3017465    0.1410272 -33.57  0.000571394    2.212    0.548
        12 -10.8235     93.0345      8.6926   6.2465376074e+01   6.0881550085e+01    0.4158724    0.2227546 -12.33  0.001748933    2.113    0.527
        13  -9.8880     88.7144      7.2824   6.2931534374e+01   6.2078370610e+01    0.2720167    0.1669508 -33.45 0.0006404802    1.631    0.387
        14 -10.0452     91.3570      2.9838   5.9907608270e+01   6.1907583460e+01    0.3572507    0.2595983  58.46  0.001854864    1.361    0.265
        15 -11.9063     57.2953      3.6530   7.1854377932e+01   6.9374443573e+01    0.6119138    0.3192929 -21.55  0.002820697    1.952    0.488
        16 -10.4503     22.4814      9.5973   9.4814188104e+01   7.3851185045e+01    0.3146727    0.2190773 -11.35  0.001526345    1.587    0.370
        17 -10.0842     24.2093      4.4290   9.0538217763e+01   7.4602691796e+01    0.3207999     0.133888 -40.10   0.00113883    2.076    0.518
        18 -11.5291     17.0870      3.1594   9.4751890151e+01   7.5649894337e+01    0.3107384    0.2011161 -41.83 0.0009984485    1.286    0.222
        19 -10.7317     20.4721      2.4588   9.1856370937e+01   7.5401625380e+01     0.225586    0.1785579 -10.49 0.0007342411    1.214    0.176
        20 -10.0342      4.0257     10.0415   1.0819437926e+02   7.5371220357e+01    0.1826142    0.1388299 -47.60 0.0003835967    1.042    0.040
        21 -10.1098      2.4591      6.4977   1.0780577675e+02   7.6211458987e+01    0.2074654    0.1550881  24.21 0.0008354953    1.605    0.377
        22 -11.3519    152.6604      9.3047   5.1092411094e+01   4.5177022566e+01    0.4809362    0.2698555 -53.18  0.002028286    1.994    0.499
        23  -9.8754    156.0019      7.9651   5.0142820302e+01   4.4395400889e+01      0.23286    0.1585126  37.90 0.0003406961    1.581    0.368
        24  -9.9272     10.9078      7.3151   1.0173198587e+02   7.5431698280e+01    0.3740406    0.1673572 -51.02  0.001906243    1.777    0.437
        25  -9.9601    210.5248      7.5179   4.4461175120e+01   3.0163075688e+01    0.1352649    0.1244768 -47.96 0.0001276196    1.010    0.010
        26 -10.2695     65.0512      6.7583   7.0583999176e+01   6.7407844404e+01    0.2542788    0.1871412 -16.57 0.0005414464    1.300    0.231
        27 -10.3015    235.5767      4.2628   4.1829013031e+01   2.4546926131e+01    0.1779386    0.1176946  -8.47 0.0009517465    1.640    0.390
        28 -11.1312    130.3852      3.4468   5.2063587675e+01   5.1764091027e+01    0.2878175    0.2430956 -73.89 0.0007704878    1.278    0.218
        29  -9.9339    120.8175      4.1949   5.4036387493e+01   5.4257279904e+01    0.2051556    0.1576199  35.80 0.0004180138    1.303    0.232
        30 -11.5040     79.9807      1.9501   6.2553767619e+01   6.4715635115e+01    0.4236849    0.2262358  43.47  0.001932584    1.802    0.445
        31  -8.9583      7.0022      5.0000   1.0349479355e+02   7.6208450922e+01    0.1705884   0.06748635  20.75 0.0006168193    2.928    0.658
        32  -9.9592    230.7093      3.6614   4.1973075470e+01   2.5706172554e+01    0.1273296   0.09545322  26.87  0.000339042    1.643    0.392
        33 -10.3555    174.5984      2.6787   4.6133931467e+01   3.9846178591e+01    0.4626048    0.1692004  62.66  0.001743885    2.471    0.595
        34  -9.4727    112.5471      2.8114   5.4973818934e+01   5.6564248967e+01    0.1952916    0.1301425 -33.26  0.000302862    1.533    0.348
        35  -9.4679      2.3636      2.8665   1.0611350913e+02   7.6965676606e+01    0.2078034    0.1264279  -1.74   0.00122768    1.911    0.477
        36 -10.1439    100.9680      2.2499   5.7166858611e+01   5.9594781641e+01    0.2238681    0.1824335 -89.24  0.001183362    1.429    0.300
        37 -10.2876     10.2829      1.8221   9.9118564212e+01   7.6565627382e+01    0.2044397    0.1597627  -6.06 0.0008017743    1.316    0.240
        38  -9.9635    203.8116      1.4051   4.3191572968e+01   3.2367843447e+01    0.1838873    0.1185272  61.29 0.0003627274    1.599    0.375
        39 -10.0172    187.0409      1.3368   4.4529436843e+01   3.6670351123e+01    0.1975777    0.1275455  80.30 0.0009598368    1.551    0.355
        40  -9.5609    153.9214      1.1722   4.7865542709e+01   4.5562168346e+01    0.1954037    0.1053082  75.05 0.0004976002    1.826    0.452
        41  -9.7498     67.1000      1.4855   6.6584157548e+01   6.7635126279e+01    0.1864922    0.1305052  51.90 0.0004033432    1.458    0.314
        42 -10.8120     70.8328      6.0892   6.8007608380e+01   6.6278030235e+01    0.3858925    0.2779158 -30.53  0.002068819    1.360    0.264
        43 -11.4259     11.3877    129.4184   1.2551568136e+02   4.7083364606e+01     0.436709    0.1740794  49.04  0.002200095    2.220    0.550
        44 -10.5905     12.2466    249.4645   1.3038711734e+02   2.4705114267e+01    0.1616999    0.1227647 -57.04  0.001294222    2.135    0.532
        45 -12.7495      5.4729    239.8992   1.3126189096e+02   2.6724613395e+01    0.4743444    0.3348396  29.89  0.003493878    1.648    0.393
        46 -11.0700      1.8074    248.3505   1.3203975661e+02   2.5783173236e+01    0.3040103    0.1618586  62.19  0.002494279    1.312    0.238
        47 -12.4349      9.0400    244.9105   1.3079462058e+02   2.5660355442e+01    0.3882813    0.2839708  13.82  0.003148632    2.212    0.548
        48 -12.0821      4.1877    232.5402   1.3130483074e+02   2.7967653430e+01    0.2421544    0.1225791  55.53   0.00032844    1.318    0.241
        49 -12.6554      9.7459    228.4409   1.3024529353e+02   2.8128287601e+01    0.4316648    0.2549385  64.22  0.001480362    1.243    0.196
        50  -9.3927     28.6251    128.2094   1.2062305961e+02   4.5896391044e+01    0.1626623   0.09938639 -68.52 0.0002464333    1.511    0.338
        51  -9.3206     20.4608    125.4329   1.2267376459e+02   4.7258820637e+01    0.1232186   0.09799123  76.16 -6.493767e-05    1.057    0.054
        52 -12.0274     23.1661    120.8148   1.2147021243e+02   4.8089170966e+01    0.5850343    0.2434315  60.90  0.001820308    2.589    0.614
        53 -10.5752     17.9700    122.0010   1.2308802143e+02   4.8252094613e+01    0.1755808    0.1482123  87.57            0    1.059    0.055
        54 -10.1904      7.9475    121.1386   1.2589962554e+02   4.9209685330e+01    0.1843055    0.1273507  68.30 0.0003516211    1.246    0.198
        55 -10.4089     72.2129    112.9797   1.0568640823e+02   4.4227012163e+01    0.2093063    0.1867986  55.93 0.0003123329    1.109    0.098
        56 -10.6831     65.5255    110.5408   1.0725191345e+02   4.5748833167e+01    0.2764026    0.2089177  70.22 0.0007526596    1.378    0.274
        57 -11.6881     57.0328    108.2861   1.0947324254e+02   4.7414837214e+01    0.2895229    0.2492127   0.77  0.001704302    1.504    0.335
        58 -11.6003      3.4687    108.7437   1.2633765815e+02   5.2358529552e+01    0.3503364    0.2322285  15.82  0.001615142    1.906    0.475
        59 -10.9254     13.5268    108.8445   1.2324250036e+02   5.1653135943e+01    0.2095703    0.1627046  36.71  0.001348038    1.413    0.292
        60  -9.5380    187.0179    103.2632   7.4973099712e+01   2.3455021541e+01     0.197098    0.1772528  39.97 0.0005891528    1.128    0.113
        61  -9.9465     66.6608    102.3006   1.0531443916e+02   4.7517156868e+01    0.1441323    0.1000571  70.90 0.0003358205    1.667    0.400
        62  -9.2952    194.5092     98.5718   7.2420499812e+01   2.2540190738e+01    0.1425993    0.1320591   2.81  0.000206434    1.012    0.012
        63 -10.5035     61.9687     98.0064   1.0595320442e+02   4.9187311392e+01    0.2218718    0.1604631 -34.74  0.001138345    1.703    0.413
        64  -9.8332    100.7333     96.6028   9.3582339418e+01   4.3147413622e+01    0.2557119    0.1815843 -74.43  0.001181784    1.758    0.431
        65 -11.7113     78.8306     95.0533   9.9861377334e+01   4.7346834322e+01    0.2574583    0.2228282 -63.19 0.0003019136    1.104    0.094
        66 -10.3374      3.4739     95.5124   1.2528921805e+02   5.5457211262e+01    0.2041647    0.1662495 -85.59 0.0001446295    1.034    0.033
        67 -11.2282     17.8108     94.9152   1.2037325660e+02   5.4639196534e+01    0.2011296    0.1764556  42.99 0.0007083152    1.276    0.216
        68 -11.7586     11.0765     89.9854   1.2213696874e+02   5.6300027778e+01    0.7274069    0.1813405 -74.56  0.001961374    3.216    0.689
        69  -9.3339     62.9787     93.0128   1.0456534761e+02   5.0227084061e+01    0.1592467    0.1487074 -84.34 0.0009492087    1.025    0.024
        70  -9.8761     29.4274     92.1907   1.1597552782e+02   5.4321709219e+01     0.215537    0.1705718  58.58 0.0007659196    1.286    0.222
        71 -10.6814     25.0665     89.9771   1.1718418098e+02   5.5242454001e+01    0.2901703    0.1981674  83.27  0.001366727    1.424    0.298
        72 -10.8099     57.5422     92.0347   1.0619041337e+02   5.1203235532e+01    0.2465855    0.1968123   3.06  0.001213134    1.660    0.398
        73 -10.2729     43.2154     89.2265   1.1060524409e+02   5.3633298485e+01    0.5449744    0.2565427 -80.53  0.002205399    2.625    0.619
        74  -9.6923     39.5867     86.7943   1.1144379818e+02   5.4617405954e+01    0.2218893    0.1345072  76.72 0.0003789037    2.022    0.506
        75 -11.9544     18.6992     88.3008   1.1922273535e+02   5.6161885425e+01    0.4786809    0.2890679 -87.64  0.002221051    1.521    0.343
        76 -10.0742     76.6241     89.0071   9.9105613923e+01   4.9096909856e+01    0.2288357     0.202516  20.71  0.000909146    1.294    0.227
        77  -9.7273     64.8178     88.4474   1.0291547783e+02   5.1040912295e+01    0.2292347    0.1534544 -54.98 0.0007286571    1.396    0.284
        78  -9.5404      1.5466     89.1041   1.2538515363e+02   5.7082465317e+01    0.1896882   0.09797649 -81.13  0.001022692    1.575    0.365
        79  -9.2460    150.0050     88.2163   7.8492903957e+01   3.4350397599e+01    0.1952225    0.1217958  50.14  0.000372983    1.602    0.376
        80  -9.3338     33.0000     88.1069   1.1405158034e+02   5.4971522539e+01    0.2048767   0.06576344 -68.67 0.0005552704    2.726    0.633
        81 -10.8253    124.5222     83.6332   8.3376398627e+01   4.0981073532e+01    0.5268125    0.2539051 -38.82  0.001369561    2.119    0.528
        82  -9.5268    114.0525     85.6045   8.6787062962e+01   4.2834348546e+01    0.1974976       0.1819  36.83 0.0005629151    1.111    0.100
        83 -10.6566     54.7188     84.6024   1.0555331603e+02   5.3345348984e+01    0.2928427    0.1967443 -77.00 0.0008907918    1.554    0.357
        84  -9.1999     72.2827     85.6673   9.9710530263e+01   5.0561813410e+01    0.1433078    0.1076695  83.93 0.0003468908    1.614    0.380
        85 -10.8543      3.8733     82.1466   1.2387827272e+02   5.8613029414e+01    0.3910985    0.1864251 -84.67  0.001657877    1.801    0.445
        86 -11.2008     64.4187     79.4266   1.0084140378e+02   5.3214762932e+01    0.4434898    0.2841989 -67.28   0.00143403    1.602    0.376
        87 -10.1525     89.5523     80.7413   9.2700337582e+01   4.8723249096e+01    0.2521764    0.2003905 -74.18 0.0004333568    1.419    0.295
        88  -9.7635     24.6665     78.6926   1.1555249657e+02   5.8006759798e+01    0.2348374    0.1698504 -19.85  0.001266737    1.812    0.448
        89 -10.6074     28.0868     77.0527   1.1394033667e+02   5.8105915903e+01    0.1950761    0.1784597 -50.94 0.0003732787    1.166    0.143
        90 -10.5277    176.9373     76.9698   6.9708491658e+01   2.9897230206e+01    0.2344344    0.2279801 -15.78  0.001308903    1.029    0.028
        91 -10.8677     16.9080     75.4681   1.1804500417e+02   5.9395211928e+01    0.3912865    0.2236454   3.93  0.002005187    2.457    0.593
        92  -9.3438      5.9692     75.9210   1.2238288588e+02   5.9988517820e+01    0.2946896   0.08923589 -53.61  0.001220357    2.894    0.654
        93 -11.0393     55.9644     75.3260   1.0287027632e+02   5.5377829034e+01    0.4085104    0.3125723  23.88  0.001346724    1.524    0.344
        94  -9.8122    160.6087     75.2299   7.2387038899e+01   3.4105391255e+01    0.2033895    0.1443766 -20.05 0.0002620813    1.529    0.346
        95  -9.5494     70.3052     75.3264   9.7643506915e+01   5.3258726195e+01     0.143902    0.1084968 -24.72  0.000275396    1.648    0.393
        96  -9.7023     73.9780     75.0000   9.6257509967e+01   5.2737039065e+01    0.2806529    0.1170979  38.50  0.001074962    2.541    0.606
        97  -9.8482     41.9961     75.2691   1.0817358100e+02   5.7128952521e+01    0.1865874    0.1709692 -76.53 0.0005851677    1.044    0.042
        98 -10.0897     36.6621     75.2918   1.1025110392e+02   5.7701277455e+01    0.2160482    0.2116887  49.44 0.0009929339    1.164    0.141
        99 -10.2965     36.2032     72.1801   1.0976115567e+02   5.8497692959e+01    0.5072645    0.2986419  -4.96  0.002258209    2.886    0.653
       100  -9.3332    136.5219     74.4507   7.7541333553e+01   4.0000300198e+01    0.1517085    0.1478043   7.13 7.594159e-05    1.028    0.027
       101  -9.7995     92.7518     72.7928   8.9297855823e+01   4.9845994391e+01    0.2048553    0.1745418 -85.05  0.001056806    1.358    0.264
       102  -9.5959     81.4154     73.1679   9.3153914189e+01   5.1872492312e+01    0.2072728    0.1346108 -61.64 0.0009206086    1.657    0.397
       103 -10.4517    106.0943     72.0063   8.4938344079e+01   4.7304697287e+01     0.248535    0.2151162  46.97  0.000472195    1.181    0.153
       104  -9.4388     76.2615     71.6474   9.4473795189e+01   5.3108943451e+01    0.1440307    0.1109481 -84.96 0.0002586401    1.615    0.381
       105 -10.5511     10.6656     67.7724   1.1937805345e+02   6.1672080045e+01    0.3609763    0.1743138 -78.89  0.001157703    1.817    0.450
       106 -11.8343      8.8741     61.8075   1.1919606340e+02   6.3214315482e+01    0.6051723    0.1823043 -51.75  0.002196685    2.806    0.644
       107  -9.4353    216.9938     72.0665   6.1905154443e+01   2.1295353908e+01     0.171568    0.1469677 -21.75 0.0004710985    1.064    0.060
       108  -9.3314     57.4080     68.2708   1.0042350096e+02   5.6827100690e+01    0.1411624    0.1044543 -19.14 0.0003621639    1.763    0.433
       109 -11.6411     14.1888     64.0766   1.1727857906e+02   6.2334178722e+01    0.4423191    0.2506554  86.36 0.0004282147    1.904    0.475
       110 -13.8271     19.9783     57.6848   1.1346885524e+02   6.3448322232e+01    0.4661137    0.2920987 -69.74  0.001180641    1.366    0.268
       111 -11.0270     39.0426     62.1026   1.0616744289e+02   6.0596227716e+01    0.6067129    0.2733003 -45.25  0.002626762    2.207    0.547
       112 -10.0851     46.6114     69.4585   1.0497031179e+02   5.7972339362e+01    0.2428845    0.1367919  29.54 0.0008776638    2.010    0.502
       113 -10.3780    133.1993     65.5878   7.5496088734e+01   4.2395229468e+01    0.2234703    0.1390905  40.97 0.0005563473    1.702    0.412
       114 -10.4879     75.9020     64.8817   9.2490653846e+01   5.4669962788e+01    0.2135895    0.2027917  29.99 0.0003086415    1.124    0.110
       115 -10.5363     64.0640     61.4470   9.5791751768e+01   5.7391701889e+01    0.4664928    0.3219368  -2.96  0.002123105    2.262    0.558
       116  -9.2278    193.3143     62.2737   6.2641930731e+01   2.8116620932e+01    0.1980373    0.1218652 -28.14 0.0002539526    1.540    0.350
       117  -9.6775    192.8130     58.7981   6.1700457166e+01   2.8715840333e+01    0.1990005    0.1660145 -60.35 0.0003914663    1.317    0.241
       118  -9.9284    100.8818     61.5256   8.3007400901e+01   5.0521412773e+01    0.2396994    0.2045754 -67.46 0.0005680048    1.310    0.237
       119  -9.3607     53.6026     61.8614   1.0005959971e+02   5.8838548443e+01    0.1941415    0.1245002 -68.34  0.000649643    1.667    0.400
       120  -9.5671    177.7330     59.0182   6.4199018142e+01   3.2410526511e+01    0.2043709    0.1852096 -22.88 0.0002235262    1.071    0.067
       121 -10.8864     91.6908     55.3010   8.3707405730e+01   5.3678183532e+01    0.3839453    0.2437787  41.86   0.00127717    1.648    0.393
       122 -11.1473     83.6204     56.8549   8.7012261439e+01   5.4966281375e+01    0.2935492    0.2527514  68.58 0.0004495943    1.342    0.255
       123 -11.5285     87.5654     53.6150   8.4465993660e+01   5.4850306119e+01    0.4530814    0.3389272  21.44  0.001550224    1.622    0.383
       124  -9.0217     48.3351     58.2587   1.0114764713e+02   6.0372641792e+01    0.1337658    0.1001374 -24.54 0.0002632922    1.574    0.365
       125  -9.5321    130.3587     57.6830   7.3502544254e+01   4.4472714725e+01    0.1607485     0.120799 -73.96 0.0007043937    1.756    0.431
       126  -9.9389     33.6509     54.6511   1.0651528596e+02   6.2928435788e+01    0.2740692    0.1170105 -42.34  0.001080744    2.492    0.599
       127 -10.7520     34.5877     64.9792   1.0877016958e+02   6.0389125024e+01    0.3217916    0.2256857 -49.40 0.0007445498    1.323    0.244
       128  -9.4578    158.1575     56.4012   6.6949026415e+01   3.7737722047e+01    0.2086473    0.1486347  76.53 0.0006565887    1.679    0.404
       129 -11.7752    114.6295     53.9561   7.6265636215e+01   4.8885364266e+01    0.3494579    0.3259222  50.45 0.0007536985    1.095    0.087
       130 -10.1220     96.9488     55.2762   8.1996344637e+01   5.2585991013e+01    0.2022112    0.1969729  18.21 0.0004706283    1.049    0.046
       131  -9.3180     54.3847     55.4760   9.7734547098e+01   6.0180731638e+01    0.1382972    0.1226448 -54.23 -5.77925e-07    1.038    0.037
       132  -9.8486    226.3131     54.3462   5.5987675006e+01   2.1430382582e+01    0.1426542      0.10008  18.09 0.0007046784    1.713    0.416
       133 -12.3534     66.0443     52.6199   9.2013122428e+01   5.9008681804e+01    0.5469795    0.2666607  36.24  0.002306378    2.272    0.560
       134 -11.3473     25.9904     43.3821   1.0689015203e+02   6.6297312701e+01    0.5070955    0.3296936  52.15  0.002723279    1.946    0.486
       135 -11.2857     18.7849     32.3416   1.0717828642e+02   6.9438985523e+01    0.8879793    0.3881839 -17.14  0.002923815    5.526    0.819
       136 -10.1394     25.7986     29.5674   1.0221014151e+02   6.9407776186e+01    0.2132114    0.1574544 -58.92 0.0003288078    1.243    0.195
       137 -10.7424     18.5070     44.9299   1.1110579671e+02   6.6576603390e+01     0.474838    0.3411733  41.26  0.001974749    1.631    0.387
       138 -10.4714     12.9263     41.1463   1.1299080296e+02   6.7862644031e+01    0.2408695    0.2000213 -82.34 0.0003634395    1.206    0.171
       139 -10.4065     22.8816     38.4933   1.0696648387e+02   6.7697553992e+01    0.1995874    0.1481916  40.52 0.0005647265    1.590    0.371
       140 -11.1681     26.8058     34.9831   1.0368766698e+02   6.8117866422e+01    0.3962427    0.2166483 -33.77   0.00139534    2.006    0.501
       141 -13.3325      5.6446     50.7952   1.1877080159e+02   6.6023989608e+01    0.3849256    0.2466384 -52.85 0.0005893428    1.362    0.266
       142 -11.1572     12.3359     48.4787   1.1504674450e+02   6.6180946767e+01    0.4078668    0.2308893  32.56  0.001669772    2.028    0.507
       143  -9.4384    164.0684     54.0000   6.5036402371e+01   3.6596327146e+01    0.2561876   0.08676162  59.81 0.0008123007    3.011    0.668
       144  -9.7684    105.7997     53.3777   7.8577206089e+01   5.1013475460e+01    0.2819731    0.1467108  54.29 0.0009091985    2.068    0.516
       145 -10.0768    123.2337     51.7601   7.3169900080e+01   4.7223039441e+01    0.3322326    0.2022004  69.81 0.0007398369    2.146    0.534
       146  -9.5155     98.2991     49.2059   7.9275943412e+01   5.3450851820e+01    0.3163502    0.1332768 -32.28   0.00109089    2.690    0.628
       147 -11.0964     77.2902     47.4233   8.5742593345e+01   5.8089387055e+01    0.5378716    0.3588817  -8.62   0.00229296    2.335    0.572
       148  -8.9408     47.3301     50.2734   9.9029459000e+01   6.2319501765e+01    0.1355912   0.09919219 -24.07 0.0006987266    1.590    0.371
       149 -10.5937     57.5718     47.1862   9.3486943332e+01   6.1529977811e+01    0.3697155    0.2268677 -63.86 0.0009568056    1.937    0.484
       150  -9.3752     53.4818     48.4655   9.5708071887e+01   6.1865510910e+01    0.1390148     0.123968 -39.84 0.0008090733    1.040    0.038
       151  -9.3784    154.5894     47.5681   6.4674012022e+01   3.9978609982e+01    0.1493123    0.1462157 -22.66  9.34137e-05    1.008    0.008
       152  -9.2214    135.5272     46.4514   6.8259829805e+01   4.5039209678e+01    0.1507595     0.149016 -42.30 0.0001007408    1.029    0.029
       153 -10.0900     70.1469     42.5598   8.6515075435e+01   6.0379990520e+01    0.2685335    0.2221901 -75.37  0.001422957    1.523    0.344
       154  -9.4869    159.5818     41.8439   6.1777481723e+01   3.9493554276e+01    0.2211109    0.1320809 -39.81 0.0004244939    1.647    0.393
       155 -10.6346      3.7386     41.5360   1.1791649900e+02   6.8306425611e+01    0.3889526     0.184362 -33.52  0.001930755    2.371    0.578
       156 -11.0154    139.7921     40.6616   6.5195033326e+01   4.4821893931e+01    0.3664894    0.2613945  83.82 0.0009862309    1.738    0.425
       157 -10.0907     35.3667     41.4392   1.0157629668e+02   6.5769062744e+01    0.2781935    0.1634111  23.00  0.001402064    2.019    0.505
       158  -9.9346    181.0143     40.4800   5.7849435919e+01   3.4098980387e+01    0.2128998    0.1468431  65.85 0.0003929501    1.500    0.333
       159  -9.7991     51.8237     39.8403   9.3161218725e+01   6.3958277067e+01    0.2007716    0.1706472 -26.26 0.0002563104    1.158    0.136
       160  -9.5736     42.8022     40.6657   9.7684702436e+01   6.5035884508e+01    0.1650481    0.1225281  42.06 0.0004230138    1.544    0.352
       161 -12.0455    121.5513     37.1944   6.8008327190e+01   4.9994995908e+01     0.478047    0.4461753  79.10  0.001358002    1.148    0.129
       162 -10.1271    127.9777     38.7497   6.7086746731e+01   4.8137703720e+01    0.2676536    0.2312149 -89.50 0.0004560822    1.316    0.240
       163 -10.3094    131.4580     38.5742   6.6222819832e+01   4.7275749253e+01    0.2524414    0.2283458  65.38 6.607582e-05    1.138    0.121
       164  -9.6883     99.9316     39.2463   7.4759053286e+01   5.4860373501e+01    0.2022016    0.1956987  33.41 0.0004673426    1.056    0.053
       165 -10.9951      3.2754     35.0509   1.1672882346e+02   6.9840332225e+01    0.3921823     0.193541 -51.69  0.002109777    1.641    0.391
       166 -10.6173     38.8502     35.7210   9.7707309549e+01   6.6606859128e+01    0.2782561    0.2089517   2.68  0.001349053    1.602    0.376
       167 -12.1336     41.1145     29.9580   9.4145203792e+01   6.7523960351e+01    0.7241552    0.4392099   9.63  0.003377932    2.424    0.587
       168 -10.3471     96.7920     33.2460   7.3144152818e+01   5.6574133838e+01    0.3890906    0.1902427 -37.07  0.001572839    1.973    0.493
       169  -9.9045    134.1440     34.2059   6.3947458717e+01   4.7211295487e+01    0.2161565     0.187273  32.58 0.0003367675    1.186    0.157
       170  -9.5892     50.4412     33.4981   9.1137310714e+01   6.5472106009e+01    0.1359279    0.1219939 -38.96  8.02446e-05    1.044    0.042
       171  -9.8465     72.8631     32.3809   8.1023621981e+01   6.1803480823e+01    0.1921302    0.1299239  32.04 0.0005278501    1.631    0.387
       172 -10.2781    166.3627     30.9615   5.6898997283e+01   3.9117995840e+01    0.2286426    0.2038118 -73.71 0.0004014418    1.174    0.148
       173 -10.2755    128.6745     31.0564   6.3892001214e+01   4.9067928692e+01    0.4207401    0.1893221  55.81  0.001404896    2.120    0.528
       174  -9.3655    186.9923     29.8056   5.3629140666e+01   3.3845479483e+01    0.2166304    0.1595733  11.48  0.001043323    1.610    0.379
       175  -9.5794    146.9576     26.4779   5.8488013421e+01   4.4842205437e+01    0.2049093    0.1974798  65.54 0.0003164643    1.037    0.036
       176  -9.3455     69.9898     28.9721   8.0554318168e+01   6.2966959455e+01    0.1741322    0.1518859 -27.88 0.0005000475    1.067    0.063
       177 -10.6744      8.0583     28.4716   1.1218126946e+02   7.1084730081e+01    0.2531101    0.2132314  60.20  0.001690167    1.451    0.311
       178 -11.4439     18.0578    248.9782   1.2942972173e+02   2.4245698247e+01    0.2012105    0.1442962  18.54  0.001621914    2.067    0.516
       179 -10.8482    113.8454     24.9242   6.4776774501e+01   5.3698944701e+01    0.3773934    0.2474747  45.74 0.0009927268    1.511    0.338
       180  -9.3038     18.3227     26.2881   1.0527183748e+02   7.0818905092e+01    0.1303383   0.08067947 -33.67 0.0007008128    1.604    0.376
       181  -9.5301    153.2903     25.4524   5.7022549805e+01   4.3270746849e+01    0.2020918    0.1456777  85.34 0.0007538449    1.555    0.357
       182 -10.4585     58.9599     24.2787   8.2881956777e+01   6.5834978017e+01    0.2704757    0.2341956  25.26  0.001026056    1.200    0.167
       183  -9.8830    121.5936     24.2613   6.2669514361e+01   5.1810038229e+01    0.4641111     0.109645  51.45  0.001348202    3.671    0.728
       184  -9.5952     69.2799     24.0142   7.8408015652e+01   6.3958570256e+01    0.2003844    0.1646637 -32.26 0.0003803265    1.148    0.129
       185  -9.3099    172.6296     23.3020   5.3375271818e+01   3.8345097959e+01    0.1608092     0.104291 -61.19 0.0007032127    1.747    0.428
       186 -10.4923      1.8738     21.9381   1.1405366726e+02   7.2897336250e+01    0.2694954    0.1447362 -67.27  0.000869539    1.544    0.353
       187 -11.4910     30.6458     21.2592   9.5825794729e+01   7.0619786883e+01    0.2634878     0.197869 -40.49 0.0005476308    1.138    0.121
       188 -11.1286     14.5277     21.4359   1.0571579142e+02   7.2188164808e+01    0.2964178    0.2034907  43.76   0.00174673    1.850    0.460
       189  -9.6081     84.7212     21.3724   7.1451438061e+01   6.1143914897e+01    0.1997134     0.127294  42.15 0.0005748353    1.586    0.370
       190 -10.3398     41.1398     19.9961   8.9357097670e+01   6.9485015299e+01    0.3857678     0.226436  15.12  0.001302317    2.427    0.588
       191  -9.8459     43.3355     15.1490   8.5571834789e+01   7.0043051813e+01    0.2580399    0.1999098 -74.63  0.001371881    2.076    0.518
       192  -9.7893    229.5186    248.0165   9.4197860281e+01  -1.2679581159e+00    0.1500378   0.09604879  24.82 0.0006487261    1.080    0.074
       193  -9.7242     36.4819     18.4926   9.1116369293e+01   7.0421470390e+01     0.192647    0.1088262 -37.32 0.0009627598    1.606    0.377
       194  -9.7927    224.9819    246.5141   9.4684108966e+01  -5.8725815478e-01    0.1527524   0.07109347  32.81  0.001012369    1.544    0.352
       195  -9.6254    136.3615    245.7127   1.0899257814e+02   1.1062514755e+01    0.1067587   0.06306435  52.46 0.0007023293    1.688    0.408
       196  -9.6022    199.5476     17.4741   4.8382527540e+01   3.1954196210e+01    0.1399748    0.1304106 -46.89 0.0001135077    1.006    0.006
       197 -10.5986    108.4709     16.4130   6.2264172421e+01   5.6151916770e+01    0.2321246    0.2155843  -1.94 0.0002871786    1.059    0.056
       198  -9.5608    140.1966     26.6560   5.9796147654e+01   4.6622032342e+01     0.218614    0.1294707  53.79 0.0005482371    1.632    0.387
       199  -9.8404     26.7345     16.7953   9.5953956013e+01   7.1968988134e+01    0.1559145    0.1441349 -68.20 0.0004257428    1.310    0.237
       200  -9.8208     20.2116     16.9166   1.0010830765e+02   7.2636353703e+01    0.1957015     0.170893   2.25 0.0005331754    1.246    0.197
       201 -10.7535     13.9411     16.1028   1.0384800439e+02   7.3372753332e+01    0.3438111    0.1757368  24.73  0.001580582    2.236    0.553
       202  -9.1934     45.3102    244.7326   1.2471394962e+02   2.2180702140e+01    0.1028926   0.04872527  54.38 0.0001817144    1.541    0.351
       203  -9.4406     49.3918     16.1925   8.3068076537e+01   6.8890306354e+01    0.1823585    0.1169464 -45.70 0.0004509252    1.574    0.365
       204  -9.9698    175.5326     14.9942   5.0196477808e+01   3.8450972149e+01    0.2170006    0.1408835 -21.42  0.000383475    1.541    0.351
       205 -10.3358    190.6405     13.8368   4.8154571306e+01   3.4595132893e+01    0.2386129    0.1877254  59.81 0.0006897811    1.302    0.232
       206  -9.6462    162.4603     13.4363   5.1291154728e+01   4.2115276748e+01    0.1435447    0.1405453 -87.77 5.339411e-05    1.006    0.006
       207  -9.1946     95.2456     13.6269   6.4365891919e+01   5.9758937507e+01    0.1462168    0.1049118 -50.85 0.0006942624    1.628    0.386
       208  -9.9107     60.4203    241.0065   1.2190749849e+02   2.1093499411e+01    0.2459624   0.06868148  35.71  0.001242064    2.694    0.629
       209 -10.0401     50.1495    241.1548   1.2370804412e+02   2.2195264128e+01    0.1469539   0.08372755  58.80  0.001079216    1.373    0.272
       210  -9.0893     68.6853     12.6721   7.2602013267e+01   6.5845440361e+01     0.145225    0.1011212  12.15 0.0007044196    1.673    0.402
       211  -9.6650    202.3997    240.2520   9.7382325824e+01   2.8543176607e+00    0.1101553   0.09573893 -14.88 0.0006140438    1.507    0.337
       212  -9.8826    148.5142    238.9808   1.0621015616e+02   1.0247794975e+01    0.1271854    0.1085592 -43.10  0.001034534    1.597    0.374
       213 -11.2022     14.1613    238.7238   1.2978092330e+02   2.6130740986e+01    0.1588595   0.09156018  66.24 0.0004936384    1.330    0.248
       214 -11.9107     26.4755    235.4285   1.2756947256e+02   2.5480301102e+01    0.2517217    0.2066609 -83.49  0.002116631    1.508    0.337
       215  -9.1339     42.6425    236.2863   1.2478371276e+02   2.3721769010e+01    0.1100463   0.04883454  54.78 0.0007022491    1.677    0.404
       216  -9.9211    249.2154    234.0803   8.9422852971e+01  -2.5338663484e+00    0.1521448   0.09461825  14.20 0.0004237147    1.173    0.147
       217  -9.0528     80.3095    231.6660   1.1774331843e+02   2.0156818848e+01    0.1116334   0.06019418  57.99 0.0007042828    1.675    0.403
       218  -9.3079    209.5129    229.5139   9.4836221672e+01   2.9481258136e+00    0.1081086   0.07796642  23.30  4.78214e-05    1.024    0.024
       219 -10.6299    140.5029    228.0033   1.0642776516e+02   1.2723980923e+01    0.1925434    0.1743841 -86.15  0.001199334    1.499    0.333
       220  -9.9073     57.4801    229.4748   1.2176576013e+02   2.3164560521e+01    0.1060201   0.07542312  52.80 0.0008097766    1.014    0.014
       221  -9.7832     33.2102    225.3483   1.2596701453e+02   2.6404133174e+01    0.2741139          nan  40.06   0.00110096    4.175    0.761
       222 -10.6435    248.5002    129.5016   7.1145032467e+01   7.9217790543e+00    0.1261012    0.1020362  -1.62  0.000810692    1.005    0.005
       223 -11.5966      8.6674    218.2397   1.3014438254e+02   2.9880501257e+01    0.2391864    0.1807082   2.47  0.001803086    2.333    0.571
       224  -9.9756     20.1755    209.6841   1.2772181315e+02   3.0284297698e+01     0.168977   0.08518863  50.18 0.0008391294    1.424    0.298
       225 -10.5413     10.0207    203.3094   1.2942189852e+02   3.2315198797e+01    0.1474863   0.09994975  52.58 0.0004940374    1.121    0.108
       226  -9.9350     23.1155    197.2156   1.2661141731e+02   3.2211224621e+01    0.1475497    0.1263417  62.60 0.0005168139    1.210    0.174
       227 -10.7708     14.0182    192.8931   1.2825089271e+02   3.3837967779e+01    0.1649591    0.1114972  60.61 0.0005378443    1.091    0.083
       228  -9.3012     19.3211    192.6433   1.2716761713e+02   3.3403241856e+01    0.1205351   0.05429601  59.83 8.062237e-05    1.762    0.432
       229 -10.6977      6.5033    191.5704   1.2971019248e+02   3.4730868445e+01    0.1940332    0.1383924  62.24  0.001502259    1.016    0.015
       230  -9.7675     15.3399    185.9100   1.2768653509e+02   3.5021843282e+01    0.2543784   0.08580295 -87.94   0.00125332    2.937    0.659
       231  -9.4160     22.6541    179.7213   1.2583574498e+02   3.5538293627e+01   0.09375511   0.08425771 -39.55 0.0002611284    1.634    0.388
       232 -10.7820      5.3874    167.6143   1.2904752288e+02   3.9423229727e+01    0.2263663    0.1318083  74.47  0.001148042    1.381    0.276
       233  -9.4815    226.5919    164.1786   8.1467123789e+01   7.5006575689e+00    0.1644298    0.1019496 -11.77 0.0005849698    1.607    0.378
       234  -9.5230    247.4926    155.5149   7.6580668824e+01   5.1562308039e+00    0.1220484   0.09424844   5.02 2.348613e-05    1.027    0.026
       235 -10.5027      2.9665    153.5049   1.2900445338e+02   4.2493225355e+01    0.1584076   0.09951783  33.60  0.001044247    1.624    0.384
       236 -10.6677     23.9041    150.8373   1.2376334872e+02   4.1321905241e+01    0.1637937    0.1481491 -88.97 0.0004792583    1.218    0.179
       237 -10.4499     22.7070    143.0127   1.2349263948e+02   4.3125559279e+01    0.1714222    0.1300177  87.27 0.0006474351    1.126    0.112
       238 -10.2951     12.0800    141.1732   1.2610424900e+02   4.4425809000e+01    0.1657043    0.1380934 -78.62 0.0005381337    1.235    0.190
       239  -9.3963    236.3414    139.3314   7.4994193060e+01   8.8338195393e+00    0.1353556   0.08343179  11.60 0.0007051336    1.748    0.428
       240 -10.4672      9.0081    135.5397   1.2655524192e+02   4.5899972237e+01    0.1770731    0.1281296  85.23 0.0003573079    1.129    0.114
       241 -10.4975    213.6066    134.3796   7.7573996316e+01   1.3526049747e+01     0.367106    0.2372119  64.45  0.001661014    2.460    0.594
       242 -10.6527      3.0126    133.2631   1.2800561044e+02   4.6834809373e+01     0.323769    0.1260934  47.82  0.001687635    2.183    0.542
       243  -9.7951     35.1147    130.9495   1.1908334121e+02   4.4640055404e+01    0.1806519    0.1361162 -46.84  0.000532514    1.617    0.382
       244  -8.9199     29.3424    131.2991   1.2072106355e+02   4.5125748026e+01    0.1166155   0.08869424 -43.53 0.0005001696    1.671    0.401
