#   1 NUMBER                 Running object number                                     
#   2 MAG_AUTO               Kron-like elliptical aperture magnitude                    [mag]
#   3 X_IMAGE                Object position along x                                    [pixel]
#   4 Y_IMAGE                Object position along y                                    [pixel]
#   5 X_WORLD                Barycenter position along world x axis                     [deg]
#   6 Y_WORLD                Barycenter position along world y axis                     [deg]
#   7 A_WORLD                Profile RMS along major axis (world units)                 [deg]
#   8 B_WORLD                Profile RMS along minor axis (world units)                 [deg]
#   9 THETA_WORLD            Position angle (CCW/world-x)                               [deg]
#  10 FWHM_WORLD             FWHM assuming a gaussian core                              [deg]
#  11 ELONGATION             A_IMAGE/B_IMAGE                                           
#  12 ELLIPTICITY            1 - B_IMAGE/A_IMAGE                                       
         1 -15.4853    186.0680     87.2329   7.0620961389e+01   2.6347234561e+01     9.318163     2.225036 -40.12    0.0269738    4.079    0.755
         2 -16.5602    247.8015     74.5677   5.8419649905e+01   1.4801118184e+01     11.00183     2.917536 -17.99   0.01929577   14.214    0.930
         3 -18.0914    237.5682     28.4624   4.7837419241e+01   2.2087992504e+01     9.946917     8.759731  52.06   0.06294736    1.288    0.224
         4 -12.8436    104.2753     22.8485   6.6117725668e+01   5.6399352317e+01    0.6291876     0.173273 -33.44  0.002002099    3.283    0.695
         5 -11.9992    213.7310     15.6808   4.6395526637e+01   2.8881262420e+01    0.2546068    0.1967527 -32.32 0.0008043208    1.183    0.155
         6 -12.5845    106.8538      7.1695   5.8139703715e+01   5.7665572911e+01    0.6584988    0.3682708  21.88  0.002698814    2.308    0.567
         7 -12.1255    105.3167      2.6503   5.6288932022e+01   5.8509562445e+01    0.6189152    0.3210746  -1.29  0.002487281    2.437    0.590
         8 -10.5880     11.1045      9.6869   1.0244673659e+02   7.4885215170e+01    0.1648293     0.138293 -28.05  0.000483275    1.113    0.102
         9 -10.0934    223.1052      8.4450   4.3637140563e+01   2.7336200398e+01    0.3034454    0.2848981  77.11  0.001945542    1.159    0.137
        10 -12.0193    216.5211      5.5799   4.3322568829e+01   2.9157150624e+01    0.3403527    0.2015982 -25.06  0.001380232    1.562    0.360
        11 -11.3319    209.6023      5.3404   4.3771668824e+01   3.0855580232e+01    0.2675631    0.1744015 -42.92  0.001054722    1.391    0.281
        12 -11.5337     57.1096      2.8538   7.1281387926e+01   6.9493909679e+01    0.1999613    0.1847127 -40.69  0.001056817    1.261    0.207
        13 -10.1633     64.6526      1.3178   6.7272082133e+01   6.8162993170e+01     0.132353    0.1039039 -60.64 0.0005672618    1.728    0.421
        14 -10.3055     97.2081    222.2658   1.1332141442e+02   1.9485845934e+01    0.1550209    0.1004895  55.41  0.000536671    1.357    0.263
        15 -11.9658    134.5585    107.8636   8.7004906444e+01   3.4127113833e+01     1.119696    0.2047711 -44.66  0.002783336    5.591    0.821
        16 -11.1153    132.2951     97.3987   8.4873923530e+01   3.6659003281e+01    0.3070186    0.2508867 -69.73 0.0002330479    1.431    0.301
        17 -11.2527    178.0258    110.0337   7.8034069896e+01   2.4484414698e+01    0.2203042    0.2021053   7.09 0.0005122163    1.048    0.046
        18 -14.0161    165.1425     71.9043   7.0180926826e+01   3.3699564094e+01     1.225318    0.9155227   3.74  0.005115779    1.658    0.397
        19 -11.7333    219.4517    168.6562   8.3059561178e+01   8.3199795762e+00    0.2534443    0.1804568  28.36 0.0008713595    1.219    0.180
        20 -12.8388    151.4197     85.3107   7.7007838821e+01   3.4666642087e+01    0.4158914    0.3434394 -24.36 0.0007999412    1.251    0.200
        21 -12.4009    156.1517    101.4142   8.0369088958e+01   3.0712808171e+01    0.6537876    0.4315092 -55.32  0.002952916    1.828    0.453
        22 -12.3150    154.0843     94.6944   7.9036103010e+01   3.2378661431e+01    0.6482011    0.5599351  70.81  0.002377414    1.303    0.233
        23 -10.1379    140.2941    104.9650   8.4899436970e+01   3.3485147788e+01    0.2037392    0.1876983 -39.22 0.0004403844    1.103    0.094
        24 -10.9169    112.3272    104.0800   9.1777635233e+01   3.9377623099e+01    0.3214266    0.2941472 -26.95  0.001197324    1.190    0.160
        25 -11.8358    116.2531    101.2498   9.0016900768e+01   3.9198623510e+01    0.3205087    0.2582645  84.92   0.00161028    1.511    0.338
        26 -13.8455     64.2494    156.2699   1.1373880808e+02   3.5765436663e+01    0.6142479    0.4218183  68.55  0.001419289    1.399    0.285
        27  -9.5276     72.4235    105.3695   1.0366036043e+02   4.5991745796e+01    0.1352812    0.1240174  80.67 0.0001009503    1.040    0.039
        28 -11.2065    145.2743    101.2220   8.2767422113e+01   3.3125621516e+01    0.3208516    0.2654177  26.57  0.000673802    1.291    0.225
        29  -9.7625    113.2985     95.0367   8.9208851499e+01   4.1089152039e+01    0.2011327    0.1836648 -52.08 0.0002930741    1.092    0.084
        30 -13.1387    167.3975     86.3840   7.3933604438e+01   3.0780337846e+01    0.7087249    0.5537038   2.76   0.00348467    1.508    0.337
        31 -11.8740    159.4875     84.4211   7.5007340505e+01   3.2951362307e+01    0.4304302     0.338485 -22.76  0.001241242    1.324    0.244
        32 -11.7482    138.3566     90.8671   8.1608063628e+01   3.6602225733e+01    0.3426584     0.299994  83.87  0.001157565    1.314    0.239
        33 -11.7535      6.0447    166.0182   1.2832540256e+02   3.9725368372e+01    0.1730499    0.1247822  66.83 0.0004456918    1.055    0.052
        34  -9.8004     33.8875    209.1394   1.2455600195e+02   2.9068242399e+01    0.1247539    0.1100834  59.64 0.0002510665    1.265    0.210
        35 -11.3289    133.2182    144.1059   9.5208616532e+01   2.7386315211e+01     1.108461    0.2710037 -54.28  0.002669491    7.792    0.872
        36 -10.5875    170.0825    136.0980   8.5612883630e+01   2.1805630165e+01    0.2086959    0.1728324 -88.51 0.0007398343    1.735    0.424
        37 -10.3664    124.6999     76.2319   8.0739802834e+01   4.2464110192e+01    0.2644449    0.2271169 -64.52 0.0007600336    1.271    0.213
        38 -10.8682     86.7574     74.5357   9.1380859128e+01   5.0627122129e+01    0.5361025    0.2153783 -59.50  0.001695721    3.564    0.719
        39 -11.7271    204.1517     64.8191   6.1505011464e+01   2.5413108918e+01    0.5424673    0.3765128 -27.84  0.002107051    1.342    0.255
        40 -13.0007    192.0201     67.8014   6.4193855882e+01   2.7854349362e+01    0.7806919    0.3773747 -48.38  0.002628375    2.423    0.587
        41 -13.8156    196.9005     66.1614   6.2962386760e+01   2.6929468598e+01    0.9268625    0.6022869 -30.31   0.00281523    1.441    0.306
        42 -12.1922    194.3092     59.0522   6.1314996532e+01   2.8526860939e+01    0.3032337    0.2285143 -40.89 0.0005020226    1.288    0.223
        43 -10.5991    157.0855     71.9954   7.1840454550e+01   3.5631896326e+01    0.2262665     0.216201  -6.97  0.000375061    1.044    0.042
        44 -11.5975    246.5465    163.3719   7.7842718825e+01   4.6758051163e+00    0.4892988    0.2397261   9.76  0.002227068    2.974    0.664
        45 -10.1349     81.1017     65.6374   9.0513940615e+01   5.3591683887e+01    0.1895188    0.1794652  38.07 0.0004472959    1.115    0.103
        46 -13.3719    211.1333     56.9224   5.8346649948e+01   2.4823528467e+01    0.5403391    0.4007248  40.72  0.002840027    1.462    0.316
        47 -11.5999     98.0437     40.2056   7.5469241910e+01   5.5148319726e+01    0.4352461    0.1954549 -41.90  0.001249073    2.194    0.544
        48 -13.8080     51.0338    166.4367   1.1795971600e+02   3.5268257122e+01    0.7089731     0.516776 -19.87  0.001135153    2.400    0.583
        49 -11.0371     93.5541     29.5540   7.2263657324e+01   5.7922069958e+01    0.4387123    0.1400124 -33.06  0.001440903    3.081    0.675
        50 -14.6611      7.7400    192.8714   1.2900011599e+02   3.4416263200e+01     1.743764    0.7965184  81.38   0.01077951    1.929    0.482
        51 -10.9089    201.4441     24.4084   5.0119823620e+01   3.1002688596e+01    0.2800515    0.1603186 -24.44  0.001290935    1.657    0.397
        52 -11.5466     11.6517    162.7262   1.2689774535e+02   3.9938053409e+01    0.1825311    0.1343908  55.11 0.0006997486    1.150    0.131
        53 -11.4512    159.6111     19.6365   5.3764544670e+01   4.2396148459e+01    0.3398558    0.2660471   0.59 0.0002214155    1.423    0.297
        54  -9.5117    163.6032     16.8204   5.2199146272e+01   4.1632769654e+01    0.2513953    0.1934632  40.90 0.0006260378    1.373    0.272
        55  -9.8379     91.8110     22.6505   6.9603130285e+01   5.9368896869e+01    0.1954658    0.1377483  66.21  0.000490284    1.651    0.394
        56  -9.2101     81.3229     22.6875   7.3041556403e+01   6.1690971124e+01    0.1406075    0.1118527 -67.53 0.0005149445    1.656    0.396
        57 -11.7970    172.1620    149.6582   8.7978284173e+01   1.9213616517e+01    0.2697417    0.2076603  55.82  0.001511214    1.474    0.322
        58 -10.6000    205.9193     19.3227   4.8160725700e+01   3.0424281348e+01    0.2338816    0.1561891 -38.13 0.0007079457    1.366    0.268
        59 -11.3163     38.9672     19.0160   8.9717511009e+01   6.9939188549e+01    0.2156306     0.145729 -17.00  0.001132522    1.718    0.418
        60 -12.5319    192.5788    194.6633   9.2100527579e+01   9.3858100359e+00    0.8147155    0.4677769 -61.23  0.003039843    6.483    0.846
        61  -9.8453     97.4843     15.4848   6.4501319124e+01   5.9017214597e+01    0.1433449    0.1360597  12.72 0.0008102893    1.000    0.000
        62 -14.7268     57.9939    161.2021   1.1579733724e+02   3.5518730257e+01     1.489423     1.092161  25.23  0.003057528    1.605    0.377
        63 -10.7373     44.3290     13.3249   8.3763145495e+01   7.0166861450e+01    0.1366256   0.09516726  -6.56 0.0007050105    1.700    0.412
        64 -14.4307    168.2589    114.9872   8.1199546037e+01   2.5727714940e+01     2.063807     1.408744  66.33  0.003289467    1.941    0.485
        65 -10.6306    202.1273    248.1862   9.7915831524e+01   2.2630870588e+00    0.1524697    0.1009086  21.90 0.0003681951    1.141    0.124
        66 -10.4933    165.8657    134.7493   8.6186753461e+01   2.2854685502e+01    0.2096145    0.1774038  17.32 0.0006277462    1.183    0.155
        67 -11.0617    135.8353    130.7764   9.1937837700e+01   2.9423111990e+01    0.6382157    0.1240292 -48.90  0.001616123    6.167    0.838
        68 -10.9942    135.1230    122.0295   9.0206416175e+01   3.1247048762e+01    0.5878708    0.1878498 -49.03  0.001909294    3.477    0.712
        69  -9.5501     98.4559    133.5368   1.0170743449e+02   3.5589526157e+01    0.1350167    0.1264209  64.90 0.0001071118    1.018    0.018
        70 -12.3744    160.5745    128.5230   8.5937161760e+01   2.4969528460e+01    0.4482561    0.3363093 -49.57  0.001680163    1.489    0.328
        71 -15.0703     24.6423    183.8013   1.2511326822e+02   3.4598667878e+01    0.9308596    0.7410609  43.34  0.004911868    1.268    0.211
        72 -13.9460     69.5103    145.4381   1.1107707092e+02   3.7378366103e+01     1.464883    0.9047216  67.47  0.003801747    1.744    0.427
