#   1 NUMBER                 Running object number                                     
#   2 MAG_AUTO               Kron-like elliptical aperture magnitude                    [mag]
#   3 X_IMAGE                Object position along x                                    [pixel]
#   4 Y_IMAGE                Object position along y                                    [pixel]
#   5 X_WORLD                Barycenter position along world x axis                     [deg]
#   6 Y_WORLD                Barycenter position along world y axis                     [deg]
#   7 A_WORLD                Profile RMS along major axis (world units)                 [deg]
#   8 B_WORLD                Profile RMS along minor axis (world units)                 [deg]
#   9 THETA_WORLD            Position angle (CCW/world-x)                               [deg]
#  10 FWHM_WORLD             FWHM assuming a gaussian core                              [deg]
#  11 ELONGATION             A_IMAGE/B_IMAGE                                           
#  12 ELLIPTICITY            1 - B_IMAGE/A_IMAGE                                       
         1 -12.3311     26.9181     56.3742   8.4337824089e+01   6.2652155583e+01     1.051529    0.6560112  -2.38  0.005791617    1.612    0.380
         2 -12.2194    125.5226     28.0931   4.0967223147e+01   4.9290758734e+01    0.5547782    0.4891973 -31.54  0.003078569    1.302    0.232
         3 -10.6744    109.4361     41.9898   4.9051551131e+01   5.1218475479e+01    0.8657336    0.3474365 -31.07  0.003538611    2.820    0.645
         4 -12.6056    119.7005     37.3917   4.5096050908e+01   4.9526556308e+01    0.8961691     0.502508 -53.70  0.003878067    2.493    0.599
         5 -11.6036    106.1104     20.7350   4.2829078048e+01   5.4400444422e+01    0.4523751    0.3497337 -63.13  0.002642224    1.716    0.417
         6 -11.8044    107.7795     30.6986   4.5753008729e+01   5.2965827934e+01    0.7946481     0.421795   5.11  0.002943152    4.120    0.757
         7 -12.2927    160.0565     29.7022   3.5383365171e+01   4.1185136819e+01    0.4339206    0.3829097  35.47 0.0003554831    1.340    0.254
         8 -12.1091     27.2805     27.5264   7.3707127755e+01   6.7534180022e+01    0.5651819    0.3796737  -4.55  0.002181398    1.302    0.232
         9 -12.5301     20.0611     21.6997   7.4957005206e+01   6.9188089280e+01    0.5029045    0.2319387 -33.38  0.002232756    1.985    0.496
        10 -10.8171     13.9630      8.4369   7.2291679473e+01   7.1641807741e+01    0.2834929    0.1866145  -0.57 0.0006342669    1.207    0.172
        11 -13.4253    163.6826     19.0114   3.2148588131e+01   4.1518543325e+01    0.5415555    0.2728603  54.47  0.000971893    1.846    0.458
        12 -11.7537    148.0712     16.1653   3.3605640317e+01   4.5361520979e+01    0.6133323    0.2494107  40.07  0.002390038    3.648    0.726
        13 -12.3491    121.6068     11.6990   3.6707947961e+01   5.1799412363e+01    0.9166135     0.394789  54.62  0.004449178    1.846    0.458
        14 -12.2395    135.7779     22.2114   3.7282935053e+01   4.7573421537e+01    0.6861724    0.3724491  53.79  0.003209145    1.581    0.368
        15 -12.3068    134.6364     14.9667   3.5391479979e+01   4.8546211057e+01    0.7870905    0.3087754  65.41  0.003508226    2.187    0.543
        16 -10.7667     91.1448     21.7823   4.6963610064e+01   5.7496371258e+01    0.3633498    0.2647919 -15.59  0.001878769    1.554    0.356
        17 -11.8352     86.3782     14.2846   4.5518862733e+01   5.9223599344e+01    0.6614172    0.3856885 -35.43   0.00304301    2.061    0.515
        18  -9.9145     88.8416      7.4830   4.2360725320e+01   5.9311589221e+01    0.2499812    0.1618017  37.29 0.0007213767    1.359    0.264
        19 -11.0994    178.8632     20.9516   3.0710304258e+01   3.7901669081e+01    0.4547841    0.2307086  42.70  0.001809825    2.765    0.638
        20 -11.9193     36.0691     18.0996   6.5415871306e+01   6.7702267322e+01    0.5680457    0.3179601 -26.55  0.002710995    1.765    0.433
        21 -11.7416     68.1966     18.1180   5.2548587369e+01   6.2422164253e+01    0.4304001    0.3495769  25.06  0.001807107    1.025    0.024
        22 -12.0332     22.6849     11.4423   6.8985160465e+01   7.0272850094e+01    0.4537379    0.2711948   3.12  0.002123213    1.557    0.358
        23 -12.0172    227.5453     15.1401   2.4811004070e+01   2.8311296485e+01    0.4402626    0.2292862 -79.96  0.001641646    1.873    0.466
        24 -12.0232    192.2413      8.6874   2.6537267979e+01   3.6244240904e+01    0.5406649    0.3445082  -5.16  0.002920808    2.983    0.665
        25 -12.3500    104.6153     13.0287   4.0579231204e+01   5.5458313292e+01    0.4215945    0.3617687  -9.88  0.002818746    1.357    0.263
        26 -11.8921    169.1216      9.4482   2.9130936585e+01   4.1238244454e+01    0.6814798    0.1333027  60.60  0.002490986    3.572    0.720
        27 -11.1999    163.2885      6.3452   2.9061256071e+01   4.2830440246e+01    0.3763379    0.2205624  23.03  0.001837725    3.171    0.685
        28  -9.7697      5.3589      9.7290   7.7882364944e+01   7.2303683199e+01    0.2343442    0.1305633 -28.89 0.0009569714    1.513    0.339
        29 -11.6753    211.8936      9.5583   2.4984153322e+01   3.2039610593e+01    0.4365961    0.3043008  -5.48  0.002582235    2.724    0.633
        30 -12.2322     48.6471     13.0056   5.7656571520e+01   6.6387874691e+01    0.5670209    0.2410037  44.45  0.002819309    2.140    0.533
        31 -10.9071    145.4858      9.4560   3.2176452768e+01   4.6577171679e+01    0.2275069    0.1788636  47.89 0.0005694734    1.303    0.233
        32  -9.7353      1.1227      7.7300   7.9524479955e+01   7.2936313643e+01    0.2397156   0.05412158 -43.05   0.00101815    3.798    0.737
        33 -11.8989    184.3862      6.4312   2.6804663952e+01   3.8159100509e+01    0.4282249    0.2559441 -77.06  0.002161686    1.633    0.388
        34 -11.5332    176.9735      5.9289   2.7443718513e+01   3.9827377697e+01    0.3475101    0.1710594  78.94 0.0007591186    1.810    0.447
        35 -11.5381    122.0421      6.0991   3.4919525359e+01   5.2176857533e+01    0.3467023     0.204718 -29.60  0.001939225    1.999    0.500
        36 -10.1579    232.9612      7.5097   2.3012784178e+01   2.8086394886e+01    0.1610704   0.09001156  80.54   0.00101574    1.575    0.365
        37 -11.1592    157.8475      6.9274   2.9865622658e+01   4.4001622449e+01    0.2106458    0.1773304  54.49 0.0006623444    1.251    0.201
        38 -11.0876    157.3171      2.1964   2.8743365305e+01   4.4532634143e+01    0.3075117    0.2135586  69.25  0.001602649    1.184    0.156
        39  -9.7216     78.0424      7.5170   4.5265815194e+01   6.1520927983e+01    0.3793407    0.1627338  60.83  0.001730178    2.460    0.594
        40  -9.9335     76.3298      3.3337   4.4110612783e+01   6.2206751005e+01    0.2414251    0.1671908  29.21 0.0009270883    1.301    0.232
        41 -10.5465     73.3210      3.3089   4.4960819573e+01   6.2805863371e+01    0.2699176    0.1658732  31.96  0.001231968    1.442    0.307
        42  -9.8965     62.8333      6.7523   4.9668749154e+01   6.4522444091e+01    0.2071566    0.1444519   8.72  0.001306989    1.439    0.305
        43 -10.3818    247.1475      5.8984   2.1807001663e+01   2.5609652362e+01    0.1696125    0.1076558 -70.77 0.0005257858    1.216    0.178
        44 -11.1974    137.5496      4.4934   3.1968433138e+01   4.8805138955e+01    0.4187076    0.1733114  65.56 4.905708e-05    1.931    0.482
        45 -12.7954    133.0010      2.8707   3.2189871505e+01   4.9965536487e+01     1.271716    0.3094836  70.09  0.004266649    4.173    0.760
        46 -11.4971    234.2388      3.1137   2.2140687069e+01   2.8300573290e+01    0.4231128    0.1690693 -72.50  0.002113071    2.727    0.633
        47 -10.3191     41.5977      3.7230   5.6352521146e+01   6.8464537939e+01    0.3032804    0.1708681   2.84  0.001712318    1.985    0.496
        48 -10.7814     22.7440      4.7395   6.5735656956e+01   7.1062603638e+01    0.1843075    0.1597452  -6.68 0.0003452023    1.434    0.302
        49 -10.5582    218.7767      3.5868   2.3296236764e+01   3.1260497055e+01    0.2059211     0.178277  71.11 0.0009246719    1.385    0.278
        50 -11.1571    223.7616      2.5249   2.2741146291e+01   3.0382056629e+01    0.2255717    0.1747421  86.24 0.0006676671    1.174    0.148
        51 -10.8528    207.3343      2.6756   2.3990393801e+01   3.3666061928e+01    0.2388469    0.1883178 -69.02  0.001364005    1.121    0.108
        52 -10.8802    204.4981      1.5112   2.3983817121e+01   3.4363073057e+01    0.3020249    0.1961709 -55.46  0.001992845    1.409    0.290
        53 -11.6972    115.6708      2.7326   3.5009904805e+01   5.3868340584e+01    0.4340198    0.1935884  61.33  0.002191912    1.757    0.431
        54 -11.2450      2.3985      1.9304   7.5963372541e+01   7.3604595550e+01    0.2774434    0.1452266   8.18  0.001479961    1.679    0.405
        55 -10.1286    152.4435      1.4497   2.9146291407e+01   4.5690234576e+01    0.2399888   0.09862389  70.57 0.0007310474    2.006    0.501
        56 -11.1539    105.1931      1.9466   3.6745366035e+01   5.6241019521e+01    0.3113657    0.1894544  72.42  0.001130057    1.616    0.381
        57  -9.3100     82.0374      1.1443   4.1724952600e+01   6.1219584018e+01    0.1616073   0.06814945  56.61  0.000346577    1.912    0.477
        58 -12.4091     15.6694     14.5772   7.4192354624e+01   7.0650766280e+01    0.7938321    0.3898426  -8.53  0.003685684    2.489    0.598
        59 -11.0401     30.0604    132.9957   1.0043915410e+02   4.4761868363e+01    0.4259638    0.2302655 -43.06 0.0008847318    1.790    0.441
        60  -9.8214    249.4962    250.4761   6.6736153115e+01  -1.2065213802e+01    0.1185965   0.08413729  -8.71 0.0008099598    1.034    0.033
        61  -9.6469     47.4517    135.0147   9.5142320168e+01   4.2505554274e+01    0.2242483     0.132319 -62.78 0.0008000038    1.567    0.362
        62  -9.7912     73.4899    133.9899   8.6518169784e+01   3.9407904008e+01    0.2433363    0.1434479 -56.00  0.001041642    1.616    0.381
        63  -9.6491     59.9862    133.2080   9.0721954005e+01   4.1462534968e+01    0.1929938    0.1193597  26.90 0.0006180261    1.721    0.419
        64  -9.8615     39.0577    133.3521   9.7578764968e+01   4.3821146948e+01    0.1866305    0.1731188  12.63 0.0004321579    1.185    0.156
        65  -9.1727    103.9547    130.7687   7.6311389610e+01   3.5189353206e+01    0.1923759    0.1306691  33.53 0.0002998058    1.501    0.334
        66  -9.5479     93.0114    129.7904   7.9415878708e+01   3.7356723007e+01    0.2271069    0.1810216 -84.06  0.001052552    1.612    0.380
        67 -10.8347      9.8496    128.2992   1.0625126248e+02   4.7473000884e+01    0.4748544    0.2094645 -55.54  0.002205308    1.809    0.447
        68 -11.3572     22.7840    127.0800   1.0188416636e+02   4.6869504999e+01    0.2129135    0.1992607 -42.06 0.0002828769    1.101    0.092
        69 -10.2266      2.3204    126.0451   1.0835292263e+02   4.8469980385e+01    0.2192816    0.1657165  62.79 0.0007860358    1.529    0.346
        70 -12.8862    103.7734    122.5193   7.4365991728e+01   3.7192906653e+01    0.3501752    0.3233079 -14.70 0.0005774667    1.076    0.071
        71 -10.4808     49.9654    122.8287   9.1980444727e+01   4.5313929897e+01    0.2526906    0.1744485   8.23  0.001013154    1.668    0.400
        72 -11.0748     44.6966    117.8723   9.2789803942e+01   4.7143032078e+01    0.5270459    0.3730295 -74.32  0.002610822    1.572    0.364
        73  -9.9472     48.6240    112.1646   9.0205118176e+01   4.8110626408e+01    0.2425974    0.2252833 -36.11  0.001022207    1.043    0.041
        74  -9.1044     13.9585    118.9598   1.0357606033e+02   4.9536845250e+01    0.1566629    0.1284256 -57.73 0.0003165017    1.025    0.024
        75 -10.5512      7.4615    114.6901   1.0513901218e+02   5.0987515688e+01    0.3333659    0.2339523 -51.94 0.0007319999    1.185    0.156
        76 -12.1330      2.4635    111.6929   1.0641027060e+02   5.1985548332e+01    0.4925128    0.2224157 -69.24 0.0007743514    1.855    0.461
        77 -11.2425      4.0766    104.9215   1.0484593826e+02   5.3539868364e+01    0.3899837    0.3028968  23.80  0.002207542    1.527    0.345
        78  -9.6547     79.0022    114.5557   8.0265864720e+01   4.3358551486e+01    0.2474743    0.1948247 -46.41  0.001231698    1.217    0.178
        79  -9.5804     67.9905    115.1583   8.4128234311e+01   4.4876744281e+01    0.2461017    0.1677796  58.20  0.001086128    2.009    0.502
        80 -11.7801      9.4672     97.4928   1.0164302639e+02   5.5018876281e+01     0.446193    0.3872151  64.61 0.0005661678    1.441    0.306
        81 -12.1953      7.4153     89.3288   1.0093098540e+02   5.7039633570e+01    0.6706708    0.4165166  26.49  0.002098992    1.874    0.466
        82 -11.8531     17.5839    100.8707   9.9228287020e+01   5.3702994715e+01    0.3849979    0.3438815  -0.97   0.00102125    1.227    0.185
        83 -11.5806     27.3861     85.6800   9.2193030734e+01   5.6478027168e+01    0.6590768    0.4547542   4.74  0.001875789    1.523    0.343
        84 -11.1151     35.0502     92.0566   9.0672449421e+01   5.4324417544e+01    0.5789227    0.3024862 -71.03  0.002411832    2.603    0.616
        85 -11.7902     42.2827     85.1383   8.6088350675e+01   5.5129312478e+01    0.9368489    0.3627759  18.12  0.003477981    3.191    0.687
        86 -12.0422     25.1400    107.5567   9.7714368892e+01   5.1527944916e+01     0.808864    0.4888411 -49.11  0.003142527    1.394    0.282
        87 -11.3797     21.3759    114.5553   1.0031789000e+02   5.0105144238e+01    0.6692694    0.2916561   3.34  0.002654635    3.217    0.689
        88 -11.0940     28.0701    113.0986   9.7703907964e+01   4.9930357809e+01    0.4333109    0.2832993   7.43 0.0009358263    1.746    0.427
        89 -11.4885     22.5266     94.4683   9.6079674754e+01   5.4855298792e+01    0.3468645    0.2730607 -14.44  0.001163115    1.269    0.212
        90 -12.1489     18.2432     90.7135   9.6961253091e+01   5.6044101025e+01     0.408428    0.2706557 -63.74 0.0004886443    1.437    0.304
        91 -10.7314    249.4083    111.7975   4.1212538615e+01   1.0514192751e+01    0.1845872    0.1042072 -34.88 0.0006111708    1.690    0.408
        92  -9.6898     93.7148    112.3715   7.4919398615e+01   4.1392292558e+01    0.2358352    0.1878282  75.69 0.0009782618    1.735    0.424
        93  -9.7189     65.9940    110.6678   8.3743349646e+01   4.6242622716e+01    0.2060973    0.1866947   5.39 0.0005334927    1.111    0.100
        94 -10.1895    101.9803    109.0500   7.1461157258e+01   4.0635334662e+01    0.2454339    0.1845206  -7.12 0.0005151918    1.633    0.388
        95 -11.5358     79.9352    108.0367   7.8310197033e+01   4.4744779251e+01    0.5564896    0.3136026  26.94  0.000739136    1.906    0.475
        96 -10.7681     15.7831    108.7368   1.0129500525e+02   5.1928848908e+01     0.268362    0.2495059  -6.68  0.001738347    1.198    0.165
        97  -9.3970    118.7940    105.8727   6.5633116667e+01   3.8022114192e+01    0.2009847    0.1820994  84.68 0.0003750712    1.302    0.232
        98 -10.4824     86.4035    104.0802   7.5111858015e+01   4.4570102058e+01     0.371317    0.1763102  31.67  0.001418123    2.216    0.549
        99 -10.5353     34.8774    103.7492   9.3373297970e+01   5.1594414799e+01    0.3183179    0.1767523   3.43  0.001119219    2.232    0.552
       100 -10.7927     52.2095     98.9399   8.5817304486e+01   5.0837496804e+01    0.6905774    0.3415209 -37.99  0.002897237    2.028    0.507
       101  -9.9366    145.6917    100.2318   5.7083450423e+01   3.3453104714e+01    0.2957621    0.1796119 -21.98  0.001147553    2.384    0.581
       102 -10.6021     79.8286     97.6178   7.5572199518e+01   4.7127756059e+01    0.4183311     0.243354  52.39  0.001698853    2.332    0.571
       103 -10.2083     82.8494     93.1875   7.3303738621e+01   4.7584231144e+01    0.2995456    0.2071498  22.03 0.0007529671    1.526    0.345
       104 -10.7459     78.1584     92.7338   7.4787318634e+01   4.8473281600e+01    0.4360045    0.3771603  -4.86  0.002364876    1.126    0.112
       105 -11.5603     68.9701     95.7810   7.8873466120e+01   4.9256924881e+01    0.4370616    0.3062035  11.14  0.001795899    1.580    0.367
       106 -11.2339    248.7533     97.1341   3.8449325836e+01   1.3021535283e+01    0.2152536    0.1654696  20.11  0.001256349    2.117    0.528
       107 -10.8120     42.9999     94.4094   8.8169230436e+01   5.2959806134e+01    0.3415261    0.2954424  -8.89  0.001386331    1.122    0.108
       108 -10.3768     30.7647     95.6406   9.3157062042e+01   5.3894682417e+01     0.263714    0.2132709 -68.46  0.001027924    1.342    0.255
       109 -10.5391    125.8877     94.5146   6.0567913596e+01   3.8888663813e+01    0.2683628    0.2145502 -31.32 0.0003079969    1.301    0.231
       110 -12.2235     89.1396     89.8388   7.0232618233e+01   4.7181222722e+01    0.3492161    0.2704366 -35.38 0.0003290015    1.276    0.216
       111 -10.7368     98.5696     90.9916   6.7525037489e+01   4.5179985725e+01    0.2693129    0.2121937  36.85 0.0003686024    1.247    0.198
       112 -10.5674     49.0610     91.0350   8.4993180689e+01   5.3029112830e+01    0.3003162    0.2444137  25.62   0.00168366    1.301    0.231
       113  -9.9894     65.5967     89.4089   7.8336448855e+01   5.1164845874e+01    0.3432671    0.1940736  -1.25   0.00127035    2.975    0.664
       114 -10.0281    104.1575     87.3808   6.4747219581e+01   4.4815724609e+01    0.2680556    0.1986285 -28.52  0.001298443    1.424    0.298
       115 -10.7622     80.2986     84.0506   7.1523979849e+01   4.9938344939e+01     0.400948    0.3407083 -10.68  0.002160901    1.147    0.128
       116 -11.3821     74.8560     78.4830   7.1759480735e+01   5.1982984419e+01    0.5921153    0.5092826  47.58  0.002511642    1.360    0.265
       117 -10.4049    143.1447     84.2798   5.3406953140e+01   3.7046486600e+01    0.2332267    0.2073798 -36.55 0.0005730093    1.160    0.138
       118 -10.5286    113.5753     83.2640   6.0766574572e+01   4.3687802746e+01    0.4384385    0.3054216 -66.96  0.001928189    2.102    0.524
       119 -10.1166     67.1718     81.7164   7.5533096714e+01   5.2558416464e+01    0.3432114    0.2487367 -17.08  0.001737866    1.453    0.312
       120  -9.8134      1.3294     80.5770   1.0168590172e+02   5.9333955713e+01    0.1993808   0.09578393 -61.70 0.0002349168    1.713    0.416
       121 -11.6476     53.2806     76.4958   7.9292250525e+01   5.5630327960e+01    0.5854775    0.3740689 -55.50  0.002892362    1.765    0.433
       122 -11.4145     58.4038     77.8184   7.7685331358e+01   5.4655024420e+01    0.3009634    0.2440109 -20.78 0.0007114116    1.133    0.118
       123 -11.5326     13.8743     74.5830   9.5160745516e+01   5.9961926615e+01    0.5707531      0.25982 -64.22  0.002632936    2.242    0.554
       124 -10.4649     13.9606     67.3824   9.3350814875e+01   6.1495169248e+01    0.3608131    0.1683134  14.64  0.001775546    2.261    0.558
       125 -10.4718     94.9363     76.4870   6.4344957775e+01   4.8735718707e+01    0.4277434    0.2236718  47.13  0.001558905    1.977    0.494
       126 -11.7587    248.0690     75.6530   3.4395070268e+01   1.6481221781e+01    0.2994094    0.1799995 -74.48  0.001640928    1.956    0.489
       127  -9.7336    103.9432     74.8369   6.1053888594e+01   4.7246193857e+01    0.2348635    0.1907789  16.55  0.001223501    1.284    0.221
       128 -11.5112     79.5292     68.0808   6.6822778634e+01   5.3157548177e+01    0.7889751    0.5614322 -75.55  0.003432654    2.805    0.644
       129 -11.5379     86.1178     73.2113   6.6207629001e+01   5.1018225965e+01    0.5998116    0.3237948  33.69  0.002623991    1.841    0.457
       130 -10.4074     92.1198     72.1033   6.3881492600e+01   5.0090335957e+01    0.3037087    0.1902531  39.79  0.001155189    1.525    0.344
       131 -12.3754     75.4030     53.8983   6.3507291876e+01   5.6327839931e+01    0.6376479    0.4597892 -52.08  0.001994326    1.833    0.455
       132 -10.4095     24.6260     73.9348   9.0406314028e+01   5.9292795804e+01    0.2754923    0.2125152 -41.80  0.001663063    1.125    0.111
       133 -11.5135     40.8302     71.5806   8.2892965467e+01   5.8179422448e+01    0.4763946    0.3289863 -58.31  0.001914442    1.678    0.404
       134 -10.3584     29.0404     72.0000   8.8000900817e+01   5.9311426316e+01    0.3158018    0.1671583  18.78  0.001031502    1.955    0.488
       135 -11.5359      2.0707     71.6569   9.9558117913e+01   6.1266854375e+01    0.7259284    0.1697052 -60.99  0.002784371    3.151    0.683
       136 -12.2045      4.6769     62.2036   9.6223720597e+01   6.3140976323e+01    0.5015359    0.3168647 -26.15  0.001913467    1.366    0.268
       137 -11.2487     10.0082     62.7387   9.3930438304e+01   6.2720161493e+01    0.4187392    0.2288953 -38.27  0.001311888    1.475    0.322
       138 -11.1191    187.2698     71.0341   4.1406678675e+01   2.9374954520e+01    0.5453295    0.2793891 -44.90  0.002509889    1.879    0.468
       139 -11.1332    122.9756     68.8107   5.3932430742e+01   4.4240849981e+01    0.4771202    0.2476829  43.59  0.001382464    1.850    0.460
       140 -11.2176     35.3537     71.6999   8.5229436416e+01   5.8751987112e+01     0.475637    0.2593224  22.45  0.002365219    1.869    0.465
       141 -10.9310    220.0609     66.6848   3.5829555881e+01   2.3133258722e+01    0.3493218    0.2369593  77.35  0.001603229    1.542    0.351
       142 -11.3761     59.0812     64.1104   7.3114792864e+01   5.7238922415e+01    0.4275087    0.2611218 -45.10    0.0013659    1.692    0.409
       143  -9.3476     51.9658     65.7676   7.6502273503e+01   5.7940716127e+01     0.172657    0.1062405  25.91 0.0005936747    1.589    0.371
       144  -9.5828     21.1454     65.1587   8.9558297588e+01   6.1419987975e+01    0.1522333    0.1417884 -43.28 0.0004100644    1.277    0.217
       145 -11.3752     93.1044     62.9425   6.0628690542e+01   5.1502910489e+01    0.8253852     0.294845  48.71   0.00292624    2.932    0.659
       146 -10.9300     52.0037     61.8053   7.5195426565e+01   5.8683444384e+01     0.377944    0.2145013  41.08  0.001329326    2.022    0.506
       147 -11.8042     43.5578     62.4472   7.8928404649e+01   5.9666323182e+01     0.302249    0.2195153 -34.32 0.0005133718    1.253    0.202
       148 -10.8544     46.4905     58.9951   7.6555026439e+01   5.9943852011e+01     0.313044    0.2329773 -70.01  0.001024007    2.291    0.563
       149 -10.5309     51.0053    249.5067   1.0823082870e+02   1.4340072937e+01    0.1911323   0.06877091  50.08 0.0008105296    2.561    0.610
       150 -11.4686    235.1974     60.7703   3.2893653040e+01   2.1037614131e+01    0.3012563    0.2643909  81.90  0.002107486    1.223    0.182
       151  -9.5457    159.4755     62.5059   4.4086563620e+01   3.6957121268e+01    0.2699778    0.1099012  47.18   0.00103422    2.545    0.607
       152 -10.1872    106.8082     58.7787   5.5186899644e+01   4.9368719604e+01    0.1878281     0.169766  89.71 0.0008475808    1.368    0.269
       153 -10.2522     91.6676     57.1373   5.9167669819e+01   5.2737534340e+01    0.3151074    0.1898188  48.35 0.0006106688    1.640    0.390
       154 -10.6342     87.7603     56.1089   6.0072703078e+01   5.3667064681e+01    0.5459519    0.2280377 -26.68  0.001930648    3.477    0.712
       155  -9.9252    229.4793    248.4565   7.0027659686e+01  -9.5838408040e+00    0.1226768   0.09184079  -5.10 0.0001830716    1.013    0.013
       156 -11.4715    117.1841     55.1283   5.1250979189e+01   4.7679902150e+01     1.198566    0.6426668 -60.68  0.004320052    3.716    0.731
       157  -9.8700    174.9726    246.4843   8.0625917070e+01  -2.2702070257e+00    0.2023628    0.1131432  29.17 0.0005636454    1.584    0.369
       158 -10.2878    113.7257     38.0296   4.6700640207e+01   5.0780685075e+01    0.2274768    0.1908444 -20.65 0.0003269321    1.336    0.252
       159 -12.0082    117.8205     44.1577   4.7660580218e+01   4.9082934781e+01    0.5233932    0.4816773  64.12  0.001976118    1.115    0.103
       160 -12.1402    126.5756    241.7591   9.0613560959e+01   5.6318982987e+00    0.4387388      0.32716  47.30  0.002183573    1.364    0.267
       161  -9.9611     50.9759     56.4611   7.3819273863e+01   5.9799321857e+01    0.2429199    0.1817456  11.56  0.001395751    1.233    0.189
       162 -10.0278    238.1667     55.8284   3.1622288977e+01   2.1171985997e+01    0.1439525    0.1335799 -53.20 0.0002670214    1.290    0.225
       163 -10.2500    157.9019     54.8543   4.2351544893e+01   3.8448518696e+01    0.3690457    0.2513762 -84.46  0.001805399    1.866    0.464
       164 -11.1553     72.8798     47.6174   6.2183971314e+01   5.7764086216e+01     0.302585    0.2436823 -42.88  0.001080843    1.491    0.329
       165 -10.1034      7.9693     54.1755   9.2573767012e+01   6.4576829678e+01    0.2325041    0.1434911 -36.61  0.001384938    1.280    0.219
       166  -9.0555    201.3388     53.3187   3.5303418228e+01   2.8952461126e+01    0.1216556    0.0992599  32.11 0.0007049421    1.709    0.415
       167 -11.5454     60.7958     47.7270   6.6752830375e+01   5.9798564244e+01    0.7192453     0.360919 -31.45  0.003379121    2.079    0.519
       168 -10.8585     39.2920     43.9468   7.4419848283e+01   6.3504746607e+01     0.327263    0.2061136  -1.51  0.001260507    1.652    0.395
       169 -11.5639     45.1821     48.8898   7.3617608715e+01   6.1908994497e+01    0.4940382    0.3279084 -36.10  0.002796038    1.454    0.312
       170 -10.8089     44.2913     43.8881   7.2178138384e+01   6.2860658531e+01    0.3545979     0.197161  27.34  0.001336769    1.681    0.405
       171  -9.2408     93.5185     52.5649   5.7057581440e+01   5.3079081490e+01    0.1401337    0.1216841  24.45 0.0002047481    1.038    0.037
       172 -10.5168    240.1687     51.0673   3.0511649880e+01   2.1450123927e+01    0.1677741    0.1548962 -60.01 0.0008677134    1.277    0.217
       173 -10.3355    145.9807     47.4290   4.2562519123e+01   4.2229310454e+01    0.2826348    0.2111415 -16.97   0.00152321    1.678    0.404
       174 -10.5421     51.8018     48.3009   7.0595179013e+01   6.1083164597e+01    0.2448774     0.203413  -9.67 0.0006771652    1.071    0.066
       175  -9.5664      1.8869     48.8696   9.4038666469e+01   6.5967034079e+01    0.1460986    0.1338018  -5.95  0.001061355    1.306    0.234
       176  -9.8580    199.8341     45.0094   3.3649228773e+01   3.0406243125e+01    0.3921306    0.1793935 -86.07  0.001335973    4.537    0.780
       177 -10.2004    175.5759     48.4850   3.7776093571e+01   3.5298259129e+01    0.2415549    0.1024588  51.99   0.00102744    2.338    0.572
       178 -11.6075     20.7550     45.8384   8.3807704300e+01   6.5185440747e+01    0.3517934    0.2054186 -37.41  0.000542449    1.456    0.313
       179 -10.3869     13.2417     47.5973   8.8058981956e+01   6.5482255960e+01    0.3454914    0.1522855 -32.77  0.001704982    2.007    0.502
       180 -10.1501    138.5122     44.3324   4.3153734198e+01   4.4361762637e+01     0.403791     0.214676  32.36  0.001651759    2.762    0.638
       181 -10.0448    134.0141     45.7824   4.4502105063e+01   4.5202562082e+01    0.2525312    0.1478676  55.26 0.0006855134    1.528    0.345
       182 -11.3624     40.7540     57.0343   7.8361838268e+01   6.1026539742e+01    0.5956891    0.2243475  34.47  0.002136816    2.710    0.631
       183 -10.8984    155.8016     42.1986   3.9352101314e+01   4.0650335009e+01    0.2661501    0.2600522  53.61 0.0008388839    1.146    0.127
       184 -10.8759     26.3372     43.0440   8.0133606311e+01   6.5141420141e+01    0.2063856    0.1944212  21.45  0.001076419    1.470    0.320
       185 -10.5823     22.5756     37.3177   7.9890642839e+01   6.6494838127e+01    0.4614976    0.1908874  37.54  0.002088263    3.116    0.679
       186 -11.1809      5.0449     37.1308   8.8836255766e+01   6.7968731434e+01    0.5538343    0.2921357 -52.97  0.002937714    1.864    0.463
       187 -10.4167     92.6917     41.4177   5.3490003215e+01   5.4840528407e+01    0.3851851     0.222332  48.65  0.001914085    1.574    0.365
       188  -9.8495     17.4834     41.8341   8.4051542920e+01   6.6190164148e+01    0.2388853    0.1326802  -6.12 0.0009346379    1.843    0.457
       189 -11.0591     78.2383     37.2397   5.6544824111e+01   5.8254352440e+01    0.5548877    0.4218079 -80.52  0.002790419    2.602    0.616
       190 -11.3501     79.7689     32.8600   5.4421088037e+01   5.8524727409e+01    0.5601098    0.2979972  27.48  0.002611115    2.104    0.525
       191 -10.7293    183.4462     37.9983   3.4135371099e+01   3.4897237224e+01    0.2206155    0.1641512  77.10 0.0001461442    1.218    0.179
       192 -11.2339     60.7111     36.3479   6.2511919920e+01   6.1513369136e+01    0.3815708    0.2590429  -4.91  0.001431534    1.565    0.361
       193  -9.7833     54.0624     26.6806   6.1286667090e+01   6.3901357688e+01    0.1813604    0.1457261  -4.05  0.001172817    1.154    0.133
       194 -12.1704     57.6633     30.6253   6.1451886317e+01   6.2798513198e+01    0.4122273    0.2810865  10.29  0.001147212    1.441    0.306
       195 -11.4347     48.6572     30.5769   6.5109952952e+01   6.4234317660e+01    0.5822753    0.2153767  34.45  0.002549779    2.478    0.596
       196  -9.3692    206.4928     37.4549   3.1233613258e+01   2.9965252237e+01    0.1224206    0.1034629 -81.06 0.0004405111    1.021    0.021
       197  -9.7693    132.5504     36.8312   4.2167033017e+01   4.6677261534e+01     0.255864    0.1643349 -80.00  0.001184592    2.345    0.574
       198 -10.1077    176.7147     35.7439   3.4503664569e+01   3.6683304750e+01    0.2356644    0.1751694 -72.39 0.0007904103    1.343    0.255
       199  -9.6878     94.0358     35.7744   5.1128837726e+01   5.5294837255e+01    0.1914864    0.1671446  61.67 0.0007706437    1.283    0.221
       200 -10.4895    240.7231     33.1519   2.7102214635e+01   2.3671469258e+01    0.2134837    0.1296127 -40.12  0.001335816    1.625    0.384
       201 -10.8242     67.6419    241.0663   1.0387495498e+02   1.4040011193e+01    0.2427889    0.1829351  27.49 0.0009226521    1.363    0.266
       202 -11.6407    147.1342    237.7401   8.5373515785e+01   3.3473482940e+00    0.5544341    0.3055901  41.31  0.002648665    1.776    0.437
       203 -11.9000    114.4334     24.9734   4.2336043621e+01   5.2124430271e+01    0.5319961    0.2284971  55.17   0.00149585    1.923    0.480
       204  -9.9540    170.1077     33.0854   3.4773704405e+01   3.8497807336e+01    0.2419367    0.1423503  52.78  0.001269795    1.675    0.403
       205  -9.5693    234.6790    239.6853   6.7606242814e+01  -8.8933069855e+00    0.1279124   0.07564563  -8.36 0.0007040194    1.657    0.396
       206 -11.7299    164.2987     27.6500   3.4237789942e+01   4.0448072394e+01    0.2495771    0.2237989 -77.11 0.0006035673    1.108    0.098
       207  -9.3675    148.4260     32.4835   3.7983378186e+01   4.3539379334e+01    0.1297268    0.1145924  75.79 6.016827e-05    1.032    0.031
       208 -10.1703     67.8444     32.0521   5.8183901705e+01   6.0854696419e+01    0.2308691    0.1658213  26.85 0.0006910577    1.206    0.171
       209 -10.2860     11.3751     30.8199   8.3242326750e+01   6.8589622012e+01    0.2814849    0.1567381 -28.51  0.001181772    1.500    0.334
       210 -10.2599      7.4885     30.1786   8.5095165557e+01   6.9000392714e+01    0.3356993    0.1594385  -6.04   0.00170578    2.303    0.566
       211 -10.0435    231.5013     38.4856   2.8917841245e+01   2.4764721476e+01     0.247772     0.102065 -38.98  0.001240454    2.269    0.559
       212 -10.6741     72.6623    237.8872   1.0242758648e+02   1.4063253948e+01    0.2955889    0.2480926  45.50  0.001832003    1.068    0.064
       213  -9.4543    199.6486    234.6930   7.3548671158e+01  -3.6845195688e+00    0.1386275   0.08730051  -4.53 0.0004801021    1.711    0.416
       214 -10.8065    246.9739    230.6707   6.3865311872e+01  -8.9583246850e+00    0.2380032    0.1324048  18.24  0.001362297    1.809    0.447
       215 -10.6972    198.3664     29.2587   3.0360558351e+01   3.2694722529e+01    0.3137047    0.2130937  58.97  0.001812021    1.514    0.340
       216 -11.0318    189.0370     27.7619   3.1080383153e+01   3.4893495314e+01    0.3106676    0.2772933  10.40  0.001468151    1.589    0.371
       217  -9.2058     99.5160     30.5000   4.7787659080e+01   5.4775174589e+01     0.131043     0.114627  44.14 -1.052223e-05    1.053    0.050
       218  -9.2896     43.0007     28.0278   6.6517622561e+01   6.5419741734e+01    0.1468948    0.1156418   8.37 0.0009508056    1.012    0.012
       219 -11.7547    183.6994     25.2966   3.1144596965e+01   3.6350162739e+01    0.4668621    0.2568027  50.53  0.002455493    2.004    0.501
       220 -11.8865    151.8988     25.8921   3.5631514352e+01   4.3481820950e+01    0.6096968    0.2661853  46.31  0.002085614    2.468    0.595
       221 -10.0254    233.4044    227.1975   6.5702834076e+01  -6.8330944425e+00    0.1665947    0.1064957 -43.36 0.0009479965    1.729    0.421
       222  -9.9122    241.6671     26.3336   2.5779019865e+01   2.4322208213e+01    0.1228829   0.06475554 -66.72 0.0007052238    1.732    0.423
       223  -9.6629    230.5186     26.5102   2.6713901406e+01   2.6429616982e+01    0.1153561   0.09088433 -73.82 0.0008102916    1.010    0.010
       224 -11.7972    143.9542     24.8649   3.6634252108e+01   4.5418732835e+01    0.5700086     0.258565  48.58  0.002633643    2.116    0.527
       225  -9.3317     22.3175    223.6649   1.1234197694e+02   2.3073614133e+01    0.1349787   0.07535423  63.36  0.000704837    1.697    0.411
       226  -9.2137    120.2558    219.9866   8.8932259119e+01   1.1074389867e+01    0.1749001    0.1234559 -54.77 0.0008788193    1.531    0.347
       227  -9.4277    153.2866    219.3461   8.1022529934e+01   6.0088251797e+00    0.1460413    0.1030849 -12.05 0.0004165971    1.651    0.394
       228 -11.4689    127.0439     16.5138   3.7171395910e+01   5.0128703949e+01    0.4585994    0.1584234  57.82  0.001971753    2.259    0.557
       229 -10.1400    164.6807    211.9938   7.7137924602e+01   5.6788677826e+00    0.2411446    0.1941755  24.13 0.0006521878    1.167    0.143
       230 -10.1947    152.6162    207.0152   7.9043276292e+01   8.6566212987e+00    0.3451801     0.252781 -80.62  0.001577156    2.235    0.553
       231  -9.0417     61.4949    206.5150   1.0157878136e+02   2.2644338189e+01    0.1362431     0.126148  72.66 0.0008104794    1.006    0.006
       232 -10.0761    139.3213    198.6634   8.0741843131e+01   1.2675033373e+01    0.1488252    0.1176236  70.32 0.0007050223    1.710    0.415
       233  -9.8366     59.6867     23.8891   5.7948031236e+01   6.3303051795e+01    0.1667442    0.1415179   1.82 0.0005182311    1.143    0.125
       234 -10.7257     13.7604     23.4895   7.9078833636e+01   6.9548464442e+01    0.2027455    0.1435803 -14.86 0.0002677517    1.098    0.089
       235  -9.6406    233.6153    196.2011   6.0070323004e+01  -1.7582781689e+00    0.1938049    0.1015974 -31.61 0.0009546612    1.694    0.410
       236 -10.0752     16.4589    191.4957   1.1114519745e+02   3.1154811170e+01    0.2144505    0.1841637  87.16 0.0001758536    1.009    0.009
       237  -9.9049    216.3618     20.9018   2.6848637548e+01   2.9898550522e+01    0.1568916    0.1296523 -66.26 0.0005575216    1.123    0.110
       238  -9.5140    171.5239    190.4798   7.1572018054e+01   8.9607995422e+00    0.1493938    0.1322774  -8.08 0.0001152757    1.052    0.049
       239  -9.6786     74.3839     19.7256   5.1147804544e+01   6.1079288900e+01    0.2077051    0.1441979  38.91 0.0005425533    1.189    0.159
       240  -9.9864    169.0974     23.7738   3.2612150956e+01   3.9787193348e+01    0.2927563    0.1366648  60.31  0.001442542    1.860    0.462
       241 -10.3206     46.6798     19.0190   6.1104402184e+01   6.6021790530e+01    0.2745183    0.1973709   6.08  0.001748735    1.233    0.189
       242 -12.1067      4.4467    184.3672   1.1347057312e+02   3.3863762692e+01    0.6058006    0.3877756  86.53  0.003097612    1.401    0.286
       243 -10.4685    245.9853     19.0345   2.4155194026e+01   2.4373604842e+01    0.1355084    0.1003657 -65.25 0.0005358648    1.063    0.059
       244  -9.5352     86.2287    185.5982   9.2249559563e+01   2.4368993352e+01    0.2041715    0.1434115  18.13 0.0009480699    1.622    0.383
       245 -11.2344    186.4726     15.1837   2.8537827626e+01   3.6833831911e+01    0.2447155    0.1777892  72.60 0.0005196956    1.209    0.173
       246  -9.1187    239.7032    184.6733   5.6835813343e+01  -6.1172248697e-01       0.1333   0.08682871 -14.91 0.0003715784    1.630    0.386
       247  -9.4526    175.5046    180.0385   6.8600541117e+01   1.0459410832e+01    0.2242043     0.139796 -43.58  0.001019228    1.549    0.355
       248  -9.5468     28.1413    175.8324   1.0665566262e+02   3.3975806308e+01    0.1853101    0.1480132 -47.95 0.0007624322    1.317    0.241
       249  -9.8498     51.8494    173.8231   9.9940955203e+01   3.1974367267e+01    0.1979209    0.1584237  70.70 0.0004492828    1.308    0.235
       250  -9.8854      4.9859     13.0000   7.9576967062e+01   7.1874066297e+01    0.2678452    0.1308423  18.11   0.00158782    1.843    0.457
       251  -9.2493    113.4628    175.9877   8.3198554166e+01   2.2386261992e+01    0.2191692    0.1212725 -32.49 0.0007208503    2.382    0.580
       252 -10.0571     35.2246    169.1809   1.0395570668e+02   3.4978162419e+01    0.1919531     0.149295  69.12 0.0004445571    1.331    0.249
       253 -12.2877      9.8985    165.9300   1.1049334450e+02   3.8001433976e+01    0.6395783    0.2691813 -58.29  0.002752905    2.029    0.507
       254 -10.8710     13.9500    158.8642   1.0867474210e+02   3.9475743504e+01    0.3619068    0.1630667 -77.72  0.001594203    2.050    0.512
       255  -9.9368     65.4632     10.4608   5.0338566545e+01   6.3694798199e+01    0.2469206    0.1019145  50.13  0.001011028    2.082    0.520
       256  -9.3779    198.3718    167.7932   6.1202570887e+01   8.9763442208e+00    0.2029987    0.1226041 -33.61 0.0005984853    1.589    0.371
       257  -9.1405     80.4756    165.0280   9.0401421952e+01   3.0432321673e+01    0.2153292    0.1125835 -38.16 0.0007332491    2.314    0.568
       258 -10.2966     18.5476    164.9908   1.0806558267e+02   3.7563747119e+01    0.2439374    0.1843248 -22.18  0.001376859    1.640    0.390
       259 -10.2369    204.9369    163.1619   5.8939825553e+01   8.7582343154e+00    0.2486717    0.1883799 -38.36 0.0006268091    1.192    0.161
       260 -10.0335     39.7587    162.4902   1.0180760854e+02   3.6234339643e+01    0.3434755    0.1750869  70.42  0.001281037    3.036    0.671
       261  -9.9161     28.6653    160.6847   1.0474593931e+02   3.7783185694e+01    0.1435884   0.09273382 -40.00 0.0007047043    1.690    0.408
       262  -9.6927     53.5762    155.7873   9.6760077581e+01   3.6428793004e+01    0.2107624    0.1350968 -77.97 0.0009566641    1.686    0.407
       263 -10.3693      9.3652    155.4948   1.0959466621e+02   4.0659379174e+01    0.2350614    0.1079511 -73.53  0.001075338    1.854    0.461
       264 -10.1592    105.0894    153.8173   8.1116579013e+01   2.9312479127e+01    0.3106299    0.2320155   5.81  0.001391612    1.643    0.391
       265 -12.1177     22.3897    149.4860   1.0515857506e+02   4.1196840209e+01    0.7488248    0.3258976 -34.69  0.002805061    3.131    0.681
       266 -10.4670      3.3827    152.8156   1.1098740188e+02   4.1729352861e+01    0.3108719    0.1748751  63.30  0.001551213    2.022    0.505
       267  -9.6397    141.2491    152.4026   7.0950195964e+01   2.2962417416e+01    0.3027397    0.1525052  34.94   0.00113676    2.083    0.520
       268 -10.3364     30.5524    151.9718   1.0306761184e+02   3.9848450463e+01    0.2547764    0.1919335 -18.33  0.001161981    1.591    0.372
       269  -9.8952     64.0025    150.4871   9.2707671704e+01   3.6494313492e+01    0.2135661    0.1280085  -7.97 0.0008103204    2.680    0.627
       270 -10.6616     49.7245    146.0807   9.6343607800e+01   3.9395981255e+01    0.5434113    0.3054036 -35.78 0.0004266526    2.057    0.514
       271 -10.7384     46.3314    146.3338   9.7437165649e+01   3.9711958943e+01    0.5893162    0.1674886 -49.35  0.001920521    3.201    0.688
       272 -11.2768     15.7328    148.0103   1.0693702791e+02   4.2093907705e+01    0.2638926    0.2541883  48.81 0.0007037271    1.184    0.155
       273 -10.6008      3.2396    147.5084   1.1049337836e+02   4.3065585412e+01    0.2413498    0.1542392 -72.58 0.0007865664    1.297    0.229
       274 -12.0035      2.9119    141.9739   1.1000596087e+02   4.4469612838e+01    0.4703889    0.3565491  54.27  0.002837377    1.472    0.320
       275  -9.3254     74.3894    145.8051   8.8640218255e+01   3.6264618562e+01    0.2177099    0.1294065 -47.54 0.0005354834    1.611    0.379
       276 -11.2273     33.2371    144.5960   1.0121158472e+02   4.1498180614e+01    0.3147486    0.2754721  62.49 0.0006763045    1.244    0.196
       277 -11.7602     12.4894    136.8092   1.0653017545e+02   4.5162256068e+01    0.5948371    0.3479395 -60.09  0.003100532    1.412    0.292
       278  -9.6923    217.0597    138.6964   5.1581532642e+01   1.1338965157e+01     0.183503    0.1752736 -16.97 0.0004768618    1.106    0.096
       279  -9.8403     40.7291    138.3604   9.7884413741e+01   4.2366826830e+01    0.2637637    0.1696523 -79.36  0.001239894    1.694    0.410
       280  -9.8609     32.1805    137.8409   1.0051937069e+02   4.3332042913e+01    0.3220201    0.2196441  59.28   0.00109101    1.764    0.433
       281 -11.5154     22.4236    135.8518   1.0330761835e+02   4.4674929877e+01    0.4726416    0.4060952  37.24   0.00229087    1.318    0.241
