#   1 NUMBER                 Running object number                                     
#   2 MAG_AUTO               Kron-like elliptical aperture magnitude                    [mag]
#   3 X_IMAGE                Object position along x                                    [pixel]
#   4 Y_IMAGE                Object position along y                                    [pixel]
#   5 X_WORLD                Barycenter position along world x axis                     [deg]
#   6 Y_WORLD                Barycenter position along world y axis                     [deg]
#   7 A_WORLD                Profile RMS along major axis (world units)                 [deg]
#   8 B_WORLD                Profile RMS along minor axis (world units)                 [deg]
#   9 THETA_WORLD            Position angle (CCW/world-x)                               [deg]
#  10 FWHM_WORLD             FWHM assuming a gaussian core                              [deg]
#  11 ELONGATION             A_IMAGE/B_IMAGE                                           
#  12 ELLIPTICITY            1 - B_IMAGE/A_IMAGE                                       
         1 -15.8912    171.3660     84.1079   4.3692191160e+01   3.0386399525e+01     2.062426     1.643556  33.33      0.01105    1.347    0.258
         2 -18.0932    244.2166     62.2547   2.8533930651e+01   1.8853863224e+01     6.212602     3.767075 -20.68   0.03251338    1.586    0.369
         3 -16.0191    237.8905     50.8545   2.6572271704e+01   2.1298346295e+01    0.8920805    0.7136757 -14.27  0.004505263    1.309    0.236
         4 -17.4865    232.3631     35.0245   2.3413847978e+01   2.4094674824e+01     2.767889     2.080572 -57.03   0.01821953    1.236    0.191
         5 -14.9857      8.3814     24.6110   8.8488751775e+01   7.3517788533e+01     2.100574     1.303709  81.78   0.00933107    2.278    0.561
         6 -15.4517     33.5462     14.3296   6.3770023465e+01   7.2995843147e+01     3.519721     1.877457 -34.97   0.01539475    1.938    0.484
         7 -11.8790    180.8986      5.2800   1.9835744796e+01   3.8310553314e+01    0.4059108    0.2716368  16.95  0.002044598    2.122    0.529
         8 -12.0139    190.0941     15.2391   2.1887552828e+01   3.5183531964e+01    0.4261676    0.2265003 -57.22   0.00198696    1.854    0.461
         9 -13.1188    191.1239      9.2370   2.0144721920e+01   3.5528846644e+01    0.8071743     0.411119 -69.86  0.003815497    2.112    0.527
        10 -16.7826    246.0664     20.8050   1.9280716792e+01   2.2978705479e+01     2.613449    0.7877324 -42.57   0.01239528    2.393    0.582
        11  -9.9349    197.8312      2.2055   1.7769244780e+01   3.4635011895e+01    0.1506194    0.1439661  43.90 0.0003912291    1.270    0.213
        12 -12.7191    249.7240    160.6903   4.7748508467e+01   6.0757298928e+00     0.570905    0.1534445 -27.37  0.002257832    3.855    0.741
        13 -12.4195    199.1016    162.7451   5.6191451873e+01   1.2826448159e+01    0.3837268    0.2690486 -72.84  0.001542508    4.943    0.798
        14 -14.4153     10.6877    157.9066   1.0392870697e+02   3.9910088282e+01    0.8395386    0.7414526  67.44  0.003725966    1.054    0.051
        15 -11.4687    169.4412    202.7328   6.8685887822e+01   1.1260038049e+01    0.2863619    0.2015873  54.76   0.00160887    2.331    0.571
        16 -16.1940    219.4242     77.8601   3.4762289873e+01   2.1438613251e+01     3.000258    0.9599257  61.52   0.01133801    4.057    0.754
        17 -10.9052    165.0247    199.0292   6.9013935857e+01   1.2409527576e+01    0.1796944    0.1440104  51.13 0.0008260432    1.733    0.423
        18 -11.7340    133.4249    144.0682   6.6553415278e+01   2.6962421298e+01     1.004136     0.247624 -53.95   0.00221043    8.471    0.882
        19 -13.7669     67.7703    142.7682   8.5006003662e+01   3.7761456243e+01     1.493661     1.137606  80.87  0.006246678    1.474    0.322
        20 -12.8288     40.8542    146.5872   9.3959355998e+01   4.0017300053e+01    0.3946255     0.308811  -9.45  0.001003465    1.574    0.365
        21 -14.0994     48.9059    143.4907   9.1069729421e+01   3.9907120207e+01    0.8759283    0.8178198 -74.45  0.003231415    1.126    0.112
        22 -13.4853     56.0608    141.3543   8.8517985922e+01   3.9593927954e+01    0.5984737     0.432468 -74.57  0.001600098    1.445    0.308
        23 -12.3408    200.6770    131.0065   4.9571747783e+01   1.7266054814e+01    0.3124174    0.2197606 -50.95  0.001698403    1.819    0.450
        24 -12.2807    197.3880    127.6976   4.9436797435e+01   1.8334046048e+01    0.2942146    0.2202701 -56.43  0.001311988    1.831    0.454
        25 -11.8141    225.8868    130.7836   4.5476041509e+01   1.3183281139e+01    0.1900697    0.1784566  76.98 0.0007264496    1.571    0.363
        26 -11.4180    136.0000    129.4997   6.2844664226e+01   2.9388906774e+01     0.452867   0.08315697 -46.00  0.001130139    5.676    0.824
        27 -12.3338    160.7304    128.5882   5.6833774641e+01   2.4880577926e+01    0.3551815    0.3114551 -52.29  0.001847198    1.324    0.245
        28 -14.4456    185.7730    124.8586   5.0921434874e+01   2.0853144383e+01    0.6922959    0.5747125 -25.38  0.004097073    1.131    0.116
        29 -12.5962    191.4329    192.5103   6.2825526853e+01   9.7169224224e+00     0.554479    0.3105152 -56.90  0.002272931    4.899    0.796
        30 -11.5082    177.8389    122.2702   5.1861798596e+01   2.2746737079e+01    0.2249786    0.1811044 -43.02  0.000657519    1.319    0.242
        31 -11.1364    172.3045    123.6479   5.3279203112e+01   2.3558180141e+01    0.1343988    0.1121477 -74.18 0.0007040977    1.707    0.414
        32 -11.6889    206.1410    161.1230   5.4638199660e+01   1.2004927280e+01    0.1903391    0.1426624  -0.78 0.0003648834    1.188    0.158
        33 -11.8084    135.1339    121.3306   6.1214234784e+01   3.1188266645e+01     0.457141    0.1891646 -48.70  0.001669345    2.640    0.621
        34 -11.9565    135.0000    111.5078   5.8895373499e+01   3.3182242292e+01    0.5778763    0.1691133 -41.47  0.001760652    3.595    0.722
        35 -13.2849    134.3416    102.6625   5.6818480580e+01   3.5079925885e+01      1.08361    0.3173019 -47.46  0.003186458    3.856    0.741
        36 -13.1200    192.4309    153.6876   5.5682217725e+01   1.5200599482e+01    0.4078471    0.2088275 -43.33  0.001972336    2.168    0.539
        37 -12.2990    205.5679    110.3474   4.4233651546e+01   1.9476428833e+01    0.3758568    0.2130895  35.80  0.001872168    1.970    0.492
        38 -13.2717    125.9845    104.1447   5.9400234920e+01   3.6525514565e+01    0.4795786    0.3847243  70.61  0.002337335    1.539    0.350
        39 -11.0644    147.6752    105.4202   5.4269872953e+01   3.1747588473e+01    0.2770367    0.2425642  11.00 0.0006197061    1.189    0.159
        40 -13.3981    118.6578    102.5610   6.1017494957e+01   3.8365628106e+01    0.4539481    0.3726353  48.19   0.00229041    1.215    0.177
        41 -12.6263    157.7707    101.6788   5.1041545926e+01   3.0314847798e+01    0.5242661    0.3305865  31.87  0.002351474    1.793    0.442
        42 -12.6452    161.9833     97.2949   4.9017598716e+01   3.0197016323e+01     0.388414    0.2360223  45.93  0.001544535    1.661    0.398
        43 -13.2281    172.6089     95.7633   4.6498907312e+01   2.8210874608e+01    0.6266913    0.3874281  40.91  0.002976021    1.694    0.410
        44 -12.6189    141.2343     95.7106   5.3258297429e+01   3.4955669508e+01    0.3994668    0.3332613 -33.44  0.001137657    1.210    0.173
        45 -12.5398    123.4093     96.7825   5.8151499536e+01   3.8578285559e+01    0.3013526    0.2878915 -63.23  0.001120559    1.117    0.105
        46 -12.2291    129.4237    108.2014   5.9517107693e+01   3.4986903248e+01    0.3284058    0.2563889  37.62 0.0009479719    1.249    0.199
        47 -12.9353    155.6866     93.0872   4.9246473621e+01   3.2291638563e+01    0.3858323     0.305117 -18.69 0.0003984851    1.363    0.266
        48 -12.5011     25.1432     66.5465   8.8697214205e+01   6.2021170474e+01    0.6649577    0.3969865 -58.10  0.002608387    1.522    0.343
        49 -13.2270    208.7112    187.5723   5.8895915023e+01   8.0629434095e+00    0.3755756    0.2919792 -48.06  0.002430477    2.011    0.503
        50 -10.7511    130.7729     66.4313   4.7192034443e+01   4.2753382326e+01    0.2650743    0.2088535 -37.42 0.0005862546    1.288    0.224
        51 -13.2037    181.2386     50.8589   3.2902925467e+01   3.3084285701e+01    0.6852406    0.2559982 -28.47  0.001946783    2.664    0.625
        52 -11.9573    181.7380     43.5907   3.0781456593e+01   3.3915938406e+01    0.2859787    0.2265293 -16.71 0.0008300422    1.371    0.271
        53 -12.2023    232.0418    186.1317   5.4802603179e+01   5.2707973565e+00    0.2659022    0.1343917  44.53  0.001435705    2.835    0.647
        54 -13.1092    248.2258    185.8521   5.2311786820e+01   3.3810196500e+00    0.3176461    0.2795921 -30.33  0.002494716    1.765    0.433
        55 -12.2391    190.8883     36.3002   2.7630276314e+01   3.2697030542e+01    0.4099323    0.2550507 -57.38  0.002086493    1.647    0.393
        56  -9.8984    132.2072     43.0511   3.8960282257e+01   4.6205148727e+01    0.1930293    0.1198571 -30.61 0.0004647036    1.676    0.403
        57 -11.3680    159.4727     36.3562   3.1761632433e+01   4.0222445435e+01    0.2487852    0.2135868 -89.15 0.0005580072    1.164    0.141
        58 -10.3720    176.9871     35.3411   2.9018243856e+01   3.6063597415e+01    0.1809419    0.1716538 -76.17 0.0005123623    1.040    0.039
        59 -10.6131    133.1213     34.9109   3.5864862934e+01   4.7124178525e+01    0.2116724    0.2063879 -26.27 0.0005654698    1.088    0.081
        60 -11.2513    177.7735     24.1001   2.5626741075e+01   3.7174034379e+01     0.261975    0.1688981 -21.61  0.001331407    1.647    0.393
        61 -12.8553    224.0879    174.6587   5.4092371556e+01   7.6855365200e+00      0.23644    0.1773613 -27.03  0.001620639    1.344    0.256
        62 -11.2840    194.0435     18.6997   2.2494203635e+01   3.3920649715e+01    0.2182635    0.1543433 -44.99 0.0002695959    1.258    0.205
        63 -13.8435    247.4268    174.3759   5.0482849501e+01   4.7711169861e+00    0.5553052    0.2552865 -30.68  0.003256223    1.876    0.467
        64 -13.5243    230.6849    167.7109   5.1812736928e+01   7.6852236126e+00    0.4119247    0.2300142 -32.30  0.001988911    1.650    0.394
        65 -10.3418    155.2486     14.9455   2.5395456031e+01   4.3762682584e+01    0.1863204    0.1684779 -32.94  0.000467858    1.162    0.140
        66 -10.4846    171.3247    173.3140   6.3485692222e+01   1.5459080173e+01    0.1348622   0.08980109   1.62 0.0005517129    1.664    0.399
