#   1 NUMBER                 Running object number                                     
#   2 MAG_AUTO               Kron-like elliptical aperture magnitude                    [mag]
#   3 X_IMAGE                Object position along x                                    [pixel]
#   4 Y_IMAGE                Object position along y                                    [pixel]
#   5 X_WORLD                Barycenter position along world x axis                     [deg]
#   6 Y_WORLD                Barycenter position along world y axis                     [deg]
#   7 A_WORLD                Profile RMS along major axis (world units)                 [deg]
#   8 B_WORLD                Profile RMS along minor axis (world units)                 [deg]
#   9 THETA_WORLD            Position angle (CCW/world-x)                               [deg]
#  10 FWHM_WORLD             FWHM assuming a gaussian core                              [deg]
#  11 ELONGATION             A_IMAGE/B_IMAGE                                           
#  12 ELLIPTICITY            1 - B_IMAGE/A_IMAGE                                       
         1 -11.8246    246.6113     27.3937   1.0665824325e+01   2.0389195230e+01    0.3119113    0.2324989 -84.34  0.001328145    1.249    0.199
         2 -11.9239    233.4304     14.6701   9.0404477720e+00   2.4854205037e+01    0.3840644    0.2146405 -40.68  0.002046066    1.668    0.400
         3 -11.7880    234.9970     10.0801   7.8856730457e+00   2.5009340116e+01    0.3096597    0.2478624 -31.72  0.001320978    1.418    0.295
         4 -12.8062    238.1499     17.5727   9.2681983732e+00   2.3450672885e+01     0.586696    0.2383257 -34.10 0.0003386798    2.337    0.572
         5 -11.1861     77.6812      9.9589   3.4804591563e+01   6.2354750222e+01    0.3748871    0.2505613  26.39 0.0008875198    1.322    0.244
         6  -9.8459     81.8886      7.1391   3.2225503160e+01   6.1818911516e+01    0.2348098    0.1344854  33.81 0.0004245086    1.540    0.351
         7 -10.2234     72.7742     10.6026   3.6729310724e+01   6.3205879263e+01    0.3661597     0.267534  17.85  0.002208996    1.187    0.157
         8 -11.3024     72.8865     16.1582   3.9175194552e+01   6.2561929837e+01    0.3921547    0.2943538  49.23  0.001295889    1.522    0.343
         9 -11.8831     28.6351     19.7031   5.9263149646e+01   6.8430060173e+01    0.2493858    0.1827945 -13.51 0.0002457787    1.078    0.073
        10 -11.5324     31.3037     13.6708   5.5270348851e+01   6.9038481203e+01    0.3353203     0.273827 -18.86   0.00110435    1.227    0.185
        11 -12.5348    132.8272     18.8985   2.4015838418e+01   4.9289258951e+01    0.3727067    0.2493791  50.63 0.0004431733    1.305    0.234
        12 -10.7677    169.3798     15.3650   1.6528796252e+01   4.0477864560e+01    0.2857679    0.2186823 -28.69 0.0005687456    1.457    0.314
        13 -11.0539     19.3295     16.4500   6.2435347117e+01   6.9830296181e+01    0.3012195    0.2393379 -25.07  0.002195691    1.179    0.152
        14 -10.7254     11.2034     14.5409   6.5804455582e+01   7.0798417627e+01    0.3546099    0.1489946 -24.70  0.001724197    2.442    0.591
        15 -11.5515      3.5251     16.1682   7.0514612975e+01   7.1051935767e+01    0.3033867    0.2706191  70.50  0.001732057    2.056    0.514
        16 -10.8098     50.4669     15.6403   4.7556218959e+01   6.6290768218e+01    0.4303561    0.2477529  16.26  0.002329634    1.801    0.445
        17 -11.3735     60.6210     13.8122   4.2618302569e+01   6.4952236659e+01      0.38283    0.3107345  27.56   0.00199684    1.222    0.182
        18 -10.7779    130.1858     13.0888   2.2522074013e+01   5.0514755934e+01    0.3672863    0.2648592 -40.76  0.001988588    1.605    0.377
        19 -10.4506     98.8615     12.3485   2.9550625369e+01   5.7799335746e+01    0.2573226    0.2244065 -29.53 0.0007481253    1.341    0.254
        20 -10.1103    159.8605      8.8049   1.5969106491e+01   4.3534308865e+01     0.193554    0.1585887  70.74 0.0003886115    1.082    0.076
        21 -10.9977    154.8024      8.1709   1.6540305798e+01   4.4868729109e+01    0.3635925    0.2775891  80.56  0.001330384    1.273    0.215
        22 -11.1836    176.9849     10.5074   1.4080050772e+01   3.9036241006e+01    0.3756359    0.2705992  44.57  0.001022774    1.460    0.315
        23 -11.3699    145.8344      7.7956   1.7859685100e+01   4.7150720352e+01    0.4623755    0.3119894 -15.51  0.002416681    1.733    0.423
        24  -9.9412     26.1306      9.9787   5.6064497631e+01   7.0128738323e+01    0.2917899    0.2388351 -53.15  0.001954749    2.088    0.521
        25 -11.5468    241.3520      8.9012   7.1110923219e+00   2.3713194759e+01    0.2201381    0.1448657 -84.25 0.0005946452    1.383    0.277
        26 -11.1710     36.6299      7.7814   4.9924865681e+01   6.9194067188e+01    0.3256955    0.2150695  34.98 0.0007886461    1.679    0.404
        27 -10.4974     16.9742      2.9228   5.7352450455e+01   7.2031138440e+01    0.3430344    0.3278682 -61.74  0.002431152    2.086    0.521
        28 -11.1743      9.1896      8.2275   6.4116468527e+01   7.1934879493e+01    0.2622473    0.1980721   7.93    0.0011913    1.361    0.265
        29 -10.7402     22.3671      2.1914   5.4131614601e+01   7.1583174101e+01    0.4226442    0.1814942 -27.24  0.002134806    2.082    0.520
        30 -11.6762     27.1872      2.8389   5.2003485442e+01   7.0966505447e+01    0.2467156    0.2032816  -5.22  0.001032811    1.253    0.202
        31 -10.2754     34.1621      1.3540   4.7833099999e+01   7.0298299132e+01    0.3966398    0.1008429  40.88  0.001553455    4.387    0.772
        32 -11.2563    212.9122      5.3796   8.7654363565e+00   3.0660520251e+01    0.5474774    0.2536751 -48.65   0.00260024    2.086    0.521
        33  -8.8944    202.6937      8.6888   1.0586300622e+01   3.2799339405e+01     0.129423   0.09373426  43.83 0.0006738378    1.617    0.381
        34  -9.6989     65.0849      8.5120   3.8481807726e+01   6.4804467865e+01    0.1766068    0.1085598  40.36 0.0003386948    1.493    0.330
        35  -9.4521     91.4888      7.3584   2.9506245685e+01   5.9845270614e+01    0.1320921     0.104191  33.19 0.0001352673    1.057    0.054
        36 -10.5548    222.9893      5.4939   7.8823606139e+00   2.8264745058e+01    0.2165053    0.1725506 -45.69  0.001360069    1.267    0.211
        37 -11.1178    172.1604      5.2503   1.3216744255e+01   4.0754055337e+01    0.2866798    0.1952547  78.38 0.0003762355    1.338    0.253
        38  -9.7392    101.1711      6.0806   2.6409924049e+01   5.7884010082e+01    0.1628958    0.1519247 -40.16  0.001047126    1.338    0.253
        39 -10.8229     73.8823      2.3117   3.2573133768e+01   6.3820918709e+01    0.3229706     0.254723 -30.31  0.001732364    1.531    0.347
        40 -11.2059    229.1642      3.7209   6.9619385180e+00   2.7019047803e+01    0.3352346    0.2724693  10.65  0.002067165    1.829    0.453
        41 -10.3872    164.6699      4.9844   1.4136870940e+01   4.2668124856e+01    0.2379076    0.2050316 -72.79 0.0005043637    1.209    0.173
        42 -10.2714    168.0711      1.9646   1.2801790027e+01   4.2076881698e+01    0.1970925    0.1680607  78.89 0.0003129269    1.045    0.043
        43  -9.7578    137.9992     10.9523   2.0279616188e+01   4.8806139053e+01    0.2123983    0.1573168 -67.68 0.0007233419    1.693    0.409
        44 -10.7229    125.8989      3.2649   1.9886677939e+01   5.2420927757e+01    0.3928468    0.2362661  16.18  0.001389753    2.019    0.505
        45  -9.2652     60.5848      5.5254   3.8732728909e+01   6.5892651923e+01    0.1232172   0.09853035  10.84 0.0001820098    1.031    0.030
        46 -11.8957     11.3325      2.4650   6.0205328074e+01   7.2605629915e+01    0.2664402    0.1746539 -14.99  0.001660355    1.163    0.140
        47 -11.9887    243.3606      3.1136   5.7301771604e+00   2.3894298330e+01    0.3650533    0.2136326  80.95 0.0008667015    1.560    0.359
        48 -11.4567    236.7753      1.9919   5.9845228053e+00   2.5472934881e+01    0.3368459    0.2039972 -86.37  0.001911161    1.510    0.338
        49  -9.8684    201.5245      3.6588   9.4490390685e+00   3.3587291570e+01    0.2302988    0.1253847  54.62  0.001143122    1.831    0.454
        50 -10.7834    178.9941      3.8753   1.1979563116e+01   3.9159631691e+01    0.1968378    0.1842958 -79.18 0.0002684135    1.116    0.104
        51  -9.1795     97.7204      3.6719   2.6302594290e+01   5.8845579356e+01    0.1366143   0.08236233  28.12 0.0005053131    1.598    0.374
        52 -10.2779    244.7036    188.0307   4.6738116456e+01  -3.9616052818e+00    0.1864141    0.1508352 -10.93 0.0004988616    1.081    0.075
        53 -10.6403    247.4760    249.9508   5.7421978907e+01  -1.2346736886e+01    0.1886595    0.1217833  24.82   0.00118575    1.219    0.180
        54  -9.7811    109.8124    250.2057   8.3114059813e+01   8.8796607298e+00    0.1541251    0.1305137  34.10 0.0007665853    1.310    0.237
        55 -10.8987     90.0272    249.4116   8.6705495266e+01   1.1946527183e+01    0.2609143      0.20646  41.89  0.001110303    1.277    0.217
        56 -12.6625     19.4710    247.6434   9.8804072394e+01   2.1113950469e+01    0.9582586    0.1237062  50.32  0.003999253    4.035    0.752
        57 -11.9941      6.4272    245.1258   1.0076268711e+02   2.2888714459e+01      0.39186    0.2230642  85.25  0.001790654    1.390    0.281
        58 -10.3062     12.0211    250.5760   1.0012641078e+02   2.1373127133e+01    0.1409812   0.07996228  45.66 0.0004744919    1.551    0.355
        59  -9.8251     61.8636    184.4168   8.5693820857e+01   2.8831819304e+01    0.2284492    0.1568374 -84.13  0.001293281    1.375    0.273
        60 -12.7861     18.3988    181.3883   9.4848478954e+01   3.4346636346e+01    0.5801176    0.3437525  25.69  0.002543688    2.188    0.543
        61  -9.8990    244.4430    178.5575   4.4875601002e+01  -2.5004917571e+00     0.247418    0.1135602 -24.10 0.0009522146    2.446    0.591
        62  -9.9520      2.2357    180.2411   9.8068307604e+01   3.5988613717e+01    0.2009919    0.1314435  38.65 0.0009647252    1.691    0.409
        63  -9.4973    118.6045    177.1693   7.1385583786e+01   2.1610732961e+01    0.1966913    0.1331569 -44.30 0.0006476591    1.649    0.394
        64 -11.0568     17.9132    172.4074   9.4224204935e+01   3.6364769331e+01    0.3250237    0.1633572  59.71  0.001774105    1.941    0.485
        65 -10.1013     25.4732    169.5110   9.2304694431e+01   3.6312184761e+01    0.1212543   0.09824222 -86.70 2.514443e-05    1.049    0.046
        66 -10.3406     35.5794    161.0352   8.9110372610e+01   3.7246623911e+01     0.281396     0.212262 -14.15 0.0004118237    2.074    0.518
        67 -11.1142     36.8201    165.8398   8.9343893327e+01   3.6010899830e+01    0.3081682    0.1938838  80.50 0.0003794443    1.551    0.355
        68 -10.8029     33.2182    166.2169   9.0219839636e+01   3.6296623975e+01    0.2144594    0.1610142  83.55 0.0002717147    1.154    0.134
        69 -11.0456      5.5328    167.9668   9.6534996938e+01   3.8385769207e+01    0.1687573    0.1399356  72.49 0.0007112105    1.169    0.144
        70  -9.6891     18.6533    167.0353   9.3600554235e+01   3.7497075847e+01    0.1643555    0.1257234 -86.57 0.0004499456    1.043    0.041
        71  -8.8588     93.3192    166.7401   7.5766963704e+01   2.8287932503e+01    0.1429798    0.1014152  68.13 0.0002526988    1.545    0.353
        72 -11.1000     51.2881    161.7923   8.5416100756e+01   3.5334038567e+01    0.5629141    0.2924592 -76.14  0.002394944    1.865    0.464
        73  -9.2772    186.6749    165.6722   5.3482170500e+01   1.0606441770e+01    0.1557924    0.1136997   4.55 0.0006395085    1.697    0.411
        74  -9.9948     67.5185    165.5030   8.1943771577e+01   3.2405135588e+01    0.1355146    0.1185983  86.44 7.674984e-06    1.016    0.016
        75 -10.2311      9.4172    162.8871   9.5295546410e+01   3.9203291662e+01    0.2032642    0.1558766 -21.31  0.001336782    2.009    0.502
        76  -9.2801    221.3316    161.2742   4.5487886141e+01   4.4831462491e+00    0.1458875    0.1042128   8.58   0.00023985    1.595    0.373
        77 -11.1438     20.8143    156.7043   9.2145021956e+01   3.9647783486e+01     0.308928    0.2645844 -78.90  0.001488981    1.128    0.113
        78 -10.4220    247.4728    157.5131   3.9942317329e+01   2.5279922340e-01     0.137243    0.1181825 -11.54  4.31918e-05    1.006    0.006
        79 -10.6861     10.7041    152.9841   9.4155076540e+01   4.1329316291e+01    0.2659048    0.1803034  53.40   0.00096321    1.509    0.337
        80 -10.1796    235.8155    152.4471   4.0881121823e+01   3.2122056081e+00    0.2812192   0.09722885 -38.89  0.001019981    2.714    0.632
        81  -9.2909    176.7327    150.0199   5.2204099366e+01   1.5766255066e+01     0.190513    0.1341091 -41.16  0.000459714    1.448    0.309
        82  -9.3400    144.0015    148.0205   5.9444186358e+01   2.3144759655e+01    0.1844796    0.1800171 -44.26 0.0009831592    1.049    0.047
        83  -9.6047     21.3931    147.7938   9.1092540165e+01   4.1649247514e+01    0.1685021   0.09149296 -63.90 0.0001626521    1.545    0.353
        84 -10.1344     14.1246    147.9480   9.2873061174e+01   4.2210415645e+01    0.1822249    0.1309238  81.63 0.0003614707    1.243    0.196
        85 -10.3991      8.1064    145.7277   9.4103762068e+01   4.3173006373e+01    0.1762607    0.1676156  32.87  0.001337523    1.374    0.272
        86 -10.2738    216.9330    145.0910   4.2723217836e+01   8.2016185522e+00    0.2377059    0.1722042   3.69 0.0007585797    1.671    0.402
        87  -9.9926    187.7624    144.0439   4.8407057559e+01   1.4574668288e+01    0.2566266     0.211993  38.63 0.0005038885    1.194    0.163
        88 -10.3095     24.9463    142.5051   8.9616350705e+01   4.2572741771e+01    0.1526256    0.1236408  33.23 -7.15286e-05    1.473    0.321
        89 -10.3896     13.8662    139.7394   9.2102786154e+01   4.4119107233e+01    0.3040758    0.1484364 -87.79  0.001526692    1.992    0.498
        90 -10.4661    236.5184    137.9545   3.7527624882e+01   5.5141633970e+00    0.2155984    0.1870671  32.69 0.0006825945    1.210    0.173
        91  -9.5192    144.1362    136.8932   5.6867262689e+01   2.5570982232e+01    0.2148885    0.1860866  -6.05 0.0004510963    1.320    0.243
        92  -9.7480     43.7836    136.9531   8.3947080128e+01   4.2064669391e+01    0.1832263   0.09274338 -65.85 0.0008715761    1.695    0.410
        93  -9.1929      9.4815    136.4266   9.2858468396e+01   4.5203191847e+01    0.1197235   0.09471646 -79.89 6.323598e-05    1.011    0.011
        94 -11.2999    241.4076    134.2443   3.5855573583e+01   5.1846195906e+00    0.2567964     0.234628 -17.03 0.0004971966    1.032    0.031
        95  -9.6276     88.6380    135.3079   7.1279381442e+01   3.6478079972e+01    0.1532021    0.1099517  73.36 0.0007039686    1.741    0.425
        96 -10.0583     20.5558    134.5285   8.9807748853e+01   4.4806770565e+01    0.2200564    0.1019058 -83.71 0.0008309092    2.182    0.542
        97 -10.1513      2.5974    134.3002   9.4370885898e+01   4.6151306057e+01    0.2157917    0.1364655 -86.66 0.0007815614    1.313    0.239
        98 -10.8730      4.4321    130.0640   9.3488764676e+01   4.7001718259e+01    0.2225226    0.1772472 -57.13 0.0007118117    1.258    0.205
        99 -11.0629     54.2280    132.2919   8.0344122583e+01   4.2009541496e+01    0.3635883    0.2054997  30.53   0.00170657    2.003    0.501
       100 -12.1442     36.3946    131.1190   8.5109677015e+01   4.4207543931e+01    0.5402539    0.2475271 -49.82 0.0006310208    2.102    0.524
       101 -11.4671     73.3953    129.0304   7.4326298724e+01   4.0299174269e+01    0.3398543    0.2906671  47.46  0.001207403    1.242    0.195
       102 -11.3055     56.9569    126.2685   7.8528239250e+01   4.3131686665e+01    0.3226727    0.1797272 -48.50 0.0005498757    1.718    0.418
       103  -9.7467     51.3195    126.2678   8.0148375720e+01   4.3795417839e+01    0.1306841    0.0960796 -34.99 0.0006962289    1.559    0.359
       104 -10.9826      7.1907    118.1498   9.1445394801e+01   4.9564122135e+01    0.1839143    0.1729023  45.65 0.0008299696    1.319    0.242
       105 -10.9986     10.5314    122.4952   9.1047211757e+01   4.8345937169e+01    0.3110898    0.2154058 -85.77  0.001419178    1.272    0.214
       106  -9.5335     17.3121    125.6718   8.9592618844e+01   4.7127788234e+01    0.1299395    0.1025913 -66.97 0.0006497607    1.076    0.071
       107 -10.6021     14.2115    125.5863   9.0420999499e+01   4.7374514569e+01    0.2222678    0.1865293 -44.62  0.001035644    1.323    0.244
       108 -11.0805    243.7955    122.1591   3.2719426078e+01   6.7332455341e+00    0.2102619    0.1821703 -43.84  0.000770824    1.154    0.133
       109 -10.4599     19.8472    121.7044   8.8383514745e+01   4.7863603457e+01    0.2193929    0.1348541 -63.65 0.0007364594    1.309    0.236
       110 -11.4137     24.4903    120.5334   8.6916416793e+01   4.7773015318e+01    0.2395242       0.2054 -73.31 0.0008500266    1.050    0.047
       111 -10.6449      1.3879    118.5606   9.3074679309e+01   4.9814843784e+01    0.2276992   0.09784944 -67.17 0.0001982018    1.719    0.418
       112 -10.8103    249.6012    117.7437   3.0803235025e+01   6.3178969615e+00    0.1990228    0.1162361 -42.57 0.0004815143    1.586    0.370
       113 -11.1869     72.2048    115.4619   7.1886694582e+01   4.3719056432e+01    0.4561485    0.2786801 -47.72  0.002173363    1.529    0.346
       114  -9.8201     42.4566    117.0857   8.1149263060e+01   4.6949543351e+01    0.2127189    0.1135246 -64.13  0.001034984    1.608    0.378
       115 -11.0453    182.0291    114.6334   4.2415469824e+01   2.1678946866e+01    0.4518525    0.3204837  30.19  0.001359662    1.602    0.376
       116 -10.0647     86.1052    116.1406   6.7874662813e+01   4.1453723550e+01    0.2130552     0.189709 -32.04            0    1.157    0.135
       117  -9.5180     31.9827    116.7580   8.4188387716e+01   4.8026803022e+01     0.145288    0.1111522  24.12 0.0008745102    1.574    0.365
       118 -12.5783     15.8879    115.1688   8.8623845838e+01   4.9678723229e+01    0.9812258    0.2899991 -68.77 0.0003767829    2.650    0.623
       119 -11.7755     15.0122    111.5351   8.8377440960e+01   5.0583277097e+01    0.5491085     0.280073 -88.37  0.002539655    2.226    0.551
       120 -10.4993    105.7504    114.5703   6.1744509681e+01   3.8402954263e+01    0.3482969    0.2435006 -49.89  0.001621141    1.389    0.280
       121 -11.7250    249.2487    112.0532   2.9565020932e+01   7.3172603417e+00    0.3293086    0.2929238  44.02  0.001293304    1.252    0.201
       122 -11.0695     93.5884    111.9693   6.4659133079e+01   4.1187355051e+01    0.4320193    0.3000493  60.50  0.001974266    1.814    0.449
       123 -12.1977     52.6067    116.0899   7.7931162976e+01   4.6085718143e+01    0.2525498    0.2266628 -62.32 0.0002521253    1.024    0.023
       124 -12.2632     36.8381    108.8731   8.1401197999e+01   4.9445024156e+01    0.7417806    0.3093292  34.85  0.003375087    2.644    0.622
       125 -11.2774     25.3157    105.9540   8.4444147820e+01   5.1124249155e+01    0.4706573    0.2696807 -26.69  0.002397992    2.292    0.564
       126 -11.4750     55.0028    109.5806   7.5914094437e+01   4.7354088193e+01     0.466346    0.1813316 -53.59  0.001800966    2.158    0.537
       127 -10.6673      2.6602    105.6901   9.1202823862e+01   5.2679242825e+01    0.3336914    0.1444059 -61.70   0.00177201    1.698    0.411
       128 -10.1176    111.2841    105.9165   5.7915818270e+01   3.9310159765e+01    0.3150918    0.1890662  43.52 0.0008731454    1.711    0.415
       129 -11.8551     41.3047     96.6994   7.7624601045e+01   5.1859648748e+01    0.3208288    0.2012356 -55.51 0.0003847094    1.333    0.250
       130 -10.9327     37.6172    102.6104   7.9999464731e+01   5.0841362843e+01    0.3620605    0.2455162  85.49  0.001801703    1.875    0.467
       131 -10.2727     33.1599     97.4394   8.0438670533e+01   5.2449481096e+01    0.3531867    0.2271726  85.76  0.001796337    2.100    0.524
       132  -9.6002     90.6385    103.3195   6.3376139624e+01   4.3687416491e+01    0.1514473    0.1172742  79.46 0.0007042387    1.770    0.435
       133 -12.4127     61.8725     97.9312   7.1152300613e+01   4.9233466692e+01    0.6175498    0.5107791 -60.21  0.002809634    1.155    0.134
       134 -10.2927     47.9349    100.3596   7.6232196833e+01   5.0322118877e+01    0.2208565     0.169744 -74.64 0.0003993625    1.347    0.258
       135 -10.7013     22.8678     99.4967   8.4122502401e+01   5.2810748969e+01    0.3645157    0.1890546  26.70  0.001928958    2.272    0.560
       136  -9.7593    144.4949     99.1244   4.7003122572e+01   3.3626518681e+01    0.2400399    0.1561276 -41.74  0.001015767    1.542    0.352
       137 -10.4545     75.8717     98.1831   6.6686906011e+01   4.7225036908e+01    0.2796648    0.1676222 -30.80  0.001000855    1.986    0.497
       138  -9.8204      9.7966     99.1288   8.8158440660e+01   5.3771708736e+01    0.1702403     0.132783 -81.55 0.0003418081    1.205    0.170
       139  -9.5094    116.9524     97.8732   5.4079861614e+01   3.9938168394e+01    0.2058084    0.1852232  84.43 0.0007105759    1.307    0.235
       140 -10.5461     94.9654     97.9896   6.0637609239e+01   4.4140393166e+01    0.2193614    0.2058204 -38.37  0.001207661    1.022    0.021
       141 -10.7712    240.9741     96.0374   2.7100140020e+01   1.1635364806e+01    0.2283162    0.1612512 -62.82  0.001130006    1.660    0.397
       142 -10.4439     16.2366     96.5360   8.5731907668e+01   5.3959361191e+01    0.2023699    0.1153857  27.87 0.0009928271    2.101    0.524
       143  -9.5388     52.9458     93.4860   7.3050084603e+01   5.1348924227e+01     0.184643    0.1349474  27.19 0.0005837312    1.543    0.352
       144 -10.9828    158.4742     90.4252   4.1118439123e+01   3.2046778656e+01    0.6166597    0.3464146  62.08  0.002326986    2.172    0.540
       145 -10.4277     56.3733     90.7552   7.1244255570e+01   5.1564295467e+01    0.3098483    0.1376268 -52.05 0.0008859262    1.926    0.481
       146 -10.5228    249.7583     91.0044   2.4677896872e+01   1.0606222498e+01    0.1887816     0.105274 -36.10 0.0004898675    1.600    0.375
       147  -9.7351     73.7930     90.9201   6.5470258922e+01   4.9177606982e+01    0.2835158    0.1457176 -44.11  0.001227301    1.799    0.444
       148 -10.9153     10.5747     90.8227   8.6614984422e+01   5.5611617628e+01    0.1975388    0.1677177 -41.25 0.0003824515    1.200    0.167
       149 -10.5129     84.3726     89.0167   6.1494904529e+01   4.7942262906e+01    0.3271124    0.2478206  42.86  0.001677022    1.438    0.304
       150 -10.0479     97.5051     89.4640   5.7464297769e+01   4.5552536604e+01    0.1490207    0.1405476 -21.24 5.830377e-06    1.004    0.004
       151  -9.8286     65.6464     87.3168   6.7229506440e+01   5.1141464575e+01    0.2497531    0.1817328 -80.81  0.001157605    1.939    0.484
       152 -11.1784     67.1187     83.8208   6.5782914287e+01   5.1710408124e+01    0.5180695      0.36367  10.06  0.002635373    1.714    0.417
       153  -9.9805    231.5358     91.4669   2.7435034368e+01   1.4430350371e+01    0.1437667    0.1315759 -48.15 0.0001169891    1.028    0.028
       154 -10.5149     22.0373     86.6625   8.2049563632e+01   5.5802446971e+01    0.2128041    0.1520597 -73.47  0.001284755    1.354    0.262
       155  -9.6764     38.9531     86.2782   7.6146703110e+01   5.4469946643e+01    0.1734134    0.1505286 -33.72 0.0003919032    1.116    0.104
       156 -10.0448      9.4607     86.1008   8.6192769448e+01   5.6737122787e+01    0.2384537    0.1339625  48.89 0.0008731098    2.391    0.582
       157 -10.6720    156.6105     83.7124   3.9609198782e+01   3.3771956523e+01    0.4345885    0.4007604  -1.74  0.002237838    1.142    0.124
       158 -10.4149    107.3278     84.6082   5.3029184588e+01   4.4694498100e+01    0.2477809    0.2201483  40.84 0.0002663489    1.163    0.140
       159  -9.9233     34.3182     84.8603   7.7438007913e+01   5.5218112966e+01    0.1841246    0.1621063 -67.95 0.0008179725    1.175    0.149
       160 -11.3138     30.7369     81.5618   7.7960891946e+01   5.6266787301e+01    0.2930832    0.2423954 -40.40 0.0008198315    1.087    0.080
       161  -9.5240    116.8458     83.8000   4.9985377570e+01   4.2904779189e+01    0.2046402    0.1861654  89.59 0.0007271957    1.321    0.243
       162 -10.3599    167.4421     82.9037   3.6933152325e+01   3.1259814452e+01    0.4363642    0.2040199  59.11  0.001540797    2.389    0.581
       163 -11.1290     76.4044     82.3441   6.2218106705e+01   5.0664874805e+01    0.3512861    0.2560011  46.76 0.0009617563    1.596    0.373
       164 -10.7905     42.9632     81.9706   7.3725679733e+01   5.5037293998e+01     0.317099    0.2280328 -83.90  0.001696155    1.865    0.464
       165  -8.9912     86.6247     82.7259   5.8948285371e+01   4.8921867395e+01    0.1500352    0.1097543  -4.95 0.0007002059    1.691    0.409
       166 -10.2666     21.8992     81.2243   8.1007545470e+01   5.7031005934e+01     0.259925    0.1089962 -43.70  0.001232308    2.076    0.518
       167 -10.2548      7.4364     81.5923   8.6098156240e+01   5.7852173491e+01    0.2642268    0.1463056 -51.59  0.001549442    1.403    0.287
       168 -10.1209     84.0233     79.6554   5.8884881458e+01   5.0009165769e+01    0.1935444    0.1784164   4.26  0.000349301    1.083    0.076
       169 -11.5458     99.9003     76.8192   5.2904373527e+01   4.7734780698e+01    0.3196417    0.2991316 -32.71  0.000773357    1.083    0.076
       170 -11.2919     21.5457     74.9721   7.9801511790e+01   5.8436397855e+01    0.3419022    0.1905048 -48.14  0.001111017    1.425    0.298
       171  -9.5110      2.9927     77.9441   8.6992648130e+01   5.8880537134e+01    0.1509347   0.09737939 -62.89 0.0004176971    1.192    0.161
       172  -9.3514     82.2975     75.6786   5.8247396512e+01   5.1123821663e+01    0.1358033    0.1159419 -86.57 0.0001845774    1.620    0.383
       173 -11.7313     57.2642     59.3709   6.1987015016e+01   5.8129831439e+01    0.8179861    0.5786895 -44.41  0.004586624    1.312    0.238
       174 -11.8956     54.0962     72.0018   6.7055287956e+01   5.5956865725e+01    0.6696538    0.4059922  48.51  0.002063057    2.269    0.559
       175 -12.0878     50.3863     68.3186   6.7356996441e+01   5.7172284040e+01    0.3922647    0.2349364 -41.56  0.000599451    1.443    0.307
       176 -11.4338     44.5642     74.7942   7.1319250648e+01   5.6444158718e+01    0.2312202    0.2072742  20.05 0.0003368339    1.271    0.213
       177 -12.1732    167.7363     73.3162   3.4089233312e+01   3.2887047952e+01    0.3187016     0.259252 -39.07 0.0003775629    1.249    0.200
       178 -13.8069     16.7936     67.3931   7.9867718222e+01   6.0399573515e+01    0.4896125    0.4002094 -33.13 0.0008397479    1.149    0.129
       179  -9.6976      1.6305     73.1387   8.6625521525e+01   5.9991524890e+01    0.2053704    0.1188737 -47.61 0.0009555341    1.373    0.271
       180 -11.0030      7.3379     73.1832   8.4589164740e+01   5.9703258726e+01    0.3273335     0.226574 -43.13  0.001683147    1.231    0.187
       181  -9.4180      6.5674     68.2177   8.3890913286e+01   6.0815229281e+01    0.2245988   0.08609202 -59.39 0.0009407668    1.881    0.468
       182 -10.2797    250.0000     71.9780   2.0293671095e+01   1.3499777107e+01    0.2284013   0.06999537 -34.72  0.000803515    2.950    0.661
       183  -9.6806    114.8328     71.2886   4.6640490455e+01   4.5774682049e+01    0.2921787    0.1703499 -52.30  0.001188563    2.098    0.523
       184 -11.4479     88.2075     77.3663   5.6811501528e+01   4.9769060588e+01     0.264206    0.2410794 -29.13 0.0001891677    1.045    0.043
       185  -9.1737     68.2870     72.2819   6.2029785817e+01   5.4005825605e+01    0.1381934   0.09883221 -17.63 0.0005866773    1.523    0.343
       186 -10.0139     36.8745     69.4616   7.2758966202e+01   5.8359172850e+01    0.8454139    0.4538459 -72.87  0.003664206    2.897    0.655
       187 -11.0535     31.9324     63.7063   7.3103236540e+01   6.0024247544e+01    0.4408929    0.2733429 -22.35  0.001193162    1.712    0.416
       188 -11.0377     28.4362     60.8394   7.3693197935e+01   6.0919475344e+01    0.4817191    0.2119251  14.74  0.001622761    2.854    0.650
       189 -10.5606    186.9438     68.9514   2.9061194831e+01   2.8791306190e+01     0.215738    0.2084902  61.91  0.001180095    1.035    0.033
       190 -11.8371    122.6912     67.2760   4.3114716398e+01   4.4789546266e+01    0.2948959    0.2572831 -33.17 0.0002537888    1.163    0.140
       191  -8.9634     61.9480     68.0000   6.2990547057e+01   5.5777070932e+01    0.2045218   0.07686852  32.70 0.0007925912    2.875    0.652
       192  -9.9318    147.3044     65.3956   3.6238846305e+01   3.9316453462e+01    0.3459238    0.2161054 -65.59  0.001312788    2.562    0.610
       193 -10.5591    140.3030     66.1245   3.8151561111e+01   4.0891990485e+01    0.2757098    0.2142584  54.24 0.0006872131    1.280    0.219
       194 -11.3247     81.3923     64.9297   5.5110153981e+01   5.3420683933e+01    0.3879569     0.265652 -10.30  0.000739341    1.760    0.432
       195 -12.1278    155.8497     63.8487   3.3815189515e+01   3.7460024483e+01    0.3522023    0.3231969  63.57 0.0003932588    1.092    0.085
       196 -10.6704      5.8939     58.4088   8.2049257373e+01   6.2922159025e+01    0.3802454    0.1719852  40.26  0.001900495    3.241    0.691
       197 -11.0794     11.6280     58.5864   7.9809767954e+01   6.2573918786e+01    0.5534547    0.2924241 -57.82  0.001615793    1.504    0.335
       198 -11.6883      3.5376     48.6200   8.0685859906e+01   6.5039309776e+01    0.5281632     0.348581 -67.13  0.003009899    1.504    0.335
       199 -10.5893      6.9668     42.1437   7.7480534146e+01   6.6144283337e+01    0.4434958    0.1167966 -51.66  0.002023339    2.447    0.591
       200 -10.2037     13.3492     52.7990   7.7650549510e+01   6.3658296699e+01    0.1954301    0.1345194 -39.21 0.0004218094    1.149    0.130
       201 -12.6466     12.3891     47.4614   7.6608853038e+01   6.4786756645e+01    0.3909948    0.2896002 -61.50 0.0006557299    1.379    0.275
       202 -10.1681    106.2787     63.9792   4.6757660281e+01   4.8919511327e+01      0.20327    0.1787421 -20.30  0.001095257    1.104    0.094
       203 -10.0207    202.1660     62.3835   2.4665208988e+01   2.6033749913e+01    0.2293225    0.1941648 -27.62 0.0005417444    1.255    0.203
       204 -10.0688     76.9013     62.4079   5.5823019183e+01   5.4650338643e+01    0.2217346    0.1745275 -15.20 0.0006156765    1.245    0.197
       205  -9.5997     42.1188     63.6054   6.9118285247e+01   5.9064014672e+01    0.1669727    0.1135407  -1.42  0.000497426    1.675    0.403
       206  -9.5432    162.0002     61.7493   3.1852658977e+01   3.6258626176e+01    0.2069766    0.1910629  58.81 0.0002461284    1.052    0.050
       207 -10.7542    119.8674     60.4349   4.1627612609e+01   4.6621110584e+01    0.4492324    0.2859281  50.17  0.001601525    1.568    0.362
       208 -10.5153    114.8083     60.1698   4.2960927107e+01   4.7784024739e+01     0.311079    0.2093632  27.73 0.0009366302    1.625    0.385
       209 -11.4314     90.2895     60.7732   5.0711834730e+01   5.2629311882e+01    0.3953497    0.2212707  47.58  0.001478512    1.985    0.496
       210 -11.1533     46.4509     60.3984   6.6472750898e+01   5.9246121419e+01    0.3228545    0.2127826 -33.54  0.001798522    1.342    0.255
       211  -9.4480    169.1851     59.8050   2.9806791613e+01   3.4749595925e+01    0.2033422    0.1727363  27.48 0.0003397909    1.289    0.224
       212 -11.6688      2.6797     62.9570   8.4282215360e+01   6.2123303659e+01    0.8158123    0.2578374 -69.81  0.003361531    3.210    0.688
       213  -9.2134    138.0336     60.0274   3.6752920225e+01   4.2464210933e+01     0.178194    0.1672915  35.14 0.0009544435    1.014    0.014
       214 -10.0506     98.2528     60.0144   4.7882921221e+01   5.1248629356e+01     0.199651    0.1811908 -13.60 0.0004291398    1.049    0.047
       215  -9.4387    134.6880     58.1890   3.6980638425e+01   4.3566485486e+01    0.2058557    0.1801218  58.23 0.0004520256    1.174    0.149
       216  -9.8062    127.7106     58.4521   3.8851017428e+01   4.5165891505e+01    0.2226057    0.1328818  39.66  0.000952875    1.673    0.402
       217 -11.4439     80.4592     56.3310   5.2489892917e+01   5.5188432423e+01    0.4454736    0.2661148 -14.05  0.001559755    2.266    0.559
       218 -10.7775     74.9659     55.6288   5.4176204172e+01   5.6233712896e+01    0.3655442    0.2107073 -33.16  0.001484905    1.664    0.399
       219 -11.9363     77.7613     48.0017   5.0425172980e+01   5.7112349704e+01    0.6842838     0.418581  -7.55  0.001516085    2.186    0.543
       220 -11.6493     74.9559     35.9777   4.6794066207e+01   5.9527589475e+01    0.3601815    0.2616177 -42.40  0.001559862    1.589    0.371
       221 -10.5008     77.3702     33.2834   4.4854384742e+01   5.9504354602e+01    0.2801264    0.2213016  29.25  0.000635862    1.196    0.164
       222 -12.6184    104.9082     52.5519   4.3215569341e+01   5.1181509861e+01    0.3451998     0.287022  17.99 0.0003854936    1.169    0.144
       223 -12.9104     38.0952     49.5429   6.6352965148e+01   6.2277435349e+01    0.7701792    0.6350855 -51.20  0.004038482    1.332    0.249
       224 -10.1995     37.8329     39.1822   6.2851074735e+01   6.4219949460e+01    0.1994936    0.1360141 -24.66 0.0003812791    1.259    0.206
       225 -10.0898     39.1659     35.6268   6.0938885358e+01   6.4696317204e+01    0.2155494    0.1557789  -9.27 0.0005241866    1.262    0.208
       226 -11.5611     45.0061     44.6441   6.1799395786e+01   6.2432478945e+01     0.559392    0.2816001 -55.46  0.002559171    2.556    0.609
       227 -11.8106     45.3716     38.4935   5.9374820336e+01   6.3479533381e+01    0.3157496    0.2542304  49.77  0.001926173    1.864    0.464
       228 -10.0057    152.3213     53.4743   3.1356463903e+01   3.9988858166e+01    0.3136762    0.1802841  32.80  0.001245783    2.166    0.538
       229 -10.4217     89.4967     54.5055   4.8778070043e+01   5.3897179741e+01    0.2044154    0.1829629 -73.60 0.0001434044    1.538    0.350
       230 -10.1186     88.9574     50.6693   4.7573499605e+01   5.4655689760e+01    0.1996903    0.1779812  19.15  0.000888566    1.085    0.078
       231 -10.7765     27.7161     53.7124   7.1955187794e+01   6.2429393584e+01    0.2817363    0.1816411 -23.44 0.0005167116    1.499    0.333
       232 -10.6674     26.9084     48.9848   7.0861783450e+01   6.3431303340e+01    0.2964798    0.1853054 -51.24  0.001566182    1.409    0.290
       233 -11.0761    128.8039     49.2585   3.5468094250e+01   4.6368144600e+01    0.5417868    0.3259318  -7.14  0.002174023    2.435    0.589
       234 -10.6596    132.9998     50.1828   3.4737387221e+01   4.5230859411e+01    0.3813083    0.2592255  77.06 0.0009276226    2.053    0.513
       235 -11.5857     51.8524     46.7455   5.9763872888e+01   6.1212236779e+01     0.728164    0.2903841 -36.06  0.003100501    2.395    0.582
       236 -10.4271    104.2842     46.2665   4.1138826901e+01   5.2317262705e+01    0.2605696    0.2266078  20.41 0.0003415923    1.060    0.056
       237 -12.3230     82.8382     36.4363   4.4225680830e+01   5.8049476439e+01     1.102325    0.6272986  55.44  0.004993773    2.375    0.579
       238  -9.7599     55.4972     48.5000   5.8945195782e+01   6.0417485387e+01    0.1976163    0.1562048 -59.38 0.0001227623    1.697    0.411
       239  -9.6054    143.0419     45.6995   3.0893515944e+01   4.3448304640e+01    0.2065459    0.1794458  47.02 0.0004867042    1.074    0.069
       240 -11.1967    112.3494     45.4240   3.8501809318e+01   5.0708054025e+01    0.2669818    0.2278133  17.94 0.0002978441    1.123    0.109
       241  -9.8568    152.2433     44.9226   2.8661649041e+01   4.1262253866e+01    0.3608908     0.170454  71.82 0.0009884952    3.077    0.675
       242 -11.2088     96.4615     42.5835   4.2159587266e+01   5.4494206649e+01    0.3601297    0.2419964   8.66  0.001303057    1.777    0.437
       243 -11.0762     23.8622     41.8998   6.9914953692e+01   6.5042672794e+01    0.4027302    0.2111387 -53.87  0.001161481    1.782    0.439
       244 -13.1199     27.6248     37.6793   6.6800721161e+01   6.5499007844e+01    0.3096372    0.2446299 -37.87 0.0004924074    1.166    0.142
       245 -11.2444     24.6635     34.7135   6.7080972826e+01   6.6295364405e+01    0.2321264    0.1510156 -15.19 0.0003861737    1.445    0.308
       246 -10.4520     67.2564     42.0720   5.2016242886e+01   5.9829520773e+01     0.365322    0.1039698 -37.92  0.001280906    3.375    0.704
       247 -10.9057     72.3605     42.6683   5.0353835384e+01   5.8909821412e+01    0.2777807    0.2650052 -36.12  0.001000014    1.330    0.248
       248 -10.0054     17.1993     42.8570   7.3161767560e+01   6.5368029430e+01    0.2836666    0.1354627  -0.42 0.0009872873    2.725    0.633
       249 -11.3232     89.2770     41.4003   4.4007398362e+01   5.6088427102e+01    0.2695025    0.2190689  19.04 0.0007774951    1.139    0.122
       250  -9.7163    130.5225     41.0449   3.2227227473e+01   4.7152519967e+01    0.2178125    0.1452245 -23.88  0.001032054    1.617    0.382
       251 -10.0226     60.1825     40.9538   5.4299355316e+01   6.1085610601e+01    0.2541871    0.1533183   4.93  0.001114936    2.100    0.524
       252  -9.9545    235.9940     39.9769   1.4562494482e+01   2.1154150439e+01    0.1889249    0.1577404  32.60 0.0003776236    1.576    0.365
       253 -10.3099    226.3324     39.8832   1.5629318832e+01   2.3403602354e+01    0.2685824   0.09921398 -40.14 0.0009953952    2.414    0.586
       254  -9.1783    168.2276     39.6476   2.3953851795e+01   3.7917855218e+01    0.1444584    0.1051527 -59.30 0.0002501484    1.560    0.359
       255  -9.4137    148.6794     39.3327   2.7603819481e+01   4.2924794193e+01    0.1495412    0.1121461 -70.96 0.0007049302    1.698    0.411
       256  -9.7909    159.8208     38.4606   2.5129085456e+01   4.0221755045e+01    0.2110227     0.135741  61.24 0.0004487936    1.451    0.311
       257 -11.3376    248.2588     36.2867   1.2461809206e+01   1.8900975729e+01    0.2285831    0.2012945 -63.64 0.0002909735    1.059    0.056
       258  -8.9623    202.2829     37.2733   1.7992397984e+01   2.9579739759e+01    0.1328977    0.1049933  37.09  0.000213676    1.501    0.334
       259 -10.5884     66.4520     36.6393   5.0192715381e+01   6.0834702655e+01     0.370032    0.1800881  42.49  0.001721969    2.214    0.548
       260 -12.1588     57.6813     34.3556   5.2687571845e+01   6.2527530710e+01    0.4349346    0.3130251  16.76 0.0002582166    1.328    0.247
       261  -9.5997      1.4341     37.0587   7.8528931171e+01   6.7406222013e+01    0.1698289   0.08411023 -53.67 0.0009992063    1.528    0.345
       262 -10.3851    129.3509     35.7213   3.0659658448e+01   4.8150784858e+01    0.2660277    0.1900557  33.88 0.0006288782    1.390    0.281
       263  -9.4552    193.2355     34.7469   1.8571177996e+01   3.2174671265e+01    0.2911042    0.1428958 -65.88  0.001033532    3.184    0.686
       264 -10.9724     97.0958     36.0931   3.9494735999e+01   5.5316898153e+01    0.2057232    0.1850034  10.61 0.0004925322    1.039    0.038
       265 -10.9552    111.1797     34.6742   3.4892502572e+01   5.2495728096e+01    0.2839689    0.2175396  46.14 0.0008831865    1.221    0.181
       266 -11.9058      8.4289     31.2916   7.3486203033e+01   6.8108794768e+01    0.3963457    0.2782998 -39.04  0.001922803    1.076    0.071
       267  -9.4054    177.4900     34.5648   2.0891773845e+01   3.6204555877e+01    0.1436592    0.1311045  64.66 1.414807e-05    1.041    0.039
       268  -9.6799    140.8028     33.8428   2.7447308748e+01   4.5601469294e+01     0.181615    0.1649337 -80.13 0.0003674117    1.247    0.198
       269 -11.2250    122.6926     33.3906   3.1441097539e+01   5.0030800682e+01    0.3985654    0.2400151  48.68  0.001432361    1.499    0.333
       270 -11.4608     18.3001     30.8372   6.8639841845e+01   6.7508874440e+01    0.3387982    0.2208823   5.94   0.00110102    1.576    0.366
       271  -9.8351     32.4533     33.0154   6.2912858754e+01   6.5861424601e+01    0.3491058    0.1765807  36.83  0.001824853    2.464    0.594
       272 -11.8568    225.6505    246.0521   6.0664811732e+01  -8.8090697057e+00    0.5037516    0.2791785  -7.35  0.002651237    2.325    0.570
       273 -11.1287    100.7435     29.2217   3.5746406556e+01   5.5478988566e+01    0.4979508    0.3161625  25.04  0.001161439    1.657    0.396
       274  -9.8348    166.6300     30.8227   2.1571747934e+01   3.9448573612e+01    0.1910553    0.1283234 -41.52 0.0003753885    1.582    0.368
       275 -10.5332     49.6425     28.8718   5.3730314126e+01   6.4511657490e+01    0.3700809    0.1948742 -21.92  0.001272107    1.998    0.499
       276  -9.6494      1.4337     30.9954   7.6729711183e+01   6.8547568480e+01    0.1611411   0.08393847 -51.33 0.0003486073    1.466    0.318
       277 -11.2816    145.4940     28.7628   2.4795140452e+01   4.5056126767e+01    0.4564348     0.305431   2.58 0.0008348115    1.953    0.488
       278 -12.1541    156.7952     28.2196   2.2486076570e+01   4.2268676091e+01    0.2604833     0.235126  74.70 0.0003154112    1.081    0.075
       279 -11.5081    112.4481     26.6053   3.1535825112e+01   5.3233374308e+01    0.4322278    0.2771993  -6.51  0.001888832    1.831    0.454
       280 -10.2771     79.8309     27.5034   4.1635416882e+01   5.9866241564e+01    0.4663514    0.1904783 -23.76  0.001851873    2.864    0.651
       281 -10.8266     82.9019     22.0571   3.8335439681e+01   5.9987063993e+01    0.3288795    0.2426552  41.70  0.001205379    1.301    0.231
       282 -10.3947     87.1332     20.1587   3.6186346874e+01   5.9388347103e+01    0.2309062    0.1662795  42.39            0    1.288    0.223
       283 -10.0006     62.0964     28.5978   4.8569522953e+01   6.2741481755e+01    0.2590899    0.1830747  57.39  0.001324756    2.334    0.572
       284 -11.6922    232.0286    245.9801   5.9503922427e+01  -9.7317895604e+00     0.258811    0.1528159   9.45  0.001490008    1.726    0.421
       285  -9.9775     83.2853    248.1290   8.7823831196e+01   1.3129573664e+01    0.2420616    0.1074392  57.75  0.001073004    2.121    0.529
       286 -11.2711    235.0323     21.9764   1.0537161676e+01   2.3640343300e+01    0.3247005     0.170492 -57.57  0.001355397    1.856    0.461
       287 -11.2236     28.2316    245.1606   9.7239691817e+01   2.0608220799e+01    0.3099463    0.1567469 -83.99  0.001987645    1.815    0.449
       288 -10.4304    234.4261     27.7127   1.1900040074e+01   2.3083632718e+01    0.2468657    0.1112831 -37.16  0.001136215    2.045    0.511
       289 -10.6493    197.7657     28.0615   1.6161994990e+01   3.1864450694e+01    0.2474645    0.1851814  74.16 0.0006336388    1.239    0.193
       290  -9.1175    179.6995     27.2861   1.8460178590e+01   3.6529941605e+01    0.1420308    0.1016698 -71.24  0.000241943    1.556    0.357
       291 -11.0174    135.1234     27.0364   2.6349012991e+01   4.7827025866e+01    0.2759526    0.1780309  51.55 0.0004728318    1.376    0.273
       292  -9.5199    118.5334     27.5171   3.0335684941e+01   5.1730103350e+01    0.1423345    0.1246177  32.73 0.0008093794    1.023    0.023
       293 -11.4119    216.1035     25.3955   1.3278204881e+01   2.7675065460e+01     0.362748    0.2104115  61.67  0.001818623    1.651    0.394
       294  -9.9303    123.1104     26.2975   2.8786520280e+01   5.0803627067e+01    0.1887778    0.1724852  50.07 0.0003890317    1.089    0.082
       295 -10.6204     22.1033     24.4561   6.4394090044e+01   6.8291662739e+01    0.2898012    0.1630132  -8.29  0.001255638    1.903    0.474
       296 -11.1168      2.4389     24.5662   7.4144383437e+01   6.9663663079e+01     0.391285    0.1680869 -42.98  0.002051287    1.655    0.396
       297 -10.5435      9.6685     24.7706   7.0614548189e+01   6.9195458929e+01    0.3515758    0.1749008   3.20  0.001552858    2.261    0.558
       298 -10.8170    225.7386     22.9459   1.1668582493e+01   2.5675770757e+01     0.354623    0.2031201 -61.24  0.001374146    1.760    0.432
       299 -10.4253    159.8300     24.6152   2.0830239725e+01   4.1913117082e+01    0.2433866     0.191757 -40.42 0.0006293766    1.375    0.273
       300  -9.9240    128.4099     24.2418   2.6837438238e+01   4.9777300366e+01    0.2488076    0.1949625 -62.63  0.001054731    1.635    0.389
       301 -10.0724     54.4492     23.2995   4.9348232608e+01   6.4663192757e+01    0.2279329    0.1948328 -57.61 0.0008685146    1.917    0.478
       302 -11.0065     66.1591     20.3974   4.3481499449e+01   6.3212944397e+01    0.3656677    0.2115706  60.08  0.001580334    3.419    0.708
       303 -11.3721     59.0165     21.3262   4.6640729952e+01   6.4246270104e+01    0.2732835    0.2053266  24.43 0.0005198141    1.228    0.186
       304 -10.5201     34.5441     22.1709   5.7547339750e+01   6.7411480938e+01    0.2532826    0.1870426 -17.94   0.00131837    1.073    0.068
       305  -9.0106    186.3148     22.6658   1.6225387849e+01   3.5382694678e+01    0.1470185   0.09707861 -67.14 0.0003545248    1.688    0.408
       306  -9.0863     93.6894     22.3084   3.5069418785e+01   5.7807197102e+01    0.1220583    0.1082243 -71.30 0.0002380837    1.620    0.383
       307  -9.8089    193.1643     21.1583   1.4917407847e+01   3.3825293982e+01    0.1884971    0.1464159 -71.93 0.0003039615    1.284    0.221
       308 -10.4520    161.5372     20.5136   1.9282725384e+01   4.1932190754e+01    0.2831955    0.2206525  16.05  0.001051528    1.545    0.353
       309 -10.0146     99.7012     20.4323   3.2575778485e+01   5.6760163247e+01     0.241438    0.1656176 -43.67  0.001258147    1.833    0.455
       310  -9.8070     74.4140     21.1844   4.0836572338e+01   6.1675550646e+01    0.2333803    0.1543633 -28.04 0.0007560391    1.517    0.341
       311 -10.6535     72.8713    244.8781   8.9441039555e+01   1.5146359395e+01    0.2404168    0.2145923  48.47  0.001300175    1.338    0.253
       312 -12.3421     75.2337    238.6605   8.8469181694e+01   1.5944661826e+01    0.5076658    0.4713969  77.64  0.003484873    1.294    0.227
       313  -9.2988    124.6989    245.6983   7.9794944819e+01   7.3151805624e+00    0.1128163   0.09101156  15.98 0.0003403543    1.587    0.370
       314  -9.7716     88.7731    240.9706   8.6142678758e+01   1.3607310836e+01    0.1405782   0.09481949 -70.85 0.0008735522    1.644    0.392
       315 -10.3549     76.4834     15.5202   3.7659707022e+01   6.1975654461e+01    0.2218809    0.1993551  13.06  0.001175778    1.165    0.141
       316  -9.7670     24.3087     20.2806   6.1603887459e+01   6.8768835521e+01    0.1447903    0.1271493 -25.44 0.0002181339    1.349    0.259
       317  -9.7817     60.3608    240.7224   9.1371739092e+01   1.7558550481e+01    0.1239771   0.06483406  61.98 0.0005586242    1.665    0.399
       318 -10.0607    195.2225    238.4891   6.5137979625e+01  -3.1058522333e+00    0.2091511    0.1714218 -23.10 0.0008908689    1.380    0.275
       319 -11.1274    221.5961     31.5249   1.4155873653e+01   2.5605639286e+01    0.2838235    0.1926095 -48.15  0.000522105    1.389    0.280
       320 -10.8360     35.1595    237.9050   9.5633871725e+01   2.1148951208e+01    0.1820247    0.1117927  68.57  0.001107635    1.278    0.218
       321  -9.1395    220.6869     19.2515   1.1308791930e+01   2.7300889234e+01    0.1335838   0.08707636 -71.12  0.000206877    1.520    0.342
       322 -10.2620    167.0016     19.2579   1.8038150875e+01   4.0675241659e+01    0.3513322    0.2183516 -58.69  0.001660336    1.913    0.477
       323 -11.3025     18.1779    236.9038   9.8464140441e+01   2.3184783517e+01    0.3896422    0.1532761  57.09  0.002256359    1.982    0.495
       324  -9.4414    140.2896     18.3156   2.2333089325e+01   4.7514807014e+01    0.1442283   0.09541124  33.43  0.000238988    1.592    0.372
       325  -9.5248    143.4771     16.4892   2.1124891351e+01   4.6909665392e+01    0.1994743    0.1123433  51.80 0.0009369773    1.544    0.352
       326 -10.9707    108.0033     17.2675   2.9109353221e+01   5.5285586922e+01     0.236513    0.1904352  -9.34  0.000560746    1.295    0.228
       327  -9.3762     45.1886    244.3874   9.4318159786e+01   1.8788858764e+01    0.1522771   0.07586619  51.42 0.0003865325    1.551    0.355
       328 -10.9842    183.2426    234.3839   6.6816953272e+01  -5.4429807571e-01    0.3506535    0.2368707  43.22  0.001417319    1.341    0.254
       329  -9.2851     15.4194     13.4655   6.3137621730e+01   7.0632437588e+01    0.1582256    0.1111726 -18.09  0.000140451    1.082    0.076
       330 -11.4935    184.9563    228.2794   6.5519698657e+01   8.4802931845e-02    0.4433656     0.265296 -20.99  0.002211481    2.280    0.561
       331 -10.5337    103.3350     17.0530   3.0240353576e+01   5.6342910758e+01    0.2196785    0.1747559  51.79 0.0002353288    1.223    0.182
       332 -11.0067     38.5166    233.4869   9.4758433608e+01   2.1585508254e+01    0.2014178    0.1574637 -58.35  0.001200449    1.735    0.424
       333  -9.2808    113.3017     16.2531   2.7406133068e+01   5.4190101418e+01    0.1389099   0.08877259  33.31 0.0001693525    1.502    0.334
       334 -10.5127     39.6043    229.6998   9.4305557882e+01   2.2176222459e+01    0.2396378    0.1416171  59.50  0.001544138    1.350    0.259
       335 -10.3965     41.6926     19.2901   5.3027300989e+01   6.6984998870e+01    0.3100207    0.1948656  31.18  0.001366513    1.635    0.388
       336 -11.3749     30.5769    233.6828   9.6166148554e+01   2.2450419151e+01    0.3517952    0.2183418  68.02  0.002417522    1.250    0.200
       337  -9.6014     23.9757    232.0679   9.7212660512e+01   2.3472371264e+01    0.1413135    0.1210748 -65.26 0.0005686279    1.607    0.378
       338  -9.9075    164.7972     13.1750   1.6553692146e+01   4.1863601690e+01    0.1979073    0.1500831  41.78  0.001081258    1.359    0.264
       339  -9.7864    151.7596    228.3744   7.2188693901e+01   5.7460538012e+00    0.1711929    0.1495176  48.52  0.000540352    1.104    0.094
       340 -10.2568      3.8141    226.3024   1.0033126772e+02   2.6575749916e+01    0.2335045    0.1105789 -82.52   0.00148468    1.764    0.433
       341 -11.0442    160.2781    235.1907   7.1463254947e+01   3.1870406266e+00    0.2341798    0.1496283  31.90 0.0008054003    1.400    0.285
       342 -10.2967    193.8116     16.4494   1.3585619753e+01   3.4183718945e+01    0.2818321    0.1873945  87.48  0.001263398    1.480    0.324
       343 -10.4499     16.3188    221.6812   9.7946357736e+01   2.6246449463e+01    0.1923314     0.113938  67.40  0.001295841    1.317    0.240
       344 -10.0078     13.4662    221.4984   9.8435845627e+01   2.6565518402e+01    0.1511706   0.08260951 -72.80 0.0008154165    1.706    0.414
       345  -9.5720    126.2157    220.4051   7.6314017196e+01   1.1497827837e+01    0.1958996    0.1035234  49.35 0.0009164566    1.698    0.411
       346  -9.6672     42.3274    220.6754   9.3149820072e+01   2.3609105901e+01    0.1261767   0.06672803  66.26 0.0007049515    1.695    0.410
       347 -10.3700     21.5256    219.9842   9.6921372197e+01   2.6045609410e+01    0.1658486    0.1220684  64.37 0.0006135931    1.114    0.102
       348  -9.6262    211.6273    218.8093   5.8715843420e+01  -2.9944138771e+00    0.1626438    0.1205822 -42.30 0.0009423763    1.671    0.401
       349  -9.4278    120.8033    219.4306   7.7308536541e+01   1.2583832705e+01    0.1746511    0.1149544  31.93  0.000574449    1.565    0.361
       350 -10.6943     87.2590    233.1517   8.5663077700e+01   1.5251882238e+01    0.2249269    0.1480165  77.60  0.001128259    1.583    0.368
       351  -9.5762     50.4923    218.0079   9.1384251970e+01   2.3155296847e+01    0.1578096   0.08383432 -50.60 0.0008106226    2.644    0.622
       352 -11.9565      8.5402    216.4164   9.9021079692e+01   2.8027621087e+01    0.2998757    0.1659195  53.67  0.001999232    1.494    0.331
       353 -12.7115      4.9220    208.2678   9.9222142273e+01   2.9969277684e+01    0.5815569     0.292739  86.83  0.003200762    1.623    0.384
       354  -9.5374    135.9936    216.2404   7.3682908098e+01   1.0602167419e+01    0.1817251   0.09947116  41.00 0.0005189013    1.577    0.366
       355 -10.8464     29.3770    215.6347   9.5204706922e+01   2.6073696914e+01    0.2041361    0.1763399  76.39  0.001226784    1.224    0.183
       356 -10.3796     24.0306    216.0502   9.6219138164e+01   2.6559812790e+01    0.1736506    0.1266602  76.25 0.0004335017    1.033    0.032
       357  -9.7673    110.0332    212.0178   7.8590120916e+01   1.5788235152e+01    0.1597653    0.1413009  64.19 0.0009955885    1.045    0.043
       358 -10.2830     20.4577    211.9267   9.6610112205e+01   2.7750429196e+01    0.1676279   0.06887392  76.87 0.0008081924    2.555    0.609
       359 -10.2858    236.8294    209.2020   5.2240042614e+01  -5.7262381537e+00     0.180172    0.1267966   3.56 0.0005452023    1.328    0.247
       360 -10.2124     28.0595    205.4656   9.4733177296e+01   2.8277009257e+01    0.1687681    0.1255663  83.04 0.0004243838    1.067    0.063
       361  -9.5950    247.3127    205.6525   4.9686776075e+01  -6.8743053554e+00    0.1086274    0.1035292 -59.41 0.0005534432    1.716    0.417
       362 -11.0915     19.8015    200.6998   9.5987323572e+01   3.0105716651e+01    0.4794452    0.1430012 -66.96  0.002239658    2.840    0.648
       363 -10.8320    175.3537    202.2794   6.3088069243e+01   6.0527426971e+00    0.2550774    0.2148511  33.24 0.0004445007    1.052    0.049
       364  -9.8344     67.4517    202.9757   8.6543391711e+01   2.4052314786e+01    0.1794762    0.1138822 -72.96 0.0004029015    1.536    0.349
       365  -8.9994     53.2500    202.3405   8.9439927997e+01   2.6034159475e+01    0.1106477   0.08854786 -53.21  0.000331898    1.570    0.363
       366 -11.9978     11.8652    209.8140   9.8054691374e+01   2.9017736053e+01    0.4802151    0.1829393  87.98  0.002385602    2.571    0.611
       367  -9.2236     64.3420    196.6618   8.6526200449e+01   2.5817038712e+01    0.1395718   0.08123516  68.19 0.0007049777    1.769    0.435
       368  -9.1388    215.3146    194.2961   5.3464469875e+01   1.0801930041e-01    0.1403686   0.09609222   7.38  0.000552077    1.603    0.376
       369 -12.1015     15.7012    192.1723   9.6194817782e+01   3.2284799958e+01     0.339406    0.3186055 -79.70  0.001822692    1.387    0.279
       370  -9.9286    186.6655    192.7043   5.8949679920e+01   5.6318342052e+00    0.1456471    0.1038163   9.40 0.0002937051    1.645    0.392
