#   1 NUMBER                 Running object number                                     
#   2 MAG_AUTO               Kron-like elliptical aperture magnitude                    [mag]
#   3 X_IMAGE                Object position along x                                    [pixel]
#   4 Y_IMAGE                Object position along y                                    [pixel]
#   5 X_WORLD                Barycenter position along world x axis                     [deg]
#   6 Y_WORLD                Barycenter position along world y axis                     [deg]
#   7 A_WORLD                Profile RMS along major axis (world units)                 [deg]
#   8 B_WORLD                Profile RMS along minor axis (world units)                 [deg]
#   9 THETA_WORLD            Position angle (CCW/world-x)                               [deg]
#  10 FWHM_WORLD             FWHM assuming a gaussian core                              [deg]
#  11 ELONGATION             A_IMAGE/B_IMAGE                                           
#  12 ELLIPTICITY            1 - B_IMAGE/A_IMAGE                                       
         1 -12.4026    199.3629     38.3974   4.6220357410e+01   3.0676629124e+01    0.9781312    0.9641781 -76.37  0.003597439    1.128    0.114
         2 -12.5633    210.3899     26.8176   4.1895425461e+01   2.9497295477e+01    0.9292013    0.7514012  36.30  0.002791409    1.569    0.363
         3 -11.2705     18.9280     32.0946   9.4633160253e+01   6.7876353547e+01     0.403735    0.2138306 -36.62  0.002309168    1.517    0.341
         4  -9.5464     32.7009      5.5089   7.5689956829e+01   7.0463689251e+01    0.2669733   0.08667347 -35.16  0.001206718    2.868    0.651
         5 -10.9943    235.0314      3.0192   3.4100405404e+01   2.6555114725e+01    0.7449778    0.3252315  76.73  0.003691553    2.170    0.539
         6  -9.3731     42.5943      3.3952   7.0104139815e+01   6.9317201703e+01    0.2035586    0.1080874  55.37 0.0009550872    3.359    0.702
         7 -10.2883     32.6590     29.6784   8.7203602237e+01   6.6940984786e+01    0.5555595   0.08115687 -43.36  0.001673747    5.390    0.814
         8  -9.5714    117.3433    250.1428   1.0866386737e+02   7.4499393146e+00    0.2971396    0.1422281  44.53  0.001336824    1.682    0.405
         9 -11.6893     86.3578    225.1309   1.1194841627e+02   1.6516908288e+01     1.006223    0.7477284  49.91  0.001044529    1.168    0.144
        10 -11.1422     14.5963    190.2702   1.2332739064e+02   3.2517430218e+01    0.2648657    0.2007048  63.81 0.0001895993    1.187    0.158
        11 -12.0397     43.8268    202.3356   1.1832421945e+02   2.6815942395e+01     1.120197     0.632534  84.11  0.002088977    1.719    0.418
        12 -11.8057     68.4414    243.2284   1.1706469676e+02   1.5569311446e+01    0.5553244    0.3405496  83.19   0.00190521    1.661    0.398
        13  -8.4016     92.8706    217.6951   1.0980851334e+02   1.7028671425e+01     0.191353     0.162932 -62.24 0.0005495023    1.326    0.246
        14  -9.2878     48.7295    224.6196   1.1922445767e+02   2.1618522822e+01    0.2423813    0.1656233  61.52 0.0009287047    1.190    0.159
        15  -9.7634     45.4443    220.3763   1.1951435003e+02   2.2863386177e+01    0.3652845    0.2039344  68.70   0.00211239    1.630    0.386
        16  -8.7393     63.8403    202.0515   1.1412544159e+02   2.4381383387e+01    0.1870451    0.1541613  76.84 0.0003903961    1.018    0.018
        17 -14.3643     46.2981    247.1245   1.2130138136e+02   1.7641578170e+01     8.424013     2.571491  28.79     0.021394   11.912    0.916
        18  -8.9474    192.0574    192.9326   8.5200809209e+01   4.9045808654e+00    0.3563844    0.1917809 -63.63   0.00111399    5.339    0.813
        19 -12.3121     54.2478    191.1958   1.1503965535e+02   2.7998428209e+01     2.437363     1.142078 -82.57   0.01109914    2.338    0.572
        20  -9.0051     40.0342    182.9498   1.1731517678e+02   3.1542633286e+01    0.2003657    0.1579307  78.34   0.00084092    1.067    0.063
        21  -8.3224     99.2971    180.6097   1.0341255067e+02   2.3937542767e+01    0.2560103    0.1242294  42.12 0.0008108725    1.971    0.493
        22 -10.2479     69.0575    175.7389   1.0983264753e+02   2.9592418288e+01     0.408046    0.2660145 -40.57  0.001995753    2.046    0.511
        23 -10.4289     73.1337    171.2615   1.0824342675e+02   3.0073641856e+01    0.3475546     0.234909 -50.98 0.0006009633    1.583    0.368
        24  -8.6685    114.5921    172.7674   9.8501011658e+01   2.3136847298e+01    0.2024428    0.1362361 -68.96 0.0009524702    1.639    0.390
        25 -10.1542     92.0457    167.4885   1.0305995693e+02   2.8124226702e+01    0.5388058    0.2420089  47.67  0.002187566    2.271    0.560
        26  -9.1500     33.9354    166.0122   1.1696312649e+02   3.6122365881e+01    0.3985095    0.2028181  57.74  0.001941337    2.038    0.509
        27 -11.5231     58.7575    132.7139   1.0590055483e+02   4.1361496172e+01     1.108578    0.3845276 -70.93  0.003451022    3.915    0.745
        28 -11.9208     70.1771    157.0989   1.0687219691e+02   3.3869911627e+01    0.6071268    0.4122444 -39.27  0.001475167    1.834    0.455
        29 -11.8730     68.7214    144.3112   1.0516963868e+02   3.7188594943e+01    0.8555516    0.5760534  83.31  0.002947831    1.755    0.430
        30  -8.3501    158.2768    161.3978   8.6065274056e+01   1.7391678593e+01    0.2531348     0.180834 -66.33 0.0007148702    1.774    0.436
        31  -9.2269     32.4743    157.2845   1.1635288815e+02   3.8338657206e+01    0.2300861    0.1525275 -60.25 0.0006845564    1.414    0.293
        32 -10.4806     88.3984    155.2413   1.0189680919e+02   3.1613862660e+01    0.5503408    0.4020408 -14.78  0.001827721    2.163    0.538
        33  -8.6839     54.0085    149.7538   1.0992997299e+02   3.7766196247e+01    0.1632615    0.1149474  36.44 0.0008795196    1.573    0.364
        34  -9.1063     38.7486    146.1129   1.1339725614e+02   4.0383444442e+01    0.2999889    0.1864594  35.59 0.0007827571    1.794    0.443
        35 -10.2666     31.1478    145.1202   1.1524179683e+02   4.1390969810e+01    0.3095004     0.236964  45.04    0.0016297    1.437    0.304
        36  -8.0133     83.5321    143.0568   1.0095942267e+02   3.5328223925e+01     0.216251    0.1338831 -60.23 0.0003958936    1.504    0.335
        37  -8.7897    133.5115    141.9655   8.7691503346e+01   2.6627033232e+01    0.2427494    0.1494894 -49.68  0.001035612    1.600    0.375
        38  -9.2254    102.3285    140.3532   9.5384121591e+01   3.2882321871e+01    0.5039744    0.3231834 -21.95  0.001980392    2.636    0.621
        39 -10.6064     89.9196    139.9819   9.8640601954e+01   3.5065628364e+01    0.2932247     0.259977 -47.16 0.0003628902    1.156    0.135
        40 -10.9004     32.8563    128.3197   1.1250271505e+02   4.5312060323e+01    0.3911419    0.3237967 -57.05   0.00244887    1.167    0.143
        41  -9.0338    111.8959    130.2295   9.0595704219e+01   3.3560952031e+01    0.3323303    0.2344851  -2.88  0.001364636    2.319    0.569
        42  -8.6424    105.9033    131.0238   9.2395335324e+01   3.4479160702e+01    0.3126484     0.222765 -61.61  0.001464004    1.413    0.292
        43  -9.2706     98.8722    126.4260   9.3286557908e+01   3.6835201669e+01    0.3164061    0.2594299  -6.86 0.0008960409    1.562    0.360
        44  -9.0675     67.8148    125.3863   1.0193446493e+02   4.1968644221e+01    0.2515967    0.1569574 -55.35  0.001210902    1.429    0.300
        45  -8.4163    120.4821    121.4925   8.6197227637e+01   3.3941757160e+01    0.1547136    0.1487906 -48.27 0.0002531011    1.013    0.012
        46  -7.9898    107.8669    119.1591   8.9056966193e+01   3.6928152786e+01    0.1965886    0.1765917  -8.76 0.0002677587    1.261    0.207
        47 -10.9149     81.6969    161.4637   1.0464877050e+02   3.1152605792e+01    0.7172585    0.4049107  66.04 0.0005357644    2.335    0.572
        48  -8.1177    168.0060    113.0121   7.2349581597e+01   2.5498068006e+01    0.2895027    0.1606012 -60.11  0.001015352    2.603    0.616
        49  -8.8708    119.6060    112.7857   8.4209562432e+01   3.6112967820e+01    0.2328418    0.1440296 -56.37 0.0009626735    1.714    0.417
        50 -10.1511     32.5563    108.3294   1.0934261288e+02   5.0200063521e+01    0.5288087    0.1291574 -68.23  0.001582143    4.414    0.773
        51  -8.3825    205.3110    110.3753   6.4187067373e+01   1.7577247643e+01    0.2003029    0.1461001  64.03 0.0007971803    1.605    0.377
        52 -11.0721     20.2399    108.1429   1.1313421370e+02   5.1284593232e+01    0.3600115    0.3157339  -0.56   0.00240934    1.434    0.302
        53 -10.1823     48.7552    106.9746   1.0397764124e+02   4.8863186589e+01    0.4146352    0.1468545  34.72  0.001635928    3.049    0.672
        54  -8.2835    134.4910    105.5270   7.8321057510e+01   3.4596215801e+01    0.1563532    0.1516387 -46.01 0.0001029714    1.014    0.014
        55  -8.9395     33.0042     99.9865   1.0763961154e+02   5.2159949180e+01    0.2167528    0.1320409 -40.20 0.0008097434    1.647    0.393
        56  -8.7778     32.1343     96.1044   1.0715561297e+02   5.3161198897e+01    0.2056616    0.1496571 -45.52  0.000395368    1.244    0.196
        57  -8.0147     41.6452     91.7151   1.0299938849e+02   5.3267512271e+01    0.1385489   0.09014095 -31.87 0.0003819709    1.667    0.400
        58  -8.4453    234.3373     85.6558   5.3446667597e+01   1.5528239106e+01    0.1507379   0.09869812 -62.93 0.0007049202    1.772    0.436
        59 -15.1004      6.5093    203.7678   1.2577361688e+02   3.0385835480e+01     8.977644    0.9523588 -74.42   0.02005008    6.153    0.837
        60  -8.1545    158.4615     81.5031   6.5679325651e+01   3.3920451994e+01    0.1542442    0.1488675 -58.12 0.0001942106    1.036    0.035
        61 -11.9054    189.6519     45.3952   4.9476973079e+01   3.2101611959e+01    0.8326423    0.6131609  20.32  0.002712482    1.882    0.469
        62 -15.4264      8.2759    241.7056   1.2741355228e+02   2.2785872417e+01     18.48881     1.470196 -77.51   0.04675225   12.321    0.919
        63  -7.9338     60.8139    220.2059   1.1651791804e+02   2.0987432413e+01    0.1437435    0.1357854 -81.94 0.0003888595    1.334    0.250
        64  -8.2107     68.5045     52.4922   8.1558505108e+01   5.8099227034e+01     0.137705    0.1199435 -15.93 -8.34996e-05    1.006    0.006
        65  -9.3240    143.8439     48.7065   5.8643598655e+01   4.2980918715e+01    0.3213445    0.2503517  89.30 0.0006704036    1.563    0.360
        66  -8.1512    146.8207     43.1755   5.6214500797e+01   4.3050245635e+01     0.198471    0.1636949  31.35 0.0003777841    1.288    0.224
        67  -9.2501     60.3740    232.6748   1.1768321127e+02   1.8591333348e+01    0.2197674    0.1579017  67.48 0.0006412087    1.136    0.119
        68  -9.0010     33.9012    227.4828   1.2219075271e+02   2.2786283522e+01    0.1838322    0.1368202 -82.50 0.0003531075    1.283    0.221
        69  -9.1008     54.3155    222.1220   1.1795142703e+02   2.1428331481e+01    0.4067855    0.1644643  60.39  0.001140074    2.579    0.612
        70  -9.0554     48.8527    216.1011   1.1850564391e+02   2.3322815753e+01    0.3077537    0.2104466 -79.81  0.001223496    1.353    0.261
