#   1 NUMBER                 Running object number                                     
#   2 MAG_AUTO               Kron-like elliptical aperture magnitude                    [mag]
#   3 X_IMAGE                Object position along x                                    [pixel]
#   4 Y_IMAGE                Object position along y                                    [pixel]
#   5 X_WORLD                Barycenter position along world x axis                     [deg]
#   6 Y_WORLD                Barycenter position along world y axis                     [deg]
#   7 A_WORLD                Profile RMS along major axis (world units)                 [deg]
#   8 B_WORLD                Profile RMS along minor axis (world units)                 [deg]
#   9 THETA_WORLD            Position angle (CCW/world-x)                               [deg]
#  10 FWHM_WORLD             FWHM assuming a gaussian core                              [deg]
#  11 ELONGATION             A_IMAGE/B_IMAGE                                           
#  12 ELLIPTICITY            1 - B_IMAGE/A_IMAGE                                       
         1 -14.0595     69.2039    147.7711   5.1051438917e+01   3.6057533830e+01     3.854173     1.892107 -89.16  0.002050448    4.091    0.756
         2 -13.3572    216.6050     56.2194   3.5727507874e+02   2.6232933090e+01      1.16784    0.9926341 -14.73  0.005771478    1.516    0.340
         3 -13.5910    231.4049     47.0087   3.5401733620e+02   2.4763464747e+01     0.861339    0.8228818  63.94  0.006694428    1.431    0.301
         4 -10.5985      1.7699     11.3756   4.7456366984e+01   7.7838407486e+01     0.573001    0.1490627 -58.01  0.002077085    4.085    0.755
         5 -10.8169      2.4468      3.0978   4.1267330237e+01   7.9279744930e+01    0.4075179    0.2860857 -54.44  0.001880136    1.686    0.407
         6  -8.9251    189.0221     15.4738   3.4993852018e+02   3.6753145001e+01    0.1728101     0.108809  82.37 0.0005727034    1.552    0.356
         7 -10.9644      8.8324     13.0456   4.1653070202e+01   7.6820175470e+01    0.2647409    0.2267429  27.69 0.0005201949    1.258    0.205
         8 -10.3314     72.8371    233.6246   6.0449558139e+01   1.5552933582e+01    0.3137271    0.2282903 -77.79  0.001347562    1.650    0.394
         9  -9.9250     74.7700    248.4310   6.1253933304e+01   1.2550238093e+01    0.4196736    0.1705323 -51.39  0.002029938    2.924    0.658
        10  -9.5484     52.6976    250.6105   6.6325720665e+01   1.4436143072e+01    0.3619795    0.0978212  24.65  0.001425949    3.151    0.683
        11 -14.7372     41.6124    231.1521   6.7635070607e+01   1.9346117279e+01     5.048248      2.40083  13.93   0.02060258    2.463    0.594
        12 -13.7685     53.5781    218.4715   6.3821338752e+01   2.0781628984e+01      2.23449    0.9565049 -75.66   0.00701312    2.730    0.634
        13 -14.7503     23.1043    180.2750   6.9071516196e+01   3.2831598026e+01     2.751489     1.841578  -4.08   0.01245238    1.945    0.486
        14 -15.7295     34.0690    173.3293   6.5288542700e+01   3.3566156906e+01     10.63161     4.525267  75.99   0.03743374    3.249    0.692
        15 -14.6678      9.9916    206.9657   7.4099535262e+01   2.7512203247e+01     1.422261    0.9952458  22.55  0.004062019    1.432    0.302
        16 -11.4814    124.8144    230.2029   4.8218185278e+01   1.0135955342e+01    0.4048724    0.2885536 -67.23  0.002388198    1.933    0.483
        17 -11.6010    115.4287    230.8647   5.0374991876e+01   1.1137081814e+01    0.3366089    0.2663151  51.15  0.002114798    1.467    0.318
        18  -8.8952    194.6683    229.4677   3.4201445113e+01   2.3049206047e+00    0.1800206   0.09167507 -38.18 0.0006685529    1.859    0.462
        19 -10.7915    152.9795    228.1352   4.1974820040e+01   7.1481673815e+00    0.2852323    0.1255725  21.37  0.001351061    2.241    0.554
        20  -9.6850     72.4509    225.9881   5.9854686781e+01   1.7119224150e+01    0.2340265    0.1968052  30.00 0.0004253199    1.042    0.040
        21 -10.7912    163.6879    222.9529   3.9084966447e+01   6.7348145038e+00    0.4060239    0.2711464 -46.59   0.00247234    1.686    0.407
        22 -10.0841    174.6029    223.2667   3.6998364202e+01   5.4209544505e+00    0.2041869    0.1804223  31.74 0.0006683297    1.450    0.311
        23  -8.2752    131.9660    211.7801   4.4186281055e+01   1.2601583835e+01     0.160321   0.09558978  26.41 0.0008295146    1.524    0.344
        24 -10.7113     73.0377    207.6082   5.7894708376e+01   2.0939708973e+01    0.3503265    0.2720666 -53.94  0.001263349    1.423    0.297
        25 -10.1939    103.7205    203.3600   4.9661653600e+01   1.7975050038e+01    0.2429658    0.2082863  -9.78 0.0002359569    1.222    0.182
        26  -9.4624    210.7480    199.1315   2.6722764674e+01   4.9644516929e+00    0.2236634    0.1477965  -7.78 0.0008111809    1.434    0.303
        27 -11.1943     96.4190    195.7688   5.0472645155e+01   2.0576336684e+01    0.4293459    0.3224733  51.63  0.001239635    1.407    0.289
        28 -11.3697    100.9140    192.9113   4.8930336588e+01   2.0594602728e+01    0.4215164    0.3312096  67.11  0.002280537    1.536    0.349
        29 -10.1381    113.6343    195.6396   4.6146444713e+01   1.8257806812e+01    0.3135024    0.1792269 -17.27  0.001263511    2.848    0.649
        30 -12.0104    108.1892    189.8587   4.6642999586e+01   2.0252078397e+01    0.5492438    0.3571392  22.48  0.002367272    1.527    0.345
        31 -10.4531    115.7320    181.2160   4.3398505750e+01   2.1051931469e+01    0.2724299    0.2239589  76.50  0.001459095    1.559    0.359
        32  -9.1387     75.2010    180.5626   5.4114882690e+01   2.6924013519e+01    0.2187354    0.1888912  85.76 0.0004827665    1.233    0.189
        33 -12.9209     56.3729    144.7250   5.4755748572e+01   3.8611331801e+01    0.7163595    0.5116318 -45.89 0.0008013652    1.490    0.329
        34 -12.2127    132.1490    230.7519   4.6694165239e+01   9.1670760111e+00     0.588387     0.385005   5.31  0.003374499    1.565    0.361
        35 -11.4061     59.1021    156.9281   5.5669642729e+01   3.5009511244e+01      0.48814    0.3147195 -40.27 0.0007653838    1.800    0.445
        36  -8.2631     57.2740    169.3556   5.7879998597e+01   3.2007153851e+01    0.1475527    0.1060204 -36.52 0.0007003248    1.646    0.392
        37 -10.2454    180.5933    167.4587   2.6530280880e+01   1.4062380560e+01    0.3031483    0.1871874 -51.20  0.001478983    1.787    0.441
        38  -9.4852    110.4214    167.3037   4.2419321670e+01   2.4979108676e+01     0.249897    0.2351978  86.81  0.000385093    1.172    0.147
        39 -11.4628    238.2006    148.5764   1.3694313171e+01   9.2071138882e+00    0.4967786    0.1771251 -44.77  0.002277475    2.608    0.617
        40 -10.3900     38.0383    149.2069   6.1514252493e+01   3.9560143950e+01    0.3977589    0.3360277  65.14  0.001029916    1.140    0.123
        41  -9.2874    134.0000    148.4542   3.2806174039e+01   2.5340461840e+01    0.3161793   0.08051879 -49.50 0.0009201303    3.818    0.738
        42 -10.1725    108.8797    145.5051   3.8731775589e+01   3.0349771091e+01    0.2717871    0.2643441  80.35 0.0005911044    1.068    0.064
        43 -10.1073     36.6969    142.5917   6.1157567977e+01   4.1509794118e+01    0.3108265    0.2415127 -89.04 0.0008304205    1.261    0.207
        44  -9.8824     47.2211    147.0204   5.8153176269e+01   3.9123370198e+01    0.2662123    0.2180821  31.99  0.001303077    1.228    0.186
        45  -9.3344     31.8179    137.2360   6.2202816734e+01   4.3486643463e+01    0.2557337    0.2262927  71.00 0.0007488391    1.082    0.076
        46 -10.4588     94.7625    133.4895   4.0328248549e+01   3.5710142310e+01    0.5744375    0.4286801 -61.39  0.002726987    1.360    0.265
        47 -11.4906     41.8342    132.8795   5.8007601656e+01   4.3621313221e+01    0.6855472    0.5016803 -10.76  0.002059885    1.720    0.419
        48 -11.4748     81.8167    131.9685   4.4059653378e+01   3.8266926963e+01    0.2962188    0.2870874 -35.07 0.0003665679    1.071    0.066
        49  -9.6281    105.6329    130.7746   3.6523038835e+01   3.4459545115e+01    0.4014181    0.3133325 -70.90  0.001108135    1.423    0.297
        50  -9.1869    106.8018    126.3977   3.5196245007e+01   3.5299891115e+01    0.2474605    0.2084977  -1.14 0.0008656774    1.419    0.295
        51  -8.4131    132.0821    130.9923   2.9495881589e+01   2.9528560507e+01     0.170265    0.1658627  27.50 0.0003634004    1.065    0.061
        52  -8.2980    219.2943    126.6902   1.2069401410e+01   1.5191598162e+01    0.1195017    0.0862991 -57.37 0.0002225073    1.589    0.371
        53 -10.4447     93.2109    121.6929   3.8188327456e+01   3.8926450489e+01    0.3494607    0.2980569  -0.14 0.0008130011    1.389    0.280
        54 -14.5970      3.1083    240.5350   7.6871627694e+01   2.0892028021e+01      1.69764     1.094921 -68.63  0.006762278    1.834    0.455
        55 -10.8247     37.4857    128.2521   5.8915278306e+01   4.5387220819e+01    0.5063778    0.2675686  61.16  0.001311479    2.296    0.565
        56 -10.1220     32.1213    120.4016   5.9789310806e+01   4.8135649398e+01    0.3434795    0.2190948  88.12  0.001529175    1.698    0.411
        57 -10.1169     36.0225    118.4136   5.7951381552e+01   4.8278322020e+01    0.3508535    0.2043505 -73.95 0.0008885532    1.685    0.407
        58 -13.7512     18.3991    242.7000   7.3561121799e+01   1.9184302771e+01    0.6935596    0.6658086 -72.69   0.00322252    1.318    0.241
        59 -10.2457     24.6979    116.3736   6.2146292587e+01   4.9971540082e+01     0.311572    0.2416326  43.63 0.0004501266    1.314    0.239
        60 -11.1391    243.9641    115.0812   6.6556330938e+00   1.3354861093e+01    0.3030852     0.183318 -52.71  0.001833234    1.698    0.411
        61  -9.3262    104.6650    116.0459   3.3355117066e+01   3.8178065179e+01    0.2421793    0.2138406  39.09 0.0003863106    1.164    0.141
        62 -11.3651     25.0032    105.7660   6.0427031556e+01   5.2895432296e+01    0.4308633     0.404269  66.29  0.001560509    1.085    0.078
        63 -10.0480     39.4841    106.9080   5.4519089186e+01   5.1065067752e+01    0.2623376    0.2326255  37.11 0.0004152437    1.164    0.141
        64 -11.8734     76.5893    145.6896   4.8348818275e+01   3.5524194640e+01    0.8191679    0.5815411  -7.23  0.001668847    1.935    0.483
        65  -8.8170     32.9720    101.9947   5.6336313820e+01   5.3143910010e+01    0.1856136    0.1657088 -68.89 0.0006394304    1.060    0.056
        66 -10.3149     55.5634     92.7816   4.4618882424e+01   5.2671936240e+01    0.3274836    0.2734307  62.72    0.0008856    1.308    0.236
        67 -11.0031     53.8728     87.6233   4.3959327049e+01   5.4252459311e+01    0.6990827    0.3894087  67.93  0.002342755    3.379    0.704
        68  -9.1590     36.6686     85.1507   5.1040432752e+01   5.7252764661e+01    0.2422714    0.1924573  44.99 0.0004871221    1.330    0.248
        69  -8.9294     20.2710     90.0599   5.9876391106e+01   5.7625964332e+01    0.2048223    0.1855947 -69.74 0.0006451079    1.037    0.036
        70  -8.3787     39.2864     75.6675   4.7290259097e+01   5.9363066309e+01    0.1480328    0.1128866  70.94            0    1.621    0.383
        71 -11.9453    206.8983     62.3702   3.5964554956e+02   2.7208397491e+01    0.3954853    0.3658277 -79.18  0.001227256    1.201    0.167
        72  -9.8841    138.0102    247.2783   4.7490702957e+01   5.7753586587e+00    0.1667299    0.1262465  17.71 0.0003821613    1.077    0.071
        73 -10.2695    125.8246    246.7147   4.9956805459e+01   7.2158424615e+00    0.2103764     0.154693  66.07  0.001263554    2.170    0.539
        74  -9.0293     63.8098     63.6390   3.2094816014e+01   5.8254907499e+01    0.2018637    0.1348129  49.76 0.0003589438    1.572    0.364
        75 -15.2874      5.2645    214.1452   7.5552417913e+01   2.6270858044e+01     4.271797     1.513724  12.58   0.01661654    3.682    0.728
        76 -11.3337     53.6195    160.7715   5.7912563838e+01   3.4682501297e+01    0.4810007    0.3404235 -18.40  0.001134264    1.861    0.463
        77 -10.4147     18.8467     37.4246   4.6045530598e+01   7.0834666164e+01    0.2901038    0.1664314 -75.47   0.00124091    2.740    0.635
        78 -10.2054     22.0376     35.0221   4.2798150355e+01   7.0970373666e+01    0.2085136      0.16497  62.68   0.00114418    1.719    0.418
        79 -10.3432     12.4391     71.7034   6.0314428341e+01   6.3132617997e+01      0.36439    0.2345448  36.49 0.0009407847    1.666    0.400
        80  -9.4796     21.6814     26.5234   3.8920586717e+01   7.2719584183e+01    0.2321465    0.1165148 -49.74  0.001085371    2.015    0.504
        81 -11.0905      2.3061     23.4363   5.3033083092e+01   7.5359322884e+01    0.3819539    0.2011727 -52.11  0.001665115    1.692    0.409
        82  -9.6250     60.6845     21.4875   1.4716147228e+01   6.6447333141e+01    0.2627099    0.2153425  58.06 0.0008174719    1.187    0.158
        83 -10.2407     14.5060     19.0453   4.0324760639e+01   7.5049503894e+01    0.2414697    0.1634668  39.54 0.0008138994    1.623    0.384
        84  -8.5393    198.4704    241.4524   3.5234518024e+01   2.7290456359e-01    0.1104652   0.08226609  -3.36 0.0001260396    1.008    0.008
        85 -10.4601    103.7498    238.6623   5.3859079602e+01   1.1098733814e+01    0.2817806    0.2138537 -55.91  0.001315125    1.563    0.360
        86  -8.3272    189.3200    238.2927   3.6412127117e+01   1.6188017398e+00    0.1159061   0.06935973  -6.79 0.0002173094    1.607    0.378
