#   1 NUMBER                 Running object number                                     
#   2 MAG_AUTO               Kron-like elliptical aperture magnitude                    [mag]
#   3 X_IMAGE                Object position along x                                    [pixel]
#   4 Y_IMAGE                Object position along y                                    [pixel]
#   5 X_WORLD                Barycenter position along world x axis                     [deg]
#   6 Y_WORLD                Barycenter position along world y axis                     [deg]
#   7 A_WORLD                Profile RMS along major axis (world units)                 [deg]
#   8 B_WORLD                Profile RMS along minor axis (world units)                 [deg]
#   9 THETA_WORLD            Position angle (CCW/world-x)                               [deg]
#  10 FWHM_WORLD             FWHM assuming a gaussian core                              [deg]
#  11 ELONGATION             A_IMAGE/B_IMAGE                                           
#  12 ELLIPTICITY            1 - B_IMAGE/A_IMAGE                                       
         1 -11.5373    149.9020    181.3324   4.8545085999e+01   1.5871442228e+01    0.1922431    0.1577092  26.59 0.0006029243    1.071    0.066
         2 -15.6961    190.7957    155.8395   3.5242137485e+01   1.3274468124e+01     1.143346    0.9576522 -63.06  0.005023436    1.714    0.416
         3 -17.3249    136.5041    125.5185   4.0482736732e+01   2.9325814165e+01     5.793108     3.082138 -58.99   0.02156429    2.581    0.612
         4 -10.1456    204.3547    177.0142   3.6811975323e+01   7.8452526711e+00    0.2933132     0.192819 -62.63  0.001284922    3.825    0.739
         5 -10.8225    202.6909    173.3826   3.6439849110e+01   8.6288492813e+00    0.2200384    0.1712159 -71.46  0.001159921    2.646    0.622
         6  -9.4896    211.8091    176.8796   3.5472207143e+01   6.7501436051e+00    0.3245902    0.1327466  44.77  0.001443833    2.894    0.654
         7 -10.7809    140.9723    205.5402   5.4328724013e+01   1.3083389047e+01    0.1780626    0.1605408  12.08 0.0001884818    1.115    0.103
         8 -11.1311     47.7144    172.9572   7.3459762520e+01   3.3044823030e+01    0.1860561     0.163331  74.27 0.0007135282    1.086    0.079
         9 -13.0176    191.9501    193.6573   4.2039136736e+01   7.2904768283e+00    0.7885883    0.4351273 -58.42  0.002954034    5.322    0.812
        10 -13.8008    111.7560    169.0853   5.5621160588e+01   2.4652708662e+01     0.523636    0.3786502  76.68  0.001868924    1.898    0.473
        11 -12.2379    166.1998    163.5676   4.1736633963e+01   1.6249638500e+01    0.3655774    0.2896749  84.63  0.001769433    2.145    0.534
        12 -12.8258    172.9889    205.6880   4.7677967090e+01   8.3038814229e+00    0.5903807    0.3424605  56.70  0.001392899    3.613    0.723
        13 -17.4224    238.6722    211.3899   3.6943891351e+01  -1.1174980426e+00     5.239347    0.3367364 -34.86   0.01165811   14.851    0.933
        14 -11.5346     88.4860    166.9692   6.1467990419e+01   2.8863522626e+01    0.2057352    0.1422309 -64.87 0.0007636262    1.589    0.371
        15 -19.6780    231.8003     98.6479   1.6230348714e+01   1.4683762060e+01     13.72501     6.046436 -28.22    0.0622065    2.109    0.526
        16  -9.9467    205.2756    191.1956   3.9172664816e+01   5.7096687705e+00    0.1132047    0.0754476  11.01 0.0001774566    1.400    0.286
        17 -11.6061    168.9579    156.9568   3.9846145824e+01   1.6927819356e+01    0.2088892    0.1894913   7.44 0.0003051181    1.014    0.014
        18 -14.2313     68.1279    143.8641   6.3897403168e+01   3.7406063227e+01    0.8526319    0.5858418  77.80  0.003050873    1.679    0.405
        19 -10.4841     93.2962    124.3294   5.2397241682e+01   3.8113392654e+01    0.1537751    0.1213194 -17.31 0.0003125386    1.635    0.388
        20 -14.7335     60.8751    106.8246   5.9660021801e+01   4.7904668502e+01    0.9333924    0.8631986  87.71 0.0006955205    1.063    0.060
        21 -15.4860     75.3241    111.0152   5.5371417849e+01   4.4553673202e+01     1.610521      1.37431 -11.55  0.003137192    1.413    0.292
        22 -15.1332     41.0970    105.8544   6.7022507719e+01   5.0756710100e+01     1.217325      1.03577  87.78  0.003578094    1.151    0.131
        23 -14.2767     68.1519    106.9460   5.7010989718e+01   4.6757070132e+01     0.914843    0.6477056 -34.65  0.003297169    1.680    0.405
        24 -12.8806    100.9128    110.1804   4.6715200052e+01   4.0046851769e+01    0.4990076    0.2114242  44.12  0.001330701    2.310    0.567
        25 -14.3098      3.6855    101.0264   8.1229401413e+01   5.5131934465e+01    0.4517175    0.3246738  27.30  0.002578249    1.506    0.336
        26 -11.3551    177.5731    101.4086   2.5368113677e+01   2.5121714185e+01    0.3046719      0.24551 -67.26  0.001222734    1.489    0.328
        27 -11.1411    177.4513    209.1955   4.7345117500e+01   7.1484418869e+00    0.2014819    0.1619535  39.92 0.0006061117    1.433    0.302
        28 -11.4669    168.0937     84.9920   2.2806362013e+01   3.0108392090e+01     0.624437    0.3342875 -12.20  0.001914078    4.189    0.761
        29 -12.3073    116.4233    187.3802   5.7306754656e+01   2.0171211873e+01    0.4947832    0.2687564 -77.63   0.00183644    4.001    0.750
        30 -12.7634    183.8921     78.3107   1.8182471259e+01   2.7555613824e+01    0.3463246    0.2824182 -11.38  0.000867343    1.386    0.279
        31 -11.3363    174.0387     77.3799   1.9601246065e+01   2.9993561759e+01    0.3611791    0.2082238 -32.10 0.0004081978    1.719    0.418
        32 -13.0892    167.1655     74.8338   2.0120307606e+01   3.2048648367e+01    0.5895848    0.4464981 -11.21  0.002380144    1.618    0.382
        33 -12.1941    173.2165     71.7361   1.8160212453e+01   3.1103540957e+01    0.3084437    0.2645349  75.57 0.0003247279    1.225    0.184
        34 -12.9839    211.5811    187.8703   3.7481602849e+01   5.2685459259e+00    0.4428716    0.2524138  47.79  0.002319564    2.450    0.592
        35 -11.8911    146.0354     63.4069   2.0808282372e+01   3.9187003109e+01    0.4015042    0.2591908 -18.69  0.001686991    1.975    0.494
        36 -10.6758    146.3053     70.3176   2.2925139711e+01   3.7935928334e+01    0.2461973    0.1430397  51.54 0.0002357358    1.709    0.415
        37 -12.0361    148.7071     67.6056   2.1573679106e+01   3.7804018344e+01    0.4060426    0.2788879 -51.97  0.001369103    1.523    0.343
        38 -12.6214    130.1548     66.1146   2.5280399755e+01   4.2725459890e+01     0.376274    0.3492785 -87.80  0.001014948    1.100    0.091
        39 -10.5221    181.0434    185.7906   4.2784342389e+01   1.0114544176e+01    0.1867535    0.1410786  58.47  0.000733213    2.024    0.506
        40 -11.1820    215.2986    203.7021   3.9525692125e+01   2.6909680139e+00    0.3676593    0.1221053 -27.64    0.0013704    3.642    0.725
        41 -10.4454    184.1835     58.3483   1.2654475241e+01   3.0523586190e+01    0.2616947    0.1470777 -50.47 0.0009557243    1.790    0.441
        42 -12.0873    152.0573     48.3633   1.4791138746e+01   4.0012480381e+01    0.3413943    0.2206839 -33.30  0.001151238    1.556    0.357
        43 -10.5983    190.0099     36.9706   5.9268615627e+00   3.2005999809e+01    0.2121631    0.1865235 -55.27 0.0005594785    1.027    0.026
        44 -12.3091    182.2406     24.4098   3.2000256352e+00   3.5401813217e+01    0.3767432    0.2297677  45.06  0.001797702    2.010    0.502
        45 -12.4875    121.4631    182.6120   5.5366068038e+01   2.0300747538e+01    0.2949187    0.2097446  68.82  0.001174444    1.945    0.486
