#   1 NUMBER                 Running object number                                     
#   2 MAG_AUTO               Kron-like elliptical aperture magnitude                    [mag]
#   3 X_IMAGE                Object position along x                                    [pixel]
#   4 Y_IMAGE                Object position along y                                    [pixel]
#   5 X_WORLD                Barycenter position along world x axis                     [deg]
#   6 Y_WORLD                Barycenter position along world y axis                     [deg]
#   7 A_WORLD                Profile RMS along major axis (world units)                 [deg]
#   8 B_WORLD                Profile RMS along minor axis (world units)                 [deg]
#   9 THETA_WORLD            Position angle (CCW/world-x)                               [deg]
#  10 FWHM_WORLD             FWHM assuming a gaussian core                              [deg]
#  11 ELONGATION             A_IMAGE/B_IMAGE                                           
#  12 ELLIPTICITY            1 - B_IMAGE/A_IMAGE                                       
         1 -10.5387     60.6246     47.3646   5.4432313942e+01   6.0079905778e+01       1.0011    0.6963406 -23.09  0.005375932    1.712    0.416
         2 -13.0785    119.1198     39.9904   3.5552236614e+01   4.8615490593e+01    0.9587922     0.640776 -21.18  0.005011142    2.086    0.521
         3 -11.8686    164.3532     27.7372   2.5671985075e+01   4.0212386976e+01    0.2567719    0.2088473  87.91 0.0005174723    1.066    0.062
         4 -12.1514    105.7033     20.6116   3.2465038991e+01   5.3856249843e+01    0.3442788    0.2788134 -80.33 0.0006765492    1.289    0.224
         5 -12.2035    113.8402     24.9043   3.2214002306e+01   5.1574958300e+01    0.6790945    0.2480129  58.94  0.001896756    2.201    0.546
         6 -11.0800      6.1170     10.8948   6.7268887229e+01   7.3921898503e+01     0.608502    0.3377312  33.24  0.003585005    1.666    0.400
         7 -11.7317     26.3933     28.6074   6.2873677856e+01   6.8712465207e+01    0.4494944     0.371032 -26.60  0.001956024    1.335    0.251
         8 -10.0147     12.7472      8.4853   6.1531967031e+01   7.3399207555e+01    0.3866622    0.2454855 -52.48  0.002029882    2.771    0.639
         9 -11.8938     20.2998     21.9696   6.3415100271e+01   7.0546869843e+01    0.6847239    0.3958144 -14.81  0.002256653    2.145    0.534
        10 -11.8076     16.3863     13.8614   6.1943521932e+01   7.2204446038e+01    0.6846267    0.3642766  -8.53  0.003243583    2.861    0.650
        11 -11.7388     22.4684     11.3648   5.7082792940e+01   7.1628642629e+01    0.5123059    0.2808512  25.58  0.002809424    1.646    0.393
        12 -10.0049    120.7408     11.7303   2.7300694332e+01   5.1352064508e+01    0.4457933    0.1368538  66.47  0.001468092    2.561    0.610
        13 -11.1305    122.0950      5.5924   2.5406157642e+01   5.1601751120e+01    0.2921311    0.1561913 -35.86 0.0009061223    2.129    0.530
        14 -10.1046    127.5969     11.7882   2.6334402305e+01   4.9821709790e+01    0.2600354    0.1682445 -83.13  0.001086632    1.509    0.337
        15 -11.3000    134.8769     15.2065   2.6250511816e+01   4.7883924934e+01    0.4740095    0.2907136  61.70  0.002408581    1.447    0.309
        16 -11.3524    127.0179     16.4813   2.7680243232e+01   4.9497109445e+01    0.3727477    0.2022616  53.78  0.001463457    1.767    0.434
        17 -10.8881    178.9439     20.8568   2.2701393973e+01   3.7997193365e+01    0.3844126    0.2127897  46.97   0.00210129    2.757    0.637
        18 -12.4030    104.6516     13.5396   3.0490224105e+01   5.4787327267e+01     0.488309    0.4649439 -70.55  0.003556289    1.234    0.190
        19 -12.1355     47.8474     12.6839   4.5607893367e+01   6.7030567403e+01     0.684669    0.2984558  52.52  0.003337492    1.959    0.490
        20 -11.5920     35.5943     17.9953   5.3369780940e+01   6.8679278998e+01    0.5107395    0.2660824 -20.98  0.002303852    2.556    0.609
        21 -11.4180     68.1629     18.9679   4.1115874606e+01   6.2266023443e+01    0.3915139    0.3361779  48.87   0.00138151    1.057    0.054
        22 -12.7070    164.5640     18.1813   2.3517563702e+01   4.1214274881e+01    0.4469543    0.2571539  47.53  0.002128603    2.373    0.579
        23 -11.9746    239.2408     16.3150   1.7603346579e+01   2.7618532630e+01    0.5382171    0.1764467  86.10  0.002739849    3.615    0.723
        24 -11.6479    228.6953     15.9530   1.8137520271e+01   2.9386008463e+01    0.2712111    0.2039023 -70.03  0.001512096    1.101    0.092
        25 -11.0662    225.7267     14.0001   1.7984048005e+01   3.0094538149e+01    0.2267519    0.1570916 -49.71  0.000824287    1.351    0.260
        26 -10.5506    147.5466     16.5068   2.4993093820e+01   4.4991997132e+01    0.4778152    0.2047407  46.30  0.002042301    3.439    0.709
        27 -11.6388     85.8569     14.0362   3.4543906961e+01   5.8932583254e+01    0.4545487    0.4061941  33.68  0.001912163    1.254    0.203
        28 -10.3045     87.8186      7.8546   3.1973306899e+01   5.9056984206e+01    0.5813283    0.2347993  63.70  0.002511406    1.964    0.491
        29  -9.7659    218.9207     12.6526   1.8158821454e+01   3.1404315702e+01    0.1632022    0.1269646 -52.72  0.001327054    1.337    0.252
        30 -11.3939    224.2846      2.8382   1.6199229196e+01   3.1487987528e+01    0.3785366    0.1660681 -85.27 0.0005819501    2.053    0.513
        31 -11.4159    212.0576      9.2709   1.7986865476e+01   3.2963001555e+01    0.3972992    0.2935264 -15.17  0.002579524    2.544    0.607
        32 -10.8130    218.6122      3.8623   1.6671496473e+01   3.2359046387e+01    0.2386191    0.1861754 -68.23  0.001268927    1.183    0.155
        33 -11.1987    192.6197      8.0479   1.9040138336e+01   3.6666159400e+01    0.4274629    0.3426182   4.01  0.002717519    2.443    0.591
        34 -11.2764    169.8843      9.2839   2.1078223931e+01   4.1023619885e+01    0.3431231    0.1575078  64.23  0.001954661    1.994    0.499
        35 -10.0816    163.6826      7.1737   2.1173222851e+01   4.2500314930e+01    0.3332728    0.1651112 -22.42  0.001751544    3.189    0.686
        36 -10.1782    145.3430      9.6937   2.3597546192e+01   4.6135435475e+01    0.1953669    0.1610664  70.16 0.0003836352    1.225    0.184
        37 -11.5653    246.7878      6.6835   1.5718391920e+01   2.7437769254e+01    0.2855183    0.1612874 -46.06  0.001718897    1.522    0.343
        38 -10.9036    244.2589      2.4024   1.5176044686e+01   2.8267362725e+01    0.2999434    0.1625947  60.84  0.002148029    2.571    0.611
        39  -9.8125      1.2261      7.7585   6.9237753603e+01   7.4907621283e+01    0.2621749    0.0872218 -44.41  0.001218691    3.328    0.700
        40 -10.8631      2.6289      1.9261   6.5052251703e+01   7.5522346556e+01     0.363059    0.1657989  20.19  0.001913919    2.027    0.507
        41 -10.5592    232.4335      7.3460   1.6519489061e+01   2.9669224076e+01    0.2187487    0.1248284 -75.52 0.0008895622    1.356    0.263
        42 -12.1051    233.4650      2.8322   1.5741564807e+01   2.9957079776e+01    0.3464699    0.1588102 -69.81 0.0008611876    1.740    0.425
        43 -10.0462    185.4797      7.4580   1.9443280900e+01   3.8098060810e+01    0.1813792    0.1464553 -87.79 0.0008029006    1.162    0.139
        44 -10.3737    183.5011      4.5265   1.9008695538e+01   3.8769725904e+01    0.1894917    0.1358434 -53.66 0.0008218513    1.320    0.242
        45  -9.6354    153.1018      7.3030   2.2209971423e+01   4.4702382956e+01    0.3127508    0.1015144  56.81  0.001420443    3.034    0.670
        46  -9.5936    157.4776      7.5641   2.1839561233e+01   4.3755307181e+01    0.2103024    0.1513771 -11.97  0.001350121    2.259    0.557
        47 -10.4000    154.3599      2.0907   2.0889298177e+01   4.4913718152e+01    0.4836668    0.1719084 -89.94  0.001990362    3.526    0.716
        48  -9.8281     62.1959      7.0155   3.8203527368e+01   6.4676106556e+01     0.238962    0.1727401  29.20  0.001047946    1.443    0.307
        49  -9.0946     78.0590      7.5230   3.4081533906e+01   6.1234018324e+01    0.3158172    0.1764574  82.71  0.001404682    2.332    0.571
        50  -9.9250     76.6620      3.6703   3.2999508846e+01   6.1860543897e+01    0.2642851     0.149268  42.95  0.001076467    1.675    0.403
        51 -10.3433     73.0097      2.9789   3.3629643224e+01   6.2709983262e+01     0.365844    0.2081531  37.66  0.001730966    1.827    0.453
        52 -10.5021    176.9153      5.8976   1.9785258068e+01   3.9936514842e+01    0.2940083    0.1294539  82.04  0.001045616    1.979    0.495
        53 -10.9937    206.1148      3.2268   1.7271827388e+01   3.4638135744e+01    0.3120648    0.2188433 -84.61  0.002446335    1.132    0.116
        54 -10.1462     41.4096      4.1815   4.4305198188e+01   6.9099729394e+01    0.2785292    0.1633644  23.67  0.001218723    1.894    0.472
        55 -10.4116    141.9329      3.3185   2.2417599729e+01   4.7452770534e+01    0.2854168    0.1670688  84.89  0.001744506    1.424    0.298
        56 -11.5377    134.0253      2.7366   2.3150396914e+01   4.9219794443e+01     0.357952    0.2118979  78.64  0.001726582    1.360    0.265
        57  -9.8873    128.7388      1.3730   2.3419334068e+01   5.0492820327e+01    0.2400773   0.08723327  69.59  0.000838511    2.133    0.531
        58 -10.9119    105.3781      2.4756   2.6976077840e+01   5.5587907664e+01    0.3116135    0.2153111 -77.24  0.001659733    1.524    0.344
        59 -10.7236     22.8456      3.4457   5.2797807740e+01   7.2467147395e+01    0.3889835    0.1682712  43.11  0.002026977    1.881    0.468
        60 -11.1234    113.6698      2.1533   2.5619450881e+01   5.3764179470e+01    0.3921498    0.1788983  72.21  0.001401481    1.769    0.435
        61  -9.7422     13.2400      2.1452   5.7809469716e+01   7.4089814298e+01    0.2030489    0.1230011  26.69 0.0004653184    1.303    0.233
        62  -8.8465     18.6554      6.2612   5.6687299190e+01   7.2815530555e+01      0.10738   0.08377489  47.69 0.0006971346    1.597    0.374
        63  -9.1007     33.5539      1.5494   4.6422124628e+01   7.0805974461e+01    0.1203849   0.09066048  35.40 0.0001591617    1.020    0.020
        64  -9.3264     64.2592      2.0334   3.5572659107e+01   6.4661116937e+01    0.1527123    0.1296387  49.03 0.0002836021    1.101    0.092
        65  -9.7078     47.4110    134.7792   8.3427093091e+01   4.2852117110e+01    0.2842763    0.1526108 -68.20  0.001059483    2.027    0.507
        66  -9.1420    188.5072    250.4932   6.4947038076e+01  -2.4952428627e+00    0.1226007   0.09360929 -10.74 0.0008106145    1.003    0.003
        67 -10.4893     50.8839    249.8864   9.6876670157e+01   1.2986105300e+01    0.2023813    0.1737504   1.51  0.001234584    1.230    0.187
        68  -9.8656     73.3064    133.1470   7.3817300010e+01   3.9619614053e+01    0.4044551    0.2103214 -32.17    0.0014168    2.622    0.619
        69  -9.5446    103.9469    130.9305   6.3515960778e+01   3.4905504084e+01    0.2258122    0.2014908  -8.83 0.0004498988    1.200    0.167
        70  -9.1261     63.0000    130.9822   7.6979415915e+01   4.1742805064e+01    0.2577291   0.08798455 -58.84 0.0007529015    2.958    0.662
        71  -9.4763     93.2073    129.6409   6.6492720914e+01   3.7148976427e+01    0.2144412    0.2055937 -85.21  0.001132312    1.127    0.113
        72  -9.8276     26.6997    126.6368   8.9922906002e+01   4.7288876930e+01    0.4057974   0.09549633 -60.75  0.001237725    3.347    0.701
        73  -9.2213     22.8191    126.8755   9.1492480005e+01   4.7576259723e+01     0.191403    0.1675354  60.94 0.0004367051    1.276    0.217
        74  -9.9040     32.8723    125.7087   8.7331139707e+01   4.6926712647e+01     0.289963    0.1873492  72.49  0.001218247    2.158    0.537
        75 -10.1562      2.2356    125.8461   9.9460442833e+01   4.9310599179e+01    0.2677099    0.2005664  65.61   0.00114644    1.520    0.342
        76  -9.6943     83.0291    124.4982   6.8603400964e+01   4.0176725051e+01    0.4518929    0.2607712   1.72  0.001453916    3.463    0.711
        77 -11.5165    104.1921    122.4749   6.1484235637e+01   3.6830632441e+01    0.3836395    0.3445892  34.62 0.0009139651    1.100    0.091
        78 -10.1939     49.6130    123.1914   8.0328924288e+01   4.5620898003e+01    0.3595071    0.2458145 -23.67  0.001303348    1.661    0.398
        79  -9.2957     56.5137    122.4398   7.7551226374e+01   4.4874490926e+01    0.1519891    0.1463098   3.69 0.0002468741    1.025    0.024
        80 -10.1026     44.5315    119.5457   8.1550989266e+01   4.7213192543e+01    0.2797196    0.2544713  41.10 0.0007208146    1.168    0.144
        81 -10.4983     43.5166    116.4849   8.1316962443e+01   4.8126965024e+01    0.3669764    0.2716604  21.79  0.001789219    1.335    0.251
        82 -10.3509     33.3785    119.2249   8.5937372461e+01   4.8583415867e+01    0.3212929    0.1451427 -18.23 0.0009512557    4.044    0.753
        83 -10.4289      7.2241    115.6548   9.6100737943e+01   5.1722455969e+01    0.4894753    0.1951177 -50.55  0.001552459    2.141    0.533
        84 -12.2677      2.6982    111.7652   9.7440932150e+01   5.3002977054e+01     0.505499    0.3746294 -59.18  0.001431419    1.221    0.181
        85 -11.3518      4.9680    105.3311   9.5513552412e+01   5.4538869894e+01    0.4890299    0.3440354   7.31   0.00240565    1.456    0.313
        86  -9.9249     58.1033    115.4683   7.5403618113e+01   4.6406536315e+01    0.3853611    0.2038135 -65.54  0.001078699    2.265    0.559
        87  -8.7462    113.6866    115.7172   5.7157779094e+01   3.6522687177e+01    0.1479865    0.1190247  -1.65 0.0003730789    1.574    0.365
        88  -9.9127     78.9771    114.6881   6.7650833005e+01   4.3239753608e+01    0.2864958    0.2273074 -41.80 0.0007964007    1.284    0.221
        89 -11.6511      7.0892     88.7886   9.1670459900e+01   5.8546059329e+01    0.6431507     0.406755   9.66  0.002144394    1.572    0.364
        90 -11.7902      9.7126     97.1917   9.2013179964e+01   5.6301647626e+01    0.6222194    0.5011632   6.53  0.001592042    1.240    0.193
        91 -11.3508     26.6463     85.3374   8.1546266713e+01   5.7706827367e+01    0.8441225    0.5052977  20.11   0.00279162    1.609    0.379
        92 -10.8340     30.0197     97.9651   8.2974225178e+01   5.4333771062e+01    0.9413645    0.5424004 -20.81  0.004017986    2.049    0.512
        93 -10.5885     35.2636     92.6025   7.9382885156e+01   5.5032616824e+01    0.3738985    0.3246673 -34.71  0.001267692    1.107    0.097
        94 -12.0740     42.6677     85.1363   7.4162513405e+01   5.5805966196e+01     1.099093    0.4439458  20.66  0.002890843    2.905    0.656
        95 -12.0073     28.4957    105.7040   8.5303958722e+01   5.2567966011e+01      1.61237    0.7037167  -1.70  0.005122615    3.770    0.735
        96 -12.7892     17.7483    100.4581   8.8982131859e+01   5.4878559265e+01    0.3843358    0.3481331  -7.74 0.0004351687    1.068    0.063
        97 -11.8016     20.9844     93.0064   8.5974432667e+01   5.6438626330e+01    0.9131488    0.5255748  58.51  0.002891254    2.726    0.633
        98 -11.3069     21.5406    114.5069   8.9939993650e+01   5.0959912609e+01    0.5876549    0.2929887   2.31  0.002152352    2.369    0.578
        99 -11.3779     28.2633    113.1908   8.6888004285e+01   5.0677676937e+01    0.4663745    0.3194607   3.98 0.0007490937    1.528    0.346
       100  -9.0042     86.3473    113.7064   6.4929995462e+01   4.2163587322e+01    0.1566792    0.1194906  67.48 0.0007030582    1.669    0.401
       101 -10.0292     48.9478    112.1773   7.8217974150e+01   4.8517802837e+01    0.2923448    0.2346761  25.27 0.0009239079    1.220    0.180
       102  -9.5644     93.5002    112.0308   6.2209735762e+01   4.1228647650e+01    0.2359377    0.1515749 -51.79  0.001038061    1.613    0.380
       103  -9.7093     67.2713    110.7894   7.0865606338e+01   4.6136692465e+01    0.3284467    0.2091433  22.22  0.001426975    1.652    0.395
       104 -11.3177     79.7900    108.2991   6.5788243615e+01   4.4594013988e+01    0.5521812    0.3315463  30.81  0.001122474    1.671    0.402
       105  -9.6341    121.3023    108.5405   5.3376692876e+01   3.6540257428e+01    0.2972696     0.207809  10.15  0.001208583    2.271    0.560
       106 -10.1570    103.2074    108.8124   5.8444260642e+01   4.0082339353e+01    0.4874436    0.2470878  24.25  0.001613277    3.274    0.695
       107 -10.4240     15.6903    109.1013   9.1475649266e+01   5.2842540356e+01    0.3316721    0.1941295  20.18   0.00153802    1.719    0.418
       108  -9.2100    143.4006    106.1509   4.7554784091e+01   3.2564225853e+01    0.2051421    0.1272334 -57.14 0.0009413369    1.725    0.420
       109  -9.2425    182.4901    104.4752   3.9849360605e+01   2.5328421630e+01     0.130268    0.1140954 -62.79 9.816436e-05    1.020    0.020
       110 -10.2241     85.8260    103.8370   6.2606407682e+01   4.4506544666e+01    0.2271637    0.2031154  -3.76 0.0005740515    1.192    0.161
       111 -11.6678     68.7297     95.8458   6.6495163867e+01   4.9358086731e+01    0.4841971    0.3354947  21.02 0.0006903303    1.524    0.344
       112  -9.9694     50.7640    102.0241   7.5102605716e+01   5.0757254961e+01    0.2911399    0.2423228 -54.60 0.0009491721    1.257    0.204
       113 -10.3127     52.7531     98.2892   7.3360445490e+01   5.1355238074e+01    0.4478578    0.2305178 -51.28  0.001102754    1.941    0.485
       114  -9.0164    120.4500    101.4680   5.1844208012e+01   3.8159882747e+01    0.1428353    0.1404815  58.90   7.0318e-05    1.030    0.029
       115 -10.2642     81.0282     98.2509   6.2750234036e+01   4.6629854693e+01    0.2304711      0.22283  21.06  0.000462694    1.022    0.022
       116 -11.3931     79.6437     93.3188   6.1889492914e+01   4.7952938038e+01    0.8977142    0.7495058 -13.36  0.004658069    1.345    0.257
       117 -10.3890     72.2478     78.0828   6.0141177322e+01   5.2461988608e+01    0.3787281    0.3551992  87.87  0.002152191    1.256    0.204
       118 -10.3276     79.4983     83.9948   5.9313270947e+01   4.9915122393e+01    0.3838806    0.3571822  -9.92  0.001543691    1.120    0.107
       119 -11.0707     76.8110     80.3513   5.9184996299e+01   5.1154613419e+01    0.6618966    0.2910938 -52.30  0.002512584    2.696    0.629
       120 -11.1794     42.2743     93.7924   7.6604990794e+01   5.3872769615e+01    0.5107338    0.3738426  44.45  0.002266312    1.516    0.341
       121 -10.7780    120.4850     90.0744   4.8930425283e+01   4.0376457317e+01    0.2792559    0.2254357 -50.65  0.000659276    1.274    0.215
       122 -10.3968    121.9779     93.9905   4.9566168425e+01   3.9316698151e+01    0.3037993    0.2342131  43.89 0.0007520531    1.294    0.227
       123  -9.7338    105.0805     92.3616   5.3632630175e+01   4.3139966614e+01    0.2550192    0.2108941 -30.06  0.001331543    1.349    0.259
       124 -11.2277     98.5988     91.1016   5.5179586272e+01   4.4713721192e+01    0.2965671     0.239928  48.53 0.0005252918    1.188    0.158
       125 -11.5161     89.8617     88.4384   5.7140300931e+01   4.7000921024e+01    0.6421493    0.3616598 -38.30  0.001674201    1.991    0.498
       126 -10.3733     49.7816     91.3222   7.2770740327e+01   5.3401747345e+01    0.3624156    0.2549608  28.14  0.001782054    1.354    0.261
       127  -9.9505     66.1550     88.6711   6.5489575295e+01   5.1373166247e+01    0.3866578    0.2384796   6.21  0.001244565    2.484    0.597
       128  -9.8050    104.2912     87.4543   5.2531566828e+01   4.4264867234e+01    0.2599158    0.2074923  24.04 0.0009235851    1.431    0.301
       129 -10.4527    143.2384     84.5857   4.2443853578e+01   3.6572912811e+01    0.2350927    0.2177304 -75.72 0.0003280297    1.035    0.034
       130  -9.2323    133.6874     84.9601   4.4540681070e+01   3.8522782127e+01    0.2435698    0.1442768  87.18  0.000890918    3.308    0.698
       131 -11.3244    125.9776     94.6587   4.8756497658e+01   3.8354197356e+01    0.2418802    0.2412874  -3.75  0.000174013    1.085    0.079
       132 -10.5915    113.3743     82.9414   4.8848457209e+01   4.3208134785e+01    0.3145753     0.268759 -83.72 0.0009926024    1.299    0.230
       133  -9.9336     66.7527     81.7090   6.3261123214e+01   5.2732496481e+01     0.456263    0.2798226  30.98  0.002093388    1.581    0.367
       134 -11.4372     53.1408     75.4571   6.6842181429e+01   5.6320624324e+01    0.6172474    0.4036427 -53.34  0.003005211    1.724    0.420
       135  -9.3386     46.5834     76.2562   6.9906557950e+01   5.7172452927e+01    0.2864659    0.1866914 -33.71  0.001066905    1.626    0.385
       136  -9.2888     59.9817     82.8021   6.6216813578e+01   5.3672461477e+01     0.266914    0.1812458 -32.03  0.001270588    1.620    0.383
       137 -11.0550     59.0955     77.6847   6.5061066882e+01   5.4883098121e+01    0.5304755    0.3320979  12.81  0.002320896    2.028    0.507
       138  -9.5148      1.3386     81.0050   9.2992230428e+01   6.0756807319e+01    0.2243706    0.1181597 -67.56 0.0004403845    1.906    0.475
       139 -11.1413      1.9980     71.7689   9.0746686000e+01   6.2866862935e+01    0.4674398    0.1849892 -56.67  0.002047957    2.161    0.537
       140  -9.8640     88.6591     73.7643   5.3288508855e+01   5.0062717615e+01    0.2546673    0.2013075 -42.98 0.0003110362    1.372    0.271
       141  -9.5778     91.7022     71.6994   5.1734186222e+01   4.9807533693e+01    0.2643467     0.211261  54.60   0.00133192    1.205    0.170
       142 -10.3131     88.3701     77.9384   5.4612234879e+01   4.9348032013e+01    0.7363843    0.3074431  48.73  0.002795947    2.344    0.573
       143 -10.2429     94.1788     76.6006   5.2426848206e+01   4.8407901243e+01    0.4379274      0.24849  49.16   0.00148553    1.662    0.398
       144  -9.8125    233.1471     77.8488   2.8377401063e+01   2.0891398379e+01    0.1731783     0.119365 -63.92 0.0005654377    1.215    0.177
       145 -11.7065     13.2310     73.9503   8.5359833828e+01   6.1579384374e+01    0.5468066    0.4718801 -64.31  0.002924774    1.328    0.247
       146  -8.7238    134.4847     77.4426   4.2470320526e+01   3.9657695180e+01     0.137046    0.1254169  82.55 9.759138e-05    1.017    0.016
       147  -9.2391    112.2555     75.4137   4.7080866401e+01   4.4795300962e+01    0.1927566    0.1279441  61.63 0.0005855415    1.545    0.353
       148  -9.7145    103.5407     74.9745   4.9264736686e+01   4.6736330209e+01    0.2885864    0.1889629  62.53  0.001363961    1.665    0.399
       149  -9.5477     25.0484     73.9014   7.9346860243e+01   6.0462781307e+01    0.4946947    0.2405014 -24.58  0.001942231    2.678    0.627
       150 -11.9204     40.5967     69.9046   7.0688831977e+01   5.9359860935e+01    0.4597777    0.3506723 -49.15  0.001648717    1.425    0.298
       151 -11.2169     35.1031     71.8937   7.3871521388e+01   5.9695400353e+01    0.7276738    0.2605304  29.49  0.002502627    2.560    0.609
       152 -10.8325    186.8546     72.0315   3.2474309174e+01   2.9793507666e+01    0.4096286    0.2946725 -51.97  0.002552273    1.244    0.196
       153  -9.4279     66.0051     74.5091   6.1384334676e+01   5.4309059589e+01     0.220125     0.131837  39.33 0.0003934161    1.544    0.352
       154  -9.8594    153.7209     72.7001   3.7625993934e+01   3.6347245395e+01     0.296506    0.1531061  45.79   0.00135578    2.253    0.556
       155  -8.7899     15.0709     67.3781   8.2699435717e+01   6.2874393677e+01    0.4419355    0.2034768  12.68  0.001922504    2.182    0.542
       156  -8.7659    161.6951     71.2859   3.5964973931e+01   3.4910816441e+01    0.1309888    0.0911428 -77.65 0.0003498798    1.564    0.361
       157 -11.4684    123.1273     68.8358   4.2686245649e+01   4.3546049704e+01    0.5150079    0.2617409  50.05  0.002324161    1.860    0.462
       158 -10.5133     78.9188     67.9687   5.4697829240e+01   5.3074847586e+01    0.4505642    0.3383651  72.67  0.002251031    1.777    0.437
       159 -10.3944    219.5692     66.9492   2.7762685120e+01   2.4639379167e+01    0.3512459     0.150457  70.71   0.00182323    2.756    0.637
       160 -12.7677      6.4972     61.4196   8.5786786132e+01   6.4858414847e+01    0.7954582    0.4958061 -14.19  0.003999839    1.520    0.342
       161  -9.4020     80.9113     73.8846   5.5842642988e+01   5.1600235580e+01    0.2112536    0.1852392  14.45 0.0005738393    1.196    0.164
       162 -11.0798     92.5451     63.0153   4.8861438558e+01   5.1120170879e+01    0.6036305    0.3107419  63.83  0.002369201    2.658    0.624
       163  -8.6797     21.2472     65.2955   7.8855584831e+01   6.2717027720e+01    0.1353154   0.08984908 -23.70 0.0003344966    1.483    0.326
       164  -9.1269     52.1415     65.8452   6.4254350998e+01   5.8383785633e+01    0.1938948    0.1513589  10.63 0.0006428416    1.286    0.222
       165  -9.9473    106.0012     63.6642   4.5354382209e+01   4.8121724113e+01     0.271736     0.181296  39.89   0.00136147    1.555    0.357
       166 -10.4243    106.5025     58.6801   4.3771868096e+01   4.8798004448e+01    0.3797492     0.270077 -75.54  0.001151084    1.856    0.461
       167 -10.5044     58.5084     63.2057   6.0738811729e+01   5.7786440358e+01    0.3894022    0.3202185  64.82  0.001079061    1.558    0.358
       168 -10.1019     64.9031     61.7474   5.7740991156e+01   5.6885575695e+01    0.3847852    0.2502137  42.26  0.001168039    1.401    0.286
       169 -10.2232     51.9442     48.2293   5.8276270827e+01   6.1531972643e+01    0.2731942    0.2144086  33.89 0.0006197972    1.115    0.103
       170  -9.2437    113.4635    249.4829   8.1319913087e+01   5.9339388149e+00    0.1355925    0.1143119   7.14 0.0003305971    1.015    0.015
       171  -9.7042     55.7951     50.5301   5.7495941269e+01   6.0468432513e+01    0.2233586    0.1411101  30.47 0.0003513554    1.484    0.326
       172 -11.5148     45.1738     48.9189   6.1510431874e+01   6.2575044447e+01    0.7115601    0.5292957 -55.77  0.003942125    1.787    0.440
       173 -11.0203     40.6731     56.9110   6.6431496643e+01   6.1876791954e+01    0.3933867    0.2225849  36.08 0.0008802114    1.628    0.386
       174 -11.4850     43.2933     62.2865   6.7015970449e+01   6.0469601914e+01    0.2891965     0.255307 -21.99 0.0004822801    1.153    0.132
       175 -10.4583     50.4986     61.4842   6.3527749083e+01   5.9474872540e+01    0.3568105    0.2390776  38.30  0.001359319    1.389    0.280
       176 -10.7292     46.1701     59.1569   6.4659730270e+01   6.0608208701e+01    0.2792275    0.2736369  40.20 0.0009324753    1.243    0.195
       177 -11.1002     44.0245     43.9653   6.0196340590e+01   6.3580711059e+01    0.2925931    0.1989523  29.06   0.00029716    1.290    0.225
       178 -11.2576     39.6159     44.0931   6.2316176550e+01   6.4277255157e+01    0.6362339    0.2879221  27.06  0.002262883    2.311    0.567
       179 -10.2761    158.4911     63.0122   3.4561034776e+01   3.6833238954e+01     0.366659    0.1642869  54.74  0.001265513    2.201    0.546
       180  -9.6186    154.8427     60.7997   3.4619128075e+01   3.7927716057e+01    0.1739867    0.1486721  82.29 0.0002206546    1.061    0.058
       181 -10.9727    234.7730     61.1173   2.5344480036e+01   2.2940496238e+01    0.2618146    0.1916341 -62.74  0.001977052    1.027    0.026
       182  -9.3706     84.0335     61.6707   5.1040856752e+01   5.3124274962e+01    0.2042092    0.1692291  48.16 0.0007719941    1.097    0.088
       183 -11.1610     83.0483     47.2738   4.6677753142e+01   5.5574155167e+01     1.515445    0.7832524 -12.93 0.0008155668    6.321    0.842
       184 -11.3341     72.5146     47.4739   5.0139543696e+01   5.7729027047e+01    0.2494683    0.1892247  45.07 7.596239e-05    1.150    0.130
       185 -11.5348    117.4535     54.5812   4.0021981402e+01   4.6996151871e+01    0.9257085    0.4867516 -64.45  0.003704764    3.107    0.678
       186 -10.6165    109.7609     40.3059   3.7576326805e+01   5.0670091092e+01    0.4553487    0.3628269 -10.55   0.00152428    1.711    0.416
       187 -10.3475    122.9492     44.5054   3.6068181642e+01   4.7174199983e+01    0.2454159    0.2088511  57.64 0.0007724295    1.148    0.129
       188 -10.4258    112.0881     50.7111   4.0113302531e+01   4.8744304014e+01    0.2701419    0.2376157  62.18 0.0007001056    1.034    0.033
       189  -9.5901    213.5204    248.4930   5.9980350393e+01  -4.5097122121e+00    0.1172292   0.08498287 -15.96 0.0008102734    1.012    0.012
       190 -11.1157     32.2310     52.8865   6.9178818653e+01   6.3838339391e+01     1.687741    0.4074908  25.42  0.003950349    7.527    0.867
       191  -9.2404     29.1645     59.5949   7.2997580175e+01   6.2963287807e+01    0.3753581    0.3085046 -80.11  0.002109851    1.813    0.448
       192 -10.6418     24.7954     59.6068   7.5265399139e+01   6.3491321265e+01    0.5753935    0.1674439  32.41  0.002106903    3.060    0.673
       193 -10.8455     25.0743     55.9881   7.3950859322e+01   6.4172098190e+01    0.5550084    0.2873686   8.48  0.002426315    2.279    0.561
       194 -10.0447     91.8055     57.3192   4.7317507808e+01   5.2194684671e+01    0.3082815    0.1988692  62.68   0.00069106    1.643    0.391
       195 -10.2458     87.9852     56.2242   4.8096696640e+01   5.3178585595e+01    0.3737144    0.2074158 -32.47  0.001292403    2.186    0.543
       196 -12.4945     74.1767     50.8818   5.0742463885e+01   5.6874040585e+01    0.6925049    0.3819964 -48.79  0.001901622    2.234    0.552
       197 -10.7931    158.1857     55.4106   3.2832907951e+01   3.7995181944e+01    0.5044849    0.3176219 -85.57   0.00267153    1.804    0.446
       198  -9.7221    125.1962     56.6950   3.8959819628e+01   4.4971678114e+01    0.2231138    0.1739707 -57.61  0.000834569    1.346    0.257
       199  -9.3421    135.3228     59.3663   3.7665765414e+01   4.2348290406e+01    0.1945047    0.1549274  28.60 0.0009514763    1.691    0.409
       200  -9.1959     67.0002     55.2779   5.4783094459e+01   5.7592566994e+01     0.193741    0.1596019  38.51 0.0007952403    1.076    0.070
       201  -9.2864    201.5508     53.2727   2.7004156001e+01   2.9693004589e+01    0.1450154    0.1036252 -37.33 0.0009392878    1.585    0.369
       202 -10.1993    144.8532     50.6625   3.3774845262e+01   4.1510828756e+01    0.2630142    0.1792269 -37.03  0.000862334    1.647    0.393
       203  -9.6617    146.4974     47.4825   3.2722982351e+01   4.1584648436e+01    0.2164114    0.1895197 -48.51 0.0007497421    1.264    0.209
       204 -10.2829    240.0303     50.9841   2.3214995478e+01   2.3425674736e+01     0.160694    0.1224615 -61.67   0.00057639    1.089    0.082
       205  -9.7391    173.8954     48.8825   2.9215788262e+01   3.5635319570e+01    0.4061756    0.1756141  82.74  0.001629748    3.492    0.714
       206  -9.0007    172.3363     45.3012   2.8626416053e+01   3.6422905247e+01    0.1106827   0.09115116  43.05 0.0002609116    1.661    0.398
       207  -9.5504     26.6579     48.3842   7.0498449315e+01   6.5405138416e+01    0.2252143    0.1424221 -23.32  0.001169542    1.693    0.409
       208  -9.7775      1.9917     49.1616   8.5008177201e+01   6.7726552333e+01    0.2180302    0.1558145  12.34 0.0008098932    1.302    0.232
       209 -10.0038     13.1941     46.8382   7.7538781121e+01   6.7233646904e+01    0.3281123    0.1590193 -21.28    0.0014201    2.550    0.608
       210 -10.7407     25.9059     42.6247   6.8791723602e+01   6.6524294336e+01    0.5304902    0.3238788  52.00  0.002015479    2.584    0.613
       211  -9.9065     22.6346     36.9912   6.8438882674e+01   6.7908922631e+01    0.4476251    0.1708917  40.87  0.001837647    2.938    0.660
       212 -10.8562    137.5750     44.7367   3.3482657191e+01   4.3898751770e+01    0.6273997    0.2237417  49.12  0.002472976    3.113    0.679
       213 -10.1893    200.3185     45.0827   2.5540349710e+01   3.0990931623e+01    0.3606616     0.145415  80.50  0.001647127    3.171    0.685
       214  -9.4731    161.3769     43.9265   2.9717374246e+01   3.8871470143e+01    0.3103368     0.144731  84.27  0.001325283    2.905    0.656
       215 -10.6092    155.9095     42.2731   3.0075126357e+01   4.0240971542e+01    0.2756752    0.2426841 -66.72 0.0009496965    1.151    0.131
       216  -9.7065     92.0158     42.1285   4.2428017019e+01   5.4362373178e+01    0.3424378    0.2017622  72.23  0.001589631    2.121    0.529
       217 -10.5770     20.6027     46.0469   7.2991362053e+01   6.6577863026e+01     0.440909    0.2635965 -13.31  0.001500625    1.894    0.472
       218  -9.6995    234.8391     41.6295   2.2034042283e+01   2.5419756500e+01    0.1383793   0.08028724 -86.77 0.0006545123    1.674    0.403
       219  -9.6376    188.9956     39.8857   2.5631106250e+01   3.3795881147e+01    0.2478358    0.1016454 -36.01  0.001221277    2.633    0.620
       220 -11.6362     79.3691     35.2743   4.3694908508e+01   5.7991718642e+01    0.6238256    0.5567837 -20.54  0.004016591    1.317    0.241
       221 -10.0421     87.0498     29.6143   3.9597599676e+01   5.7022345604e+01    0.4132196    0.1987689  32.99  0.001362279    3.197    0.687
       222  -9.4257    194.1345     38.7733   2.4901758326e+01   3.2946548713e+01     0.137106    0.1261661  77.18 0.0004559384    1.376    0.273
       223  -9.4651    231.4277     37.7685   2.1627303353e+01   2.6445476896e+01     0.137085   0.08929207 -37.94 0.0009567891    1.713    0.416
       224  -9.5961    132.8789     37.2531   3.2316471302e+01   4.5888194822e+01    0.3349731    0.1742068  89.70   0.00143979    2.763    0.638
       225  -9.9412     59.7864     23.5695   4.5703646280e+01   6.3480102185e+01    0.2206944    0.1757825 -36.73 0.0004584786    1.526    0.345
       226 -11.1022     61.1929     35.8582   4.9968418398e+01   6.1649579933e+01    0.4483819    0.3196755  12.13  0.001780496    1.710    0.415
       227  -9.6692     70.6254     34.2247   4.6058311961e+01   5.9963082354e+01     0.189659    0.1711616  54.65  0.000982282    1.122    0.109
       228 -10.1658     67.7253     31.9511   4.6184844499e+01   6.0850791857e+01    0.3066141    0.2202193  41.37  0.001007785    1.196    0.164
       229 -11.0218     57.2460     30.8890   4.9540642634e+01   6.3081783818e+01    0.4028386     0.299442   0.60  0.001453086    1.627    0.386
       230 -11.5889     49.0283     30.4692   5.2676994261e+01   6.4692659002e+01    0.6625953    0.2244408  43.37  0.001737069    2.469    0.595
       231 -10.4754     43.0319     28.0833   5.4313107966e+01   6.6093365612e+01    0.2002689    0.1521846  33.22 0.0002908002    1.084    0.078
       232 -11.1596      4.7640     36.2099   7.9043620772e+01   6.9991123994e+01    0.4380215    0.2786877  12.42   0.00220858    1.366    0.268
       233 -10.3382      9.7256     29.9745   7.3445224358e+01   7.0601109599e+01    0.5669917    0.2970584  13.18  0.001865805    1.786    0.440
       234  -9.2290    206.4771     37.5052   2.3535533911e+01   3.0803355319e+01    0.1117305    0.0854847 -71.35  1.18562e-05    1.003    0.003
       235 -11.0172    176.3215     34.5012   2.5835203602e+01   3.6963138508e+01    0.5160288    0.1677073 -45.81  0.002095486    2.712    0.631
       236  -9.4804     12.9698     36.3880   7.3920857755e+01   6.9160863098e+01    0.2320398     0.130221 -35.13  0.001051159    1.753    0.429
       237  -9.0409     94.4351     35.9323   3.9797664130e+01   5.4633854929e+01    0.1677685     0.103479 -63.04   0.00069782    2.303    0.566
       238 -12.4013    160.0535     29.7062   2.6616572100e+01   4.0888672955e+01    0.3441468    0.2948017 -64.08 0.0004519087    1.184    0.156
       239  -9.9145    174.3401    246.8095   6.7251770594e+01  -4.4379130171e-01    0.2856707    0.1735775   2.63  0.001595864    1.576    0.366
       240 -12.1500    126.2028    241.4522   7.7202172148e+01   6.0156556447e+00     0.451649    0.3863983 -49.25  0.002741497    1.353    0.261
       241 -11.8101    106.8772     32.0330   3.5711305045e+01   5.2334041988e+01    0.5503022    0.3359765  24.16  0.002563428    2.826    0.646
       242 -11.4123     67.7771    240.6997   9.1735357227e+01   1.3154277832e+01    0.4923348    0.2297624  28.98  0.002186426    1.822    0.451
       243  -9.9281    240.5044     32.5229   2.0144020771e+01   2.5598168847e+01    0.2434776    0.1134739  63.17  0.001567478    2.498    0.600
       244 -11.5990    147.2206    238.1631   7.1842271181e+01   4.1493238582e+00    0.4305533    0.3469264  34.07  0.002048296    1.404    0.288
       245 -11.0578     32.4245     30.8604   6.0615828856e+01   6.7469544848e+01     0.276679    0.2173482 -40.06 0.0003916855    1.538    0.350
       246 -10.6794    167.1363    237.7625   6.7411529281e+01   1.9306989222e+00    0.2461873    0.1652594 -33.36  0.001071145    1.355    0.262
       247  -9.0749     15.3853    233.7757   1.0460529238e+02   2.0109043636e+01    0.1809781    0.1121587 -63.36 0.0009496243    1.710    0.415
       248 -10.6364    196.7324    232.4131   6.0639110559e+01  -3.2333701808e-01    0.2135463    0.1057589  28.61 0.0009560487    2.093    0.522
       249  -9.0518    163.3095    243.6559   6.9105370633e+01   1.2962716765e+00    0.1143824    0.1004427  50.87 0.0002070732    1.699    0.412
       250  -9.9097    196.8252    228.2027   5.9966513039e+01   3.8095714466e-01    0.1846269   0.08638922  13.88 0.0008629159    2.537    0.606
       251 -10.3849    198.1282     29.0426   2.2642846993e+01   3.3354808085e+01    0.3147209    0.2293321 -61.60  0.002281261    1.142    0.125
       252 -10.9019    189.0956     28.2957   2.3289521530e+01   3.5165141355e+01    0.3220412    0.2489552 -16.86  0.002000383    2.113    0.527
       253 -12.1040    125.9752     28.3423   3.1069032398e+01   4.8475042223e+01    0.4729317    0.3313945  78.17  0.002843179    1.265    0.209
       254  -8.2348     98.0164     28.0812   3.6419413355e+01   5.4772412172e+01    0.5093051    0.2134839 -47.93  0.002203594    3.044    0.672
       255  -9.6266    149.9575     28.0214   2.7473780265e+01   4.3235277371e+01    0.2223161    0.1328648  59.23  0.001047292    1.598    0.374
       256  -9.0085    181.2947    228.3357   6.3025135316e+01   2.0411513061e+00    0.1345834   0.08126447 -18.04 0.0007028019    1.646    0.392
       257  -9.5326     75.4911    224.4985   8.7901842714e+01   1.5953328716e+01    0.1429679    0.1301759  22.77 -2.369935e-05    1.010    0.010
       258 -11.4073    143.6005     24.9320   2.7553386584e+01   4.4958414789e+01    0.6496172    0.2623859  57.74  0.003137993    2.234    0.552
       259 -11.1798    135.8615     22.7031   2.8053001584e+01   4.6897249631e+01    0.5080478    0.2763053  65.36  0.002641221    1.552    0.356
       260  -9.2347    234.0403    223.4941   5.2747307289e+01  -2.4956628931e+00     0.145739    0.1006888  13.57  0.000545227    1.531    0.347
       261  -9.5230     65.6906    222.3476   9.0302273197e+01   1.7636905055e+01    0.1514757    0.0999492  56.21 0.0007044618    1.707    0.414
       262  -9.6840     49.6699    222.6787   9.4700658213e+01   1.9378990977e+01     0.145195    0.1025129 -26.29 0.0007048954    1.694    0.410
       263 -10.7352    183.2103     25.5679   2.3278365968e+01   3.6627692617e+01    0.2444355    0.2195235  72.37  0.001866817    1.380    0.275
       264  -9.5561    187.0506     23.4530   2.2502308417e+01   3.6111351646e+01    0.1923339    0.1513163  59.23 0.0007828202    1.577    0.366
       265 -10.5606    155.3226     24.3824   2.5945694565e+01   4.2491644750e+01    0.3220392    0.1768801 -80.76  0.001041696    1.949    0.487
       266 -10.2506     90.8908     22.9736   3.6402345559e+01   5.6918632778e+01    0.2565094    0.2419183  18.26  0.001769127    1.261    0.207
       267  -9.1357    153.3003    219.3313   6.7577894101e+01   7.0832787098e+00    0.1437432   0.09241413 -17.43 0.0003871901    1.648    0.393
       268  -9.5883    144.3271    215.3225   6.8996714687e+01   9.0552267335e+00    0.1482839   0.09649093 -15.77 0.0007048486    1.689    0.408
       269  -9.5914    164.5023    211.9827   6.3903083791e+01   7.1132755496e+00    0.1957184    0.1658598   3.43 0.0004847807    1.102    0.092
       270 -10.8248     38.8379     22.1691   5.3700262911e+01   6.7599517823e+01    0.2326018      0.18066  34.06 0.0004018079    1.071    0.066
       271  -9.4441    152.5134    207.0012   6.5737984684e+01   9.6851798668e+00    0.2130191    0.1304031 -48.68  0.001041517    1.628    0.386
       272  -9.6195    223.2559     22.0926   1.9510509300e+01   2.9634821557e+01    0.1744342    0.1168556 -85.17  0.000739353    1.254    0.203
       273  -9.2546     61.5190    206.5313   8.9605453833e+01   2.2019468962e+01     0.145615    0.1375763  26.30 0.0001292683    1.002    0.002
       274  -9.3349    216.4365     20.7775   1.9733190924e+01   3.0962219188e+01    0.1259043   0.09251993 -39.39 0.0006098322    1.601    0.375
       275  -9.8995     16.4911    205.4942   1.0236703150e+02   2.6934143736e+01    0.1355921    0.1282856  63.02 0.0008105359    1.018    0.017
       276  -9.6243    230.4074     26.7821   1.9843072627e+01   2.7901345312e+01    0.1267128   0.08589858 -42.00 0.0007318789    1.551    0.355
       277 -10.1073     74.7420     19.4911   3.9366238712e+01   6.0813478820e+01    0.2403079    0.1660757  39.21 0.0007304684    1.377    0.274
       278  -9.8809     47.2754     19.1762   4.8676868680e+01   6.6428242862e+01    0.1997514    0.1741203   4.05  0.001353762    1.232    0.188
       279  -9.7405      4.5210    204.7842   1.0563943257e+02   2.8077382686e+01    0.2605273    0.1166812 -70.63  0.001135172    2.109    0.526
       280  -9.3953     78.7319    203.9277   8.4350176468e+01   2.0517499955e+01    0.2337531    0.1639513  69.10 0.0008576405    1.864    0.464
       281  -9.8772    139.4932    199.0083   6.7436352983e+01   1.3181579575e+01    0.1891501    0.1316431 -81.92 0.0008102378    2.544    0.607
       282 -10.5785      6.1406    198.7101   1.0478643823e+02   2.9507913423e+01    0.2769552    0.1378102 -65.29  0.001229497    1.911    0.477
       283  -9.4238     81.0046     19.4784   3.7656686377e+01   5.9459725111e+01     0.204257    0.1046615  59.00   0.00103715    1.607    0.378
       284  -9.8404    233.9483    196.8064   4.8571372639e+01   1.7510747150e+00    0.2114029    0.1331161 -38.67 0.0008330872    1.238    0.192
       285  -8.7268     52.6838    190.6553   9.0234751043e+01   2.7160572042e+01    0.1598965     0.107565 -30.81 0.0007048272    1.717    0.418
       286 -10.0045    186.7538     15.2826   2.0895318855e+01   3.7052816771e+01    0.1883528    0.1578368 -88.59 0.0007030415    1.200    0.167
       287  -9.7954    120.0411     15.9685   2.8595218019e+01   5.1103866595e+01    0.1878651    0.1286923  43.66 0.0006240102    1.682    0.405
       288  -9.6334      5.9269     22.0472   7.2639321331e+01   7.2287433604e+01    0.1883491    0.1411995   3.99 0.0008128163    1.050    0.048
       289  -9.6295     74.8360     13.7107   3.7194478335e+01   6.1371707760e+01    0.1929845    0.1270422  81.18  0.001056428    1.845    0.458
       290 -11.8776      4.5578    184.2923   1.0421372862e+02   3.3392247583e+01     0.644095    0.4900796  84.30  0.002851424    1.277    0.217
       291  -8.9498    250.6783    176.6752   4.2944806814e+01   3.2353076949e+00    0.1134629   0.06945089 -23.27 0.0007047086    1.682    0.405
       292  -9.6505     28.0312    175.7465   9.6143019532e+01   3.3769932574e+01    0.2027001    0.1944749  18.24   0.00073692    1.065    0.061
       293  -9.5289     52.0841    174.1990   8.8212951130e+01   3.1622309550e+01    0.2991249    0.1906934  71.58  0.001236825    2.058    0.514
       294  -9.5871     39.5219    173.8697   9.2219581103e+01   3.3130568772e+01    0.2248878    0.1445621 -67.27 0.0009262734    1.541    0.351
       295  -9.6779     16.0000    173.9785   9.9801270833e+01   3.5296914897e+01    0.2399265   0.07858706 -73.93 0.0008031284    2.947    0.661
       296 -12.2035      9.6020    165.5880   1.0106291833e+02   3.8061748510e+01    0.7508296    0.4568834 -49.36  0.002494188    1.615    0.381
       297 -10.1997     14.0964    159.3397   9.8940282776e+01   3.9435300035e+01    0.2660308    0.2299099  76.80 0.0005754362    1.183    0.154
       298  -9.3446     66.3491     10.4275   3.8330258122e+01   6.3494047898e+01    0.2504375   0.08899387  53.58  0.001129494    2.112    0.526
       299 -10.5596     19.1323    164.8974   9.7849670516e+01   3.7514804793e+01    0.3910012    0.2517212 -13.90  0.001782645    1.844    0.458
       300  -9.6031    204.9571    163.1850   4.7497769789e+01   1.1041077688e+01    0.2169843    0.1549433 -41.52 0.0005487374    1.172    0.147
       301 -10.6541     28.0091    161.6844   9.4493834285e+01   3.7613449279e+01    0.4364939    0.2889457 -44.53  0.001757376    1.522    0.343
       302  -9.6399     38.1666    160.1621   9.0836086072e+01   3.7017296824e+01    0.2348532    0.2017312 -32.45 0.0006684417    1.188    0.159
       303 -10.0560    104.3315    154.8838   6.8536420523e+01   2.9040256485e+01    0.3387761    0.2707545 -36.91  0.001648793    1.267    0.211
       304 -10.5407      9.4617    155.5257   1.0011870755e+02   4.0815272412e+01    0.2970705    0.2386032 -66.07  0.001162754    1.165    0.142
       305 -12.4148     22.5695    149.3523   9.4817104951e+01   4.1488365050e+01    0.8587615     0.391962 -35.11  0.002503335    2.604    0.616
       306 -10.7231     16.5292    147.8570   9.6786305624e+01   4.2393877118e+01    0.2947739    0.2540407 -79.88 0.0003668603    1.151    0.131
       307 -10.6736     30.6998    152.5815   9.2367918944e+01   3.9856231394e+01    0.4199928    0.3261675  89.02  0.002050073    1.403    0.287
       308 -10.4103      4.1573    153.7484   1.0175657994e+02   4.1650031972e+01    0.2929984    0.1751623  32.41   0.00100267    1.713    0.416
       309 -10.0470     63.2228    150.9284   8.0776559830e+01   3.6457652571e+01     0.645022    0.3425845  -3.53   0.00207006    3.345    0.701
       310 -11.3345     47.3682    146.8135   8.5570238320e+01   3.9619722346e+01    0.7222496    0.4351792 -35.02  0.003020168    1.841    0.457
       311 -11.8672      5.7268    142.2883   1.0003193519e+02   4.4671228402e+01    0.6319906    0.4402821  72.83 0.0002882968    1.596    0.373
       312 -10.7470      2.3039    140.3160   1.0106264569e+02   4.5410899929e+01    0.3610164    0.1948248 -57.50  0.001644879    1.641    0.390
       313 -10.3326      3.0538    147.7467   1.0155338243e+02   4.3350106806e+01    0.2494816    0.1943521 -69.16 0.0009608656    1.185    0.156
       314  -8.7880    239.5216    146.5234   3.9472141771e+01   9.3525712270e+00    0.1161199   0.08913185 -42.23 0.0008098113    1.009    0.009
       315  -9.1693     73.8829    146.1538   7.6286019051e+01   3.6172083479e+01    0.2189171    0.1791615 -23.05 0.0005438823    1.305    0.234
       316 -11.1858     33.4240    144.3466   9.0195366568e+01   4.1840477883e+01    0.4722671     0.314784  40.06 0.0008618413    1.557    0.358
       317 -11.5531     12.3960    136.3914   9.6873442121e+01   4.5829993373e+01    0.6728469    0.3874425 -46.78  0.003065987    1.633    0.388
       318 -11.2529     10.9178    127.0172   9.6205141450e+01   4.8463759564e+01    0.6377692    0.3319783 -57.51  0.001790999    1.694    0.410
       319  -9.4937    217.5070    138.9806   4.1170752924e+01   1.3569931525e+01    0.1691466    0.1513935 -44.92 0.0004059737    1.098    0.090
       320 -10.5715     80.1193    138.2791   7.2611350009e+01   3.7224940913e+01    0.3646622    0.3096142  35.72 0.0007771517    1.169    0.145
       321 -10.5847     40.1298    137.9611   8.6696497253e+01   4.2857640503e+01    0.4041417    0.2677683  48.32  0.001453666    1.682    0.405
       322  -9.7409     39.3751    133.4422   8.6194571476e+01   4.4158410512e+01    0.2730483    0.1871601  14.88 0.0005720899    1.505    0.335
       323 -11.7039     23.3564    136.9347   9.2818853312e+01   4.4813575998e+01    0.6382383    0.4590638  29.05  0.001233622    1.422    0.297
       324  -9.9712     32.0542    137.5303   8.9638706050e+01   4.3834035556e+01    0.3284032    0.2616329  19.60 0.0008308435    1.272    0.214
       325 -10.7774     30.0751    132.9924   8.9657421352e+01   4.5258162363e+01    0.4463388    0.3372878 -27.06 0.0008329434    1.362    0.266
