#   1 NUMBER                 Running object number                                     
#   2 MAG_AUTO               Kron-like elliptical aperture magnitude                    [mag]
#   3 X_IMAGE                Object position along x                                    [pixel]
#   4 Y_IMAGE                Object position along y                                    [pixel]
#   5 X_WORLD                Barycenter position along world x axis                     [deg]
#   6 Y_WORLD                Barycenter position along world y axis                     [deg]
#   7 A_WORLD                Profile RMS along major axis (world units)                 [deg]
#   8 B_WORLD                Profile RMS along minor axis (world units)                 [deg]
#   9 THETA_WORLD            Position angle (CCW/world-x)                               [deg]
#  10 FWHM_WORLD             FWHM assuming a gaussian core                              [deg]
#  11 ELONGATION             A_IMAGE/B_IMAGE                                           
#  12 ELLIPTICITY            1 - B_IMAGE/A_IMAGE                                       
         1 -11.5350     80.3091     23.3986   7.1766716001e+01   6.0756812397e+01    0.5957212    0.2667464  36.66  0.000683607    2.290    0.563
         2  -9.1403     26.9266     22.1948   9.3063879328e+01   6.8622710820e+01    0.5518757    0.2246907 -32.82  0.002644579    2.296    0.564
         3  -8.5024    144.6137     23.4573   5.5277617056e+01   4.6310091528e+01    0.2287582    0.2189474  40.75 0.0001745576    1.032    0.031
         4  -9.2640     12.8417     18.3674   9.8433395385e+01   7.0494120111e+01    0.4666082    0.2191741 -15.64  0.002289856    2.746    0.636
         5  -8.7894     46.0259     20.7661   8.3708315173e+01   6.6644305761e+01    0.4181486    0.1704312 -42.30  0.001932283    2.405    0.584
         6  -9.0678     63.9408     14.6195   7.3567104514e+01   6.4807865067e+01    0.4921789    0.2571789  13.60  0.002131038    2.806    0.644
         7  -8.8006     74.2030     13.7798   6.9495092074e+01   6.3110294974e+01    0.3668087    0.2159723  -5.57  0.001276952    1.912    0.477
         8  -9.2564     79.1749     12.8827   6.7424165701e+01   6.2284530274e+01    0.4033895    0.2374552  47.24  0.001235773    1.657    0.396
         9  -9.6183     31.6689     10.9580   8.5612800427e+01   6.9887198038e+01     0.573701    0.3029995   0.42 0.0003348704    2.633    0.620
        10  -8.9213     32.0123      6.1981   8.3038115246e+01   7.0519437532e+01    0.2524144    0.1715008  -5.37 0.0002930051    1.294    0.227
        11  -9.7764    133.9124     13.3784   5.3747550865e+01   5.0069381346e+01    0.3982088     0.248538  46.98  0.001972727    1.465    0.317
        12  -8.4564     96.8580     12.1061   6.1803176454e+01   5.8784880411e+01    0.2965474     0.166122  46.45  0.001076316    1.604    0.377
        13  -8.0264    142.1074     10.3925   5.1161112147e+01   4.8326247018e+01    0.2931401    0.1326175  28.64  0.001034639    3.374    0.704
        14  -8.8473    125.4261     10.3033   5.4293687411e+01   5.2440872034e+01    0.2380129    0.1921215  46.24 0.0002784507    1.111    0.100
        15  -9.5168     20.5133      8.7418   9.0119876884e+01   7.1398928212e+01    0.2532935    0.1763968  -6.00 0.0005603814    1.274    0.215
        16  -8.2286     71.5077      8.9178   6.8122281837e+01   6.4165790658e+01    0.1814974    0.1144728 -21.74  0.000426542    1.516    0.340
        17 -10.2336    119.2269      6.8150   5.4234533059e+01   5.4248740255e+01    0.2518506    0.2185716  21.34 0.0002290362    1.117    0.105
        18  -9.3499     46.7234      6.2209   7.6317563365e+01   6.8559730083e+01    0.3361529    0.1956887  12.90 0.0003243917    1.860    0.462
        19  -8.8130     41.2981      5.6341   7.8398615687e+01   6.9400228335e+01    0.3253649    0.1934423  -7.61  0.001440092    1.699    0.411
        20  -7.8324    155.9269      7.2860   4.7854628735e+01   4.5121327205e+01    0.1927155    0.1651327  58.29 0.0004555513    1.067    0.062
        21  -8.4514    131.9803      6.0801   5.1434455226e+01   5.1239600182e+01    0.3240661    0.2028681 -44.14  0.001608232    1.853    0.460
        22  -7.7796    134.3505      3.1291   4.9926315940e+01   5.0914424715e+01    0.1774188    0.1695734   0.46 0.0001550391    1.135    0.119
        23  -9.3961     76.6605      6.2392   6.5130485840e+01   6.3491133207e+01    0.3494974    0.2694002   8.54  0.000977434    1.158    0.136
        24  -8.3747     11.7091      5.3124   9.3160161740e+01   7.2713064532e+01    0.2020255    0.1943246 -53.92  0.000634701    1.734    0.423
        25  -9.5680      8.1741      5.5283   9.5234723150e+01   7.2961219824e+01    0.3714596    0.1844929   3.46  0.001924356    2.384    0.581
        26  -7.8753    100.4011      6.2127   5.8335412579e+01   5.8604984344e+01     0.177524    0.1162921 -32.08 0.0009418669    1.667    0.400
        27  -8.6625     92.8108      5.3586   5.9949384221e+01   6.0321753453e+01    0.4092228    0.1540137  47.41  0.001753776    2.253    0.556
        28  -9.5984     84.9244      5.4335   6.2210911669e+01   6.1946432459e+01    0.2692347    0.2162288   9.53  0.001666223    1.124    0.111
        29  -8.3633    125.4096      3.7745   5.1813135362e+01   5.3040752876e+01    0.2361206    0.1917928  15.26 0.0005923471    1.273    0.214
        30  -8.4779     57.6587      3.2076   7.0310316840e+01   6.7207139903e+01     0.216063    0.1769605  20.82 0.0006800462    1.137    0.120
        31  -7.7692    143.1541      2.1475   4.8099461002e+01   4.8808668767e+01    0.2040968    0.1589094  44.45 0.0003553135    1.208    0.172
        32  -8.1699    109.9184      2.1055   5.4355684984e+01   5.6832600617e+01     0.190002    0.1772046  76.81 0.0005903121    1.233    0.189
        33  -8.2453    105.2455      1.7225   5.5254638627e+01   5.7927736607e+01    0.2792963    0.1487417  48.99   0.00114682    1.604    0.377
        34  -7.7220      2.8345      1.3471   9.6268639612e+01   7.4002394020e+01    0.1406045   0.08298274  -2.33 0.0004198804    1.681    0.405
        35  -8.2413     66.0110    128.5084   1.0803151855e+02   4.1327722098e+01    0.3685854    0.1991039 -25.81  0.001227689    4.645    0.785
        36  -9.9567    206.3497    250.0160   9.7114865898e+01  -5.2191791924e+00    0.3458558    0.1238591  41.07  0.001666902    2.255    0.557
        37  -9.9343    182.4245    249.7792   1.0129876489e+02  -1.5108348333e+00     0.512133    0.1178059  36.35   0.00172434    4.426    0.774
        38  -7.4664    153.0517    123.9936   8.4182264245e+01   2.6498072502e+01    0.1864582    0.1838734  47.29  0.000518174    1.018    0.017
        39  -8.8139     11.8044    121.3864   1.2173182851e+02   4.8500282600e+01    0.2820317   0.06598735 -55.23  0.001094613    3.388    0.705
        40  -7.8445     99.6733    119.3132   9.6825063685e+01   3.8315007128e+01    0.2799863    0.1849533  12.28  0.001144868    2.496    0.599
        41  -7.9388    119.0399    119.0056   9.1501624421e+01   3.4764606936e+01    0.2390025    0.1906259  -3.75 0.0009194128    1.683    0.406
        42  -8.5003    239.6019    113.9902   6.4553226672e+01   9.0954563653e+00     0.400858     0.133774 -24.78 0.0009611512    6.235    0.840
        43  -8.5663    209.4804    111.8133   6.9167378786e+01   1.6013711640e+01    0.2491122      0.21298  47.51 0.0004502756    1.222    0.182
        44  -7.4549     28.6272    112.7253   1.1594239707e+02   4.9202784157e+01    0.1259599   0.08320573 -40.77 0.0007003754    1.686    0.407
        45  -7.9797     39.1563    109.8526   1.1240798123e+02   4.8906157024e+01    0.1860502    0.1293717 -51.28  0.001062354    1.327    0.246
        46  -9.1283      2.8508    109.3815   1.2279154345e+02   5.1841154409e+01    0.3116784    0.1495597 -36.36  0.001592377    2.753    0.637
        47  -8.2419    133.9428    106.9453   8.4504298496e+01   3.4361693902e+01     0.415249    0.2077115 -40.10  0.001567178    2.036    0.509
        48  -7.8968    214.6932    108.6403   6.7427721285e+01   1.5398056990e+01    0.1560725    0.1159168   5.74  0.000704026    1.732    0.423
        49  -7.7401    124.4311    106.8167   8.6963541024e+01   3.6409716071e+01    0.2215298    0.1435055 -34.61 0.0009383264    1.681    0.405
        50  -7.8921    109.4567    106.6669   9.1014992638e+01   3.9437548547e+01    0.2487375     0.189821  12.90 0.0008493954    1.725    0.420
        51  -7.5437     76.2475    107.3803   1.0082229968e+02   4.4929536343e+01    0.1468367   0.09969997 -35.92 0.0002475723    1.647    0.393
        52  -9.3688     14.1798    105.6236   1.1909886286e+02   5.1986348611e+01    0.3123733    0.1433102 -49.13  0.001599338    2.034    0.508
        53  -7.7370     67.0082    104.4923   1.0295554676e+02   4.6922518490e+01    0.1850847    0.1220825  -6.34 0.0008103349    2.530    0.605
        54  -8.8110    246.5076    102.0138   6.0653579046e+01   9.6012939792e+00    0.2236411    0.1265073 -33.13  0.001030026    1.584    0.369
        55  -9.7856    241.5453     97.1297   6.0215765372e+01   1.1424914931e+01    0.4868538    0.2722415  66.71  0.002111635    2.358    0.576
        56  -7.8962    130.0255     96.9998   8.2784853105e+01   3.7350840969e+01    0.2738857    0.1613594  25.39 0.0005851378    2.540    0.606
        57 -10.2898     12.4203     94.0899   1.1795544152e+02   5.4764556859e+01    0.5449237    0.3318278  -8.75  0.002997347    2.380    0.580
        58  -8.7080     43.7582     91.9850   1.0754410039e+02   5.2640377422e+01    0.3096239    0.2360932 -11.41  0.001791625    1.653    0.395
        59  -8.4990     96.3937     90.6802   9.0490856539e+01   4.5458195838e+01    0.4799759    0.3105017   1.16  0.001850064    2.852    0.649
        60  -8.1405    109.7116     90.9695   8.6654352239e+01   4.2875559350e+01    0.4239313    0.2148193  24.47  0.001339212    3.729    0.732
        61  -8.4945    246.5189     89.5028   5.7664852463e+01   1.1577115624e+01    0.1414069    0.1255845 -38.24 4.497982e-05    1.006    0.006
        62  -9.0185     34.3118     83.3488   1.0882633841e+02   5.5546479355e+01    0.5097286    0.1591846 -52.53  0.002101271    2.418    0.586
        63  -9.7622     38.6232     80.1238   1.0661849985e+02   5.5873760388e+01    0.4879894    0.3132202 -10.73  0.001213024    2.145    0.534
        64  -8.8540      2.4455     85.7246   1.1984579662e+02   5.7242251027e+01    0.2305582   0.09454374 -74.60  0.001131936    2.031    0.508
        65  -8.0613    126.2716     83.9103   7.9947777825e+01   4.0899641161e+01    0.3033451    0.2035643  18.14  0.001229609    2.142    0.533
        66  -7.9178     66.0206     84.2812   9.8346488909e+01   5.1726311710e+01    0.1856705    0.1724953 -23.01 0.0004086014    1.116    0.104
        67  -8.6901     20.0299     84.6212   1.1390347924e+02   5.6414966181e+01    0.2397453    0.1217816  19.53  0.001261772    2.494    0.599
        68  -9.7395      8.3039     77.1934   1.1652446352e+02   5.8841857691e+01    0.4963725     0.221883 -35.44  0.001907393    2.503    0.600
        69  -8.7819     87.8789     79.0525   8.9739994202e+01   4.9490695364e+01    0.4948333    0.2861447  17.15  0.001920099    2.835    0.647
        70  -8.8354     49.1237     77.4535   1.0230252914e+02   5.5371720088e+01    0.5030235    0.2710786  -0.37  0.001982715    3.662    0.727
        71  -7.5308    184.4437     78.4154   6.4927486972e+01   2.7976570088e+01    0.1507877    0.1498351 -11.29  0.000177318    1.030    0.029
        72  -7.2530    120.3520     76.2726   7.9195376298e+01   4.3723779812e+01    0.1551749    0.1185956  10.78 0.0006589521    1.635    0.388
        73  -7.5852    105.5140     76.4965   8.3522617503e+01   4.6757184980e+01    0.1495374    0.1408944 -23.81 3.448505e-05    1.009    0.009
        74  -9.3750     29.2199     68.8953   1.0730259739e+02   5.9225740743e+01    0.3977811     0.196366 -18.68  0.001695902    3.354    0.702
        75  -9.1948     23.6348     74.1205   1.1054103066e+02   5.8517195520e+01    0.4243032    0.1607039 -47.56  0.001963053    2.148    0.534
        76  -8.2292     23.7120     69.7080   1.0952447200e+02   5.9488925476e+01    0.2347032    0.1782111  55.95  0.001308002    1.732    0.423
        77  -8.3232     74.8786     74.2266   9.2529682402e+01   5.2642736800e+01    0.2396262    0.1835286 -31.59 0.0003783337    1.264    0.209
        78  -9.7610    113.6357     71.3180   7.9494280225e+01   4.6131223851e+01    0.2630918    0.2509485  -1.88 0.0002717107    1.029    0.028
        79  -8.2941     49.2128     71.4050   1.0065449926e+02   5.6695227750e+01    0.1732996    0.1219082  42.31 0.0009560353    1.716    0.417
        80  -8.3671    105.9070     67.5472   8.0508251673e+01   4.8459200389e+01     0.454292    0.2972761 -15.72  0.001949779    2.024    0.506
        81  -8.9342     83.6033     64.7694   8.6605101126e+01   5.3178390698e+01    0.6131237     0.351818 -12.53  0.002210297    3.378    0.704
        82  -7.9799    209.3550     64.5973   5.6765495763e+01   2.4064607405e+01    0.2827715    0.1826425 -30.55 0.0006835459    1.545    0.353
        83  -9.0292     19.5845     61.2155   1.0906304955e+02   6.1639182843e+01    0.3200795     0.159889 -26.02  0.001275926    2.464    0.594
        84  -9.5843     62.6017     61.4344   9.2806132293e+01   5.7109839162e+01    0.6363603    0.2660353  25.85  0.002225066    3.286    0.696
        85  -9.6488     37.4723     58.8494   1.0147284450e+02   6.0628285549e+01    0.3712835    0.1982876 -30.00  0.001114278    2.064    0.516
        86  -8.4279     11.1839     61.0774   1.1226833288e+02   6.2214790803e+01     0.187978     0.125951 -45.48 0.0005552159    1.221    0.181
        87  -8.8013     27.1101     59.9129   1.0580769835e+02   6.1341190117e+01    0.1762128    0.1595114 -76.00  0.001047862    1.296    0.228
        88  -8.1971    111.4277     58.4000   7.5772249955e+01   4.9014451003e+01    0.3315506    0.2026646  17.17  0.001292473    2.532    0.605
        89  -8.4400     98.6101     56.7432   7.9009544245e+01   5.1943702111e+01    0.4081154    0.2330119  -6.88  0.001374633    3.667    0.727
        90 -10.0018     74.9919     50.5140   8.4569098816e+01   5.7352438231e+01    0.4713967    0.2814499 -20.20 0.0003715341    2.035    0.509
        91  -7.2889    184.0057     54.7511   5.8123131992e+01   3.1968798449e+01    0.1779824    0.1268885  62.18 0.0002507716    1.396    0.283
        92  -6.9466     76.3075     69.2879   9.0521227396e+01   5.3459645318e+01    0.1406383    0.1035061 -15.03 0.0001906868    1.573    0.364
        93  -8.2439    118.4016     51.0080   7.1214570673e+01   4.8757717445e+01    0.2696548    0.1997158  40.09 0.0006102568    1.337    0.252
        94  -8.9684     45.0483     49.3939   9.5486421049e+01   6.1741135529e+01    0.3801663    0.2027794 -27.24  0.001559424    2.118    0.528
        95  -7.8422    106.8314     48.7890   7.3659011677e+01   5.1647219640e+01    0.3014426    0.1528128  29.99  0.001127567    2.659    0.624
        96  -9.3750     54.9975     44.6766   8.9858784611e+01   6.1406735286e+01    0.6724435    0.2955222 -25.47  0.002386137    3.784    0.736
        97  -8.4532     10.5056     47.4783   1.0921906659e+02   6.5114574970e+01     0.231527    0.1709682 -59.73  0.001007027    1.204    0.170
        98  -9.0983     13.7842     45.6309   1.0731970736e+02   6.5287434892e+01    0.3187239    0.2236451  33.18  0.001461625    1.834    0.455
        99  -9.3597      3.5921     40.1325   1.1022676996e+02   6.6984408152e+01    0.8223616          nan -53.43  0.002797756    4.421    0.774
       100  -8.8065      6.0261     34.1274   1.0738856984e+02   6.8039127656e+01    0.3462469    0.1681662 -11.56  0.001643873    2.588    0.614
       101  -8.2578      2.8245     31.8041   1.0817450173e+02   6.8661199647e+01    0.1645402    0.1549123 -33.11 0.0007018456    1.306    0.234
       102  -8.2436      1.3219     28.6985   1.0792851953e+02   6.9332967396e+01    0.1860234    0.1388314 -37.25 0.0007354197    1.072    0.067
       103  -7.3252    142.4827     44.4411   6.2985624416e+01   4.4077480757e+01    0.1507115    0.1386959  29.83 0.0001065089    1.074    0.069
       104 -10.9959     83.1526     40.0753   7.7755597340e+01   5.7748861798e+01    0.3484642    0.2485853 -16.67            0    1.412    0.292
       105  -8.9945     87.3408     38.2772   7.5649809293e+01   5.7258602205e+01    0.2855417    0.2265942   5.87 0.0005577694    1.261    0.207
       106  -7.8515    113.8220     41.9311   6.9144095114e+01   5.1220483424e+01    0.3159049    0.1589077  30.52  0.001175145    2.678    0.627
       107  -8.2329     16.3030     41.3422   1.0496299892e+02   6.5977234416e+01    0.1284473   0.06712446 -35.09 0.0004699467    1.679    0.404
       108  -7.4028    124.4359     39.4770   6.5470848275e+01   4.9157670024e+01     0.147504    0.1336173  19.44 0.0001496682    1.068    0.064
       109  -8.2116     92.4790     37.4860   7.3685341190e+01   5.6388387143e+01    0.2928849    0.1919443 -44.02 0.0008612496    1.693    0.409
       110  -9.7109     69.0042     36.5421   8.1331649506e+01   6.0761495913e+01    0.4657755    0.2583592  14.50  0.001981021    2.718    0.632
       111  -8.1473     38.5038     35.5050   9.3186166690e+01   6.5095221960e+01    0.2152486    0.1551555   2.89 0.0007255559    1.452    0.311
       112  -8.0956     35.5379     37.5466   9.5239546678e+01   6.5038829094e+01    0.2290539    0.1536893 -39.43 0.0007583293    1.220    0.180
       113  -9.1466     19.6412     36.1197   1.0178574285e+02   6.6747721397e+01    0.2386156    0.2214285  26.67  0.000969807    1.427    0.299
       114  -9.0552     21.6624     32.0292   9.9423442618e+01   6.7355736280e+01    0.2951063    0.1973381   7.99  0.001080836    1.644    0.392
       115  -7.8679    106.4457     36.4932   6.9122218162e+01   5.3648516018e+01    0.2554385    0.1166327  40.57 0.0009476605    2.230    0.551
       116  -9.0346     55.6641     35.1093   8.5877652120e+01   6.3016054322e+01    0.2990946    0.1788975 -43.46 0.0008745698    1.616    0.381
       117  -7.7056     46.0891     35.4723   8.9944357406e+01   6.4215262866e+01    0.1698668    0.1193515  24.08 0.0004332681    1.521    0.343
       118  -7.8421    143.9571     27.7111   5.6887654539e+01   4.5968483516e+01    0.2044148    0.1750293  60.14 0.0003991269    1.119    0.106
       119  -8.5418     42.6103     27.9285   8.8344206835e+01   6.5936771044e+01     0.207623    0.1505888   2.11 0.0007006334    1.369    0.270
       120 -10.1733    194.2306    249.1892   9.9124207667e+01  -3.2689246316e+00     0.354737    0.2382604 -47.45  0.002269992    2.055    0.513
       121  -9.2669     69.8743     26.1394   7.6619018533e+01   6.2232876794e+01    0.2858873    0.1983132  -5.25 0.0006761464    1.478    0.323
       122  -8.5592     61.7222     27.0465   8.0085807727e+01   6.3422241285e+01    0.2777491    0.1823494  11.58 0.0006224024    1.675    0.403
       123  -8.7818     63.7964     23.6092   7.7768174380e+01   6.3605126687e+01    0.2229707    0.2109304  29.79  0.001122211    1.350    0.259
       124  -7.8746    109.6842     26.0065   6.4114980539e+01   5.4365044021e+01    0.1990567    0.1786709 -13.33  0.001161603    1.123    0.109
       125  -7.9771    132.4805    125.0196   8.9477204451e+01   3.0686434893e+01    0.3049227    0.1956167   5.76  0.001027545    3.392    0.705
       126  -7.0380    102.3043     25.2939   6.5831212403e+01   5.6075153021e+01     0.142746    0.0971698  20.80 0.0002911159    1.578    0.366
       127  -7.5268     84.2038    248.9436   1.1870789862e+02   1.3548112617e+01    0.1305006   0.08327912 -75.82 0.0005767163    1.724    0.420
       128  -7.4892    129.1983     22.5616   5.8106200472e+01   5.0226043925e+01    0.2028676    0.1174035  46.85 0.0007973034    1.597    0.374
       129  -8.8782     92.5410     20.4941   6.6643256553e+01   5.8730243046e+01    0.2636772    0.2015831  19.46 0.0006508261    1.245    0.197
       130  -9.2062      8.3524     20.3993   1.0153706738e+02   7.0455270130e+01    0.3203369    0.2173243  19.70  0.002215109    1.727    0.421
       131  -9.6453    160.7963    248.3359   1.0498735729e+02   2.0861342292e+00    0.2822908    0.1214077  28.97  0.001199811    3.094    0.677
       132  -8.3214    140.2771     20.0405   5.4912428203e+01   4.7784827016e+01    0.2337835    0.1876313  62.04 0.0003754935    1.184    0.155
       133 -10.3666    151.8009    245.8853   1.0631083241e+02   3.8610439710e+00    0.3368861    0.2616384  18.88  0.001812164    1.487    0.328
       134 -10.8384    169.1682    248.5940   1.0351322871e+02   7.2804421020e-01    0.5333172    0.1750208  45.27  0.002354591    2.550    0.608
       135  -7.2706    151.6345     17.7378   5.2036346961e+01   4.5169437090e+01    0.1508948   0.09522396  39.82 0.0005426565    1.643    0.392
       136  -8.1184    127.4372     16.8356   5.6345149184e+01   5.1290841621e+01    0.2156131    0.1808996  65.45 0.0003729317    1.206    0.171
       137 -10.1193    120.3614    243.7665   1.1178933390e+02   9.1083214413e+00    0.2084562     0.189877  64.32 0.0004405421    1.185    0.156
       138  -9.4561    166.7853    239.0583   1.0268308358e+02   2.4447127131e+00    0.3040161    0.1446366 -53.93  0.001505385    2.967    0.663
       139  -7.4203    127.5774    241.5068   1.1022205538e+02   8.3510707975e+00    0.1189953   0.09596899  49.58 0.0008053402    1.029    0.028
       140  -9.5543    188.2353    234.0675   9.8024386841e+01  -3.4169435606e-01    0.2312004    0.2175545  88.99 0.0009680358    1.469    0.319
       141  -8.0881    122.9135    229.2341   1.0967123644e+02   1.1106870846e+01    0.1881492    0.1364914  58.95 0.0004854234    1.238    0.192
       142  -7.9363    168.7343     12.9697   4.7800031382e+01   4.1280311277e+01    0.2417043    0.1677873  57.80 0.0006006387    1.326    0.246
       143  -8.1196     87.9369     12.8638   6.4684988766e+01   6.0561339500e+01    0.2117976    0.1548685  22.38 0.0006639902    1.276    0.217
       144  -7.3887    219.4700    222.5582   9.0526038605e+01  -3.8453498293e+00    0.1226218    0.1002248  21.50 0.0008064032    1.055    0.052
       145  -8.3744    231.9623    218.9904   8.7707001043e+01  -5.3555929428e+00     0.178298    0.1453382  12.94 0.0003551647    1.044    0.042
       146  -8.2503     11.1868    207.2260   1.2864138333e+02   2.9905265891e+01    0.1559739    0.0975999 -46.20 0.0009469527    2.774    0.640
       147  -8.3759    123.9774    206.0011   1.0647611898e+02   1.5106171252e+01    0.1811689    0.1583457  54.20            0    1.031    0.030
       148  -7.7029    229.2188    199.9804   8.4792184107e+01  -2.3907653598e+00     0.177614    0.1523529 -67.36 0.0009688042    1.943    0.485
       149  -7.1643    250.3237    194.3186   8.0046943609e+01  -5.0441689386e+00    0.1319834   0.08314864   6.37 0.0007044739    1.672    0.402
       150  -7.9464    244.7645    192.3886   8.0626138489e+01  -3.8983194254e+00    0.1775933    0.1042065  28.70 0.0009460557    1.611    0.379
       151  -8.0354    219.2242    190.8991   8.4900453340e+01   6.3222534972e-01    0.1784978    0.1698564  13.76  0.000417719    1.223    0.182
       152  -7.3395    229.5171    186.4829   8.2166234075e+01  -5.0909564790e-01    0.1319052    0.1138615   7.38 0.0008100047    1.031    0.030
       153  -8.3104    188.0037    182.2962   8.9279459681e+01   7.7658712927e+00    0.2156606    0.1937169 -24.57 0.0003954924    1.165    0.142
       154  -7.7568    242.9966    176.7607   7.7851837920e+01  -1.4099028538e+00    0.1805766    0.1504104  10.79 0.0003673733    1.067    0.063
       155  -8.5405    208.0691    166.1009   8.2035301875e+01   6.6742843946e+00    0.2056312    0.1896185  14.63 0.0003087954    1.044    0.042
       156  -8.1088     73.1069    164.3992   1.1187536730e+02   3.1910349164e+01    0.1983046    0.1654796 -66.75 0.0003854223    1.194    0.163
       157  -7.4275    169.0000    164.5132   8.9712099522e+01   1.4780671324e+01     0.197631      0.12393  20.24 0.0004688823    2.250    0.556
       158  -7.6036    133.4837    147.9879   9.4387721015e+01   2.5377562439e+01    0.2098949    0.1281871 -27.51 0.0008091492    2.497    0.599
       159  -8.8612     67.1595    144.8137   1.1044913848e+02   3.7288731645e+01     0.411869    0.2548179  76.17  0.001970388    1.949    0.487
       160  -7.6775    226.9451    141.9978   7.3220016162e+01   7.0186587462e+00    0.1700821     0.154137  -9.28 0.0003227825    1.001    0.001
       161  -7.4546    171.0703    139.0044   8.3673465554e+01   1.9422598035e+01    0.1745458    0.1689942  28.39            0    1.017    0.017
       162  -7.4269    108.3355    137.3249   9.8435202741e+01   3.2563609100e+01    0.1480501    0.1178488 -16.25 0.0007051249    1.716    0.417
       163  -7.5360    125.4958    136.4331   9.3871038350e+01   2.9531343167e+01    0.1480216    0.1454909  85.43 0.0001399148    1.030    0.029
       164  -7.4029     55.6576    134.7042   1.1186113575e+02   4.1162979394e+01    0.1306323   0.09682558 -37.51 0.0004689771    1.663    0.399
       165  -7.6148      4.9726    134.0000   1.2475696403e+02   4.6086355189e+01    0.1544986   0.06741998  23.91 0.0008000277    2.926    0.658
