#   1 NUMBER                 Running object number                                     
#   2 MAG_AUTO               Kron-like elliptical aperture magnitude                    [mag]
#   3 X_IMAGE                Object position along x                                    [pixel]
#   4 Y_IMAGE                Object position along y                                    [pixel]
#   5 X_WORLD                Barycenter position along world x axis                     [deg]
#   6 Y_WORLD                Barycenter position along world y axis                     [deg]
#   7 A_WORLD                Profile RMS along major axis (world units)                 [deg]
#   8 B_WORLD                Profile RMS along minor axis (world units)                 [deg]
#   9 THETA_WORLD            Position angle (CCW/world-x)                               [deg]
#  10 FWHM_WORLD             FWHM assuming a gaussian core                              [deg]
#  11 ELONGATION             A_IMAGE/B_IMAGE                                           
#  12 ELLIPTICITY            1 - B_IMAGE/A_IMAGE                                       
         1 -11.2391     30.6337     15.7855   6.4406950127e+01   7.3669273362e+01    0.3475617    0.1205105 -45.45  0.001326481    2.848    0.649
         2 -11.1670    214.1872     10.7344   1.7650620601e+01   3.0263062226e+01    0.2317687    0.1433098 -77.17 0.0008841936    1.597    0.374
         3 -11.3595     84.5285      9.3787   3.4368324136e+01   6.3011184121e+01    0.4268895    0.1932524 -43.56  0.001694157    2.524    0.604
         4 -10.5649     54.5366     10.8442   4.6486454666e+01   7.0011947863e+01    0.2863734    0.2010762  26.85  0.001460449    1.507    0.337
         5 -10.8055     40.4974     10.5129   5.4133020662e+01   7.2910978346e+01    0.1345396    0.1241159  17.01 0.0008100347    1.050    0.048
         6 -10.2351     78.8522      7.8563   3.5216115326e+01   6.4621753420e+01     0.187607    0.1617935 -86.62 0.0003115771    1.278    0.217
         7 -11.1362     88.7307      4.4374   3.0683621592e+01   6.2430786534e+01    0.2470045     0.204247  79.89 0.0009767599    1.188    0.159
         8 -10.2856      4.3183      5.6614   8.2788607094e+01   7.8640268167e+01    0.1204772   0.09426689  56.06 0.0007049221    1.707    0.414
         9 -10.2048    101.5125      2.4991   2.6953625158e+01   5.9224546649e+01     0.142585    0.1280529  68.17 -0.000166503    1.016    0.016
        10 -10.5051     93.6485      9.2822   3.1927103250e+01   6.0655298033e+01     0.147504    0.1052981 -72.13 0.0004876106    1.654    0.395
        11 -12.4746    116.1443    240.2476   8.3028060653e+01   1.2026860790e+01    0.2337705    0.1766788  26.91 0.0004558332    1.018    0.017
        12 -13.6224     32.6101    206.6392   9.9470053967e+01   2.7353862971e+01    0.7560237    0.5325497  58.28  0.002156191    1.246    0.197
        13 -13.7833     65.6822    243.8131   9.4085972217e+01   1.7191448295e+01    0.7549716    0.5056221  56.09  0.002662488    1.464    0.317
        14 -15.3680     54.7282    229.4943   9.5591989671e+01   2.0795360459e+01     2.418844     1.114917  46.37   0.01331358    1.749    0.428
        15 -14.2293      5.2295    248.2938   1.0690866662e+02   2.2085777493e+01    0.9267927    0.5996224  28.39  0.006804866    1.316    0.240
        16 -14.9691     87.4261    206.8200   8.6078495558e+01   2.1199499282e+01     1.452218     1.237293 -76.70  0.009185987    1.433    0.302
        17 -15.4972     94.9872    194.3282   8.2835308653e+01   2.2611163941e+01      1.75862     1.252086  88.54  0.009673328    1.933    0.483
        18 -14.2820      4.2251    221.0038   1.0658912565e+02   2.6998514389e+01     1.091842    0.4460795 -82.37  0.005947338    2.658    0.624
        19 -15.4864     20.3154    213.6412   1.0271408591e+02   2.7085949988e+01     1.942459    0.9690384  72.59  0.008762652    2.009    0.502
        20 -15.7925     69.8222    208.3485   9.0492790101e+01   2.3050319555e+01     4.955508    0.2099519  40.92   0.01338388    6.027    0.834
        21 -10.8327    207.8498    238.1913   6.5263795556e+01   1.6524323766e+00    0.1484127   0.09263805   2.20 0.0005500112    1.305    0.233
        22 -11.2465    214.3042    233.1594   6.3494490437e+01   1.5145987155e+00    0.1982818    0.1336991   3.51 0.0003083314    1.097    0.088
        23 -12.0470    220.1164    230.9592   6.2231914005e+01   1.1364953899e+00    0.2212273     0.156964   9.31 0.0004462655    1.086    0.079
        24 -11.0372    113.9383    232.9236   8.2750611780e+01   1.3410210593e+01    0.2096107    0.1711654  61.78 0.0006548863    1.569    0.363
        25 -10.4609    113.0175    227.9780   8.2431259478e+01   1.4304390026e+01    0.2108908    0.1741932 -32.86  0.001045412    1.469    0.319
        26 -10.3942     97.8577    233.4307   8.6284637964e+01   1.5265356727e+01    0.1755587    0.1663395  67.93 0.0006887567    1.326    0.246
        27 -10.0798    180.4745    232.5407   6.9338588699e+01   5.3809457358e+00    0.1134506   0.08392914  13.57 0.0008085056    1.032    0.031
        28 -10.3308    130.9779    232.4490   7.9091167809e+01   1.1392804247e+01    0.1899635   0.09150387  29.23  0.001030161    1.598    0.374
        29 -11.4702    192.7790    227.4509   6.6407227756e+01   4.5724874064e+00    0.3098299    0.2080111 -59.08  0.001687941    3.810    0.738
        30 -10.3199    230.4490    228.4979   6.0230828661e+01   3.2102737365e-01    0.1068309   0.07228236   2.09 0.0001255359    1.043    0.041
        31 -11.3540    214.8787    226.4423   6.2451114212e+01   2.1963313883e+00    0.1749672    0.1478181   9.47 0.0006761012    1.436    0.303
        32 -16.7150     68.2477    187.8123   8.8976926028e+01   2.7389265854e+01     3.076756     2.568859   2.13   0.01869194    1.381    0.276
        33 -10.2899    152.3034    225.6685   7.3884684177e+01   9.7235923660e+00    0.1097252   0.08326105  46.38 0.0007036006    1.655    0.396
        34 -11.6676    125.5749    222.1248   7.9045253408e+01   1.3655632124e+01    0.3047879    0.2369209 -63.83   0.00154644    1.801    0.445
        35 -11.1308     88.4140    231.6334   8.8201928821e+01   1.6674577959e+01    0.3511474    0.2559504 -87.37  0.002294534    1.879    0.468
        36 -10.6659    159.6826    221.8865   7.1906550541e+01   9.3299777579e+00     0.215952     0.129976  17.80  0.001056508    1.434    0.303
        37 -11.0354    223.3404    220.3835   6.0183772176e+01   1.9491598894e+00    0.1889281    0.1461055   5.75 0.0005561459    1.197    0.164
        38 -11.1928    173.5364    219.9861   6.8932737604e+01   7.8497726392e+00    0.2129255    0.1663393  18.08  0.001004757    1.109    0.098
        39 -10.2457     77.8365    228.8377   9.0331170481e+01   1.8374510693e+01    0.1738041    0.1373451  20.93 0.0006845135    1.195    0.163
        40 -11.5475    118.1386    216.0930   7.9968689452e+01   1.5596292168e+01    0.1981321    0.1682488 -27.94 0.0006407975    1.372    0.271
        41  -9.9234    193.3038    219.6753   6.5209303609e+01   5.4702842160e+00   0.09756704   0.08464242  34.57 0.0007032141    1.641    0.391
        42 -10.1657    207.4937    218.4984   6.2543200638e+01   3.9443583130e+00    0.1132504    0.0821276   5.21  0.000810599    1.017    0.017
        43 -15.2863      8.9669    227.3745   1.0569153777e+02   2.5441393410e+01     1.010661    0.8871607   0.91  0.007833836    1.492    0.330
        44 -10.2719    223.7923    216.1604   5.9482673070e+01   2.3721169775e+00    0.1559522     0.120569   9.55  0.001129678    1.214    0.176
        45 -11.1694     83.9506    227.7343   8.8861567733e+01   1.7857235533e+01    0.3334741     0.195746  64.80  0.001836166    2.237    0.553
        46 -11.1050    184.1780    213.8813   6.6039131353e+01   7.3360131075e+00    0.1651791    0.1371345  14.56 0.0003672607    1.202    0.168
        47 -11.4523    125.2234    213.0001   7.8015011229e+01   1.5179259983e+01     0.272461    0.2046739 -22.26  0.001279698    1.538    0.350
        48 -13.8779     39.3409    246.6241   9.9838540361e+01   1.9379339437e+01    0.8368047    0.3585791  29.02  0.003643526    1.732    0.423
        49 -10.9271    137.4223    211.0458   7.5086771733e+01   1.3869685780e+01    0.4149213    0.2648647 -12.58  0.002264938    1.997    0.499
        50 -11.1767    142.3889    211.6424   7.4098416039e+01   1.3109656582e+01     0.224053    0.1732572   7.08  0.001445301    1.195    0.163
        51  -9.6276    247.3188    212.6997   5.5333084432e+01   2.4087380423e-01   0.08581571   0.07456774  -2.41 0.0002775338    1.620    0.383
        52 -10.8269    210.0941    211.8377   6.1101616514e+01   4.4399226623e+00    0.1625804    0.1348526  13.54  0.001006008    1.319    0.242
        53 -11.8272    154.2151    210.5482   7.1460489990e+01   1.1697632111e+01    0.3417939    0.2369634  13.80  0.002113561    1.272    0.214
        54 -11.5763    228.8683    208.0003   5.7426688161e+01   2.7310631806e+00    0.2446863    0.1782776 -15.42  0.001841981    1.223    0.182
        55 -10.1583    248.4800    206.4887   5.4211172513e+01   7.7379585670e-01    0.1051734   0.07478477  -3.26 -1.712718e-05    1.038    0.037
        56 -10.8482    123.9449    205.7777   7.7381657020e+01   1.6567460607e+01    0.1935076    0.1797934  -9.02 0.0006401466    1.205    0.170
        57 -13.0148    147.2750    203.2950   7.1889356246e+01   1.3768327426e+01    0.5043578    0.2974619  27.76  0.002807151    1.421    0.296
        58 -10.9875    224.8627    199.1560   5.6671462783e+01   4.2208470612e+00    0.2043601    0.1668203 -19.16   0.00154629    1.374    0.272
        59 -10.5358    212.2436    199.6631   5.8836345952e+01   5.6785842027e+00    0.1880068    0.1282545 -36.53 0.0007800498    1.705    0.413
        60 -12.6677    124.3948    195.5766   7.5904632359e+01   1.8290386408e+01    0.4694151     0.336284 -22.27     0.002664    1.654    0.396
        61 -11.6782    134.7669    198.5557   7.3954010358e+01   1.6300196619e+01    0.2147751    0.1971857  42.33 0.0005805433    1.269    0.212
        62 -16.5786     26.8248    236.0830   1.0208228144e+02   2.2346356429e+01     1.486304     1.234835  57.84   0.01153062    1.185    0.156
        63 -10.7448    245.0281    197.8293   5.3354871618e+01   2.0798487544e+00     0.176696    0.1197818 -15.81 0.0003442646    1.177    0.151
        64 -12.4743    191.5861    194.2665   6.1622526855e+01   9.0424286993e+00     0.545124    0.2984164  16.20  0.002936783    1.879    0.468
        65 -10.5461    218.2644    194.0199   5.6914207280e+01   5.6411664070e+00    0.1615629    0.1236656  -6.08 0.0009194333    1.069    0.065
        66 -10.1838    212.6325    193.3260   5.7742223705e+01   6.4305725643e+00   0.09791844    0.0931856  46.61 0.0007035963    1.806    0.446
        67 -11.2539    163.2391    193.0753   6.6978734720e+01   1.3143084313e+01    0.3533586    0.1386066  35.80  0.001397926    2.245    0.555
        68 -11.7406    110.6015    188.0643   7.8162054059e+01   2.1654120668e+01    0.3030396    0.2282277  31.93 0.0005361341    1.131    0.116
        69 -12.3122      7.3419    186.5623   1.0495530868e+02   3.3714084731e+01    0.6122413    0.2955886  51.77   0.00330525    1.658    0.397
        70 -11.5810     10.9882    183.5231   1.0390512246e+02   3.4097028525e+01    0.3865822    0.2338434  51.52  0.002265213    1.347    0.257
        71 -11.0310    111.5264    192.0736   7.8481522445e+01   2.0759510346e+01     0.263875    0.1950044  50.52 0.0006441784    1.431    0.301
        72 -11.0766     17.4655    187.3418   1.0236506665e+02   3.2743608839e+01    0.4150784    0.2087108 -71.73  0.002184482    2.122    0.529
        73 -11.1168    123.6436    187.8082   7.4971577020e+01   1.9809479652e+01     0.266907    0.1838264  41.29 0.0007740435    1.365    0.267
        74  -9.9612    220.1882    187.6144   5.5535331260e+01   6.2028996814e+00     0.153296   0.09000548  19.69 0.0004381731    1.579    0.367
        75 -11.3181    135.8227    187.1562   7.2028398465e+01   1.8130097167e+01    0.1857847    0.1441508  -0.50  0.000750765    1.344    0.256
        76 -10.7055    248.3966    185.9350   5.0929020395e+01   3.0331598996e+00     0.191948    0.1364848  15.78 0.0005378253    1.291    0.225
        77 -12.1782    128.7282    184.8856   7.3331364807e+01   1.9595231939e+01    0.3691161    0.2525874  16.41  0.001918061    1.460    0.315
        78  -9.6165    186.3072    185.3264   6.1127788245e+01   1.1039855595e+01    0.1284132   0.08264111  -0.70 0.0003555343    1.652    0.395
        79 -11.5726     36.0561    181.2355   9.7071231931e+01   3.2397715301e+01    0.3522287    0.2103943  73.61   0.00107703    1.729    0.422
        80 -10.3386     38.2425    176.5820   9.6138397863e+01   3.3224042828e+01     0.221066    0.1753535 -57.98 0.0006143033    1.457    0.314
        81 -11.6019     42.5804    179.3316   9.5145812618e+01   3.2160623727e+01    0.4778543    0.2926361 -11.31  0.002038521    2.584    0.613
        82 -12.5123     51.4848    166.7556   9.1518019637e+01   3.4060881508e+01    0.6565613    0.1761872  39.21  0.002376686    2.840    0.648
        83 -11.5368     45.6235    176.0314   9.4035662544e+01   3.2580813589e+01    0.4496915     0.168108  43.60  0.001903049    2.220    0.550
        84 -11.8866     47.0729    170.6041   9.3155067404e+01   3.3662435033e+01    0.4657865    0.2758988 -34.06  0.001538561    2.448    0.591
        85 -10.6349      2.0293    182.9269   1.0622056810e+02   3.4888576884e+01       0.1808    0.1397696  50.69 0.0003528913    1.040    0.038
        86 -10.8857     24.1820    179.3070   1.0018651900e+02   3.3938448817e+01    0.2938565     0.218393  87.56  0.001330853    1.348    0.258
        87 -10.8941     22.0561    174.1606   1.0049088404e+02   3.5286607514e+01    0.4155349    0.1819157  69.32  0.001864394    2.378    0.580
        88 -11.8554    191.0678    178.8910   5.9124834643e+01   1.1302842521e+01    0.3589399      0.20774   0.82  0.001786565    2.215    0.549
        89 -15.1216     15.2655    237.5851   1.0460105201e+02   2.3092094247e+01     0.625197    0.4723148  47.60  0.003190686    1.060    0.057
        90 -11.7156    137.2852    177.1709   7.0103229397e+01   1.9706372848e+01    0.2249429    0.1646625 -38.13 0.0008167672    1.483    0.326
        91  -9.7378     33.7369    173.3629   9.7168488052e+01   3.4401912880e+01    0.2002307    0.1145009  31.05 0.0003263558    1.528    0.346
        92 -11.2374     31.4058    176.6828   9.8044982522e+01   3.3868944745e+01    0.4787985    0.1897726  27.25  0.001206119    2.170    0.539
        93 -11.2958     26.7801    173.0867   9.9108381704e+01   3.5115754101e+01     0.351945    0.1973068  68.08  0.001378829    1.746    0.427
        94  -9.6838      7.2669    175.3092   1.0460310730e+02   3.6200335518e+01    0.1110384   0.09024454 -47.97 0.0002003564    1.538    0.350
        95 -10.9537     17.5564    179.6930   1.0200053139e+02   3.4418152042e+01    0.2184828    0.2034648 -71.81 0.0008702198    1.269    0.212
        96 -10.2609      2.4027    170.6517   1.0577787747e+02   3.7594681256e+01    0.2299064     0.150611 -39.16  0.000872098    2.047    0.512
        97 -12.8820    152.8467    167.3843   6.4866662136e+01   1.9004072365e+01    0.5658299    0.2144904 -42.64  0.002282591    2.786    0.641
        98 -13.5678    124.8812    168.8365   7.1700057708e+01   2.3234631758e+01    0.7194826    0.3834865  20.12  0.002855557    2.262    0.558
        99 -12.9019    130.4960    169.5063   7.0436992731e+01   2.2209686954e+01    0.4670172    0.2419114  31.60  0.001798957    1.767    0.434
       100 -11.8183     82.3216    169.3426   8.3016557643e+01   2.9549011443e+01     0.391386    0.2035361  36.05  0.001794631    1.655    0.396
       101 -10.9314     54.5071    250.5216   9.6846281290e+01   1.7256179323e+01    0.4080452    0.1127964  29.54  0.001765529    2.468    0.595
       102 -10.6654     40.4563    168.5222   9.4879795703e+01   3.4847971568e+01    0.2698816    0.1284349 -77.40  0.001225316    2.238    0.553
       103 -11.2867    172.4396    167.2698   6.0671373560e+01   1.5896511329e+01    0.3092002    0.1240697 -43.78  0.001309719    2.678    0.627
       104 -11.5098     28.2872    166.3521   9.8245300758e+01   3.6540274033e+01    0.5498397    0.1855307  23.11  0.002040426    2.757    0.637
       105 -10.6217     10.8777    167.7558   1.0331473283e+02   3.7656785173e+01    0.3406356    0.1626978  33.57  0.001353818    1.754    0.430
       106  -9.9874     18.9906    166.9732   1.0096734172e+02   3.7202157578e+01    0.1877903    0.1465504 -34.74  0.001108255    1.634    0.388
       107 -11.2215    137.6192    166.2052   6.8156711690e+01   2.1689533655e+01    0.1855493    0.1244014 -33.59 0.0003621036    1.633    0.388
       108 -11.8309     73.0909    163.2978   8.4840271725e+01   3.2172934987e+01    0.2842382    0.2318786  48.60   0.00159975    1.127    0.113
       109 -12.8877     28.0635    160.1926   9.7884870286e+01   3.8019649704e+01    0.6904643    0.5205612   9.48 0.0004875409    1.507    0.336
       110 -13.3236     24.8527    144.9107   9.7748593695e+01   4.2039646481e+01    0.6703078    0.5016763 -29.62  0.001913249    1.669    0.401
       111 -13.1415     24.0638    153.3327   9.8617512615e+01   4.0030261291e+01    0.8612838    0.5313942   1.31  0.004255238    2.076    0.518
       112 -10.7976     35.9735    162.9373   9.5736105347e+01   3.6614166673e+01    0.2070288    0.1707199  54.53 0.0004307297    1.065    0.061
       113  -9.8530      5.0103    163.5399   1.0481634054e+02   3.9054581610e+01    0.1859979    0.1130041  24.34  0.001028224    1.586    0.370
       114 -12.3315    170.3636    160.2793   5.9790062291e+01   1.7383661757e+01    0.3602734    0.2875353   2.73  0.002128652    1.196    0.164
       115 -11.3348    205.3186    164.9671   5.4049414314e+01   1.1250604481e+01    0.2207305    0.1465831   7.12 0.0005973721    1.543    0.352
       116 -11.4139    103.9429    164.9230   7.6460590071e+01   2.7327479578e+01    0.2192163     0.193846  31.46 0.0005633187    1.013    0.013
       117 -11.3433     46.9529    158.5152   9.2042771257e+01   3.6517264341e+01    0.3085249    0.1935482  -5.69  0.001399633    2.331    0.571
       118  -9.9905    215.3229    158.3158   5.1120573265e+01   1.0731335941e+01    0.1265049   0.08141162   0.09 0.0005100351    1.664    0.399
       119 -11.8890    127.0290    156.2058   6.8947749568e+01   2.5394564860e+01    0.2557602    0.2297918  31.55 0.0002503273    1.053    0.050
       120 -12.3256    131.0138    155.7658   6.7869029739e+01   2.4808627058e+01     0.343732    0.2830083 -32.18 0.0004297228    1.285    0.222
       121 -12.7859    113.1910    156.6085   7.2606180641e+01   2.7615752605e+01    0.3943603    0.3245355 -82.41  0.002116954    1.540    0.351
       122 -11.8954     54.5910    246.8627   9.6631438120e+01   1.7841392876e+01    0.5816429    0.2045037  38.89  0.003084598    1.908    0.476
       123 -12.4954    101.5375    155.1053   7.5516042095e+01   2.9825386398e+01    0.4512365     0.197052  43.77  0.001771594    2.205    0.547
       124 -10.8427    108.9091    238.1445   8.4348415232e+01   1.3206349131e+01    0.2712219    0.1476461 -45.63  0.001393928    2.332    0.571
       125 -12.1455     81.3878    155.7610   8.1378986425e+01   3.2748518018e+01     0.352402    0.2006257  39.63  0.001076856    1.572    0.364
       126  -9.9753      7.9433    155.9332   1.0366292489e+02   4.0649366771e+01    0.2225287    0.1128675  53.49 0.0006706259    1.707    0.414
       127 -10.6470    141.5415    154.7710   6.5123875290e+01   2.3206544278e+01    0.1806533     0.138174 -58.37 0.0007627968    1.610    0.379
       128 -10.3101      2.9677    154.2938   1.0508148764e+02   4.1370983819e+01    0.2308745    0.1448908 -69.69  0.001277961    1.641    0.391
       129 -11.1196    212.4563    154.0250   5.0777256994e+01   1.1749784488e+01    0.1904324    0.1512843  20.81 0.0006842187    1.224    0.183
       130 -11.9643     88.4267    153.4769   7.8975232844e+01   3.2230268311e+01    0.3372969    0.2166415  52.79  0.001586425    1.637    0.389
       131 -13.3055     84.5138    149.1975   7.9444053386e+01   3.3808731098e+01    0.5554429    0.4479871  42.98  0.002982721    1.146    0.127
       132 -12.4910     80.5828    142.6701   7.9573651122e+01   3.5939836464e+01    0.6878211    0.2483767  43.50  0.002417943    2.656    0.624
       133 -11.3221     50.4724    154.0752   9.0499347262e+01   3.7189319653e+01    0.3169053    0.1580979  40.94  0.001218193    1.761    0.432
       134 -10.9883     37.3621    154.2957   9.4578657292e+01   3.8553011740e+01    0.3018506    0.1839612  18.99  0.001283881    1.713    0.416
       135  -9.7464    232.0407    152.0099   4.7326610509e+01   9.2087766766e+00     0.141218    0.1090982 -14.59 0.0003084154    1.041    0.039
       136 -12.3077    126.4376    151.5842   6.8236170339e+01   2.6431755602e+01    0.3567837    0.2296462  36.36   0.00072158    1.434    0.303
       137 -13.4983    109.0260    148.5408   7.2288636841e+01   3.0037865883e+01    0.8847855    0.3489193 -46.16  0.003163986    2.768    0.639
       138 -13.4445    102.0778    142.5673   7.3140075986e+01   3.2529024763e+01    0.7558131      0.42101  47.87  0.001362623    1.847    0.459
       139 -11.6144     44.8308    150.3471   9.1858613417e+01   3.8733516951e+01     0.295686    0.1857326 -72.37 0.0009243596    1.633    0.387
       140 -10.9407     60.0399    150.2563   8.7075313461e+01   3.6958928494e+01    0.2033474    0.1785246  41.45 0.0007061771    1.051    0.048
       141 -10.4339    154.7459    149.3797   6.1019424028e+01   2.1928721499e+01    0.1948606    0.1226259  27.97 0.0004517456    1.594    0.373
       142 -11.2047     97.4704    149.1559   7.5648043426e+01   3.1799931016e+01    0.2491031    0.1895725  52.83  0.000894216    1.348    0.258
       143 -10.6648     52.8451    149.0566   8.9183823569e+01   3.8134616876e+01    0.2322126     0.172835  60.49  0.001071475    1.315    0.240
       144 -10.1825    224.0431    148.0687   4.7783117287e+01   1.0867545650e+01    0.1727247    0.1421972 -51.17 0.0007914011    1.705    0.413
       145 -11.3471    171.9520    150.9621   5.7647897845e+01   1.8688277885e+01    0.2141422    0.1914885  -3.84  0.001005493    1.037    0.035
       146 -11.1568    169.8826    146.8416   5.7243738930e+01   1.9745248536e+01    0.2104622    0.1709003  -0.94 0.0004926488    1.214    0.176
       147 -12.1699    146.8192    150.2101   6.2995251181e+01   2.3159438841e+01    0.3906252    0.2480777  47.45   0.00188539    1.689    0.408
       148 -10.3118      4.8658    146.7907   1.0421233495e+02   4.3063015191e+01    0.2820552    0.1148077  32.82 0.0009800415    2.096    0.523
       149  -9.7722    207.7080    146.6449   5.0130383864e+01   1.3529220799e+01    0.1312378    0.0864279  -3.05  0.000536945    1.684    0.406
       150 -10.9520     57.0688    143.1637   8.7092838419e+01   3.9071672818e+01    0.3913418    0.1790852  42.74  0.001615903    2.000    0.500
       151 -11.5629     50.7625    143.6021   8.9192047388e+01   3.9728504941e+01    0.3627509    0.1563537  40.03  0.001487289    2.050    0.512
       152 -11.2464     36.3233    144.0806   9.3949078590e+01   4.1180510558e+01    0.3801137    0.1855844 -39.79  0.001519536    2.849    0.649
       153 -10.7459     40.9634    142.7784   9.2297412770e+01   4.1029448743e+01    0.3179048    0.1819008  -0.16   0.00133547    2.536    0.606
       154 -12.5116     93.3436    139.8742   7.5204693677e+01   3.4593308839e+01     0.511896    0.3073175 -77.88 0.0008442292    2.433    0.589
       155 -12.0042     11.3519    140.1356   1.0181677145e+02   4.4279565151e+01    0.4098653    0.3572407 -41.35   0.00164468    1.341    0.254
       156 -10.8683     12.1518    133.1563   1.0113224315e+02   4.5983538450e+01    0.3670509    0.1855238  27.05  0.001190106    1.878    0.467
       157 -12.6624    141.0000    138.0500   6.1887679477e+01   2.6550380704e+01    0.6498447    0.2378736 -35.56  0.002020443    3.738    0.732
       158 -10.9093    137.8580    130.8334   6.1095995018e+01   2.8574085692e+01    0.2562043    0.2136804  48.63 0.0007855576    1.245    0.197
       159 -11.3132    133.9312    131.0000   6.2115964440e+01   2.9286382952e+01    0.3404793    0.1913349  32.72 0.0008558519    1.831    0.454
       160 -11.2477    140.2682    134.3946   6.1282637608e+01   2.7408563346e+01    0.3383484    0.2544104  55.81 0.0008631239    1.536    0.349
       161 -12.1867    143.8532    132.1918   5.9935669246e+01   2.7166909229e+01    0.3507682    0.2794592  16.15 0.0009557039    1.328    0.247
       162 -10.8626     91.0355    236.5335   8.8050426464e+01   1.5562842215e+01    0.3374824    0.2658213 -26.39   0.00233111    1.630    0.387
       163 -13.4023     19.1450    154.8816   1.0022860920e+02   4.0063939457e+01      1.19921    0.4840073  67.49  0.004901763    2.657    0.624
       164 -10.7900    126.9801    138.7039   6.5546046149e+01   2.8990838799e+01     0.216339    0.1863753  33.70  0.001167473    1.094    0.086
       165 -11.9290     38.1086    138.1378   9.2746855832e+01   4.2497715832e+01    0.4859537    0.2327777   5.25  0.001803434    3.180    0.686
       166 -10.9309    159.5481    137.6926   5.7535403913e+01   2.3203729457e+01    0.2537853    0.1329146 -37.39  0.001115832    1.942    0.485
       167 -10.8356     53.5219    135.7871   8.7266085977e+01   4.1357003719e+01    0.3753147    0.1440908  43.74  0.001397497    2.447    0.591
       168  -9.8836    133.4588    135.4915   6.3209169673e+01   2.8459819225e+01    0.1453943    0.1368669  18.49 0.0001879396    1.005    0.005
       169 -11.8170     61.6500    134.3817   8.4336707413e+01   4.0669137304e+01    0.5394096    0.1970523  37.08  0.001989323    2.394    0.582
       170 -11.5929     36.0923    131.8609   9.2749515274e+01   4.4305510663e+01    0.4528861    0.2454155 -11.12  0.001749899    3.068    0.674
       171 -11.7007     30.4844    130.0265   9.4516225538e+01   4.5318109391e+01    0.4336998    0.1977662  68.95  0.001669669    2.682    0.627
       172 -11.0317     21.1960    132.2241   9.7960736959e+01   4.5552345053e+01    0.3285997    0.1306319  54.59  0.001289779    2.551    0.608
       173 -12.8553    102.1352    132.8021   7.1227095580e+01   3.4737375010e+01    0.5933727    0.2595605  36.87  0.002253467    2.137    0.532
       174 -13.0435    153.4482    129.8141   5.7173273868e+01   2.5800142069e+01    0.6056617    0.3256529  46.01  0.002651805    1.900    0.474
       175 -10.3053     76.4910    133.9738   7.9390784653e+01   3.8657154212e+01    0.2067758    0.1260819  82.03 0.0008094728    2.472    0.595
       176 -11.2773     84.4904    128.5073   7.5812272527e+01   3.8732840110e+01    0.3008751    0.1503335 -59.77  0.001197692    2.126    0.530
       177 -11.5594     59.4397    127.0657   8.3945367663e+01   4.2812164587e+01    0.3650788    0.1852793 -66.48  0.001516314    2.022    0.506
       178 -10.2411     15.3844    127.1963   9.9601510150e+01   4.7283326166e+01     0.264519    0.2053293 -34.09  0.001480346    1.513    0.339
       179  -9.8688     34.3116    127.3194   9.2866543777e+01   4.5654426764e+01    0.1428538    0.1020359 -37.58 0.0003662437    1.646    0.393
       180 -10.2916     11.1776    123.7547   1.0085670263e+02   4.8456368925e+01    0.2350631    0.1580474  27.66  0.001033818    1.482    0.325
       181 -10.9659    189.6699    121.6761   4.8010629930e+01   2.0407626268e+01      0.32001     0.219147 -73.83  0.001400927    2.978    0.664
       182 -11.1246     67.6031    122.5611   8.0338152925e+01   4.2814911872e+01    0.2799622    0.2357146  63.98 0.0007150177    1.212    0.175
       183 -10.0844     49.0600    122.8336   8.6967600320e+01   4.5214072478e+01    0.2494947    0.1321957  52.35  0.000715707    2.001    0.500
       184 -10.4050    205.5042    121.5128   4.5278412203e+01   1.7610180649e+01    0.2426593    0.1149339 -34.39 0.0005393933    1.901    0.474
       185 -12.0656    100.7324    119.7740   6.8878927547e+01   3.7990680953e+01    0.7347847    0.3143782  52.13  0.002392005    3.098    0.677
       186 -11.0328     31.5251    119.0559   9.2925733781e+01   4.8077950284e+01    0.3537139    0.2149856  37.29  0.001082485    1.561    0.359
       187 -11.5667     42.3521    121.1461   8.9171201503e+01   4.6424987429e+01    0.5286411    0.2897871  -0.89  0.002051135    2.805    0.644
       188 -11.7234     54.7350    117.5480   8.4056843754e+01   4.5874309303e+01    0.3678659    0.2358184  28.08  0.001708155    1.550    0.355
       189 -11.8258     49.6501    115.7210   8.5640918164e+01   4.6990983103e+01    0.4953545    0.3651662  -0.26  0.001626248    1.670    0.401
       190 -11.1914     24.8719    120.5083   9.5570254749e+01   4.8287997119e+01    0.2837044    0.2211538  62.62  0.001561032    1.225    0.184
       191 -10.8234     23.5031    115.9149   9.5610879917e+01   4.9606882941e+01    0.2844386    0.2020517 -69.39   0.00110741    1.350    0.259
       192  -9.9641      1.7854    120.6416   1.0405293627e+02   4.9799181658e+01    0.1813258    0.1092493  31.37 0.0007009336    1.617    0.381
       193 -10.9237     36.3467    120.6206   9.1320118969e+01   4.7197355599e+01    0.3678923    0.2243837  40.53  0.001356188    1.553    0.356
       194 -10.8479    155.0673    117.4933   5.3967196803e+01   2.7794374972e+01    0.2203806    0.1403617  44.08  0.000517963    1.572    0.364
       195 -10.7156    105.4026    115.2746   6.6423366815e+01   3.8151784338e+01     0.288305    0.1448814 -46.70  0.001123758    2.065    0.516
       196 -10.0066     70.4678    115.0152   7.7891096829e+01   4.4290202553e+01    0.2129316    0.1154552 -38.11 -6.192015e-05    2.376    0.579
       197 -11.4553    191.7325    112.1037   4.5476268320e+01   2.1550394555e+01    0.3536377    0.2391814   5.69 0.0005548583    1.987    0.497
       198 -10.4327     64.2471    114.3949   8.0005948508e+01   4.5377100471e+01    0.2212278    0.1270996  42.02 0.0009433796    1.677    0.404
       199 -10.2268    120.1071    113.0342   6.1613784496e+01   3.5765920201e+01     0.247396    0.1893653  76.76 0.0009942183    1.760    0.432
       200 -10.4260    108.6731    112.6238   6.4809017035e+01   3.8121939769e+01    0.3047531    0.1995125 -52.96  0.001354368    1.608    0.378
       201 -10.1972     82.4643    113.4905   7.3393055500e+01   4.2727619308e+01    0.1511652    0.1459113  50.43 0.0001124624    1.002    0.002
       202 -12.2991     53.5251    110.9101   8.3350985963e+01   4.7754210454e+01     0.429288    0.2946207  53.88 0.0008546235    1.513    0.339
       203 -11.7957     50.3127    107.8278   8.4035480503e+01   4.8970254527e+01    0.3737339    0.2442522 -35.18  0.001266613    1.842    0.457
       204 -10.2833    242.0187    111.3096   3.7939609286e+01   1.3039323485e+01    0.1575207    0.1380467  -9.36 0.0004295624    1.121    0.108
       205 -10.1779    210.5335    110.5070   4.2074993564e+01   1.8355378619e+01    0.1290568    0.1121092 -21.74 9.797538e-05    1.007    0.007
       206 -10.2491    217.7121    108.0109   4.0468833663e+01   1.7456375890e+01    0.1774951    0.1454086 -27.14 0.0003100627    1.054    0.051
       207 -10.9006    160.2535    107.8647   5.0495074496e+01   2.8510394470e+01    0.2690313    0.1930806 -16.66   0.00129011    1.639    0.390
       208 -10.1545     92.0451    108.1416   6.8946181560e+01   4.2321602544e+01      0.22686    0.2036635  -4.30 0.0003150548    1.245    0.197
       209 -11.1752    153.7248    107.5437   5.1834003256e+01   2.9925209346e+01     0.271729    0.1393499  42.51 0.0006891316    1.979    0.495
       210  -9.5283    155.6663    103.3388   5.0342443255e+01   3.0294643795e+01    0.1489865    0.1169024 -78.91 0.0007051695    1.747    0.428
       211  -9.7828    116.5426    103.5410   6.0217645743e+01   3.8545232867e+01    0.1523146    0.1477551  24.29 0.0002025413    1.024    0.024
       212 -11.3406     79.1577    101.7099   7.1835273720e+01   4.6187343693e+01    0.3283816    0.2535439 -75.68  0.001561578    1.472    0.321
       213 -10.7340     60.1215     95.9991   7.7734851036e+01   5.0695025135e+01    0.3236516    0.2051668  37.51 0.0009928085    1.538    0.350
       214 -10.7253    237.8216     98.7757   3.5839022210e+01   1.5321183828e+01    0.1984519    0.1567804 -44.31 0.0003208768    1.273    0.214
       215 -10.8733     21.0143     97.5513   9.4514958622e+01   5.4673257391e+01    0.3453537    0.2495261 -37.70   0.00117574    1.509    0.337
       216 -12.2597     57.9494     99.9372   7.9472018159e+01   4.9997844480e+01    0.4293425    0.3914204 -25.10  0.002201782    1.192    0.161
       217 -11.0554    149.9995     96.0133   4.9680730263e+01   3.2865150804e+01    0.2292413    0.2204399 -16.13  0.000507109    1.032    0.031
       218  -9.5092    191.2852     94.6600   4.1413711351e+01   2.4374451581e+01    0.1369686    0.1006698 -59.70  0.000317176    1.635    0.388
       219  -9.8232     34.5463     94.4782   8.8185799058e+01   5.4294548016e+01    0.1420416    0.1359069 -82.03 5.002643e-05    1.008    0.008
       220 -11.3289     54.4299     92.7656   7.9332444246e+01   5.2345207039e+01    0.2802188    0.2047622  32.80 0.0007410174    1.361    0.265
       221 -10.7472     59.4856     91.9875   7.7059658092e+01   5.1814971741e+01    0.3581798    0.2456685  53.05  0.001641977    1.575    0.365
       222 -10.5657     59.0351     87.3079   7.6105424819e+01   5.3072998889e+01    0.3384803    0.2715773  70.87  0.001224147    1.414    0.293
       223 -13.0076     53.4855     85.2027   7.7957503240e+01   5.4422271347e+01    0.7991265    0.5364254  82.00  0.003464962    2.009    0.502
       224 -12.7784     50.7300     79.4231   7.7729963933e+01   5.6284776729e+01    0.9644825    0.2753919  40.06  0.003004764    3.408    0.707
       225 -10.2100      3.4286     89.3654   1.0140694352e+02   5.7890103112e+01    0.3756283      0.12244 -70.00  0.001445968    2.563    0.610
       226  -9.2915    232.2661     89.3299   3.4464531889e+01   1.7480973730e+01    0.1191331   0.08680413  -3.54 0.0003095058    1.577    0.366
       227  -9.8952     95.2372     89.4040   6.2959140467e+01   4.6076492577e+01    0.2179854    0.1434485  50.73 0.0005007627    1.562    0.360
       228 -10.7292    208.0850     86.8586   3.7001463583e+01   2.2228403979e+01    0.2180497    0.1761688 -16.63 0.0004188311    1.231    0.188
       229 -11.8363     45.3944     86.3791   8.1801376161e+01   5.5199713715e+01    0.3153114    0.1932534  61.77  0.001336847    2.038    0.509
       230  -9.8139     11.5293     86.9989   9.7485404254e+01   5.8114218816e+01    0.2076566    0.1258367 -79.29 0.0004257782    1.532    0.347
       231 -10.0075     21.4992     91.4966   9.3503323405e+01   5.6250378931e+01    0.1389825    0.1303474 -86.87   0.00012438    1.008    0.008
       232 -10.8947    211.7978     81.8188   3.5305516969e+01   2.2222151921e+01    0.2088858    0.1832665 -26.48   0.00039093    1.051    0.048
       233 -10.6202    153.0510     80.9719   4.4871806320e+01   3.4891609986e+01    0.2989664    0.2010068 -37.44  0.001082157    1.461    0.316
       234 -11.8503     21.9890     80.2422   9.1570719840e+01   5.9205774679e+01    0.3922861    0.1952349 -64.11  0.001725265    1.804    0.446
       235 -10.1741    207.4944     79.3768   3.5292696952e+01   2.3400974895e+01    0.2634874    0.1789654 -11.45  0.001207312    1.745    0.427
       236 -11.7811     28.5085     79.9815   8.8349144629e+01   5.8719971429e+01     0.284412    0.1810731  43.05  0.001088219    1.628    0.386
       237 -10.3814     88.5006     78.9649   6.2185362687e+01   4.9813457506e+01    0.3075863    0.2153314  56.20  0.001157299    1.558    0.358
       238 -10.5329    183.5004     77.4744   3.8326857239e+01   2.8644983886e+01     0.261335    0.2036785  44.13  0.001426116    1.391    0.281
       239 -10.6139    111.9972     76.4910   5.3748241646e+01   4.5244766176e+01    0.2946896    0.2477766  11.73  0.000811381    1.418    0.295
       240 -10.7140    115.9342     74.7054   5.2042415392e+01   4.4698996430e+01    0.2993895     0.264806  -0.73  0.001446818    1.300    0.231
       241 -11.0887     75.1089     75.5502   6.6177438486e+01   5.3223393786e+01    0.2860141    0.2670846  22.11 0.0003934071    1.092    0.084
       242 -13.0530     32.1952     73.3294   8.5150996943e+01   6.0105623714e+01    0.4945986    0.3738704 -52.23  0.002378026    1.264    0.209
       243 -12.9115     29.1097     64.6002   8.4727830612e+01   6.2670417865e+01     1.394254    0.3769661  30.05  0.004719104    3.292    0.696
       244  -9.9110    219.7024     72.3642   3.2097504535e+01   2.1986120339e+01    0.1345041   0.08357884 -54.09 0.0007032649    1.720    0.419
       245 -10.4431     94.4742     72.0521   5.7874489708e+01   5.0075654321e+01    0.2273722    0.2102698  47.70 0.0003869339    1.057    0.054
       246 -11.2243    100.4289     69.7506   5.5122837450e+01   4.9243782410e+01    0.3043664    0.1494616 -48.48  0.001139123    2.155    0.536
       247 -11.2828    198.0235     66.1358   3.3267379994e+01   2.7183867140e+01    0.3561388    0.2292747  32.27  0.001665078    2.094    0.522
       248 -11.0072    177.9837     64.4775   3.5700706239e+01   3.1820102246e+01    0.2608037     0.193792 -34.14  0.000470833    1.276    0.216
       249 -10.1721    109.5129     60.0009   4.8949836733e+01   4.9046062940e+01    0.2846691    0.1688978  60.39  0.001163525    1.817    0.450
       250 -10.5032      4.1684     59.2080   9.7821320073e+01   6.5772063163e+01    0.2678081    0.1693706 -15.98 0.0009731357    1.725    0.420
       251 -11.8539     52.7585     56.8161   6.9899952634e+01   6.1516291678e+01    0.7098971    0.2832371  48.06  0.002365847    3.207    0.688
       252 -10.0565    153.5228     57.4970   3.7811806719e+01   3.8654739778e+01    0.1434526    0.1411069 -71.60 0.0001235898    1.037    0.036
       253 -10.6991    166.0481     58.5305   3.5924870740e+01   3.5477050200e+01    0.2511893    0.1802332 -49.15 0.0003084014    1.367    0.268
       254 -10.3613     28.1978     55.3098   8.2806007388e+01   6.5114369521e+01    0.3566679    0.1720956  45.11  0.001454431    2.410    0.585
       255 -10.2269    167.0626     51.9927   3.3834307387e+01   3.6185659008e+01    0.2044642    0.1954659 -61.20 0.0003116091    1.024    0.024
       256 -10.0993     95.0514     51.5104   5.0288464352e+01   5.4066749078e+01    0.2433785    0.1467878  50.06   0.00103513    1.598    0.374
       257 -10.0749     31.0050     50.5040   7.9700000284e+01   6.6002432821e+01    0.2126448    0.1368086  24.63  0.001030136    1.586    0.369
       258 -10.7207     44.9800     49.5085   7.1308826993e+01   6.4414177656e+01    0.2172645    0.1397297  32.49 0.0007982543    1.553    0.356
       259  -9.9686     18.4718     49.4324   8.7140943366e+01   6.7454147057e+01    0.1353043    0.1257466 -43.40  3.59832e-05    1.009    0.009
       260 -10.2492      1.3854     47.8048   9.7860932773e+01   6.8790184472e+01    0.1980959   0.09907773 -61.97 0.0003836936    1.691    0.409
       261 -11.2841    196.8055     45.1462   2.7956022419e+01   3.0222808247e+01    0.4112758    0.2293025 -75.62  0.001603217    2.419    0.587
       262 -10.2431    122.2440     41.4337   3.8834920969e+01   4.9006750623e+01    0.2121235    0.1425911  75.43  0.000943576    1.636    0.389
       263 -10.3909     36.2237     39.5935   7.2533525095e+01   6.7921630203e+01    0.2499881    0.2343513 -15.08 0.0008310581    1.006    0.006
       264 -10.3207     32.0376     40.0000   7.5342110646e+01   6.8371984544e+01    0.3239517    0.1948133  27.07  0.001131979    1.675    0.403
       265  -9.9810    225.0632     39.0268   2.3690767851e+01   2.5041380007e+01    0.1445534    0.1222972 -48.07 0.0003264387    1.026    0.025
       266 -10.0204    104.7688     39.6695   4.2595636205e+01   5.3738590764e+01    0.2118484    0.1372432  66.34 0.0003721602    1.618    0.382
       267 -11.6149     55.5514     37.3291   6.0519794525e+01   6.5266689164e+01    0.5017949    0.3088968  36.83   0.00167005    1.601    0.375
       268 -10.8728      9.4270     37.0072   9.0032588032e+01   7.1137215410e+01    0.2069472    0.1696221   2.89 0.0008029466    1.263    0.208
       269  -9.8120    169.6892     36.3428   2.8776820894e+01   3.7646682687e+01     0.152051   0.09455566 -60.22 0.0005866909    1.699    0.412
       270 -11.4049    107.0438     31.5812   3.8657065357e+01   5.4379986133e+01    0.4166606    0.3007519  35.23  0.001984255    1.548    0.354
       271 -10.3200     43.9554     33.5407   6.5133398435e+01   6.8071223369e+01    0.2181009    0.1352748  34.37 0.0007438583    1.590    0.371
       272 -11.6885     31.5805     32.0416   7.2301099124e+01   7.0216756619e+01    0.4576985    0.2775461 -36.32  0.002197906    1.691    0.409
       273 -11.5198     77.7924     31.0594   4.7598124442e+01   6.1699568744e+01    0.2757198    0.2308048  82.31 0.0005217976    1.415    0.293
       274 -11.0175    156.0094     31.0541   2.9010699748e+01   4.1716779380e+01    0.2157281    0.2004849 -68.59 0.0003639813    1.020    0.019
       275 -11.5921     71.2947     29.9913   4.9655228720e+01   6.3361937814e+01    0.2752644     0.196241  28.36 0.0009870103    1.555    0.357
       276 -10.0276    125.6546     26.3085   3.2385626969e+01   5.0210038786e+01    0.1566577    0.1059884 -68.52 0.0004083645    1.700    0.412
       277  -9.5882    118.7289     25.7038   3.3539422709e+01   5.2116845637e+01    0.1441559    0.1092688  32.51            0    1.521    0.343
       278 -11.4822     84.1569     23.5064   4.1670381810e+01   6.1325945797e+01    0.5192857    0.3331714 -69.14  0.002165031    2.386    0.581
       279 -10.7952    173.4376     22.7692   2.4255685739e+01   3.8334315647e+01    0.4373633    0.1183786 -39.76  0.001565704    2.985    0.665
       280 -10.4385    134.5557     22.4761   2.9355213012e+01   4.8321117840e+01    0.1453566    0.1320081 -80.26 0.0001275935    1.045    0.043
       281  -9.5645     21.3192     22.6833   7.5476813759e+01   7.3485170339e+01    0.1290623    0.1034574  61.40 0.0007040508    1.657    0.397
       282 -10.0310    208.5146     19.5517   2.0231941034e+01   3.0589750561e+01    0.1273126     0.104239 -54.83 4.282065e-05    1.032    0.031
       283 -10.2418     99.9738     18.7338   3.4845293084e+01   5.7924195894e+01    0.1867811    0.1194557  62.41  0.000396625    1.441    0.306
       284 -10.8743     74.9868     17.9872   4.2024785521e+01   6.4330261104e+01    0.2168366     0.198673  52.96 0.0003319001    1.044    0.042
       285 -10.6706    238.0227    248.7307   6.1850848965e+01  -2.4294599789e+00    0.1716013     0.118729 -16.79  0.001323213    1.418    0.295
       286  -9.5780    163.4718     13.4101   2.2442206575e+01   4.1803999960e+01    0.1368606    0.1201541 -74.10 6.653867e-05    1.021    0.021
       287 -10.2814     93.2829    248.8847   8.8601201257e+01   1.3369263886e+01    0.1380842    0.1225537  19.21 0.0004019658    1.221    0.181
       288  -9.8932    115.4504    245.7381   8.3711222480e+01   1.1298269789e+01    0.1347308    0.1030294 -26.62  0.000945744    1.615    0.381
       289 -11.4684     83.2615    243.3600   9.0285080329e+01   1.5350094226e+01    0.4912623    0.2617156 -88.98   0.00211183    3.271    0.694
       290  -9.6187     84.3257    237.7102   8.9610158075e+01   1.6141853757e+01    0.1805296   0.09732485  48.15 0.0006864296    1.727    0.421
       291 -10.5288     81.8931    234.2693   8.9865701338e+01   1.6987625949e+01    0.2053014    0.1665141  76.36  0.001447992    1.512    0.339
       292 -10.8385    179.7675    244.5894   7.1022404070e+01   3.9974195892e+00    0.1735834    0.1431422   8.65 0.0003462372    1.257    0.205
       293 -10.2530    215.6998     15.0910   1.8624112853e+01   2.9515535002e+01    0.1769599    0.1380317 -39.96  0.001144758    1.127    0.113
       294  -9.9725    103.6490    244.7859   8.6079827520e+01   1.2809597178e+01    0.1279668    0.1086583  84.15 0.0006504174    1.637    0.389
       295 -10.2167    133.5060    241.0880   7.9531411124e+01   9.8348394455e+00    0.1377169    0.1145225 -39.06 0.0007158926    1.540    0.351
