#   1 NUMBER                 Running object number                                     
#   2 MAG_AUTO               Kron-like elliptical aperture magnitude                    [mag]
#   3 X_IMAGE                Object position along x                                    [pixel]
#   4 Y_IMAGE                Object position along y                                    [pixel]
#   5 X_WORLD                Barycenter position along world x axis                     [deg]
#   6 Y_WORLD                Barycenter position along world y axis                     [deg]
#   7 A_WORLD                Profile RMS along major axis (world units)                 [deg]
#   8 B_WORLD                Profile RMS along minor axis (world units)                 [deg]
#   9 THETA_WORLD            Position angle (CCW/world-x)                               [deg]
#  10 FWHM_WORLD             FWHM assuming a gaussian core                              [deg]
#  11 ELONGATION             A_IMAGE/B_IMAGE                                           
#  12 ELLIPTICITY            1 - B_IMAGE/A_IMAGE                                       
         1 -12.8806    207.5880     42.9260   2.2129787839e+01   2.7582750638e+01    0.7820961     0.696433 -23.22  0.001680262    1.272    0.214
         2 -12.8232    234.3527     20.2039   1.3296621820e+01   2.4004973509e+01    0.8002425    0.5576163 -22.09  0.003750344    1.742    0.426
         3 -12.8510    229.3821     18.7716   1.3440281596e+01   2.5360604288e+01    0.8649171    0.5194286 -19.99  0.003785023    2.140    0.533
         4 -10.9025     55.9677      8.3533   4.5015265608e+01   6.6381285437e+01    0.2430609    0.1464444  51.56  0.001337394    2.206    0.547
         5 -10.8172    248.2502      3.1056   8.2536478952e+00   2.2788917928e+01    0.2899653    0.1692272 -34.55  0.001598435    1.705    0.414
         6 -10.1571    150.4615    245.6741   7.6952242852e+01   3.5697806492e+00     0.180241    0.1209929 -60.62 0.0005669849    1.929    0.482
         7 -10.2771    101.4380    245.7735   8.5793833098e+01   1.1359480187e+01    0.2545656    0.2040213 -77.90  0.001364157    1.400    0.286
         8 -10.8651    102.3992    241.7698   8.5230608429e+01   1.1888088256e+01    0.2504394    0.1839027 -57.95  0.001287815    1.711    0.415
         9 -16.5169     70.9874    152.2684   8.0859111093e+01   3.5042491691e+01     19.87281     9.037949 -88.92   0.05816457    5.265    0.810
        10 -12.1219    112.2872    169.2440   7.3772051740e+01   2.4525312574e+01    0.9730858    0.5561412  74.24   0.00224683    2.696    0.629
        11 -11.7432    103.0356    170.7244   7.6139100709e+01   2.5808522206e+01    0.5610226    0.3570117  75.27  0.002627299    1.904    0.475
        12 -11.8073    230.8697    166.5254   4.8319958715e+01   1.6012412446e+00    0.3570748    0.3015481   7.09   0.00208561    1.137    0.120
        13 -11.3775    247.0748    163.9267   4.4951062934e+01  -9.7520602561e-01     0.447863    0.2298733 -42.50  0.001455943    2.052    0.513
        14 -10.7540    245.5360    159.0065   4.4181952160e+01   6.3825203637e-02    0.3089976    0.2297369 -47.71 0.0009245796    1.554    0.357
        15 -11.3538    153.9935    222.9246   7.3272361309e+01   6.5644224316e+00    0.3230994    0.2286878  72.96  0.001257442    1.796    0.443
        16 -10.2057     39.9791    162.0033   8.9428047910e+01   3.6696793829e+01    0.4207311    0.1349283  39.25  0.001840741    2.972    0.663
        17  -9.9472     92.7212    156.2204   7.6204444122e+01   3.0813892693e+01    0.3691851    0.2174696  88.90  0.001456175    2.396    0.583
        18 -11.3448    133.8168    145.7757   6.4262992457e+01   2.5646539113e+01     1.266967    0.3095315 -55.48  0.002873793    6.496    0.846
        19 -11.2025     82.4275    151.8148   7.7985111050e+01   3.3464463500e+01    0.5557189    0.3134103  78.40  0.001198912    2.611    0.617
        20  -9.9183     70.7181    199.2224   8.6891700939e+01   2.4665505046e+01    0.2517183    0.1571811  73.70  0.001413233    1.522    0.343
        21 -11.7321     89.8459    147.0219   7.5332576928e+01   3.3415121314e+01     0.566747    0.4248175 -21.58  0.002770883    2.085    0.520
        22 -11.5536    104.8028    132.4486   6.8701778952e+01   3.4265753443e+01    0.7000453    0.4092436 -35.87    0.0026253    2.294    0.564
        23 -16.0166     53.9737    233.4109   9.3081485083e+01   2.0221130173e+01     2.511533     1.736469  76.06   0.01771024    1.141    0.124
        24 -11.4472     40.1115    134.8103   8.6049212757e+01   4.2945045822e+01    0.3422323    0.2839371 -35.66  0.001477156    1.533    0.348
        25  -9.2724    141.8820    133.8668   5.9709354778e+01   2.6607254528e+01    0.2101956     0.179094 -88.99  0.001042751    1.295    0.228
        26 -11.6286     90.9533    133.5834   7.2549448856e+01   3.6387710484e+01    0.2723861     0.246072 -51.65 0.0003960462    1.167    0.143
        27 -10.7076    135.8786    129.7260   6.0215026432e+01   2.8793362771e+01    0.3750891    0.1913179 -42.97  0.001454288    2.048    0.512
        28 -10.4604    167.4729    223.2558   7.0727491082e+01   4.1454796068e+00    0.2699257    0.1869863 -62.57  0.001176031    1.934    0.483
        29 -10.6291    112.4415    126.8318   6.5496718994e+01   3.4153528666e+01    0.2911711    0.2408875  18.26 0.0007063256    1.511    0.338
        30 -11.1464     75.6276    122.4968   7.4486252323e+01   4.1392508276e+01    0.4002639    0.3660643 -56.18  0.001730302    1.115    0.103
        31 -10.1610     72.6915    186.8412   8.5094453832e+01   2.7009140741e+01     0.225895    0.1632632  64.42 0.0002849136    1.218    0.179
        32 -11.5660     98.9966    180.9299   7.8598452396e+01   2.4245784716e+01    0.4366896    0.2977077 -48.74  0.001837702    1.719    0.418
        33 -10.2955     99.2452    122.3619   6.8003519507e+01   3.7606946094e+01    0.2693779    0.2349273 -29.46 0.0005941986    1.326    0.246
        34  -9.6956    162.1626    119.7256   5.1538842267e+01   2.5148426230e+01    0.2516051    0.2091576 -60.13 0.0004015528    1.266    0.210
        35  -9.2970    108.1378    116.8240   6.4337871021e+01   3.7270047377e+01    0.2157289     0.193114  88.94 0.0003055496    1.154    0.133
        36 -10.8162    191.7923    192.9298   6.0944835923e+01   4.6807003153e+00    0.7421061    0.3753805 -64.41  0.001964205    7.711    0.870
        37  -8.8889    183.5182    116.4909   4.6053483808e+01   2.0832168673e+01    0.1542216    0.1514617   2.26 0.0002975367    1.047    0.045
        38  -9.7752    158.2190    114.0355   5.1004453785e+01   2.7246297250e+01    0.3375249    0.2334793 -72.03  0.001171238    1.980    0.495
        39 -11.0193     75.9271    182.1866   8.3833949969e+01   2.7554463882e+01    0.5267559    0.2834373  80.81  0.001984292    2.383    0.580
        40 -11.6615     18.2176    109.8596   8.8428177055e+01   5.0708729133e+01    0.3659467    0.1934941 -69.78  0.001672848    1.494    0.331
        41  -9.8232    205.3702    110.1608   4.0132981681e+01   1.6914312351e+01    0.2769572    0.2216343  61.66 0.0006285729    1.330    0.248
        42 -11.2972    115.7366    108.8034   6.0322852271e+01   3.7621251754e+01    0.3376412    0.2541363  55.32  0.001626801    1.409    0.290
        43 -10.4678    133.8645    105.6027   5.4731315592e+01   3.4537324329e+01    0.4576875    0.2971714 -32.90  0.001946217    1.754    0.430
        44 -16.7584      5.8623    205.5403   9.9652608734e+01   3.0935390369e+01      1.67165    0.8247053 -84.20  0.008490025    1.607    0.378
        45 -10.4288    110.1092    104.1506   6.0666070200e+01   3.9768418922e+01    0.2305964     0.208898 -14.42 0.0005864617    1.245    0.197
        46 -11.3183    118.8380    102.3501   5.7811710190e+01   3.8428299419e+01    0.4096172    0.2826007  86.88   0.00166953    2.292    0.564
        47 -11.6193     30.9017     98.7222   8.2953785813e+01   5.2212538882e+01    0.3775914     0.259264 -71.09  0.001334303    1.260    0.206
        48 -10.1251     69.0899    192.8508   8.6535021721e+01   2.6231109595e+01    0.3584786    0.2122578  84.29  0.001410226    1.748    0.428
        49 -10.2585    141.8987    213.6784   7.4323055331e+01   1.0288579262e+01    0.2282826    0.1848116 -76.07 0.0005259183    1.427    0.299
        50  -9.2293    140.6739    203.6702   7.3096264241e+01   1.2338607232e+01    0.1298284    0.1057072   7.40 0.0007050717    1.705    0.413
        51  -9.6546    119.0070     87.9525   5.3777335508e+01   4.1482358816e+01    0.2248376    0.2150781 -75.27 0.0004267853    1.085    0.079
        52 -18.4286      8.8460    234.7839   1.0062865305e+02   2.5139460741e+01     6.278253     1.845644 -75.61   0.02217896    2.900    0.655
        53  -8.9492     68.6641     84.2675   6.7816408128e+01   5.1179304899e+01    0.1303874    0.1054772  78.42 0.0002410331    1.591    0.372
        54  -9.1129     88.0176     74.0700   5.8743900777e+01   5.0310580875e+01    0.2092286    0.1726353 -86.71 0.0004744968    1.612    0.380
        55 -11.3879     38.1022     70.6677   7.4599932281e+01   5.7771930637e+01    0.2384071    0.2271321  32.56 0.0005425026    1.263    0.208
        56  -9.6511     66.3508    201.9956   8.8055556858e+01   2.4698683365e+01    0.2726796    0.1519659  46.16   0.00106638    1.622    0.383
        57 -10.1031     85.5666     63.0951   5.6065070269e+01   5.2917123053e+01    0.3841017    0.2699077  73.45  0.001740041    2.476    0.596
        58 -12.0906    185.4171     60.1622   3.0398195177e+01   3.0640421408e+01     0.478068    0.4283126  23.14 0.0007591597    1.283    0.221
        59 -13.6868    201.4469     48.1745   2.4428666010e+01   2.8382768332e+01     1.396207    0.9771814  34.07  0.004745046    1.837    0.456
        60 -10.7105    126.9053    177.6612   7.1881563107e+01   2.0050018849e+01    0.2386555    0.2003963 -45.35   0.00132282    1.364    0.267
        61 -11.3850     19.6490     40.4250   7.3249662667e+01   6.5458141325e+01    0.2499097    0.1655474  38.70  0.001576474    2.016    0.504
        62  -9.1561     45.4994     39.0888   6.2135130208e+01   6.3192919069e+01    0.1794811    0.1061057 -43.03 0.0003829609    1.482    0.325
        63 -11.0623    124.8880    243.6282   8.1360570579e+01   8.0523481431e+00    0.2455614    0.1742131 -57.04 0.0009529681    1.737    0.424
        64 -10.7695    179.8617    175.7948   6.0108522528e+01   1.0045289270e+01     0.269672    0.2363719  43.52  0.001199383    1.072    0.067
        65  -9.9554     60.3419     21.0933   4.9101880259e+01   6.4048966839e+01    0.2037681    0.1504756  16.07 0.0005023851    1.285    0.222
        66  -9.6819     28.4620     13.5346   5.9180156231e+01   6.9251688997e+01    0.1149112   0.08908175 -17.48 5.491104e-05    1.019    0.019
        67 -10.4776    133.2941    191.4107   7.2738280353e+01   1.6051431414e+01    0.2286178    0.1636804 -85.36  0.000739588    1.726    0.421
