#   1 NUMBER                 Running object number                                     
#   2 MAG_AUTO               Kron-like elliptical aperture magnitude                    [mag]
#   3 X_IMAGE                Object position along x                                    [pixel]
#   4 Y_IMAGE                Object position along y                                    [pixel]
#   5 X_WORLD                Barycenter position along world x axis                     [deg]
#   6 Y_WORLD                Barycenter position along world y axis                     [deg]
#   7 A_WORLD                Profile RMS along major axis (world units)                 [deg]
#   8 B_WORLD                Profile RMS along minor axis (world units)                 [deg]
#   9 THETA_WORLD            Position angle (CCW/world-x)                               [deg]
#  10 FWHM_WORLD             FWHM assuming a gaussian core                              [deg]
#  11 ELONGATION             A_IMAGE/B_IMAGE                                           
#  12 ELLIPTICITY            1 - B_IMAGE/A_IMAGE                                       
         1 -14.5192      7.6123    209.3373   1.5313581155e+02   3.0009712102e+01      3.54328     1.029246 -61.63   0.01754397    4.328    0.769
         2 -15.2893      4.2946    177.4429   1.5270820515e+02   3.6075058941e+01     7.099497     1.045314 -78.83   0.02605287    5.455    0.817
         3 -13.7814    190.5468     26.3435   7.3882035501e+01   3.4259424090e+01     1.451344     1.342777   4.63  0.006301408    1.080    0.074
         4 -13.8522    204.6174      7.3308   6.6499482739e+01   3.2668255084e+01     1.569777     1.101392  41.50  0.008364455    1.562    0.360
         5 -13.1859      2.7239      4.0879   1.3035429184e+02   7.5677103667e+01    0.9883752    0.9076793  23.51  0.007208664    1.422    0.297
         6  -9.4331    152.6734    248.7015   1.2961234538e+02   8.3747619653e+00    0.1030626   0.06641005  14.10  0.000266374    1.633    0.388
         7 -10.8072    142.0185    250.0000   1.3157425551e+02   9.5357079405e+00    0.2594334    0.1113018  30.21  0.001515921    1.910    0.476
         8 -10.8521    138.6650    249.6803   1.3212038895e+02   9.9843566288e+00    0.3607887     0.139188 -42.31  0.002020642    3.627    0.724
         9 -10.3703    122.4949    250.3374   1.3497362516e+02   1.1858532558e+01    0.1941372    0.0717312  35.45 0.0009289729    1.982    0.496
        10 -10.2211     67.3114    250.4054   1.4446360098e+02   1.8045442563e+01    0.1801242    0.1132154  48.34  0.001418391    1.175    0.149
        11  -9.5177     63.5190    250.5579   1.4511319347e+02   1.8414533861e+01     0.165127   0.07388039  34.32 0.0005835964    1.752    0.429
        12 -11.0545     35.6702    243.7584   1.4947435349e+02   2.2103305589e+01    0.4499426    0.2438143  14.32   0.00269672    3.258    0.693
        13 -10.5334     31.3644    250.4015   1.5043816215e+02   2.1528673342e+01    0.3618537    0.1030297  36.67  0.001339683    2.332    0.571
        14  -9.8012     33.9899    247.5139   1.4990105901e+02   2.1707551835e+01    0.1611201    0.1319599 -10.68  0.001133709    2.082    0.520
        15 -10.9695      2.5958    249.7378   1.5499588410e+02   2.4045329387e+01    0.3071425    0.1663187  82.89  0.002543767    1.715    0.417
        16 -10.4515      7.2979    249.4245   1.5425494069e+02   2.3717414530e+01    0.1919773   0.09735882  38.43 0.0008344353    1.503    0.335
        17  -9.7534     83.2516    244.2671   1.4133288019e+02   1.7198919248e+01      0.22349   0.09758841  57.37  0.001286042    2.507    0.601
        18  -9.2569     76.4334    245.2166   1.4258458464e+02   1.7809272389e+01    0.1204032    0.0832665  74.43 0.0005516698    1.580    0.367
        19 -10.3721     66.5562    243.1607   1.4417252311e+02   1.9152415649e+01    0.1801288    0.1300999  47.81 0.0005750802    1.021    0.021
        20 -11.2130    185.6661    238.6522   1.2281139202e+02   5.3368806606e+00     0.318043    0.2540633 -80.80  0.002082458    3.164    0.684
        21 -10.8659     95.3464    240.3905   1.3891217865e+02   1.6377794227e+01    0.2253307    0.1671561 -51.53 0.0008365546    1.784    0.440
        22 -10.2553    173.8193    249.2057   1.2607442460e+02   5.6918361446e+00    0.1994467    0.1468865  70.17 0.0007100351    3.071    0.674
        23  -9.9799     81.9759    249.0128   1.4187430939e+02   1.6679129681e+01    0.1605356     0.111762  46.73 0.0008644664    1.082    0.076
        24 -12.8911     41.6401    235.9439   1.4811885699e+02   2.2717764272e+01    0.2524344    0.2233946 -73.48 0.0007729285    1.472    0.321
        25  -9.0308    152.6504    212.9720   1.2544929182e+02   1.2909713873e+01    0.1451761    0.1281835  19.79 0.0003674225    1.129    0.115
        26  -9.3189     33.5702    228.8110   1.4921023527e+02   2.4580766549e+01    0.1583677    0.1009351  75.96 0.0007518373    1.448    0.309
        27 -12.3976     24.1242    201.8911   1.4975698207e+02   2.9949372841e+01    0.5190721    0.1349921  46.50  0.002573434    2.634    0.620
        28  -9.7906    195.0067    198.7459   1.1550439514e+02   8.7283591212e+00    0.2395725    0.1653568 -52.38  0.001393811    2.490    0.598
        29  -9.5747    191.7619    192.6252   1.1510469421e+02   9.9895097890e+00    0.3564306    0.2418606 -68.01  0.001497278    5.103    0.804
        30 -11.9655     72.0453    192.5003   1.3939903701e+02   2.6805361430e+01     0.225602    0.2121416 -65.65 0.0005248344    1.261    0.207
        31  -9.8405    178.1657    228.0277   1.2275233213e+02   7.5119522953e+00    0.1497283    0.1292871  74.92 0.0009143788    2.080    0.519
        32 -11.6275     66.4385    200.7876   1.4126901078e+02   2.5955190690e+01    0.2528866    0.2024102 -44.67  0.001086185    1.637    0.389
        33 -13.4049     68.6666    177.5075   1.3871307844e+02   3.0024710631e+01     0.440494     0.257138 -42.64  0.001829737    2.336    0.572
        34 -11.0623     81.4046    179.4669   1.3606843416e+02   2.8111729996e+01    0.2115816    0.1917939  55.20 0.0003236741    1.041    0.039
        35 -12.0771     88.3979    169.5630   1.3331845651e+02   2.9132947187e+01    0.5930476    0.5465944  45.39  0.004074199    1.056    0.053
        36 -12.0480     32.8154    155.8822   1.4512676408e+02   3.8174757671e+01    0.6373824    0.1460221 -71.48   0.00247997    3.733    0.732
        37  -9.1802    195.4870    159.1789   1.0836441944e+02   1.4008111233e+01    0.2099035    0.1752448  81.59 0.0008704507    2.263    0.558
        38 -10.1595    100.2542    153.4157   1.2823435785e+02   3.0723819422e+01    0.2602667    0.2375383 -36.46  0.000755585    1.199    0.166
        39  -9.3931    103.0366    149.1103   1.2686369800e+02   3.1193507154e+01    0.1982266    0.1721823 -12.81 0.0004626465    1.339    0.253
        40 -12.1877     88.9818    152.9217   1.3093595039e+02   3.2423408321e+01    0.2566588    0.2324637 -18.61 0.0005125882    1.291    0.226
        41 -12.7437     67.0639    143.8031   1.3524685997e+02   3.7216018523e+01    0.7426473    0.4601023  63.41   0.00340836    1.797    0.443
        42 -12.1187     57.0205    131.4642   1.3630160022e+02   4.1158683615e+01    0.9286469    0.4037357 -81.54  0.003636237    3.119    0.679
        43  -8.4471    192.2236    144.0167   1.0587430095e+02   1.6826041893e+01    0.1660647    0.1048553 -29.90 0.0004248773    1.551    0.355
        44 -10.9788     27.0426    144.3181   1.4564221820e+02   4.1179525288e+01    0.1660645    0.1412144  63.02  0.001103977    1.099    0.090
        45  -9.9296    110.9296    137.8269   1.2290622287e+02   3.2301603617e+01    0.3654985    0.2365676 -19.68  0.001232225    2.371    0.578
        46 -11.9742     25.8903    138.0050   1.4542573843e+02   4.2677221367e+01    0.5075155    0.1612853  38.68  0.002312146    2.738    0.635
        47  -9.4495    174.3609    137.8225   1.0812981390e+02   2.1070401329e+01    0.2435222    0.1881243  66.77 0.0008813215    1.962    0.490
        48 -10.8040     98.4119    135.4440   1.2570435204e+02   3.4766333167e+01    0.2497852    0.2225598 -17.18 0.0006967584    1.263    0.208
        49 -10.2478     33.4642    132.4469   1.4289920153e+02   4.3293176061e+01    0.2249267    0.1040353 -89.30  0.001030338    2.336    0.572
        50  -9.4089    107.9271    124.6245   1.2109676642e+02   3.5585313923e+01    0.1880825    0.1643848  36.34 0.0004192744    1.138    0.121
        51 -14.3668     55.1779    214.1474   1.4445519264e+02   2.4863967227e+01     7.261446          nan  39.41   0.02434223    5.689    0.824
        52 -13.9895     47.2513    227.8207   1.4672484618e+02   2.3437141928e+01    0.7573947    0.4647653  58.81  0.003323678    1.339    0.253
        53 -10.9145    173.1999    222.0661   1.2285330478e+02   8.8951831237e+00    0.2849202    0.1903641  33.20  0.001943282    1.205    0.170
        54 -10.4427    168.1404    113.1783   1.0367941693e+02   2.6503424603e+01    0.3172106    0.2791779 -73.38 0.0009385165    1.550    0.355
        55  -9.5602    203.2084    111.7901   9.6361346823e+01   1.9651441975e+01    0.2037878    0.1501769   2.42 0.0005954884    1.363    0.266
        56 -10.1858     34.5687     93.0293   1.3759738721e+02   5.2573745024e+01    0.3996994    0.1920535  41.66  0.001888677    2.251    0.556
        57  -9.2300    155.5255     75.4797   9.5950926661e+01   3.5871902791e+01    0.1551909    0.1428441  -4.45 5.463147e-05    1.017    0.017
        58 -10.3604     15.8430     65.9385   1.4016295301e+02   6.0601978346e+01    0.3913339    0.1574683  34.50  0.001757486    2.784    0.641
        59 -11.5628      6.2828     62.8538   1.4364541279e+02   6.1853020879e+01    0.3906445    0.2702788 -14.24  0.001961739    1.775    0.437
        60  -8.9064     32.3667     61.9849   1.3240359282e+02   6.0362016865e+01    0.1932626    0.1529769 -60.48 0.0005005397    1.073    0.068
        61 -11.0261      1.9766     51.9757   1.4386752987e+02   6.4670350835e+01    0.2562697    0.2128264 -43.58 0.0009689592    1.227    0.185
        62 -11.5336      2.5772     45.0891   1.4241483952e+02   6.6307750314e+01    0.4585852    0.1608686 -82.16  0.001805302    3.053    0.672
        63  -8.5895     52.4867    249.4632   1.4691151650e+02   1.9675162766e+01   0.09450606   0.07135377  46.96 4.661276e-05    1.084    0.078
        64  -9.5135     46.9718    248.8032   1.4780231488e+02   2.0305573035e+01     0.203059   0.08965322  54.52  0.001292509    1.789    0.441
