#   1 NUMBER                 Running object number                                     
#   2 MAG_AUTO               Kron-like elliptical aperture magnitude                    [mag]
#   3 X_IMAGE                Object position along x                                    [pixel]
#   4 Y_IMAGE                Object position along y                                    [pixel]
#   5 X_WORLD                Barycenter position along world x axis                     [deg]
#   6 Y_WORLD                Barycenter position along world y axis                     [deg]
#   7 A_WORLD                Profile RMS along major axis (world units)                 [deg]
#   8 B_WORLD                Profile RMS along minor axis (world units)                 [deg]
#   9 THETA_WORLD            Position angle (CCW/world-x)                               [deg]
#  10 FWHM_WORLD             FWHM assuming a gaussian core                              [deg]
#  11 ELONGATION             A_IMAGE/B_IMAGE                                           
#  12 ELLIPTICITY            1 - B_IMAGE/A_IMAGE                                       
         1 -14.3493      3.4653     91.1210   1.3712809583e+02   5.6041048594e+01     5.419827     1.200078 -72.13   0.01226952   10.768    0.907
         2 -13.9909      3.0159    134.7713   1.4326416809e+02   4.6519982725e+01     2.528013    0.5443834 -72.85  0.009098624    3.908    0.744
         3 -13.4505    198.5601     27.5619   6.7840377847e+01   3.2447095356e+01     1.488371     1.316612  36.13  0.006858851    1.367    0.269
         4 -13.4127    214.4378      8.7544   6.1496339301e+01   3.0795350494e+01     1.000179    0.7883423  61.99  0.005189036    1.307    0.235
         5 -11.5414      3.8161      4.2203   1.1277371973e+02   7.1569829773e+01    0.4813112    0.2159157 -30.47  0.003058013    1.733    0.423
         6 -11.0003    152.3738    248.8790   1.2605660174e+02   1.7214416434e+00     0.263411     0.165013  37.76  0.001479422    1.431    0.301
         7 -12.2867    241.2474    248.9563   1.0973556690e+02  -1.2779483098e+01    0.6299952    0.3380099  33.61  0.003640253    1.588    0.370
         8 -11.3028    125.7048    249.6683   1.3112565425e+02   6.0690210078e+00    0.3853297    0.1800248  41.81   0.00191915    1.849    0.459
         9 -11.6278     98.8356    248.3064   1.3588508225e+02   1.0618086817e+01    0.4008949    0.3393643  18.39    0.0026141    1.813    0.449
        10  -8.7488     66.3216    250.3203   1.4178790707e+02   1.5025716571e+01    0.0947944   0.09260038 -52.21 0.0007044591    1.671    0.402
        11 -11.3054     47.6046    247.9668   1.4474575557e+02   1.7942978702e+01    0.3463087    0.3102053 -31.65  0.002260345    2.108    0.526
        12 -10.9865     29.3027    248.6074   1.4775508918e+02   2.0053831030e+01    0.3593387    0.1979342 -63.36  0.001735164    2.076    0.518
        13 -11.8984     33.3744    248.9883   1.4713191682e+02   1.9504903364e+01    0.4298741    0.2816071  49.91  0.003062295    1.450    0.311
        14 -12.4089     34.3854    243.7336   1.4661577263e+02   2.0360921503e+01    0.5282272    0.2539429  39.20  0.003096875    2.236    0.553
        15 -11.9109     19.3352    242.9699   1.4898176153e+02   2.2226302713e+01    0.4116772    0.2069048  70.92  0.002049817    1.597    0.374
        16 -11.6628     11.8770    232.6635   1.4955019364e+02   2.4972751663e+01    0.3101827    0.1394688 -63.88  0.001841963    2.300    0.565
        17 -12.5970      5.8095    248.9385   1.5138854289e+02   2.2567241736e+01     0.835866      0.52566  67.63  0.005374738    1.148    0.129
        18 -12.4456     12.0984    240.6095   1.4997932057e+02   2.3445275336e+01    0.4839309    0.2432184  69.32  0.003155677    1.556    0.357
        19 -10.5711     81.3635    248.9359   1.3906101250e+02   1.3139451125e+01    0.2204555    0.1325014  57.79  0.001337275    1.344    0.256
        20 -10.7484    198.6921    245.7346   1.1691655853e+02  -5.6565661043e+00    0.2310702    0.1535043 -16.79  0.001288886    1.945    0.486
        21 -10.3622    139.1773    245.2126   1.2805369508e+02   4.5748306713e+00    0.1798821    0.1306055  63.36 0.0006496115    1.347    0.258
        22  -8.7457     57.3398    240.2972   1.4248897508e+02   1.8118286461e+01   0.09607568   0.09237481 -55.22 0.0002918534    1.660    0.398
        23 -10.8568     49.7786    236.0093   1.4344624993e+02   1.9931494172e+01    0.2123284    0.1566381  49.15  0.001460938    1.399    0.285
        24 -12.9008     46.0777    215.7204   1.4237143808e+02   2.4469751283e+01     1.082111    0.7443575  84.97  0.006138911    1.190    0.159
        25 -12.8403     31.0523    233.2618   1.4643669053e+02   2.2752162267e+01    0.3006922    0.2282723 -78.53 0.0007819923    1.344    0.256
        26 -13.8642     35.8373    226.9360   1.4514951243e+02   2.3434742417e+01    0.7669914     0.524327  67.33    0.0023603    1.163    0.140
        27 -12.3492    113.6608    231.4171   1.3117090854e+02   1.1363045322e+01     0.896614     0.158647  41.59  0.002653498    4.946    0.798
        28 -12.0541     89.8692    227.1919   1.3525575905e+02   1.6002155254e+01    0.6816723     0.208699  53.77  0.002483916    3.526    0.716
        29  -8.9962     55.0914    230.0734   1.4200631894e+02   2.0404442206e+01    0.1974803    0.1085272  69.31 0.0006644274    1.659    0.397
        30 -10.7422      4.3302    229.0344   1.5054672867e+02   2.6431842973e+01    0.1575131     0.103103  84.78  0.001163458    1.092    0.084
        31  -9.5033    173.7410    222.8637   1.1804341011e+02   2.3184065609e+00     0.350148    0.1573818  53.85   0.00139177    2.663    0.625
        32 -11.6549     55.0015    210.6387   1.4020041732e+02   2.4396012382e+01     1.347479    0.3826739  59.71  0.003464981    8.128    0.877
        33  -8.7750    152.5127    213.0672   1.2073330664e+02   8.0130426223e+00    0.1807117    0.1374556 -53.48 0.0003463182    1.452    0.311
        34 -12.3779      9.9048    206.9587   1.4822531300e+02   3.0278731698e+01    0.6051919    0.3888279  34.64  0.002906331    1.986    0.497
        35 -10.5663     55.8305    205.9937   1.3956660682e+02   2.5275610430e+01    0.4589894    0.1787163  55.76  0.002036256    2.599    0.615
        36 -11.6434     58.4553    199.4991   1.3834848272e+02   2.6334541626e+01    0.3063219    0.2234066 -80.94 0.0006443908    1.190    0.159
        37 -11.3382    139.6233    250.0795   1.2859529131e+02   3.6814518308e+00     0.457603    0.1698162  43.17  0.002031661    2.223    0.550
        38 -10.7008    215.0942    248.7827   1.1438258490e+02  -8.7500114667e+00    0.2458102    0.1464491  24.74  0.001372252    1.611    0.379
        39  -9.9079      9.3640    194.1765   1.4739775129e+02   3.2993274948e+01    0.1966292    0.1337622  60.15 0.0005823014    1.366    0.268
        40 -10.7602     75.7498    177.7989   1.3190452576e+02   2.8804043641e+01    0.2427144     0.205725 -78.89  0.000351055    1.072    0.067
        41 -13.0596     62.1858    175.9469   1.3469378969e+02   3.1128223485e+01    0.5154252    0.2695681 -47.25     0.001819    2.333    0.571
        42  -8.7455     96.2325    173.4129   1.2653397232e+02   2.6623465245e+01    0.2019001     0.120837  54.32 0.0008832494    1.706    0.414
        43 -11.8166     83.4789    168.4883   1.2871350864e+02   2.9805942547e+01    0.7102742    0.6147763 -48.17  0.004146803    1.316    0.240
        44 -11.8622     65.0240    190.8930   1.3598767981e+02   2.7350648107e+01    0.2670227    0.2331937 -73.66 0.0004233781    1.210    0.173
        45 -10.1336     96.4385    152.8914   1.2285956316e+02   3.1395659876e+01    0.3133546    0.2595174 -54.50 0.0008032817    1.188    0.158
        46  -9.2488     99.6092    148.6062   1.2124016631e+02   3.1869850099e+01    0.2348198    0.2075819 -39.90 0.0006903564    1.252    0.201
        47 -11.9375     84.9354    151.8100   1.2552511641e+02   3.3512560583e+01    0.3028441     0.243411 -48.41  0.000511487    1.295    0.228
        48 -12.1100     67.4124    143.5451   1.2848272332e+02   3.8029914238e+01    0.6587953    0.4325785  67.97  0.002422046    1.832    0.454
        49  -9.8328    108.8335    137.6002   1.1660819430e+02   3.2823532887e+01    0.4074484    0.2800625 -17.59   0.00133567    2.398    0.583
        50 -10.5079     95.7212    134.8805   1.1943477326e+02   3.5770779565e+01    0.2557268    0.2307022 -34.99 0.0003810716    1.211    0.174
        51  -8.9344    191.3366    192.0118   1.0894859540e+02   4.5464077423e+00     0.225503    0.1159013 -63.40 0.0007051291    4.369    0.771
        52 -11.4327     26.3526    128.8591   1.3670176292e+02   4.6048737342e+01    0.4353558    0.2211147  52.89  0.001434075    2.456    0.593
        53  -9.0506     76.9372    129.9274   1.2340968319e+02   3.9904797289e+01    0.2222862     0.162122  78.12  0.001111847    1.693    0.409
        54 -11.3577     19.0372    125.2258   1.3807066549e+02   4.7488246242e+01    0.2934556    0.2291822  72.20  0.001127185    1.399    0.285
        55  -8.9367    106.2164    124.0461   1.1422828965e+02   3.6450398788e+01     0.194229    0.1796016 -63.98 0.0002751563    1.035    0.034
        56  -8.9954    167.9699    113.0224   9.6135263461e+01   2.5737817802e+01     0.247059     0.190852 -80.01 0.0006463509    1.628    0.386
        57  -9.2276     40.6482     96.1556   1.2675492890e+02   5.2088611673e+01    0.2721251    0.1532046  48.88  0.001366978    2.393    0.582
        58 -10.4033    242.7546     92.9905   7.7456980079e+01   1.2150482679e+01     0.197773    0.1109506 -39.10 0.0008959173    1.633    0.388
        59  -8.6809     65.0173     81.5133   1.1543529612e+02   5.2356675845e+01    0.1711248    0.1124189  59.66 0.0008085865    2.407    0.584
        60  -9.8408    158.0748     76.5326   8.8371463297e+01   3.5150278673e+01    0.2345324    0.1472811  55.14  0.001024369    1.576    0.365
        61 -12.7952      3.6730    167.9400   1.4638560847e+02   3.9134491633e+01     1.686836    0.3648515 -73.59  0.006532457    3.547    0.718
        62 -13.7187      9.5542    156.0019   1.4403022759e+02   4.1300003371e+01       3.9977     1.444552  82.94   0.01233692    6.243    0.840
        63 -11.7281      4.1554     50.5275   1.2836128995e+02   6.4117063815e+01    0.2853521    0.2488876 -51.55   0.00154887    1.263    0.208
        64 -11.3314    171.7486    247.8043   1.2226889144e+02  -1.4139097637e+00    0.2930136    0.2418743  35.75  0.001401853    1.064    0.061
        65 -10.6486    161.7813    248.7525   1.2427475346e+02   1.3862369377e-01    0.2283503    0.1800172 -68.14  0.001242031    1.614    0.380
