#   1 NUMBER                 Running object number                                     
#   2 MAG_AUTO               Kron-like elliptical aperture magnitude                    [mag]
#   3 X_IMAGE                Object position along x                                    [pixel]
#   4 Y_IMAGE                Object position along y                                    [pixel]
#   5 X_WORLD                Barycenter position along world x axis                     [deg]
#   6 Y_WORLD                Barycenter position along world y axis                     [deg]
#   7 A_WORLD                Profile RMS along major axis (world units)                 [deg]
#   8 B_WORLD                Profile RMS along minor axis (world units)                 [deg]
#   9 THETA_WORLD            Position angle (CCW/world-x)                               [deg]
#  10 FWHM_WORLD             FWHM assuming a gaussian core                              [deg]
#  11 ELONGATION             A_IMAGE/B_IMAGE                                           
#  12 ELLIPTICITY            1 - B_IMAGE/A_IMAGE                                       
         1 -14.4084    214.7950     28.7311   3.7463584533e+01   2.8730609432e+01     1.077827    0.8802705  28.42  0.005235071    1.689    0.408
         2 -14.5834    202.7550     40.4130   4.1607767524e+01   2.9954293224e+01     2.028032     1.453221  30.91  0.007574024    1.945    0.486
         3 -13.3054    240.1806      4.5433   3.0147336598e+01   2.6102090498e+01    0.7602094    0.4639792  83.08  0.004838215    1.516    0.340
         4 -10.8614     56.0863      5.8328   6.1281009462e+01   6.6216062918e+01    0.2804675    0.1827635  51.61  0.001264309    1.756    0.430
         5 -14.3095     20.0544    220.9483   1.2074159235e+02   2.4586497876e+01    0.8241082    0.5893737  66.83   0.00231087    1.149    0.130
         6 -13.9011     68.2636    171.7589   1.0489025980e+02   3.0276202904e+01     2.465628     1.146035 -30.35  0.006504123    6.964    0.856
         7 -13.6635     67.4208    155.7086   1.0264773422e+02   3.4322356244e+01    0.6009797    0.4496044 -45.14  0.001388987    1.373    0.271
         8 -14.7412     68.3056    144.1888   1.0043330623e+02   3.7069343957e+01     4.332206     2.323952  79.85   0.01139682    4.293    0.767
         9  -9.7941     79.6808    182.4315   1.0355864884e+02   2.6164813820e+01    0.3270783    0.1846875 -75.91  0.001448624    2.059    0.514
        10  -9.9968     99.3690    180.8817   9.8428026699e+01   2.3595102107e+01      0.24736    0.2053793  29.68 0.0005732499    1.251    0.201
        11 -10.5914    189.2787    177.3312   7.6743597181e+01   8.6364471034e+00    0.4919718    0.3114826 -55.39  0.002228981    2.051    0.512
        12  -9.6187    148.5313    175.4713   8.5443277236e+01   1.6397386034e+01     0.246408    0.1456374 -49.51  0.000870709    1.742    0.426
        13 -10.4774    146.5436    171.7649   8.5174337817e+01   1.7559383888e+01    0.2727556    0.2339409 -84.82  0.000800263    1.473    0.321
        14 -11.4548    121.2773    173.1762   9.1611483821e+01   2.1759962967e+01    0.5920546    0.2072129  34.22  0.001967931    3.028    0.670
        15 -10.2799     34.6515    171.7252   1.1335832184e+02   3.4193033959e+01     0.326256    0.1769169  60.17  0.001548213    2.023    0.506
        16 -15.7454      5.1618    162.6098   1.1964709752e+02   3.8909114573e+01     6.574424      1.17713 -72.51   0.01572184    4.040    0.752
        17  -9.8979     89.9928    212.8265   1.0522144527e+02   1.7873673720e+01    0.2294282     0.182138  78.80 0.0006158447    1.321    0.243
        18 -10.1000    112.0662    205.5182   9.9216956777e+01   1.6121610357e+01    0.2169616    0.1866641 -83.39 0.0004135276    1.279    0.218
        19 -11.2730     33.2234    155.9442   1.1189145182e+02   3.8166661463e+01     0.319565    0.2696518  89.14  0.001004527    1.090    0.082
        20 -12.4157     86.8562    153.6190   9.6962183729e+01   3.2070560147e+01    0.6464886    0.4519821 -23.82  0.002971758    1.898    0.473
        21 -11.3171    133.7389    144.6091   8.2540108222e+01   2.6048503243e+01     1.260638    0.3294017 -54.17   0.00288041    5.934    0.831
        22  -9.3641    111.3507    149.5004   8.9490658695e+01   2.9040095487e+01    0.3124554     0.202929  66.15  0.001262654    2.260    0.557
        23 -10.6962    174.4955    148.9660   7.3804845282e+01   1.7059335992e+01    0.2812544    0.2615681  67.31 0.0007441127    1.270    0.212
        24  -9.6225    164.6543    149.3009   7.6098253474e+01   1.8936265645e+01    0.1506448    0.1241897  85.92 0.0004047163    1.682    0.406
        25 -11.2660     54.2924    146.8862   1.0486582343e+02   3.8161260057e+01    0.6755902    0.2338359 -54.25  0.002565261    2.485    0.598
        26 -11.2561     58.0100    146.4847   1.0375280860e+02   3.7815063741e+01    0.3712364    0.2721674 -39.55  0.001387768    1.466    0.318
        27 -10.3044    143.6129    145.8167   8.0327400011e+01   2.3854339389e+01    0.2246547    0.1452442 -56.17 0.0009525032    1.711    0.416
        28 -15.4680     40.9698    198.7630   1.1463446150e+02   2.7222725223e+01     3.470037     1.534877  74.14   0.01381581    3.281    0.695
        29 -14.3004     50.5954    189.2113   1.1145585461e+02   2.8321162729e+01     1.545699    0.9908597  73.51  0.008203737    1.647    0.393
        30 -10.3469    197.8673    139.4602   6.6723279922e+01   1.4338023604e+01    0.3146342    0.2213865 -59.38  0.001154235    1.796    0.443
        31 -11.0867    101.0880    139.3730   9.0148148201e+01   3.3253977298e+01    0.5699784    0.3654049 -18.17  0.002251833    2.425    0.588
        32 -12.4649     88.3898    138.9252   9.3656075200e+01   3.5446476442e+01    0.2968237    0.2666129 -38.49 0.0004381663    1.106    0.096
        33 -10.3420     24.9998    137.1011   1.1173159999e+02   4.3554208857e+01    0.3136514    0.1572006  39.75  0.001523002    2.194    0.544
        34 -10.5075    105.9281    130.8651   8.6875361169e+01   3.4455927099e+01    0.4048607    0.2749125 -55.16  0.001836274    1.466    0.318
        35 -10.3705    110.3830    129.9850   8.5414461446e+01   3.3861233260e+01    0.3956691    0.2460649  19.46  0.001204351    2.154    0.536
        36 -11.3800    135.7103    127.9172   7.8080392576e+01   2.9446252014e+01    0.6184717    0.2392031 -49.85  0.002037189    2.689    0.628
        37  -9.8011    160.9700    127.9621   7.1894286188e+01   2.4212834918e+01    0.2514623    0.1999173 -83.25  0.001149255    1.747    0.428
        38 -11.3368     97.8649    125.9184   8.8040055720e+01   3.7050215295e+01    0.3297764     0.263135 -13.54 0.0007599303    1.469    0.319
        39 -10.2250    149.6388    187.6270   8.7520468757e+01   1.3633294313e+01     0.272394    0.2513523  62.59  0.000815905    1.236    0.191
        40 -10.9374    117.9294    123.2133   8.1669872763e+01   3.4029144802e+01    0.5474014    0.3253926  -5.30  0.001634159    4.219    0.763
        41  -9.9330    107.1535    118.9178   8.3642894523e+01   3.7053680271e+01    0.2194626    0.2099334 -28.03  0.000374496    1.009    0.008
        42  -9.7473     85.0142    118.8483   9.0218943399e+01   4.0876364926e+01    0.2284849    0.1971008  74.94  0.000730883    1.391    0.281
        43 -10.3951     43.5802    129.3000   1.0509744073e+02   4.3746252396e+01    0.2743467    0.1485839  42.35   0.00123561    2.074    0.518
        44 -10.6048     39.9829    113.5270   1.0338848745e+02   4.8015591090e+01    0.2452291    0.1808211 -79.72 0.0004881924    1.444    0.307
        45 -10.2118    205.4830    110.2286   5.8388013836e+01   1.8286691364e+01    0.2881888    0.2285463  33.41  0.000806943    1.421    0.296
        46 -10.0167    115.1568    108.9979   7.8776084527e+01   3.7796937516e+01    0.2710569    0.1770441 -20.06  0.001092334    2.057    0.514
        47 -11.4693     32.4861    108.0655   1.0481659445e+02   5.0056307415e+01      0.45154    0.2473823  36.62   0.00221904    2.097    0.523
        48 -12.6366    248.1226    104.0264   5.0332028462e+01   1.1012600625e+01     0.683183    0.2712851 -41.54  0.002948366    2.096    0.523
        49 -10.6184     41.8807    103.4758   1.0073697857e+02   5.0265690785e+01    0.2876107    0.2414869  52.14 0.0009844605    1.427    0.299
        50 -11.5960    241.8654    101.6886   5.0681045334e+01   1.2544823668e+01    0.2434526    0.1692145 -29.61  0.001108547    1.369    0.270
        51 -10.7569     36.3616    101.2762   1.0216468406e+02   5.1338018316e+01    0.2478069     0.220496 -76.96  0.001049835    1.207    0.171
        52 -10.1611    134.4178    105.7852   7.2663428584e+01   3.4556387936e+01    0.3491753    0.2029185 -27.69 0.0008087298    2.114    0.527
        53  -8.7043     60.3004     94.6642   9.2312267286e+01   5.0198977090e+01    0.1369959    0.1121809  83.49 0.0003236019    1.658    0.397
        54  -9.3307     16.5140     94.5144   1.0774413949e+02   5.4553948860e+01    0.1300335    0.1064809 -56.18  0.000160893    1.024    0.023
        55 -10.3365     52.9385     91.1385   9.3996404905e+01   5.1940145068e+01    0.2617056     0.184772 -51.92 0.0007674631    1.274    0.215
        56 -17.5186     18.7736    242.5201   1.2227532790e+02   2.0416703610e+01     7.758314     2.714771  25.57   0.03374294    4.241    0.764
        57  -9.6657    151.0013     82.9298   6.2161920549e+01   3.5410824467e+01    0.2241486    0.2130293 -67.03 0.0004647899    1.115    0.103
        58  -9.7853    159.4724     82.5033   6.0165260641e+01   3.3543074193e+01    0.1479931    0.1453872 -18.64  9.33453e-05    1.011    0.011
        59  -8.5715     69.6654     81.3649   8.5347662298e+01   5.1851643073e+01    0.1406627     0.115428  85.26 0.0007034394    1.824    0.452
        60  -9.1384    109.7205     79.5881   7.1844847123e+01   4.5070046949e+01    0.1987703    0.1436945  52.44 0.0009339587    1.539    0.350
        61 -10.2456     52.0060     64.3614   8.6645858128e+01   5.7852338404e+01    0.3260335    0.2075474  50.97  0.001555179    2.374    0.579
        62 -15.4960      9.5629    207.2442   1.2193202536e+02   2.8455146995e+01     1.334321     1.142404 -47.95   0.00970883    1.550    0.355
        63 -10.7118     13.4365     59.8794   1.0128895583e+02   6.2534210540e+01    0.2487311    0.1915811 -53.64 0.0004386571    1.193    0.162
        64 -11.3886    108.2080    203.4897   9.9806455323e+01   1.7154761932e+01    0.4015954    0.2457795  27.30  0.001929296    1.756    0.430
        65 -11.8438    193.9033    196.3141   7.9537429996e+01   4.3402339133e+00     1.098115    0.6081209 -63.71  0.003481569    5.430    0.816
        66  -8.7304     76.2714    194.2974   1.0601111629e+02   2.3885795353e+01    0.1258409    0.1024156 -32.87 0.0001979432    1.524    0.344
        67 -10.9498    138.0939     44.0328   5.3216837439e+01   4.4670852027e+01    0.3514657    0.2591717 -81.54 0.0004936521    1.832    0.454
        68  -9.6686     77.9597     57.4763   7.4641607404e+01   5.5218698573e+01    0.2570361    0.1329432  43.52  0.001133014    2.052    0.513
        69 -10.3396    198.0254     23.8993   3.8121082136e+01   3.3034354072e+01    0.2711998    0.1887372 -18.59 0.0009670106    1.790    0.441
        70 -10.2923      1.9597     25.0085   9.5901413101e+01   7.0023988837e+01     0.178814     0.131381 -26.24 0.0006060414    1.024    0.024
        71  -9.6422    189.6723     15.0224   3.6855343951e+01   3.5907502606e+01    0.1723654    0.1544833 -57.73 0.0006483657    1.130    0.115
        72 -12.7805    193.0258     47.1761   4.4592945972e+01   3.1276291069e+01     0.663069     0.558275  60.16 0.0009091541    1.207    0.172
        73 -11.1653    204.6706    199.8843   7.8050061447e+01   1.9709766802e+00    0.2427409     0.171675  18.27  0.001230622    1.370    0.270
