#   1 NUMBER                 Running object number                                     
#   2 MAG_AUTO               Kron-like elliptical aperture magnitude                    [mag]
#   3 X_IMAGE                Object position along x                                    [pixel]
#   4 Y_IMAGE                Object position along y                                    [pixel]
#   5 X_WORLD                Barycenter position along world x axis                     [deg]
#   6 Y_WORLD                Barycenter position along world y axis                     [deg]
#   7 A_WORLD                Profile RMS along major axis (world units)                 [deg]
#   8 B_WORLD                Profile RMS along minor axis (world units)                 [deg]
#   9 THETA_WORLD            Position angle (CCW/world-x)                               [deg]
#  10 FWHM_WORLD             FWHM assuming a gaussian core                              [deg]
#  11 ELONGATION             A_IMAGE/B_IMAGE                                           
#  12 ELLIPTICITY            1 - B_IMAGE/A_IMAGE                                       
         1 -14.1408    220.6947    115.5817   5.1839571180e+01   1.4888314792e+01     2.406758     1.982861  61.64    0.0140698    1.401    0.286
         2 -12.9460    238.1645     20.6719   2.9905745925e+01   2.5500232968e+01    0.5998842    0.2581772 -47.05   0.00331201    1.889    0.470
         3 -11.2540    249.5342     10.8199   2.7311219396e+01   2.4450624791e+01    0.2848492    0.2309465  73.07  0.002192398    1.456    0.313
         4 -11.4859    249.2613     16.8911   2.8428342314e+01   2.3828016727e+01     0.294373    0.2204068 -33.45  0.002097123    1.607    0.378
         5 -10.6946      2.7119     25.7197   9.1252035625e+01   7.0847451664e+01    0.2650743    0.1210494 -46.24 0.0007693052    1.847    0.458
         6 -11.9304     31.7705     22.2332   7.3959079407e+01   6.8477291211e+01    0.5006398     0.383276  13.85  0.003353675    1.131    0.116
         7 -11.6707    111.9408     18.7920   4.5384354926e+01   5.3765736973e+01    0.3702838     0.271663  59.75   0.00107705    1.199    0.166
         8 -11.0317    100.6518     15.8690   4.6870713385e+01   5.6569798120e+01    0.3188338    0.2044178  48.16 0.0007737884    1.318    0.241
         9 -11.9682    227.4530     14.6094   2.9518265147e+01   2.8287262115e+01    0.3209172    0.2038015 -29.16  0.001724182    1.902    0.474
        10 -10.5336    155.4720     14.3948   3.6661207405e+01   4.4094164171e+01    0.3273947    0.2074106  18.02  0.001531696    2.536    0.606
        11 -10.3134    156.4911     10.0195   3.5343409618e+01   4.4268560515e+01    0.2049824     0.155645  55.02 0.0008744544    1.292    0.226
        12 -10.8291     10.2435     15.2959   8.2354439114e+01   7.1891742116e+01    0.2524638    0.2142914 -19.90  0.001069396    1.334    0.250
        13 -10.0625     19.5501     14.5782   7.6717759362e+01   7.1026478874e+01    0.2164046    0.1339572 -44.30  0.001293334    2.050    0.512
        14 -10.5962     15.9879     13.6322   7.8245002197e+01   7.1550713144e+01    0.2168855    0.1504181   1.93 0.0003312675    1.169    0.145
        15 -11.3331     57.3033     13.1168   5.8632177656e+01   6.5595732635e+01    0.4332783    0.2956787  34.67  0.002674797    1.221    0.181
        16 -12.1492    184.5926     11.9996   3.2670180423e+01   3.7670540302e+01     0.690314     0.311359  55.84  0.003429504    2.214    0.548
        17 -11.6198    123.4570     10.0583   4.0261101121e+01   5.1930034381e+01    0.4595251    0.2927056  23.60  0.002475807    1.997    0.499
        18 -11.2124    127.4186      4.3046   3.7788211441e+01   5.1491752148e+01    0.2293111    0.2134429 -89.79 0.0004373553    1.145    0.126
        19  -9.8799    118.0749     10.1459   4.1254557391e+01   5.3158245666e+01    0.2410975    0.1471599 -57.11  0.001247131    2.153    0.535
        20 -11.7897    211.7629      6.5736   2.9078013415e+01   3.2338686949e+01    0.4135059    0.3270678   6.14  0.002710529    2.115    0.527
        21 -11.1447    102.4648      8.3721   4.3748636661e+01   5.6829907410e+01    0.2559524    0.1768304  48.82 0.0008680786    1.213    0.175
        22 -10.1296     47.8536      8.2426   6.0026444784e+01   6.7734278205e+01    0.2265147    0.1613444  18.88 0.0009156321    1.180    0.152
        23 -10.6724    238.2957      7.1388   2.7338618982e+01   2.6963353663e+01    0.2440812   0.07777137 -37.54  0.001209226    2.701    0.630
        24 -11.4020     13.6860      5.7246   7.5569301989e+01   7.2848846149e+01    0.4018665    0.2107202 -39.33  0.002383753    2.103    0.524
        25 -10.2916    216.4582      7.4749   2.8908003718e+01   3.1274605587e+01    0.1152348   0.09138721 -76.90 9.479149e-05    1.017    0.017
        26  -9.8791     78.0599      6.5268   4.9016281860e+01   6.2206713277e+01     0.213264    0.1497718  27.42  0.001306716    1.323    0.244
        27 -11.8272     24.3257     12.0283   7.2889751298e+01   7.0791148036e+01    0.2367269    0.1678302 -12.24 0.0002004113    1.201    0.167
        28  -9.9349     40.5415      5.1472   6.1578146042e+01   6.9245824973e+01    0.2292975    0.1333954  42.88 0.0009182408    1.608    0.378
        29 -10.9388      3.1853      3.7382   8.0954051500e+01   7.4167008457e+01    0.2917079    0.2122323  44.93  0.001859594    2.661    0.624
        30 -11.4725     90.1870      3.0040   4.4500566984e+01   5.9937477266e+01    0.3115021    0.2409516  65.37 0.0006497023    1.261    0.207
        31 -12.1622    248.7878     22.7640   2.9539057756e+01   2.3242349935e+01    0.7411024    0.2019428 -54.53  0.002834272    3.391    0.705
        32 -10.2906    102.4650      1.9988   4.1460768068e+01   5.7327472242e+01     0.202371    0.1413038  60.28 0.0005932104    1.196    0.164
        33  -9.6398     24.9000      1.3879   6.7053898846e+01   7.1959724268e+01    0.1581532   0.09141388  33.12 0.0005834896    1.518    0.341
        34  -9.3272     25.7151    107.2933   1.0279930241e+02   5.1885023854e+01    0.1273405    0.1012692  73.20 0.0001862193    1.540    0.351
        35 -10.7249     80.7410    103.0819   8.2215996600e+01   4.6033831354e+01    0.3007721    0.2165641  21.14 0.0003867705    1.512    0.339
        36 -10.3754    249.6832    102.9373   4.5118952474e+01   1.1786653690e+01    0.2272127    0.2081097 -22.56  0.001111314    1.264    0.209
        37 -10.7151     45.4642    102.1283   9.4481739534e+01   5.1215682195e+01    0.2517872    0.2399912  34.74 0.0003874231    1.194    0.163
        38 -10.0301     13.8787    100.9547   1.0596097616e+02   5.4307616003e+01    0.1955383    0.1613229 -54.84 0.0003135177    1.017    0.017
        39 -10.2713     73.0033     98.0573   8.3505550097e+01   4.8441141741e+01    0.2217547    0.1830281  77.40 0.0005304554    1.654    0.395
        40 -10.3380     21.0767    141.9127   1.0976388704e+02   4.3519268985e+01    0.2010509    0.1758296 -73.46 0.0004539666    1.022    0.022
        41  -9.6428     53.3848     97.1759   9.0346613323e+01   5.1440394722e+01    0.2038972    0.1326915 -65.03 0.0005259802    1.718    0.418
        42  -9.2314     97.0335     95.5219   7.4780147834e+01   4.4813054854e+01    0.2115601    0.1310202  62.08 0.0008096121    2.501    0.600
        43  -9.7168     16.2990     95.3700   1.0401786790e+02   5.5489221416e+01    0.1565412    0.1216838  25.97 0.0004533059    1.493    0.330
        44 -11.0633    116.5481     93.5411   6.8365870804e+01   4.1311288732e+01    0.2683986    0.2511512 -88.95 0.0005234902    1.212    0.175
        45  -9.1902      1.2473     94.3526   1.0953881791e+02   5.6600276733e+01    0.1368887   0.07018835 -47.08 0.0006629798    1.590    0.371
        46  -9.0742     80.9954     93.6649   7.9513650474e+01   4.8117093020e+01    0.2431533    0.1092207  54.27 0.0007052129    4.388    0.772
        47  -9.6452    126.7144     91.7481   6.5066334374e+01   3.9496222197e+01    0.2011494    0.1788196 -84.14 0.0006002471    1.313    0.238
        48  -9.9708      8.6331     91.9367   1.0631272071e+02   5.6787880127e+01    0.2020276    0.1546352 -28.11 0.0005218057    1.276    0.216
        49  -9.0165     16.6924     91.2869   1.0305740749e+02   5.6431398867e+01    0.1207563   0.09857793  68.59 0.0001665075    1.571    0.363
        50 -10.6039     34.6037     89.9417   9.5720833316e+01   5.5248699735e+01    0.2435487    0.1975783   8.50 0.0002930295    1.309    0.236
        51 -11.1862    121.1596     87.3456   6.5279681001e+01   4.1568873716e+01    0.3667187    0.2948626  26.12  0.001825599    1.333    0.250
        52  -9.4101    111.6643     88.3028   6.8230168227e+01   4.3395373320e+01    0.1501462    0.1223845  87.29 0.0003943482    1.663    0.399
        53  -9.9576    139.0492     86.9889   6.0585491082e+01   3.7681774711e+01     0.218545    0.2143937 -73.80  0.001211748    1.040    0.038
        54  -9.6586    131.3162     86.0084   6.2218359942e+01   3.9598095773e+01    0.2086485    0.1841159 -37.62 0.0002094991    1.144    0.126
        55  -9.4593     86.2951     86.2939   7.5550310656e+01   4.8768916794e+01    0.1489595     0.111968  -7.11 0.0001934561    1.560    0.359
        56 -10.7844     28.7907     85.1874   9.6884997983e+01   5.6892239367e+01    0.2625653    0.2142594   9.34 0.0008449285    1.309    0.236
        57 -11.5035     76.0629     83.4746   7.8219336316e+01   5.1145913615e+01     0.329636    0.2688212 -41.81 0.0003648909    1.205    0.170
        58 -11.2343     80.0312     80.9742   7.6059778798e+01   5.0984226318e+01    0.2504779    0.2397918   3.70 0.0003030663    1.082    0.076
        59  -9.3050     20.9739     83.0191   9.9550746882e+01   5.8040596924e+01    0.1580174    0.1330275 -37.94 0.0003008745    1.024    0.023
        60 -10.8775    104.5736     79.4890   6.7646244490e+01   4.6592246116e+01    0.3103735    0.2565858 -65.79  0.001576545    1.497    0.332
        61  -9.5552     54.1954     80.2036   8.5381693672e+01   5.5157613174e+01    0.1748196    0.1681373 -79.94 0.0003966225    1.298    0.229
        62 -10.7613     57.5811     76.4676   8.2936462373e+01   5.5482342821e+01     0.529653    0.3005879  58.33  0.001934163    3.791    0.736
        63 -11.2410     76.3222     75.2020   7.5543715179e+01   5.2791184336e+01    0.5408345    0.2340091  32.53  0.002078173    2.477    0.596
        64  -9.8149     50.7583     76.2305   8.5555774917e+01   5.6461434145e+01     0.213871    0.1104655  15.31 0.0008841388    2.438    0.590
        65 -10.5802      4.6168     75.5056   1.0470628415e+02   6.0797658791e+01      0.23992    0.1667717 -43.19  0.001459872    1.156    0.135
        66  -9.7089    130.7174     74.5928   5.9010975177e+01   4.1819412967e+01    0.1981112    0.1398051  61.02 0.0003513556    1.517    0.341
        67  -9.6025     93.9897     73.4984   6.9026093592e+01   4.9856552520e+01    0.2090399    0.1390778  38.99 0.0003432024    1.469    0.319
        68  -9.2337     88.2615     73.3472   7.0840486989e+01   5.0990460431e+01    0.1474076     0.108501  -7.32 0.0005205869    1.603    0.376
        69 -10.6324     97.1438     69.3027   6.6669288582e+01   5.0000097183e+01    0.3163011    0.2694438 -72.75  0.001512698    1.545    0.353
        70 -11.0788    101.1225     68.0424   6.5039704114e+01   4.9412434680e+01     0.435741    0.2715044 -60.43  0.001820806    2.451    0.592
        71 -10.0323     63.4908     70.6117   7.8797733214e+01   5.5798542103e+01    0.2662488    0.1695514  30.12 0.0007237581    1.573    0.364
        72 -10.1539     28.2379    141.0234   1.0746657797e+02   4.3138744223e+01    0.3017132    0.1519355 -59.99 0.0003582494    1.669    0.401
        73 -11.5014    137.2680     69.4686   5.5925465754e+01   4.1202376697e+01     0.350846    0.2426122  44.01  0.001701765    1.438    0.305
        74 -10.4056     80.0955     69.8081   7.2455315199e+01   5.3170097413e+01    0.3501059    0.2090917  53.22  0.001081887    2.160    0.537
        75  -9.8588     17.8857     70.2252   9.7729809284e+01   6.1128893637e+01    0.1826105    0.1612523 -46.97 0.0006733499    1.160    0.138
        76 -11.1150    155.6263     68.7962   5.1796500663e+01   3.7058336996e+01    0.3042508    0.2376434 -83.85 0.0007424668    1.494    0.330
        77  -9.5714     34.2518     69.5661   9.0414965094e+01   5.9806504758e+01    0.1728109    0.1183319   0.20 0.0004742072    1.531    0.347
        78  -8.9631     27.3577     69.2885   9.3323331976e+01   6.0541120888e+01    0.1408434   0.08380555 -24.88 0.0007025213    1.682    0.406
        79  -9.1997     90.3901     67.4891   6.8217035212e+01   5.1666238315e+01    0.1426191     0.130929   0.58 0.0008000053    1.029    0.028
        80 -10.1568    121.3861     66.0332   5.8744888513e+01   4.5383311499e+01    0.2617192    0.1887198  33.08 0.0002690095    1.468    0.319
        81 -10.3990    110.9759     65.7531   6.1441298118e+01   4.7722928807e+01    0.2440091    0.2063257 -44.36 0.0002274389    1.268    0.211
        82 -10.3346     70.9290     63.9571   7.3769705478e+01   5.5864387116e+01     0.396517    0.1908358 -39.84  0.001710771    2.053    0.513
        83  -9.8039     58.7134     66.4224   7.9275326704e+01   5.7344723501e+01     0.238524    0.1272049  36.62  0.001093935    1.921    0.480
        84 -10.0866     48.8086     66.0203   8.3151169397e+01   5.8814417212e+01    0.2340357    0.1890589  11.18 0.0009447775    1.199    0.166
        85 -10.1164     33.3977     64.8049   8.9351166603e+01   6.0884638328e+01    0.2511611    0.1115612 -51.62  0.001126576    2.067    0.516
        86  -9.4697     25.9981     66.0000   9.2981122613e+01   6.1360043261e+01    0.1959725   0.07133229  21.73 0.0007994487    2.922    0.658
        87 -10.7030     43.3981     62.8190   8.4379309514e+01   6.0140491276e+01    0.3166571    0.2508985  64.11  0.001716645    2.044    0.511
        88  -9.5648      2.3176     64.7970   1.0334049530e+02   6.3271960612e+01    0.2071484   0.09120273  15.31  0.001023811    2.493    0.599
        89 -10.0437    147.0186     61.7000   5.1527022424e+01   4.0188649203e+01    0.1945928    0.1781977  63.16 0.0004705444    1.045    0.043
        90  -9.8331    197.1613     59.7644   4.2543057799e+01   2.8965581505e+01    0.1692705    0.1552469  37.22 0.0002659505    1.343    0.255
        91 -10.1095      4.0612     59.5062   1.0124945010e+02   6.4308258635e+01    0.1809625     0.135931 -40.99 0.0003473932    1.043    0.042
        92 -10.3149    101.0012     58.6451   6.1953599698e+01   5.1028960042e+01    0.1990472    0.1718046  37.43 0.0006691191    1.090    0.082
        93 -10.9509     60.0048     58.1993   7.5938235206e+01   5.8691835708e+01    0.3321975     0.253575 -19.50 0.0007637085    1.247    0.198
        94 -10.5785    150.8907     57.7336   4.9611816042e+01   3.9884693793e+01    0.2344985    0.2012553 -46.13 0.0003031899    1.201    0.167
        95 -11.1643     95.2188     57.3429   6.3250024072e+01   5.2439017695e+01    0.3873172    0.2512851  13.18  0.001734934    2.099    0.524
        96 -10.3492    160.0237     56.6360   4.7592056707e+01   3.7907033378e+01    0.2924896    0.1955158 -35.84  0.001475662    1.560    0.359
        97  -9.9424      7.9684     56.7713   9.8678843127e+01   6.4651788740e+01    0.1665345    0.1354428 -28.79 0.0003067548    1.057    0.054
        98 -10.3218    200.7023     55.3407   4.1024746562e+01   2.8826978891e+01    0.2353593    0.2019547 -46.11 0.0006850379    1.174    0.148
        99  -9.9464    112.0065     55.6993   5.7881990034e+01   4.9122949414e+01    0.1991839    0.1697994  45.26 0.0002642264    1.102    0.092
       100  -9.1849     26.5259     56.4753   8.9830473853e+01   6.3249818518e+01    0.1292987    0.1066219 -23.40   0.00055866    1.018    0.018
       101  -9.9821     80.7645     54.9847   6.7114156908e+01   5.5667525646e+01    0.3622838    0.1257363  39.20  0.001308526    2.850    0.649
       102  -9.4538     68.9535     55.0095   7.1349849099e+01   5.7789621391e+01    0.1659199    0.1454965   6.71 0.0005403011    1.014    0.014
       103  -9.7190    162.5237     52.9234   4.6133711844e+01   3.7857661287e+01    0.1979454    0.1350643 -35.56  0.000938997    1.536    0.349
       104  -9.6421    119.3240     53.6647   5.5333488929e+01   4.7797675155e+01    0.1421112    0.1107439 -77.95 0.0007050994    1.713    0.416
       105  -9.7155      1.6822     51.4787   1.0027395650e+02   6.6091044176e+01    0.1794662    0.1200903 -25.54 0.0007087853    1.275    0.216
       106 -10.0537      5.7887     48.7848   9.7462359976e+01   6.6398278449e+01     0.326415    0.1378223 -44.42 0.0009770144    1.805    0.446
       107 -10.5993     55.0764     50.0151   7.4947479859e+01   6.0887906059e+01    0.2421978    0.1856201 -20.32 0.0004255844    1.212    0.175
       108 -10.1752     59.0199     47.5177   7.2407041249e+01   6.0690368287e+01    0.2710015    0.1894353 -10.02  0.001201084    1.495    0.331
       109  -9.8871    212.1653     49.8109   3.8361434260e+01   2.7130995251e+01    0.1953124    0.1458551 -66.86 0.0005048176    1.217    0.178
       110 -10.7427    202.8571     49.8616   3.9478051209e+01   2.9121808980e+01    0.1869118    0.1768066  59.58   0.00113594    1.259    0.205
       111 -10.6154    126.7821     49.7407   5.2301243835e+01   4.6665739405e+01    0.2544794    0.2158108 -66.28  0.001422602    1.356    0.263
       112 -10.5318     24.8059     49.0920   8.8183408514e+01   6.4839213731e+01    0.2442072    0.1575787 -16.34  0.000369128    1.473    0.321
       113  -8.7961     18.2979     50.3381   9.1754434872e+01   6.5189547438e+01     0.135203   0.07524525 -27.14 0.0005143663    1.658    0.397
       114 -10.5366     85.2265     48.9699   6.3451654606e+01   5.5762574078e+01     0.245929    0.1852103 -41.39 0.0007948321    1.484    0.326
       115 -10.2768     85.5275     45.4925   6.2081784078e+01   5.6223315466e+01     0.257566    0.1867197   1.85 0.0008420071    1.573    0.364
       116  -9.8853    232.9955     47.9693   3.5765567423e+01   2.3119406880e+01    0.1984661    0.1165135 -63.58 0.0004793702    1.613    0.380
       117  -9.9758    121.8569     48.2490   5.2970428956e+01   4.8005179979e+01     0.201185    0.1809964  79.43 0.0004049661    1.201    0.167
       118 -10.9421    136.7939     46.6261   4.9163749629e+01   4.4772268187e+01    0.2332596    0.2226203  80.06 0.0003171517    1.055    0.052
       119  -9.5706     98.4832     47.1587   5.8726939726e+01   5.3320733183e+01    0.1898202    0.1356588 -29.97 0.0005077694    1.483    0.326
       120 -10.0049     45.9818     47.0924   7.7698387136e+01   6.2706788518e+01    0.1905888    0.1617883  -3.78 0.0003123949    1.033    0.032
       121  -9.7829     73.7670     45.2361   6.5967134894e+01   5.8511267112e+01    0.1963889    0.1447966  14.14 0.0007778331    1.370    0.270
       122 -10.9731    235.7856     42.8489   3.4462373853e+01   2.3248259842e+01    0.2537876    0.1893073 -50.25  0.001267273    1.178    0.151
       123 -10.6990    239.9992     42.5122   3.4015211903e+01   2.2475092223e+01    0.2141474    0.1043594  65.23 0.0009545926    2.139    0.533
       124 -11.0184    141.2247     43.5384   4.7348253470e+01   4.4145951891e+01    0.2358974    0.1889186 -36.09 0.0006263568    1.343    0.255
       125  -9.4013    166.4939     43.5167   4.2939264491e+01   3.8212145516e+01    0.1337498    0.1216045  84.69 -4.882584e-05    1.007    0.007
       126 -11.0888     56.0757     42.2426   7.1553632387e+01   6.2005429141e+01    0.3908347    0.2216214  19.85  0.001035397    1.962    0.490
       127 -11.6251     62.7810     38.9935   6.7604789038e+01   6.1393055502e+01    0.4115693    0.2873964  -2.63  0.001443505    1.524    0.344
       128  -9.3218     33.5147     43.4838   8.1991839118e+01   6.4922908876e+01    0.1290985    0.1041114 -11.54 0.0008102611    1.012    0.012
       129  -9.5524     19.0065     42.7312   8.8807845601e+01   6.6559993814e+01    0.1687009    0.1356403 -10.08 0.0004774096    1.084    0.078
       130 -11.3706    247.3813     41.2929   3.3141745517e+01   2.1232674883e+01    0.3531541    0.2289693  62.14  0.002245279    1.766    0.434
       131  -9.4462     28.1524     41.5834   8.3844144071e+01   6.5859585331e+01    0.1695616     0.105269   7.30 0.0003927654    1.609    0.378
       132  -8.9402     97.6988     40.7238   5.6664724099e+01   5.4383851426e+01    0.1372701   0.09597906  24.23 0.0002902196    1.539    0.350
       133  -9.9297     91.1645     40.1444   5.8359268120e+01   5.5833974253e+01    0.1963256    0.1647627  23.56  0.001153257    1.108    0.097
       134  -9.7378    148.9741     38.4801   4.4435524265e+01   4.2969043653e+01    0.1973408    0.1778592 -43.85 0.0006241278    1.192    0.161
       135 -10.5810     76.0754     38.6035   6.2617261038e+01   5.9044373653e+01     0.222681    0.1763967  -9.98 0.0004434226    1.268    0.211
       136 -11.2281    228.7013     37.1739   3.3959514701e+01   2.5379402944e+01    0.3694892    0.2108127 -85.64  0.002036952    1.859    0.462
       137 -10.7814    194.9465     37.4829   3.7546474051e+01   3.2487046125e+01    0.2302013    0.1816622 -44.30 0.0005631648    1.275    0.216
       138 -10.1035    127.7753     36.9388   4.8026875705e+01   4.8128660972e+01    0.2450989    0.1809556  58.80  0.000718196    1.229    0.186
       139 -10.6292     48.1513     36.9334   7.2750118525e+01   6.4044655882e+01    0.2320898    0.1972854  82.83  0.001327458    2.254    0.556
       140 -10.1315    106.8863     34.6414   5.2055865337e+01   5.3163290496e+01    0.2146725    0.1944661 -34.54 0.0003723921    1.236    0.191
       141 -12.1330    239.9267     32.3544   3.2027166226e+01   2.3772506943e+01    0.4375824    0.2533775  89.49  0.002603482    1.729    0.422
       142 -11.4082    237.2092     26.9829   3.1198338897e+01   2.4948096985e+01     0.238601    0.1948781  48.29  0.001191285    1.732    0.423
       143 -11.5048     76.7663    219.4270   1.0456901984e+02   1.8042004000e+01    0.4780687    0.3485849   8.86  0.002517964    1.800    0.444
       144 -10.7372    108.4183     43.2183   5.4630661176e+01   5.1720042126e+01    0.3740481    0.2229277  61.94  0.001098108    1.809    0.447
       145  -9.8281    170.4875     33.1249   3.9605188699e+01   3.8581611865e+01    0.2173847    0.1536711  47.21 0.0009575193    1.551    0.355
       146 -10.2668     78.8487     30.8919   5.8673686734e+01   5.9523413673e+01     0.203114    0.1550757  19.84 0.0004514151    1.245    0.197
       147 -10.3593    153.8942     29.6524   4.1111314838e+01   4.2862741507e+01    0.1933966    0.1808137  -8.58 0.0001669731    1.275    0.216
       148 -11.7432     47.6364     28.6951   6.9503642518e+01   6.5323045388e+01    0.2436113    0.1999192  24.60 0.0002518339    1.190    0.159
       149  -9.3907    201.1518     29.3494   3.4976270678e+01   3.2113932239e+01    0.1701077    0.1027132  85.68 0.0002350118    1.620    0.383
       150 -10.1767    109.5494     29.2335   4.9525216021e+01   5.3205520785e+01    0.2466757    0.1538651  68.14 0.0006761921    1.736    0.424
       151 -10.9400     15.0038     28.3774   8.5405232932e+01   6.9414131537e+01    0.2798264    0.1942056  10.00  0.001076887    1.322    0.244
       152 -11.1911     81.0449     27.1387   5.6493777130e+01   5.9539409668e+01    0.3789827     0.259243  57.10  0.002092317    1.557    0.358
       153 -10.6687     59.0086    208.9955   1.0759378133e+02   2.2754927223e+01    0.3199146    0.1372991  51.82  0.001312869    2.454    0.593
       154  -9.4142    233.6719    208.3258   6.8391410010e+01  -3.4898101582e+00    0.1099957    0.1018726 -61.42  0.000692603    1.700    0.412
       155 -10.1363    216.3451    187.6858   6.7679847353e+01   2.4737196765e+00    0.1231601    0.1097179 -79.45  0.000704738    1.713    0.416
       156  -9.9390    183.8900     25.8208   3.6057909589e+01   3.6358200226e+01    0.1897203    0.1596263  61.11  0.001217081    1.253    0.202
       157 -11.6959    249.1667    183.4711   6.1116130158e+01  -1.5474922418e+00    0.3507639    0.2264961 -43.66  0.002016861    1.518    0.341
       158 -10.5666     35.9389     18.0349   6.9987045896e+01   6.8471152009e+01     0.281018    0.1662368  11.83  0.001053818    1.720    0.419
       159  -9.3353    221.3137     24.3017   3.1967840815e+01   2.8439233864e+01    0.1053542   0.08939831  46.42 0.0002154956    1.613    0.380
       160  -9.4830     98.8470     23.8640   5.0232648169e+01   5.6164528994e+01     0.171054    0.1524845  84.96 0.0007936867    1.337    0.252
       161  -9.7620    164.0239     22.3460   3.7655687373e+01   4.1299632175e+01    0.2100931    0.1365163  53.35  0.001161623    1.518    0.341
       162  -9.3997    142.4593     21.5040   4.0587018274e+01   4.6429161299e+01    0.1297289    0.1129725  63.81 0.0001481276    1.046    0.044
       163 -11.5251    150.1923     18.8609   3.8637687578e+01   4.4886527424e+01     0.306574    0.2166782  79.43 0.0005426276    1.315    0.240
       164 -12.2650    235.6305    178.9516   6.2507927708e+01   1.1097829318e+00    0.5371608    0.2961841  53.13  0.002455129    3.011    0.668
       165 -10.5544     54.9275     19.4500   6.2404044189e+01   6.5315210974e+01    0.2142858    0.1602162  -5.64 0.0003895267    1.279    0.218
       166 -11.3907    225.8933     24.2645   3.1573271725e+01   2.7511490556e+01    0.3102503    0.2165952 -12.00  0.001799196    2.402    0.584
       167  -9.2919    119.4691     19.4634   4.4063640495e+01   5.1982217813e+01    0.1312823    0.1110799  51.14 0.0003396347    1.053    0.050
       168  -9.3653     43.8056     18.3735   6.6546871640e+01   6.7261098141e+01    0.1696666   0.09535585  28.91 0.0004535429    1.584    0.369
       169  -9.0430      2.6821    167.2296   1.1751955139e+02   3.8521395057e+01    0.1221958   0.08090945  61.36 0.0002112334    1.500    0.333
       170 -12.5193    217.0043    159.0151   6.1778646382e+01   7.5984376922e+00    0.4270566    0.3171265 -40.04  0.002345531    1.212    0.175
       171 -11.1054    224.1561    156.0816   5.9903533754e+01   6.9388204675e+00    0.2213656    0.1722649 -17.24  0.001230515    1.281    0.220
       172  -9.0167     11.7316    145.3075   1.1294127278e+02   4.3365750352e+01    0.1301273   0.08932668  72.68 0.0002012575    1.537    0.350
       173  -9.3392     78.3216     16.3434   5.2984067082e+01   6.1257037415e+01    0.1364153   0.08175956  25.99 0.0007050163    1.728    0.421
       174 -14.4251    215.3915    132.1581   5.6335152795e+01   1.2873153234e+01     3.211033     1.464258  55.36   0.01292269    2.901    0.655
       175 -12.4184     68.7955    218.2883   1.0630568983e+02   1.9364571787e+01    0.9168736    0.6457767  48.07  0.005102301    1.302    0.232
       176  -9.7157     29.3400    137.7464   1.0665412800e+02   4.3881570044e+01    0.1744591    0.1624851  72.41 0.0002941103    1.151    0.131
       177 -10.5021     15.5403    128.9649   1.0975572113e+02   4.7234760990e+01    0.1980564    0.1694316  82.61 0.0003840689    1.216    0.177
       178 -11.3524     11.8960    129.0390   1.1092117612e+02   4.7468359507e+01    0.2184929    0.1957844 -53.68 0.0003001743    1.112    0.101
       179  -9.6658     33.1920    128.8300   1.0403404897e+02   4.5812619972e+01    0.1995875    0.1767725  89.15 0.0006240272    1.178    0.151
       180  -9.8389     23.8939    125.3827   1.0652868073e+02   4.7505121865e+01    0.2215067      0.16658 -78.71 0.0005423239    1.280    0.219
       181 -11.3575    249.7098    120.8797   4.8730715829e+01   8.8403720138e+00    0.4099779    0.2096307 -41.15  0.002080803    1.589    0.371
       182 -10.0448     97.4945    117.9436   8.0705419948e+01   3.9631276697e+01    0.2773466       0.2111  16.15  0.000634438    1.504    0.335
       183  -9.9823     93.5533     10.5024   4.6565609573e+01   5.8604377596e+01     0.209442    0.1147011  71.12 0.0007102109    2.145    0.534
       184 -10.4810     70.3681    117.4407   8.9321476183e+01   4.4226389547e+01     0.374026    0.2677533  13.26  0.001771986    1.620    0.383
       185 -10.0333     27.0547    116.3585   1.0397361234e+02   4.9519917087e+01    0.2128375    0.1568298 -25.60 0.0007852656    1.460    0.315
       186  -9.5544     12.0137    114.4523   1.0883321098e+02   5.1114333221e+01    0.1701273    0.1315177   8.90 0.0004169294    1.520    0.342
       187  -9.6000     44.5638    113.4946   9.7312454812e+01   4.8532278304e+01     0.143543    0.1263821 -47.43 0.0002367267    1.011    0.011
       188 -10.1789     14.9624    122.0970   1.0897542372e+02   4.9007408522e+01     0.216835    0.1748263 -33.32 0.0005391138    1.290    0.225
       189 -10.5433      2.5951    111.8917   1.1167107389e+02   5.2292912722e+01    0.1964831    0.1801873  26.70 0.0005523513    1.318    0.241
       190 -10.0629    129.0248    109.1068   6.9271782930e+01   3.5398260244e+01    0.2246995    0.2196414 -21.51 0.0003201432    1.003    0.003
       191  -9.3307    100.6777    109.3109   7.7475102781e+01   4.1055293815e+01    0.1534531    0.1246146  81.57 0.0007037736    1.651    0.394
       192  -9.5591    119.9504    107.9722   7.1447603296e+01   3.7541299729e+01    0.1867857    0.1765026  30.17 0.0003147162    1.065    0.061
       193  -9.7490     17.6653    108.3564   1.0587929819e+02   5.2241024840e+01      0.20329    0.1488806  71.46  0.001105464    1.696    0.410
       194 -10.0183     11.6114    107.7603   1.0793031512e+02   5.2792466853e+01    0.1895205    0.1130136 -78.90 0.0009516352    1.688    0.408
       195  -8.9349     71.3010    107.6992   8.6631880036e+01   4.6450328598e+01    0.1433499    0.1182119  76.10 0.0002985267    1.585    0.369
