#   1 NUMBER                 Running object number                                     
#   2 MAG_AUTO               Kron-like elliptical aperture magnitude                    [mag]
#   3 X_IMAGE                Object position along x                                    [pixel]
#   4 Y_IMAGE                Object position along y                                    [pixel]
#   5 X_WORLD                Barycenter position along world x axis                     [deg]
#   6 Y_WORLD                Barycenter position along world y axis                     [deg]
#   7 A_WORLD                Profile RMS along major axis (world units)                 [deg]
#   8 B_WORLD                Profile RMS along minor axis (world units)                 [deg]
#   9 THETA_WORLD            Position angle (CCW/world-x)                               [deg]
#  10 FWHM_WORLD             FWHM assuming a gaussian core                              [deg]
#  11 ELONGATION             A_IMAGE/B_IMAGE                                           
#  12 ELLIPTICITY            1 - B_IMAGE/A_IMAGE                                       
         1 -13.2440     33.2610     84.6783   1.1287153806e+02   5.5786236519e+01     3.211973     1.131199 -49.38   0.01269259    2.893    0.654
         2 -12.4414    246.7859     98.6227   6.4227840656e+01   1.2134713319e+01     2.056717    0.5935288 -27.09  0.007687853    3.058    0.673
         3 -11.0121    100.1001     38.6368   7.4193758813e+01   5.4953005555e+01    0.6230761    0.3589278   5.37  0.001941879    4.220    0.763
         4 -10.6129     83.1178     37.7702   7.9353924065e+01   5.8780228865e+01     0.410452    0.1956597 -39.32  0.001677888    2.003    0.501
         5 -10.9213    182.7085    249.7084   1.0117801720e+02   4.6099645634e+00    0.6610335    0.1370923  37.69  0.002842367    3.513    0.715
         6 -11.0039    187.4318    245.2654   9.9901049681e+01   4.4414074941e+00    0.2493459    0.2058481 -55.16  0.002009423    2.074    0.518
         7 -10.2908    109.2411    246.9970   1.1326628857e+02   1.4458342932e+01    0.5692517    0.2299183  37.83  0.003133446    1.794    0.443
         8  -9.0490    115.4496    240.2630   1.1160352168e+02   1.4552107469e+01    0.4899481    0.2914353  38.30  0.003414915    1.249    0.200
         9 -13.1682    115.7941    201.3556   1.0757100185e+02   2.0188826724e+01      1.65477     1.503861  20.43    0.0122038    1.252    0.202
        10 -12.4849     91.5845    192.5818   1.1154852157e+02   2.5091351735e+01     3.288351     1.453124  53.62   0.01612958    2.249    0.555
        11 -13.0842     99.5561    228.8194   1.1346066732e+02   1.8206092949e+01     1.792356    0.7309945  37.70  0.009087448    1.873    0.466
        12 -10.9104     78.1777    215.5756   1.1638614528e+02   2.2962737379e+01      1.92106    0.7725848  43.94   0.01064614    1.849    0.459
        13 -14.3274     27.3838    163.1175   1.2325909495e+02   3.8450330416e+01      3.26616     2.090958  83.51   0.02097814    1.377    0.274
        14 -11.7223     51.2634    245.0364   1.2318897688e+02   2.1526791415e+01    0.6063999    0.2527479 -73.33  0.003915203    2.837    0.647
        15 -11.5093     48.8372    229.9391   1.2284166841e+02   2.4070374297e+01    0.9775269    0.3288124  61.62   0.00487362    3.164    0.684
        16 -14.3420     41.6130    203.1272   1.2270773193e+02   2.9318497694e+01     5.158253     1.532639  58.96   0.02251192    3.498    0.714
        17 -14.1351     17.6404    209.4544   1.2768169040e+02   3.0584879380e+01     3.477514    0.7609408  54.66   0.01638618    3.185    0.686
        18 -12.8660      6.9243    246.4704   1.3067146629e+02   2.5623926527e+01    0.8147362    0.3271743  49.08  0.005703989    1.548    0.354
        19 -13.5165     11.0199    234.7011   1.2969262104e+02   2.7045911885e+01      1.81776    0.2831028  51.32   0.00923738    3.065    0.674
        20 -11.9834    169.6633    202.0068   9.7314333888e+01   1.1973970988e+01    0.8229228    0.3190168 -40.77  0.004016906    3.112    0.679
        21 -10.9462    135.5435    207.0140   1.0438624554e+02   1.6426293326e+01    0.4738627    0.3805956  -1.74  0.003240738    1.585    0.369
        22 -10.9409    142.6060    195.7329   1.0155096408e+02   1.7038968539e+01    0.5270463    0.4401049  86.02  0.003535981    1.609    0.378
        23 -12.1297    129.8761    184.4049   1.0253710029e+02   2.0817608939e+01    0.9906212    0.6617835  35.96  0.005868826    1.309    0.236
        24 -10.3088      2.1665    181.7839   1.2975637787e+02   3.6946546741e+01    0.3642771    0.1528281  87.42  0.002119702    2.102    0.524
        25 -12.4621     27.4351    234.6287   1.2685965249e+02   2.5528624481e+01     1.546475    0.3153501  53.07  0.007607222    3.169    0.684
        26 -11.2475     86.9004    240.8060   1.1670095557e+02   1.8066265349e+01     1.077325    0.4336098  44.03   0.00647383    1.751    0.429
        27 -10.5536    111.5179    171.2067   1.0459889876e+02   2.6007421247e+01    0.3803416    0.2416525  57.93  0.002060273    1.640    0.390
        28 -10.1298    141.8252    172.5858   9.8286490836e+01   2.0837014233e+01    0.3327555    0.2433798  42.17  0.001976117    1.194    0.163
        29 -12.0651     69.5069    153.0907   1.1205920591e+02   3.5747439535e+01    0.5678914    0.4173454  31.16   0.00337488    1.463    0.316
        30 -12.5667     74.2852    165.6538   1.1240499401e+02   3.2523319117e+01     1.243252    0.6178617 -53.51  0.006271417    2.304    0.566
        31 -12.1788     82.3423    162.6985   1.1014586192e+02   3.2007620751e+01    0.6024393     0.400591 -82.17   0.00340311    1.676    0.403
        32  -9.3449    109.6953    163.9998   1.0396235805e+02   2.7637029591e+01    0.1771498    0.1656316  80.32  0.001101438    1.116    0.104
        33 -11.2297     89.3261    162.0936   1.0841682855e+02   3.1123919466e+01    0.5290454    0.2861209  62.00  0.002516157    2.184    0.542
        34 -10.6272     57.8475    161.0575   1.1581773887e+02   3.5566503138e+01    0.5072927    0.2275046  75.28  0.002059493    3.396    0.706
        35 -11.4401    181.9867    148.6943   8.5871678550e+01   1.7544111508e+01    0.4845196    0.4162886  35.34  0.002975884    1.114    0.103
        36 -11.2360     57.6422    140.4467   1.1353613665e+02   4.0005463124e+01    0.3414845    0.3206261  48.35  0.002296019    1.196    0.164
        37 -10.3195     93.0083    145.4712   1.0510807815e+02   3.3953714832e+01    0.2490617    0.1868237 -42.44  0.001386617    1.593    0.372
        38 -12.4352     79.3381    132.4452   1.0657376988e+02   3.8825548622e+01     1.130891    0.5273758  48.98  0.004985749    2.128    0.530
        39 -12.3142     56.9556     59.7573   9.7643412586e+01   5.8837907813e+01     1.095748    0.7029868   4.46  0.004825574    2.580    0.612
        40 -14.2111    239.8231    211.1196   8.6985089959e+01   8.1154520203e-01     2.760832     1.173948 -18.79    0.0152526    2.674    0.626
        41 -12.1893     18.4541    105.5081   1.2085030904e+02   5.2089564518e+01     1.463095     0.638173 -78.58  0.007038603    2.003    0.501
        42 -10.6096     94.8944    120.8333   1.0025195717e+02   3.8921908080e+01    0.5424441    0.4168662  77.99  0.002532946    1.474    0.322
        43 -10.0852    115.3907    120.2229   9.4687814113e+01   3.5409026615e+01    0.2854144    0.2182687  85.94   0.00135011    1.660    0.398
        44 -12.3281     21.5863     74.1474   1.1548631710e+02   5.9363254556e+01     1.254821    0.6591433 -19.56  0.005506996    3.228    0.690
        45 -11.6624     67.0447    246.5683   1.2055238162e+02   1.9572887056e+01    0.9858859    0.5666274  35.67  0.006293439    1.456    0.313
        46 -11.1875    162.9541    211.0381   9.9788047507e+01   1.1796685316e+01    0.5817048    0.3772565  31.73  0.003768532    1.254    0.203
        47 -10.4853     90.5701    107.1727   9.8612545912e+01   4.2678584826e+01    0.5297265    0.3104542  45.47  0.002458065    1.701    0.412
        48  -9.2531     39.3235    105.8462   1.1419943569e+02   5.0091761856e+01    0.2685872     0.178314  29.05  0.001485967    1.685    0.407
        49 -10.2297    108.6336     99.7358   9.1709995471e+01   4.1016242949e+01    0.3542224    0.1794011  50.18  0.001437012    2.073    0.518
        50 -10.0291     83.3676     90.8031   9.6943794405e+01   4.7596007856e+01    0.4836186    0.1663152 -48.77  0.001695453    2.821    0.646
        51 -10.8222     73.7885     86.7489   9.9032483819e+01   5.0095611259e+01    0.6526132    0.5350077 -89.70  0.003553514    1.327    0.246
        52 -11.1039     82.2212     85.0095   9.5816698822e+01   4.9102452071e+01    0.5338156    0.3427411  30.77  0.002495602    1.802    0.445
        53 -11.0596    112.8662    150.2255   1.0104767210e+02   2.9774156341e+01     0.623025    0.3951612  64.74  0.003035857    1.951    0.488
        54 -11.0449    100.9302     87.5183   9.0700348198e+01   4.5130334789e+01    0.4106399    0.3109128  25.49  0.002012799    1.572    0.364
        55 -10.5922     93.5323     84.9980   9.2238158718e+01   4.7082644689e+01    0.3805278     0.211622 -58.20  0.001604037    1.937    0.484
        56  -9.6716      1.8051     77.0930   1.2361424066e+02   5.9941504005e+01     0.364079     0.111408 -70.61  0.001447939    2.437    0.590
        57  -9.9165    228.9825     78.0067   6.1577819066e+01   1.8195333729e+01    0.2172449    0.1929864 -24.40  0.001317556    1.049    0.047
        58 -11.0757    115.1481     71.0657   8.1686327652e+01   4.5592039996e+01    0.4284575    0.2388002 -48.70  0.001771069    1.852    0.460
        59 -10.0587    100.7896     64.2116   8.3615760279e+01   5.0037931276e+01      0.37997    0.1715268  38.84  0.001390158    2.550    0.608
        60 -10.5091    234.2692     59.9945   5.6337999040e+01   1.9291983756e+01    0.4727872       0.2155  75.47  0.001855339    3.387    0.705
        61 -11.6067      5.5736    123.1641   1.2619980853e+02   4.8946688388e+01    0.8578583    0.5570836  60.72  0.005470125    1.355    0.262
        62 -12.0220    239.4290    106.8082   6.7094411865e+01   1.2504598391e+01     1.073867    0.4133438 -28.04  0.004609624    2.307    0.567
        63 -10.6074     72.4948     43.9859   8.5850936700e+01   5.9661641860e+01    0.3285146    0.3262064  87.12  0.001975691    1.103    0.093
        64 -11.5106      9.3974    112.6107   1.2432283945e+02   5.1098461806e+01    0.7959445    0.4591698 -83.86  0.003824895    1.453    0.312
        65 -11.3398     66.5036     42.2856   8.7519788908e+01   6.1069152795e+01      0.44944    0.2883046 -37.05  0.002192404    1.511    0.338
        66 -12.1800    174.5455    203.4016   9.6629173424e+01   1.1046629939e+01    0.4935943    0.3628709   2.35  0.003259581    1.514    0.340
        67 -10.4285     77.4636     36.0310   8.0637062826e+01   6.0233520726e+01    0.3945733    0.1344778 -39.75  0.001375512    2.792    0.642
