#   1 NUMBER                 Running object number                                     
#   2 MAG_AUTO               Kron-like elliptical aperture magnitude                    [mag]
#   3 X_IMAGE                Object position along x                                    [pixel]
#   4 Y_IMAGE                Object position along y                                    [pixel]
#   5 X_WORLD                Barycenter position along world x axis                     [deg]
#   6 Y_WORLD                Barycenter position along world y axis                     [deg]
#   7 A_WORLD                Profile RMS along major axis (world units)                 [deg]
#   8 B_WORLD                Profile RMS along minor axis (world units)                 [deg]
#   9 THETA_WORLD            Position angle (CCW/world-x)                               [deg]
#  10 FWHM_WORLD             FWHM assuming a gaussian core                              [deg]
#  11 ELONGATION             A_IMAGE/B_IMAGE                                           
#  12 ELLIPTICITY            1 - B_IMAGE/A_IMAGE                                       
         1 -11.2297      4.3545     35.7929   6.7181130881e+01   6.8242805413e+01    0.4848418    0.2820074 -54.87  0.002965591    1.688    0.408
         2 -12.1783    104.4941     13.5989   2.0077625795e+01   5.5843451526e+01    0.4342277    0.3307506   4.02  0.002639689    1.506    0.336
         3 -12.5395    106.0567     20.5759   2.2172392381e+01   5.4808312009e+01    0.3625189    0.3017108 -85.88 0.0005822311    1.496    0.331
         4 -12.0451    163.9947     27.7665   1.3518108012e+01   4.0561673563e+01     0.528019      0.26276  45.15 0.0003961637    2.306    0.566
         5 -11.6123     20.2882     22.0769   5.3952850968e+01   6.9171756996e+01    0.5513049    0.2806532 -27.47  0.003112495    1.819    0.450
         6 -11.8444     35.3875     19.1861   4.5444053340e+01   6.7804670396e+01    0.4785289    0.2190274 -30.11  0.001791783    2.135    0.532
         7 -12.2345    165.0287     18.0127   1.0769017270e+01   4.1395761479e+01    0.5186111    0.2805702  45.53  0.002543975    2.088    0.521
         8 -10.5942     12.9274      8.5146   5.1751871908e+01   7.1826842621e+01    0.2197397    0.1454886 -40.64  0.001138674    1.729    0.422
         9 -12.4349     16.2725     13.7558   5.2387100016e+01   7.0777976162e+01    0.7308783    0.3381312 -14.99  0.003480604    2.932    0.659
        10 -12.0707     22.6194     10.8938   4.7791470924e+01   7.0469347333e+01    0.4482092    0.2853759  12.51  0.002267752    1.382    0.276
        11 -11.1265     86.2045     13.7254   2.4711114700e+01   5.9707005491e+01    0.4126888    0.2558779   1.53  0.001810879    1.993    0.498
        12 -10.4965     89.5186      8.5702   2.1847190965e+01   5.9502536968e+01    0.2592526    0.1242719 -18.20  0.001031298    2.475    0.596
        13 -11.8428    127.4534     16.5859   1.6334868826e+01   5.0373789979e+01    0.3936911    0.2037382  54.78  0.001173362    1.626    0.385
        14 -12.3335    135.1776     14.7778   1.4392838234e+01   4.8754324009e+01    0.6452316    0.1952458  58.77  0.002569266    2.564    0.610
        15 -12.0303     48.2128     12.9828   3.7148392703e+01   6.6707787267e+01    0.5101875    0.2384597  43.48  0.002680049    2.027    0.507
        16 -10.5985      6.8212     13.0422   5.7187218478e+01   7.1758732842e+01    0.4484734    0.1968943   6.12  0.002236577    2.858    0.650
        17 -10.1004      5.9424      9.4933   5.6089571671e+01   7.2341071253e+01    0.1943662    0.1605659 -12.24 0.0009157588    1.244    0.196
        18 -11.9190    211.8728     10.3533   3.8630400851e+00   3.1521061669e+01    0.3269639    0.2763537 -37.89  0.001346049    1.415    0.293
        19 -11.1838    191.3184     10.2829   5.7711961274e+00   3.6099754113e+01     0.252364     0.189615  28.49  0.001500814    1.995    0.499
        20 -11.4817    169.4206      9.4859   7.9915560447e+00   4.1227364279e+01    0.4643851    0.1694968  59.02  0.001455319    2.314    0.568
        21 -11.3884    164.2736      6.2025   7.7665091269e+00   4.2739359597e+01    0.5003291    0.2426509 -15.82   0.00231418    3.098    0.677
        22 -11.3934    152.2089      8.2996   9.8910272170e+00   4.5370664036e+01    0.2508868     0.213995 -42.26 0.0009091381    1.326    0.246
        23 -10.1134      1.1402      7.6995   5.8036530990e+01   7.2986858265e+01    0.2448118   0.05485041 -44.11  0.001057823    3.660    0.727
        24 -11.4978    184.8490      6.5346   5.5525537313e+00   3.7949635181e+01    0.2853577    0.1522164 -66.31  0.001462306    1.993    0.498
        25 -11.8504    177.3282      6.0153   6.2209148213e+00   3.9726654231e+01    0.2735701     0.190068 -88.19 0.0002671905    1.288    0.224
        26  -9.6041     77.9746      7.4901   2.4554843421e+01   6.1940225475e+01    0.1533015     0.105568  81.60   0.00067393    2.360    0.576
        27  -9.9874     62.9276      6.8439   2.8970859133e+01   6.4848268793e+01     0.193348    0.1315421  25.77 0.0009529215    1.288    0.223
        28 -12.6129    135.1342      3.0072   1.0849266507e+01   4.9816929336e+01    0.8094057    0.2992112  73.30  0.003214771    2.737    0.635
        29  -9.4479    243.3232      4.6505   3.6393826504e-01   2.5606026015e+01    0.1254846   0.06191897 -64.77 0.0004729021    1.748    0.428
        30 -11.0865    233.2862      2.6045   6.4944990847e-01   2.7836085592e+01    0.2487052    0.1366152 -61.18 0.0007469616    1.530    0.346
        31 -10.6835    218.7872      3.4737   1.8703019536e+00   3.0759215487e+01    0.2385284    0.1725194  85.16 0.0007886732    1.179    0.152
        32 -11.4072    114.1292      2.8964   1.4385224426e+01   5.4628423115e+01    0.3170912    0.2386308  87.48  0.001936298    1.477    0.323
        33 -10.6430     41.9824      3.5230   3.5304580978e+01   6.8684415337e+01    0.2781096    0.1487237  21.36  0.001161252    1.864    0.464
        34 -10.3959    223.9383      3.0113   1.3912318976e+00   2.9722013161e+01    0.1792323     0.137523 -75.21 0.0003805466    1.022    0.021
        35 -10.8058    213.6905      5.6721   2.7252390976e+00   3.1621493319e+01    0.1865259    0.1343861  66.49    0.0012128    1.416    0.294
        36 -10.7499    105.2528      2.1234   1.5865560289e+01   5.6662643094e+01     0.278509    0.1900591 -77.12  0.001538905    2.064    0.516
        37 -10.2333     72.9796      3.0268   2.4168553806e+01   6.3303153605e+01    0.2025236    0.1155199  28.96 0.0008476498    1.688    0.408
        38 -10.4279      2.0917      2.0124   5.4783005478e+01   7.3689862254e+01    0.2282421    0.1243004 -17.19   0.00146813    1.613    0.380
        39  -9.4668     64.4572      2.0630   2.6377273553e+01   6.4996940773e+01    0.1521614     0.109154 -10.25   0.00036054    1.460    0.315
        40  -9.5751     13.1991      2.3872   4.8611815486e+01   7.2580654183e+01    0.1383394   0.08890385  30.59 0.0005785659    1.652    0.395
        41  -9.5179    245.7828      1.3174   3.5959547016e+02   2.5480202742e+01    0.1382677   0.08459549  75.82  0.000292412    1.534    0.348
        42  -9.6728    152.2540      1.3940   7.9851339319e+00   4.5968190722e+01    0.1705642    0.1025398  80.95 0.0004982423    1.517    0.341
        43  -9.6580    122.2704      5.3344   1.3694613827e+01   5.2586224046e+01    0.1264526   0.08245753  37.03 0.0002661379    1.593    0.372
        44 -12.1973      2.4931    111.8338   8.4218205819e+01   5.2150830200e+01    0.4338431    0.2588327 -69.41 0.0008870775    1.363    0.266
        45 -11.4157      4.4006    105.5440   8.2707290104e+01   5.3524270348e+01    0.3478792    0.3009061 -40.65  0.002375962    1.176    0.149
        46 -10.6104     35.3702    103.0245   7.1684438336e+01   5.1734499985e+01    0.5078737     0.245769 -10.31   0.00176378    4.309    0.768
        47 -11.7452     25.0832    107.5267   7.6092452605e+01   5.1602848793e+01     0.699618    0.3525898 -29.35  0.003109629    2.524    0.604
        48 -11.8219     22.6594    114.1757   7.8055617173e+01   5.0209100833e+01    0.5573157    0.3134574 -12.50  0.002591229    2.553    0.608
        49 -11.3340     28.5252    113.0413   7.5932037759e+01   4.9983419804e+01    0.3215106    0.2496188 -22.18  0.001219372    1.436    0.304
        50 -10.1021     49.0554    112.0323   6.8905380383e+01   4.8109229336e+01    0.2818111    0.1646115  36.73  0.001346103    1.862    0.463
        51 -12.2263     80.0674    107.9596   5.7763225186e+01   4.4725673947e+01    0.3046003    0.2833298   1.54  0.000405697    1.113    0.101
        52 -10.5832     16.1256    109.2116   7.9388498576e+01   5.1900124030e+01    0.1976462    0.1528292 -48.70 0.0008100339    1.151    0.131
        53 -11.2544    104.5340    122.4220   5.3880247863e+01   3.7038949513e+01     0.358012    0.3392368  83.80    0.0011644    1.117    0.105
        54  -9.8132     85.9186    103.4726   5.4744440694e+01   4.4777161018e+01    0.2124047    0.1464415  34.69 0.0004615076    1.502    0.334
        55 -10.9029     51.9244     99.7808   6.5187217018e+01   5.0660284039e+01    0.5407249    0.2246905 -38.65  0.001385642    2.755    0.637
        56 -12.2133    247.9498     94.8726   1.7778189629e+01   1.2297952088e+01    0.4424084    0.3503638  -6.64  0.002551636    1.837    0.456
        57 -11.3993     17.4970    100.6481   7.7452211579e+01   5.3822709757e+01    0.2406683    0.1897276 -45.33 0.0004735534    1.126    0.112
        58 -11.7252      9.1745     97.1397   7.9743229348e+01   5.5199832739e+01      0.41098    0.3365124  71.08  0.001139661    1.464    0.317
        59 -11.4134     68.8664     95.4848   5.8252649723e+01   4.9324080048e+01     0.417893    0.2576194  35.00  0.001488724    1.696    0.410
        60  -9.6774     30.4823     96.4906   7.2043998013e+01   5.3725119460e+01    0.1317515    0.1151815 -51.15 1.008833e-05    1.036    0.035
        61 -10.5374     17.4444     86.5043   7.4731254166e+01   5.7074230080e+01    0.3456509    0.2065648  -4.12  0.001839404    2.028    0.507
        62 -11.4663     22.6444     94.5269   7.4459225618e+01   5.4850777509e+01    0.2947826    0.2282081 -31.80  0.001134438    1.251    0.201
        63 -11.5215     18.4319     90.8355   7.5250085628e+01   5.6021309332e+01    0.3067619    0.2624902  48.32  0.001979498    1.429    0.300
        64 -11.7907    125.7906     94.8280   4.0671471636e+01   3.8816365637e+01    0.2528865    0.2475939  26.58 0.0002433001    1.020    0.020
        65 -10.2707     43.3346     94.3117   6.6932966210e+01   5.2926025353e+01    0.2481297    0.1905784 -33.83  0.001146041    1.233    0.189
        66 -11.7648     42.8856     91.0584   6.6315623144e+01   5.3714751523e+01    0.4194588      0.21852  37.54  0.001415717    2.151    0.535
        67 -11.0866    241.1202     92.4395   1.8143569334e+01   1.3984096131e+01    0.2908574    0.1433868 -53.17  0.001340824    1.969    0.492
        68 -11.7226     75.1997     79.0123   5.1417705399e+01   5.1850058755e+01    0.5344434    0.4547941  57.67  0.001351515    1.434    0.303
        69 -10.4384     35.6783     92.6554   6.9321674516e+01   5.4110762194e+01    0.2519332    0.1967675 -67.53  0.001023145    1.319    0.242
        70 -11.9000     98.3842     91.0550   4.7431032183e+01   4.5220516167e+01    0.2841178    0.2337627  43.33  0.000109614    1.240    0.193
        71 -11.6259      6.8972     88.1014   7.8963413946e+01   5.7402211079e+01    0.4730435    0.3295997 -16.70  0.002902108    1.572    0.364
        72 -11.0467     25.6540     87.8052   7.1933772054e+01   5.6134827915e+01    0.3805367    0.2637914  74.38  0.001985585    2.171    0.539
        73 -10.4720     28.3257     84.5923   7.0196931136e+01   5.6621426119e+01    0.3385894    0.2536667  23.80  0.001405651    1.490    0.329
        74  -9.8072     66.7018     88.6468   5.7151569620e+01   5.1156239777e+01    0.1495462    0.1024534 -21.51 0.0007035756    1.694    0.410
        75  -9.6816     52.0106     87.0202   6.1958924628e+01   5.3532999853e+01    0.1653478    0.1404717 -40.82 0.0009579112    1.066    0.062
        76 -11.5496     44.4020     84.7865   6.4181782686e+01   5.4940225116e+01    0.5003821    0.2971186  18.68  0.002467939    1.895    0.472
        77 -10.8321    143.2483     84.6166   3.3441347464e+01   3.6903874659e+01    0.2442752    0.2351287 -26.84 0.0002482967    1.085    0.078
        78 -12.4609    247.6427     77.2191   1.4205207008e+01   1.5154840568e+01    0.3942442    0.3340934 -55.15  0.002582084    1.062    0.058
        79 -10.2736     67.4722     81.4777   5.4846311093e+01   5.2568376991e+01    0.3220227     0.198102 -14.44  0.001248547    2.352    0.575
        80 -10.6622     88.6541     77.5469   4.6482864837e+01   4.9790095707e+01    0.4028379    0.2077707  39.00  0.001694176    1.942    0.485
        81 -10.2588     94.7352     76.3895   4.4196655315e+01   4.8868090557e+01    0.3811589    0.2054886  36.37  0.001631886    1.906    0.475
        82 -10.5707     58.0019     77.8493   5.7209540952e+01   5.4702206641e+01    0.2343852    0.1832639 -40.48 0.0005864135    1.182    0.154
        83 -11.1217     53.1176     74.3060   5.7995254327e+01   5.6094625221e+01    0.4973004    0.2284824 -51.70  0.002173582    2.116    0.527
        84 -11.1079     14.0575     74.8479   7.3505387091e+01   5.9882043505e+01    0.2811475    0.2256067 -80.71  0.001549969    1.487    0.328
        85 -10.0235    103.1383     74.9405   4.1191338986e+01   4.7480113145e+01    0.2143589    0.2024784 -84.92  0.000572839    1.223    0.182
        86  -9.2098     88.6490     73.2691   4.5156404828e+01   5.0616652584e+01    0.1371926    0.1143009  75.44  0.000560694    1.626    0.385
        87  -9.9875     41.4941     72.5396   6.1968419183e+01   5.7884929477e+01    0.2441096    0.1470855 -39.86  0.001269342    1.483    0.326
        88 -10.7304     40.1335     69.0625   6.1505188680e+01   5.8752084735e+01    0.2276151    0.2139043 -23.99 0.0006833072    1.147    0.128
        89 -11.0381      1.9404     71.3458   7.7604458039e+01   6.1358448037e+01    0.3199928    0.1635847 -62.66  0.001751108    1.643    0.391
        90 -10.7282     34.6714     71.7978   6.4465545637e+01   5.8774574299e+01    0.3514143     0.157603  33.71  0.001624256    2.438    0.590
        91 -10.6286    122.8609     68.8868   3.3860027427e+01   4.4356516616e+01    0.4412041    0.1870561  45.06  0.001517058    2.302    0.566
        92 -11.2000     79.2548     91.9065   5.3781762401e+01   4.8469835382e+01    0.5726699     0.476203 -65.99  0.003048327    1.383    0.277
        93 -10.5805     13.9070     67.4781   7.1820445629e+01   6.1458444798e+01     0.285892    0.1175793  17.75  0.001356627    2.708    0.631
        94  -9.8013      7.7550     55.5531   7.1412308849e+01   6.4297371013e+01     0.356964    0.2546493  65.21  0.002074281    2.394    0.582
        95 -11.6439      4.0274     61.4937   7.4540459923e+01   6.3315102100e+01    0.3397289    0.1851786 -39.55 0.0005842694    1.493    0.330
        96 -10.6484    202.1470     65.0230   1.7346040542e+01   2.6557178094e+01    0.2457341    0.1841599  81.05 0.0004326955    1.345    0.256
        97  -9.9243     96.5005     65.5058   4.0207173066e+01   5.0526703625e+01    0.2125256    0.1773085 -22.40 -4.404166e-05    1.224    0.183
        98 -10.9800     92.6690     62.8737   4.0532560223e+01   5.1741070841e+01    0.3903951    0.2406189  53.91 0.0009961297    1.846    0.458
        99 -10.0503     65.6389     61.6905   4.9334351378e+01   5.6735715734e+01    0.2175573     0.159399 -49.18 0.0005973083    1.503    0.335
       100 -10.3592     51.2488     61.4038   5.4720512351e+01   5.8888043159e+01      0.30227    0.2093201  43.51  0.001643834    1.735    0.424
       101 -10.5929     40.0280     56.7953   5.7763333917e+01   6.1166153893e+01    0.2742741    0.1765369  28.97   0.00100485    1.617    0.382
       102 -11.2003     43.0198     60.9499   5.7868814718e+01   6.0021701442e+01      0.31697    0.1747872 -46.92   0.00159054    1.685    0.407
       103 -10.8851     46.4529     59.4975   5.6011019746e+01   5.9873774812e+01    0.2509092    0.2337147   0.33 0.0008363595    1.165    0.142
       104 -10.4410     29.5836     59.9273   6.3141466476e+01   6.1685833143e+01    0.2946891     0.242305  31.49  0.001894152    1.437    0.304
       105 -10.9340     25.0758     55.9628   6.3880429197e+01   6.2884918579e+01    0.3485707    0.1499299 -33.66  0.001154367    2.333    0.571
       106 -12.1026     74.6616     53.0202   4.3125877368e+01   5.6747662921e+01    0.4446301    0.3752331 -47.65  0.001113276    1.391    0.281
       107 -12.2700     72.9594     47.3847   4.1711602439e+01   5.7956202515e+01    0.3952491     0.262639 -46.55  0.001419918    1.762    0.433
       108 -10.2836    124.7514     56.5491   2.9579171163e+01   4.5951310245e+01    0.2141422    0.1715586 -42.67 0.0007250932    1.330    0.248
       109 -10.7209    118.9033     56.6474   3.1067582847e+01   4.7252126789e+01    0.2761389    0.1756852  66.89  0.001008426    1.904    0.475
       110  -9.2377    158.9424     63.0000   2.4040982168e+01   3.6948136724e+01    0.2337763   0.07829913  57.33 0.0005285804    2.861    0.650
       111  -9.7720    157.1548     55.0981   2.2188274866e+01   3.8583587831e+01    0.3187651    0.1840619 -34.93  0.001471339    1.843    0.457
       112  -9.8134     51.1912     56.2200   5.3023385001e+01   5.9856986200e+01    0.2304047    0.1272176 -11.96 0.0009557033    2.826    0.646
       113 -10.9381     60.6098     47.0721   4.6119407355e+01   6.0055312704e+01    0.4011225    0.2593442 -12.20  0.002072859    1.787    0.440
       114 -10.3745     31.3783     53.0059   6.0207066225e+01   6.2831595912e+01    0.3570438    0.1563625  18.17  0.001271191    2.662    0.624
       115 -10.8372     10.6547     51.5117   6.8990419335e+01   6.4900821912e+01    0.2280901    0.1647512 -48.66 0.0002854815    1.226    0.185
       116 -11.9040    119.6107     37.8500   2.4834745939e+01   4.9769609031e+01    0.5272081    0.2896135 -43.55  0.001983975    2.071    0.517
       117 -10.9329    112.2044     42.4093   2.8139072337e+01   5.0824480330e+01    0.4412253    0.2025703  59.68  0.001806867    2.330    0.571
       118 -10.6280    110.3754     38.7657   2.7379691443e+01   5.1715604899e+01    0.2963906    0.2025547  -7.13   0.00131846    1.868    0.465
       119 -10.2322    112.6501     50.6871   3.0761030141e+01   4.9545139320e+01    0.2500709    0.1978252  11.51  0.000690164    1.454    0.312
       120 -11.8866    117.2088     45.4620   2.7893977492e+01   4.9288903150e+01    0.5971536    0.4595212  -5.00  0.003208114    1.560    0.359
       121  -9.4048    144.6224     50.5308   2.3329710911e+01   4.2228290022e+01     0.136061    0.1297269  68.13 2.000714e-05    1.031    0.030
       122  -9.5705     55.4704     50.4872   4.9339950064e+01   6.0263321776e+01    0.1306997     0.113069  -5.51  0.000158538    1.008    0.008
       123 -10.0156     51.9909     48.4786   5.0002269150e+01   6.1106856315e+01    0.2325331    0.1563971  46.89 0.0004460412    1.897    0.473
       124 -11.8846      9.0997     62.4865   7.2610566087e+01   6.2811445134e+01    0.6312277    0.3435029 -20.33   0.00295256    1.943    0.485
       125 -11.9291     44.3464     44.2030   5.1589718262e+01   6.2870451370e+01    0.4805449    0.3580026 -43.96 0.0008516039    1.455    0.313
       126 -10.3970     39.3389     44.3021   5.3759837541e+01   6.3488322550e+01     0.197935    0.1510828 -10.85 0.0006177267    1.168    0.144
       127 -10.8900     20.5257     46.5323   6.2942659291e+01   6.5070272332e+01     0.364601    0.2151465 -34.31  0.002019234    1.436    0.304
       128  -9.6262     13.3811     46.7904   6.6328545590e+01   6.5604358960e+01    0.1813837   0.08303598 -43.44 0.0008724076    1.746    0.427
       129  -9.9227    200.2400     45.4041   1.2970037640e+01   2.9850516000e+01    0.1894542    0.1165847  81.79 0.0009538044    1.673    0.402
       130  -9.5374    179.7641     45.3393   1.5779357936e+01   3.4602809904e+01    0.1366004   0.09306508 -64.33 0.0002459399    1.547    0.353
       131  -9.3080    239.6728     50.7136   9.6565713384e+00   2.0631893328e+01    0.1087104   0.09769074  34.48 0.0003028499    1.610    0.379
       132  -9.6510    139.6684     43.6804   2.2302492386e+01   4.4353479943e+01    0.1434361    0.1013885  30.56 0.0007048586    1.693    0.409
       133 -10.6265     26.1632     42.9022   5.9126868594e+01   6.5194373214e+01    0.1734048    0.1566795 -17.52 0.0008182052    1.214    0.176
       134 -10.2371    156.0686     41.9711   1.8708825349e+01   4.0686948052e+01     0.205574    0.1918041  67.89 0.0005370426    1.060    0.056
       135 -10.2079    131.8231    241.1411   6.8641078227e+01   5.5885250912e+00    0.1756801    0.1485068   8.79 0.0007962998    1.318    0.241
       136 -11.2095     78.3988     34.0214   3.4894892583e+01   5.8909273066e+01    0.4524997    0.2680054  26.74  0.002271838    1.802    0.445
       137 -10.2457    231.6842     38.3982   7.9188565244e+00   2.3938026062e+01    0.2205027    0.1037704 -37.11  0.001094735    2.066    0.516
       138 -11.1373     61.1659     36.2416   4.1822998524e+01   6.1635853966e+01    0.4013296    0.2365312 -12.02  0.001590562    2.128    0.530
       139 -10.7071     23.3973     37.3740   5.8437882962e+01   6.6422610542e+01    0.4011232    0.1496219  35.83  0.001827435    3.133    0.681
       140  -9.5219    195.0508     37.5359   1.1763331487e+01   3.2083360244e+01    0.1801224    0.1176379  70.99 2.120616e-05    1.421    0.296
       141 -11.7882    153.0385     36.0011   1.7551032211e+01   4.2177897628e+01    0.2378072    0.2160725  59.78 0.0003194149    1.084    0.077
       142 -11.3636    175.3170     33.6725   1.3432983273e+01   3.7171677892e+01    0.4047559    0.2138556 -42.20 0.0001339568    1.908    0.476
       143  -9.9193     67.5858    241.1866   8.2180141544e+01   1.5057628802e+01    0.1592562    0.1105491 -59.48 0.0006390851    1.640    0.390
       144 -10.3749    147.5195    239.4974   6.5091777034e+01   3.4236713011e+00    0.1314985    0.1141078  35.05 0.0008100605    1.039    0.037
       145 -11.9439    104.5695     32.8380   2.6830750200e+01   5.3737795170e+01    0.5670322      0.25374  43.52  0.002480999    2.076    0.518
       146 -12.4013    113.7891     25.3889   2.2036571458e+01   5.2574181288e+01     0.806318    0.3056326  44.79  0.002385701    2.493    0.599
       147 -11.8247     57.8622     30.1090   4.0650824912e+01   6.3035685384e+01    0.3587563    0.2592825  11.94  0.002162725    1.313    0.239
       148 -11.6799     49.2406     30.3813   4.4191501899e+01   6.4330816767e+01    0.5719315    0.2508436  34.90  0.002767585    2.162    0.537
       149 -11.0739     10.4650     32.0624   6.2826470902e+01   6.8459614982e+01    0.3785733    0.1622571 -27.92  0.001881964    2.353    0.575
       150 -10.4759     80.6150     39.2279   3.6124437840e+01   5.7777928165e+01     0.409868    0.2785682  74.61  0.001869995    2.829    0.647
       151 -10.0056     32.7168     31.0383   5.1658476924e+01   6.6438874043e+01    0.1648862    0.1289402 -19.55 0.0002972105    1.108    0.098
       152 -10.7714    248.6243    224.2019   4.2862461026e+01  -8.9422625020e+00    0.1835944     0.103357 -34.54 0.0008372393    1.617    0.382
       153 -11.8724    126.0800     28.0822   2.0259040050e+01   4.9471256943e+01    0.4149087    0.3317121  89.28  0.001554066    1.417    0.294
       154 -11.4517     26.4858     28.5247   5.3569314113e+01   6.7537602481e+01    0.3514359    0.2419339 -42.96  0.001585273    1.564    0.360
       155 -11.5334    189.1427     27.4174   1.0064996167e+01   3.4699995404e+01     0.347978    0.2633711  44.54  0.001368739    1.608    0.378
       156 -10.3595    230.8556     26.8334   5.6256693563e+00   2.5579200681e+01    0.1724402    0.1483334  83.70 0.0006704382    1.221    0.181
       157 -11.4502    183.0582     26.1987   1.0515593445e+01   3.6254891546e+01    0.2739902    0.2379337 -83.31  0.001239501    1.037    0.036
       158 -10.5517    187.2298     23.0542   9.2408727353e+00   3.5650585501e+01    0.1860577    0.1638355  59.85 0.0006456425    1.258    0.205
       159  -9.8142     31.1902     27.2211   5.0815144180e+01   6.7198799054e+01    0.1475909    0.1359773  -5.69 0.0008491389    1.345    0.257
       160 -10.0634    206.7557     25.9797   7.7559325497e+00   3.0875207054e+01    0.1518931    0.1004884 -39.57 0.0003860649    1.547    0.354
       161 -11.3962    144.8610     25.6856   1.5985666875e+01   4.5340736374e+01    0.3623679    0.1543897  71.64  0.001449153    2.572    0.611
       162  -9.9023     98.2892     26.3405   2.6167226759e+01   5.5856793627e+01    0.1352995   0.09042215  24.16 0.0002729645    1.644    0.392
       163  -9.2123    164.3296    211.6910   5.7091126559e+01   5.8507906998e+00    0.1359606    0.1085771  67.64 0.0005159853    1.664    0.399
       164 -10.8148     13.8679     23.2214   5.7704581430e+01   6.9615332431e+01    0.1968324    0.1321911 -23.66 0.0006494944    1.205    0.170
       165 -11.4532    135.5312     22.6032   1.6713514342e+01   4.7875243505e+01    0.3705872    0.2589773  77.09  0.002037636    1.438    0.305
       166  -9.9074     60.0916     23.1279   3.6942486972e+01   6.3575292925e+01    0.1917482    0.1446251   9.27 0.0006140193    1.219    0.180
       167 -10.7009     38.6409     22.2109   4.5299685290e+01   6.6964412606e+01    0.2167394    0.1587806 -10.75 0.0003741409    1.201    0.167
       168 -10.3064      8.5273    211.4996   9.1975948377e+01   2.8201585431e+01    0.1203275   0.09268419  77.98  0.000283574    1.010    0.010
       169 -10.8121    178.8031     20.7976   9.7043383067e+00   3.7861581794e+01    0.3521435    0.2111823  38.84  0.001749552    2.299    0.565
       170 -10.3976    148.1870     22.2082   1.4421861498e+01   4.4934297486e+01    0.2320326    0.1162288  35.41   0.00095968    2.889    0.654
       171 -11.1305     68.0156     19.6269   3.2667767364e+01   6.2602146643e+01    0.3020573    0.2751072  15.34  0.001154463    1.155    0.134
       172  -9.1512      4.9367     22.0000   6.1938450051e+01   7.0538289824e+01    0.1586901   0.05681749  20.15 0.0007836049    2.813    0.645
       173  -9.6125    171.4136    208.8096   5.5059116341e+01   5.2004470445e+00     0.188095     0.126027 -31.33 0.0005403474    1.619    0.382
       174  -9.9952     74.6932     19.6567   3.0475565831e+01   6.1360183357e+01    0.2110831    0.1412107  -5.82 0.0009079941    1.655    0.396
       175 -10.0066     78.8087    204.3628   7.5666210353e+01   2.1448845582e+01    0.3025406    0.1572533 -84.28  0.001208798    2.679    0.627
       176  -9.4606    100.6934    204.6413   7.0523289045e+01   1.8043062821e+01    0.1396983      0.10967 -21.76 0.0007040568    1.729    0.422
       177  -9.7681    232.7641    190.9988   3.9600848808e+01  -1.5991691390e+00    0.1773098   0.09744807 -37.64 0.0008867291    1.645    0.392
       178 -10.2294    199.1425     17.3524   6.5978938724e+00   3.3574827143e+01    0.1774111    0.1617031 -71.45 0.0004484001    1.175    0.149
       179  -9.7503     53.3243    190.3122   8.0046173982e+01   2.8220018485e+01    0.1303338    0.1012817 -36.97 0.0006330635    1.659    0.397
       180 -11.9173      4.4769    184.4247   9.0978147908e+01   3.4679734884e+01    0.5378878    0.3046175  80.52  0.003009076    1.593    0.372
       181  -9.6191     28.0000    175.9695   8.4667682155e+01   3.4548879944e+01    0.2149071   0.06509682 -71.32 0.0006717004    2.901    0.655
       182 -11.5017      8.6469    166.9152   8.8567208607e+01   3.8474834027e+01     0.232439    0.1723175  47.26  0.001458713    1.417    0.294
       183 -10.8624    228.8119     15.8810   3.5865669893e+00   2.7301833391e+01     0.213951    0.1437831 -86.74 0.0003627792    1.282    0.220
       184 -10.3164    225.6199     13.8168   3.4292711044e+00   2.8202897187e+01    0.1717397     0.144849 -81.43 0.0004213782    1.121    0.108
       185 -10.0015    238.7351     16.7548   2.9795966798e+00   2.5166646807e+01    0.1649392    0.1052379 -70.11 0.0007105973    1.314    0.239
       186 -10.5743    186.9259     15.0127   7.3460977872e+00   3.6607951959e+01    0.1879046    0.1570519 -88.84 0.0003654047    1.006    0.006
       187 -10.7627    205.1970    163.5185   3.9243840069e+01   7.9521903059e+00    0.2660871    0.1896845 -39.90 0.0007903581    1.313    0.239
       188 -11.5789     11.2178    162.3145   8.7498930177e+01   3.9375373128e+01    0.3137551    0.1832412  75.21   0.00166005    1.739    0.425
       189 -11.1068     14.2815    159.4017   8.6427698771e+01   3.9831084890e+01    0.3109603    0.1496381 -75.37 0.0008662762    1.766    0.434
       190 -10.1988     55.6017    158.8061   7.5259430126e+01   3.5684019124e+01    0.2122298    0.1260815 -79.45  0.000960005    1.795    0.443
       191 -10.2590    227.0000    157.0124   3.3883203640e+01   5.2729125024e+00    0.2304617   0.07044309 -41.05  0.000799753    2.924    0.658
       192 -10.9656    120.3339     11.8099   1.6149854812e+01   5.2462704409e+01    0.2464481   0.09053128  65.31 0.0007583014    2.518    0.603
       193 -10.2042     44.5008    150.4784   7.7115391575e+01   3.9102094745e+01    0.2683659    0.1925235 -66.93 0.0009692657    1.242    0.195
       194 -11.1125     47.3612    146.3391   7.5668853132e+01   3.9813476366e+01    0.4291428    0.3628283 -15.02  0.002446132    1.446    0.309
       195 -12.5970     22.9610    148.8603   8.2927504316e+01   4.1673660770e+01    0.5467479    0.2747327 -39.34  0.001399678    2.511    0.602
       196 -10.3109    240.6004    152.8119   3.0744535060e+01   3.7092153841e+00    0.1945325    0.1097905 -47.62 0.0009448875    1.713    0.416
       197  -9.9252     61.1136    151.9040   7.2627033025e+01   3.6706124692e+01     0.218608    0.1833544  75.98 0.0005159659    1.228    0.186
       198 -10.3138     16.6716    147.9201   8.4545773087e+01   4.2440414881e+01    0.1876545    0.1400838 -77.44 0.0004865944    1.130    0.115
       199  -9.9456    104.1161    147.1025   5.9569918957e+01   3.1177815829e+01    0.2247342    0.2001001 -21.16  0.001154138    1.257    0.204
       200 -10.6037     33.0476    144.4520   7.9508009267e+01   4.1822988262e+01    0.2697234    0.1812009 -71.57 0.0007962776    1.312    0.238
       201 -11.8771      3.5602    142.1872   8.7502564550e+01   4.4807431361e+01    0.4917259    0.2925272  48.21  0.002711233    1.842    0.457
       202 -10.5076     40.5189    138.4560   7.6433178180e+01   4.2551384614e+01    0.2657547     0.207991  42.37  0.001350655    1.389    0.280
       203 -10.9501     80.0215    138.6304   6.4703395272e+01   3.7314370762e+01    0.2992517    0.2436744  57.66 0.0004873514    1.324    0.245
       204 -11.9517     23.0373    136.6934   8.1333032702e+01   4.4672353034e+01    0.4992952    0.3007658  43.55  0.001794744    1.831    0.454
       205 -11.3969     12.8793    135.3588   8.4113048557e+01   4.5811574607e+01    0.4716551    0.2380852 -49.41  0.002356919    1.869    0.465
       206 -11.2544     30.0366    132.9399   7.8716230263e+01   4.4973742788e+01    0.3227298    0.2048716 -40.23  0.001130933    1.684    0.406
       207  -9.7735     22.8225    126.8567   7.9998359282e+01   4.7110810299e+01    0.1719865    0.1408894  82.44 0.0004245852    1.271    0.213
       208 -11.0377     10.2558    126.5245   8.3767614607e+01   4.8147626416e+01     0.200301    0.1780843 -89.21 0.0009873247    1.132    0.117
       209  -9.5156     46.9808    131.9704   7.3402669481e+01   4.3454926706e+01    0.1712321    0.1505327 -64.23 0.0007191357    1.019    0.019
       210  -9.9374      2.1633    125.9849   8.6108885304e+01   4.8797763544e+01    0.2103662    0.1209647  77.60   0.00108347    1.982    0.495
       211 -12.8710    246.0868    120.6297   2.3326433654e+01   8.3374601676e+00    0.7527071    0.3510996 -52.43  0.003291001    2.269    0.559
       212 -10.9185     56.1721    121.8958   6.8621731444e+01   4.4840048722e+01    0.2106841    0.1867606  81.56 0.0005228174    1.236    0.191
       213  -9.8133     44.6952    120.3234   7.1994000416e+01   4.6593041757e+01    0.1383223    0.1031736  74.53 0.0003064988    1.640    0.390
       214  -9.6953     43.4922    116.5031   7.1649215550e+01   4.7658909660e+01    0.1374228    0.1240522 -64.02 0.0008100856    1.052    0.050
       215 -11.0498      7.8705    114.8586   8.2927177267e+01   5.1111248420e+01    0.2682453    0.2232492 -62.95 0.0005981147    1.023    0.023
