#   1 NUMBER                 Running object number                                     
#   2 MAG_AUTO               Kron-like elliptical aperture magnitude                    [mag]
#   3 X_IMAGE                Object position along x                                    [pixel]
#   4 Y_IMAGE                Object position along y                                    [pixel]
#   5 X_WORLD                Barycenter position along world x axis                     [deg]
#   6 Y_WORLD                Barycenter position along world y axis                     [deg]
#   7 A_WORLD                Profile RMS along major axis (world units)                 [deg]
#   8 B_WORLD                Profile RMS along minor axis (world units)                 [deg]
#   9 THETA_WORLD            Position angle (CCW/world-x)                               [deg]
#  10 FWHM_WORLD             FWHM assuming a gaussian core                              [deg]
#  11 ELONGATION             A_IMAGE/B_IMAGE                                           
#  12 ELLIPTICITY            1 - B_IMAGE/A_IMAGE                                       
         1 -16.9667    243.4966     83.5938   1.1287993193e+01   1.7066497330e+01     3.221957      1.06604 -41.06   0.01399854    2.251    0.556
         2 -17.2320    246.9572    124.1121   1.8766110421e+01   1.1124672994e+01     5.614201     1.351598 -34.24   0.02201412    3.486    0.713
         3 -16.0361     23.7866     19.6797   4.6806169220e+01   7.3729274147e+01     3.047705     1.575271  49.53   0.01305187    2.690    0.628
         4 -16.9725      7.1746     87.4171   7.8189691453e+01   5.8938681173e+01     2.768522     1.697639 -75.36    0.0102784    1.532    0.347
         5 -16.6599     19.0810     53.2369   6.4489235063e+01   6.6995754551e+01     2.897216     1.519906 -75.60    0.0121753    2.373    0.579
         6 -16.3883      4.9048     48.0409   7.2604720723e+01   6.9322943914e+01     2.797628    0.7537737 -71.05  0.009403727    3.617    0.724
         7 -17.0442    247.1973    174.5600   2.7751374124e+01   4.3443266642e+00     3.902535    0.7734632 -35.95    0.0151456    4.056    0.753
         8 -14.1564    236.5576     23.8255   3.5966732492e+02   2.5439107622e+01      0.54838    0.1695349 -53.48  0.002597274    2.702    0.630
         9 -13.7839     75.4579     18.5931   1.9681627628e+01   6.3277126822e+01    0.6562328    0.4610296 -27.66  0.003413948    1.589    0.371
        10 -11.8972     70.2957      2.4217   1.2817700874e+01   6.6264435830e+01    0.2803656    0.1059198  60.72  0.001144499    2.139    0.533
        11 -11.8038     46.9750      1.5056   2.0531620637e+01   7.1905560030e+01    0.2105413    0.1154227  55.85  0.001031718    1.588    0.370
        12 -14.7044     53.1628    213.4644   7.4780342152e+01   2.2379680832e+01     1.228162    0.3994428  40.29  0.005033694    2.409    0.585
        13 -12.2751    229.8680    249.7909   4.1847049929e+01  -3.0970549452e+00    0.2093212    0.1300116  14.79  0.001612663    1.347    0.258
        14 -14.3593     39.4464    249.6793   8.0422132258e+01   1.6640176153e+01    0.7262776    0.2137356  27.56  0.003255853    2.421    0.587
        15 -14.5612     38.2406    242.2188   8.0310243393e+01   1.8133935822e+01    0.3568917    0.2743374  80.91  0.002425379    1.466    0.318
        16 -14.0682      2.2606    247.2593   8.8572049946e+01   2.0324934708e+01    0.7716979    0.4709677 -68.11  0.004985898    2.051    0.512
        17 -16.4224     16.6769    241.4195   8.5209985375e+01   2.0240829628e+01     1.666493     0.925327  55.47  0.006991028    1.541    0.351
        18 -13.2921     46.8148    205.4744   7.5808941546e+01   2.4790132202e+01    0.3220213    0.2133354  43.40  0.001660382    1.293    0.227
        19 -13.9648    183.7688    246.3498   4.9229628556e+01   1.6400778028e+00    0.4181572     0.269257  27.36  0.002863651    1.482    0.325
        20 -14.2917     44.3336    243.9890   7.9003373672e+01   1.7212762406e+01    0.2620545    0.2273529  62.82  0.001304896    1.235    0.190
        21 -13.6905    170.6193    215.8908   4.7459267985e+01   7.4157497273e+00     0.458449    0.3181789  28.68  0.001989497    1.383    0.277
        22 -15.0279    220.9906    209.0547   3.7319848345e+01   2.6525533188e+00     1.073684    0.4429677  16.50  0.005076427    3.211    0.689
        23 -12.7156     44.0601    193.3038   7.5574700440e+01   2.7840913868e+01    0.4173399    0.2263746  55.85  0.001964521    1.854    0.461
        24 -12.9918    213.1593    187.7218   3.5125729840e+01   6.4589077492e+00    0.3757456    0.2426733 -35.77  0.002387385    1.448    0.310
        25 -13.3467    114.1317    187.2895   5.5804368605e+01   2.0170418936e+01    0.4605216    0.3325382 -74.37  0.002340821    1.920    0.479
        26 -13.4996    221.0044    187.1360   3.3752247243e+01   5.6144239821e+00    0.2557722    0.1582752  27.15  0.001636515    1.671    0.402
        27 -14.1165    202.0477    182.4721   3.6112664409e+01   8.6103365727e+00    0.7118182    0.4093527 -37.61  0.003541112    1.605    0.377
        28 -14.6538    142.9529    182.1782   4.7984166053e+01   1.6941160288e+01    0.7097086    0.6067988  15.67  0.003042746    1.059    0.056
        29 -13.1334    226.6844    216.5146   3.7561461921e+01   1.1127030683e+00    0.3575532    0.2005152 -10.47  0.002287051    1.632    0.387
        30 -13.2308    116.1293    179.3046   5.4032943201e+01   2.1545102913e+01    0.2490972    0.1925037 -32.33  0.001331285    1.375    0.273
        31 -12.6144    184.3975    177.8081   3.8503834142e+01   1.1706504082e+01     0.415071    0.1645802  42.11  0.001779098    2.950    0.661
        32 -13.6637     61.6017    159.7822   6.6705352434e+01   3.3971673936e+01     1.410984    0.7145986  60.35  0.005296888    2.623    0.619
        33 -13.7477     66.6946    165.4373   6.5888803655e+01   3.1886044884e+01    0.5479126    0.4670334  89.91  0.002044522    1.268    0.211
        34 -13.9359     69.5093    162.0072   6.4541606695e+01   3.2360571208e+01    0.8621459    0.5776478  76.12   0.00390435    1.892    0.472
        35 -13.8430    215.9542    164.3755   3.0563553150e+01   9.5179277188e+00    0.4546642    0.3371218  12.70  0.002995271    1.372    0.271
        36 -14.3349    205.2341    162.9007   3.2042940833e+01   1.1189935925e+01    0.4642405    0.4054369  -6.06  0.002236156    1.111    0.100
        37 -13.5570    119.0592    155.6270   4.9080524848e+01   2.6197906047e+01    0.5326425    0.3729007  63.70  0.002415213    1.988    0.497
        38 -15.1598    190.2959    144.0875   3.0979730422e+01   1.6455564944e+01    0.7999557    0.4865252 -51.38  0.003499765    1.918    0.479
        39 -14.7232     63.7536    148.0210   6.4296895222e+01   3.6698331899e+01    0.9988624    0.6586448  54.65  0.003185936    1.615    0.381
        40 -13.5729     69.9452    139.2898   6.0786052989e+01   3.8077733446e+01    0.8877241    0.4496493  30.62   0.00354114    1.887    0.470
        41 -13.4317     96.5240    150.2941   5.4389619150e+01   3.1171387645e+01    0.9812777    0.3020054  36.51  0.003161546    2.927    0.658
        42 -12.8155    205.6319    146.9258   2.8931117412e+01   1.3636136089e+01    0.3014256    0.2000396 -37.18  0.001766566    1.326    0.246
        43 -14.6284    117.2963    143.0608   4.7050811839e+01   2.9302008473e+01    0.8749738    0.7071123  45.03  0.003606021    1.256    0.204
        44 -13.6184    113.2207    135.8746   4.6659013333e+01   3.1665608394e+01    0.7845999    0.4473191 -50.65  0.003326324    1.794    0.443
        45 -14.5761    176.1409    134.9254   3.1687941572e+01   2.0397013069e+01    0.7170118    0.5147957  48.20  0.003889513    1.582    0.368
        46 -13.8606    159.5167    134.8821   3.5037430735e+01   2.3350339578e+01    0.5609508    0.4196029 -17.69  0.002721953    1.476    0.323
        47 -14.4863    156.7638    128.1155   3.4124686382e+01   2.5157024862e+01    0.5363232    0.4728803 -73.30  0.002640482    1.366    0.268
        48 -14.0120    218.2912    131.0824   2.3855884186e+01   1.4196165409e+01    0.8330833    0.4447559 -24.58  0.004265913    1.955    0.488
        49 -14.1697     40.7100    130.2545   6.9739078460e+01   4.4317719533e+01    0.7411411    0.5590876  45.78  0.002232998    1.296    0.229
        50 -14.3599     73.0389    122.5891   5.6509990075e+01   4.1924230252e+01     1.111077    0.7441579  38.29   0.00424507    1.440    0.306
        51 -12.9447    179.8739    119.6528   2.7648994975e+01   2.2434525449e+01    0.2522866    0.1780739 -29.25   0.00134136    1.372    0.271
        52 -14.0285    202.0172    214.6102   4.1385405292e+01   3.9578170778e+00    0.6016182    0.4720091 -40.03  0.004224989    1.647    0.393
        53 -14.6375    188.8854    220.7316   4.4681146837e+01   4.5686399492e+00     1.009676    0.3793739  29.23   0.00500375    2.413    0.586
        54 -14.9710    209.5344    239.8454   4.3788653722e+01  -9.8366438729e-02    0.8590592    0.2857421  32.35  0.004422596    2.926    0.658
        55 -15.4977    189.1306    234.1748   4.6583617748e+01   2.6899923448e+00     1.457466    0.5689873  33.22  0.007585271    2.450    0.592
        56 -13.6072    124.4042     92.1899   3.2716465093e+01   3.8986103417e+01    0.5398523    0.3070429 -51.00  0.002237933    1.845    0.458
        57 -13.2582     62.4646     81.1142   5.0255193561e+01   5.4208307248e+01     1.072941    0.6072991 -85.57  0.003110099    4.621    0.784
        58 -14.1550     55.5749     71.8232   5.0429990767e+01   5.7621787768e+01    0.7174864      0.41199  34.35  0.003057519    1.707    0.414
        59 -12.7502     48.9059     68.6458   5.2574907797e+01   5.9467769400e+01    0.4109273    0.3555209  74.77    0.0021388    1.360    0.265
        60 -15.6144    170.7888     74.4825   1.8260121215e+01   3.1896760355e+01     1.673593     1.009557 -66.71  0.007105011    2.168    0.539
        61 -13.0495     99.8711    237.8607   6.5650550168e+01   1.2321178011e+01    0.1956778    0.1517645   5.41  0.001218882    1.251    0.201
        62 -13.3671     74.7807     54.0204   3.5742782479e+01   5.7764876188e+01    0.6593822    0.4395367  67.15  0.002850713    1.957    0.489
        63 -14.6183     61.9555     48.8860   3.9029992901e+01   6.1455341288e+01    0.9546381    0.8546439  70.19  0.003968698    1.262    0.208
        64 -14.3019     50.3493     47.9375   4.4207052986e+01   6.3864736480e+01     1.260025    0.5437655  48.38  0.004607096    2.668    0.625
        65 -12.3252     55.8084    235.4669   7.5775905787e+01   1.7658918640e+01    0.2804352    0.1227612  42.89  0.001388732    1.872    0.466
        66 -14.5383      6.7190    228.1564   8.7075845418e+01   2.3667910186e+01    0.5860471    0.3290231  72.41  0.002819342    1.730    0.422
        67 -12.9621     90.0966     19.6273   1.5990776882e+01   5.9504015531e+01    0.3836625    0.2353165  30.62  0.001726613    2.108    0.526
        68 -16.5096     18.0654    108.0478   7.5802949941e+01   5.2577147710e+01      3.09023     1.517099 -37.07   0.01231635    2.366    0.577
        69 -13.8499     73.6161    217.1247   6.9886672161e+01   1.9310571813e+01    0.5193225    0.3685135  85.07  0.002919873    1.806    0.446
