#   1 NUMBER                 Running object number                                     
#   2 MAG_AUTO               Kron-like elliptical aperture magnitude                    [mag]
#   3 X_IMAGE                Object position along x                                    [pixel]
#   4 Y_IMAGE                Object position along y                                    [pixel]
#   5 X_WORLD                Barycenter position along world x axis                     [deg]
#   6 Y_WORLD                Barycenter position along world y axis                     [deg]
#   7 A_WORLD                Profile RMS along major axis (world units)                 [deg]
#   8 B_WORLD                Profile RMS along minor axis (world units)                 [deg]
#   9 THETA_WORLD            Position angle (CCW/world-x)                               [deg]
#  10 FWHM_WORLD             FWHM assuming a gaussian core                              [deg]
#  11 ELONGATION             A_IMAGE/B_IMAGE                                           
#  12 ELLIPTICITY            1 - B_IMAGE/A_IMAGE                                       
         1 -13.8379    176.5667     43.1355   6.6307119887e+01   3.5600070674e+01     1.230251    0.9140025 -31.61  0.001044427    1.373    0.272
         2 -14.1114    187.3908     33.6811   6.1656595170e+01   3.4036580416e+01     1.301479     1.079329 -34.43  0.003487633    1.231    0.188
         3 -15.1217    194.8210     23.4274   5.7571820643e+01   3.3342924087e+01     2.944673      1.92175  22.70  0.001364045    2.078    0.519
         4 -10.0526     82.3438      6.0269   7.4182737728e+01   6.2509438710e+01    0.1800249    0.1510419  -2.86 0.0004574894    1.107    0.097
         5 -12.8015     40.2773    213.3716   1.3216670532e+02   2.6842715132e+01    0.2768665      0.13921  55.47  0.001559837    1.583    0.368
         6 -16.1602    117.9370    239.1758   1.2039810638e+02   1.2161303829e+01     7.180789     4.912382  60.66   0.04838335    1.322    0.244
         7 -11.0280     43.3255    209.6313   1.3135933466e+02   2.7187423013e+01    0.5556607     0.107704  51.78  0.002127312    4.309    0.768
         8  -9.4280     50.3575    212.8167   1.3030440936e+02   2.5791484747e+01    0.1249854   0.09046403 -73.96 0.0001325469    1.447    0.309
         9 -10.7818     37.9811    226.5120   1.3339188330e+02   2.4761618407e+01    0.2025505    0.1071656  74.06  0.001323007    1.641    0.391
        10 -12.3279    105.1133    199.9608   1.1846319551e+02   2.0726363902e+01     0.391639     0.377687   0.26   0.00203556    1.376    0.273
        11 -13.1565    107.1619    208.5963   1.1908423490e+02   1.8843039941e+01    0.5457035    0.5129349 -60.83  0.003910686    1.328    0.247
        12 -13.6602    113.5388    197.2985   1.1641661776e+02   1.9893399075e+01    0.5369579    0.4762087  87.45  0.002865904    1.162    0.140
        13 -19.4215     14.3840    133.2701   1.3124307471e+02   4.5641742092e+01      17.2104     2.314767 -74.41   0.04794032    6.886    0.855
        14  -9.8369      1.2183    206.2388   1.3860033874e+02   3.1986673662e+01   0.08038026   0.06337356 -83.51            0    1.359    0.264
        15 -11.4475     85.2607    236.0501   1.2589173919e+02   1.7314899294e+01    0.3074294    0.1738815 -76.33  0.001032912    2.019    0.505
        16 -12.4415    193.6124    193.5011   9.9830313470e+01   6.5314474660e+00    0.7761733    0.5738774 -62.90   0.00416471    2.088    0.521
        17  -9.3862     75.4198    201.2015   1.2453947795e+02   2.4796438110e+01    0.1548187   0.09997591  89.63  0.000662624    1.577    0.366
        18 -13.3122     69.2630    193.8482   1.2503653581e+02   2.7031635515e+01    0.6294624    0.5285056  88.32  0.003148852    1.137    0.120
        19 -10.1849     81.8903    195.3127   1.2263328791e+02   2.5033383660e+01    0.3143646    0.2343186  22.23  0.001894593    1.869    0.465
        20  -8.8417     66.0815    232.7724   1.2898134640e+02   2.0368708143e+01    0.1350853    0.1151469  23.44 0.0005790925    1.756    0.431
        21 -15.0466     52.0731    227.6488   1.3104706484e+02   2.2954401842e+01     1.954889    0.8743139 -52.96   0.01038189    3.480    0.713
        22  -9.6404    180.1328    192.8545   1.0231572390e+02   9.0702085473e+00    0.2007008    0.1693342  58.90  0.001212162    1.339    0.253
        23 -11.4774     93.1480    236.8932   1.2457664314e+02   1.6094522656e+01    0.2827173    0.1897898  52.92  0.001078507    1.138    0.121
        24 -12.5050    110.4529    182.6983   1.1508167963e+02   2.3167200263e+01    0.3773176    0.2946773 -56.45  0.002264437    1.415    0.293
        25 -11.5440    207.6273    183.7666   9.5427200699e+01   5.4318133716e+00    0.3803578    0.2903076 -49.75  0.001641319    1.710    0.415
        26 -11.2642    211.0370    179.9097   9.4064972096e+01   5.3748631894e+00    0.4313235    0.2833913 -22.76  0.002067437    1.655    0.396
        27 -10.5231     70.7679    228.3683   1.2782141615e+02   2.0516478128e+01    0.1860396    0.1208543  68.28 0.0009505869    1.311    0.237
        28 -11.1901     99.5674    180.6334   1.1714064235e+02   2.5308620980e+01    0.2366271    0.2164586  61.20 0.0005901611    1.105    0.095
        29 -10.5180    198.4057    176.7558   9.5852509154e+01   8.2067447923e+00    0.3276798    0.2451699  41.40  0.001461095    1.235    0.190
        30 -11.2435    196.3949    171.3729   9.5202417094e+01   9.4409488135e+00    0.3734153    0.3389108 -13.39  0.001215156    1.144    0.126
        31 -10.5745     46.3145    218.3987   1.3142841765e+02   2.5252348466e+01    0.4010413    0.3205155   1.64  0.002724514    2.463    0.594
        32 -11.8570    144.0271    172.4573   1.0620593855e+02   1.9282174256e+01    0.5168688    0.3345902  81.48  0.002218858    2.694    0.629
        33 -11.3354    145.8788    168.3430   1.0507605022e+02   1.9715898213e+01    0.3054259    0.2807873  42.12 0.0008395973    1.036    0.034
        34 -10.3577    193.8802    165.5603   9.4545246286e+01   1.0872606974e+01    0.3108864    0.2655711 -59.77  0.001001705    1.491    0.330
        35  -9.9728    177.5022    169.5098   9.8611420081e+01   1.3414962455e+01    0.1400751    0.1257674  30.63 0.0008105947    1.009    0.009
        36 -10.6825    230.5697    166.7786   8.7939437844e+01   3.6891178147e+00    0.1814724    0.1205463 -40.58 0.0009560297    1.709    0.415
        37  -9.5409    224.6843    165.3436   8.8695075530e+01   4.9843373921e+00    0.1242632    0.1097297 -77.24  0.000704815    1.713    0.416
        38 -10.6293    140.6123    157.3066   1.0420359750e+02   2.2859843724e+01    0.2599635    0.2260449  67.41 0.0004128475    1.186    0.157
        39  -9.9285    167.8047    155.6078   9.7886811773e+01   1.7820718674e+01    0.2080897    0.1282258  53.85 0.0005717223    1.711    0.416
        40 -10.3524    164.6259    153.1948   9.8076386141e+01   1.8912231794e+01    0.1940195    0.1360561 -31.21  0.000267472    1.620    0.383
        41 -11.7834    133.8570    144.7023   1.0329317924e+02   2.6710673214e+01     1.061552    0.2982302 -54.61  0.002953908    4.897    0.796
        42 -11.7194    144.9002    147.0072   1.0119738491e+02   2.4078672668e+01    0.4961135    0.3409424 -87.99  0.002134352    2.363    0.577
        43 -10.7162    174.5513    148.6225   9.4992703064e+01   1.7724396820e+01    0.3246572    0.2490595 -46.56 0.0009370936    1.414    0.293
        44 -12.0098    107.6987    141.2684   1.0894415237e+02   3.2240313516e+01    0.5146011    0.3430431 -34.22  0.002440123    1.965    0.491
        45 -12.4757     95.9890    141.6862   1.1193165599e+02   3.4104896410e+01    0.2681639     0.262195 -48.62 0.0004415258    1.162    0.139
        46 -10.6583    141.8882    138.8809   1.0019498509e+02   2.6324281254e+01    0.2264895    0.2044017   0.56 0.0005939572    1.261    0.207
        47 -11.5528    115.1242    131.2865   1.0510645533e+02   3.3091156857e+01    0.3821719    0.3113828   9.66  0.000976277    1.594    0.372
        48 -12.3612    119.2624    126.8941   1.0312202918e+02   3.3273812119e+01    0.8557655    0.4089019 -42.09  0.003381551    2.309    0.567
        49 -10.9926    105.9699    130.9851   1.0737417813e+02   3.4793551569e+01    0.3413717    0.3004922 -74.42  0.001131918    1.128    0.113
        50 -11.2793    102.8316    127.5801   1.0749299458e+02   3.6089651124e+01     0.292521    0.2666001 -19.38 0.0008428187    1.289    0.224
        51 -10.5856    160.3570    128.0774   9.3505749818e+01   2.4632430438e+01    0.4276468    0.2838615 -42.06  0.001970972    1.554    0.356
        52 -10.6359    136.0000    128.9937   9.9432785206e+01   2.9552821988e+01    0.3510904    0.1433517 -50.03  0.001266312    2.580    0.612
        53 -11.1655    135.9962    122.8680   9.8030670614e+01   3.0832810899e+01    0.5231342    0.2669716 -47.68  0.001803734    1.999    0.500
        54 -10.3137    125.1486    126.9122   1.0164304123e+02   3.2142816437e+01    0.2370434    0.1971987  82.98  0.001222452    1.378    0.275
        55 -10.6452    110.3961    119.8280   1.0385342388e+02   3.6461404925e+01    0.2471707    0.2254022  20.09 0.0001859895    1.223    0.182
        56 -10.3126    168.0445    113.0052   8.8103375505e+01   2.5844920351e+01    0.3519543    0.2631703 -65.23  0.001112741    1.701    0.412
        57 -10.1156    135.0000    111.9469   9.5641228309e+01   3.3318413519e+01    0.4226851   0.08551741 -45.06  0.001055978    4.976    0.799
        58 -11.2397    116.8538    109.9912   9.9845905885e+01   3.7392522401e+01    0.4898918    0.2039859  48.86  0.001776494    2.587    0.613
        59 -10.1450    205.5359    110.2037   7.9753831915e+01   1.7767380426e+01    0.2650176    0.2062676  47.52  0.000635721    1.293    0.226
        60  -9.6500    134.5147    102.9287   9.3451383597e+01   3.5288258957e+01    0.2327942     0.148734 -42.56 0.0008034077    1.570    0.363
        61  -9.7905     66.4089    237.8103   1.2929262718e+02   1.9490386183e+01    0.2176581    0.1132609  79.56 0.0005229106    2.094    0.522
        62  -9.1017    129.3624     95.6955   9.2835486062e+01   3.7870505626e+01    0.1555285    0.1212234  87.95  0.000703793    1.733    0.423
        63 -10.5197    177.6090    237.2179   1.0949849179e+02   3.1336705968e+00    0.2042623    0.1553919  54.59 0.0007065226    1.417    0.294
        64 -11.0127    168.2113     68.0965   7.5561242533e+01   3.3933634194e+01    0.5658942    0.3587859 -82.94   0.00186117    2.873    0.652
        65  -9.3170     72.2046     67.8458   1.0184477471e+02   5.4126944885e+01    0.1815786    0.1478354 -23.11 0.0005268305    1.253    0.202
        66  -9.4463    168.1903    248.1495   1.1254604071e+02   3.2108070454e+00    0.1479496     0.110076  51.47 0.0002867829    1.292    0.226
        67 -11.1583     36.5304    230.2890   1.3385540573e+02   2.4271146535e+01    0.3364592    0.1444233 -67.63  0.001745697    2.425    0.588
        68 -10.5452    164.0211    216.1291   1.0906933179e+02   8.3125517585e+00    0.1964206    0.1867724 -23.71  0.001352556    1.266    0.210
        69  -8.8876    114.2765     49.6179   8.2498009031e+01   4.9828255537e+01     0.146568    0.1138389 -64.65 0.0007002262    1.713    0.416
