#   1 NUMBER                 Running object number                                     
#   2 MAG_AUTO               Kron-like elliptical aperture magnitude                    [mag]
#   3 X_IMAGE                Object position along x                                    [pixel]
#   4 Y_IMAGE                Object position along y                                    [pixel]
#   5 X_WORLD                Barycenter position along world x axis                     [deg]
#   6 Y_WORLD                Barycenter position along world y axis                     [deg]
#   7 A_WORLD                Profile RMS along major axis (world units)                 [deg]
#   8 B_WORLD                Profile RMS along minor axis (world units)                 [deg]
#   9 THETA_WORLD            Position angle (CCW/world-x)                               [deg]
#  10 FWHM_WORLD             FWHM assuming a gaussian core                              [deg]
#  11 ELONGATION             A_IMAGE/B_IMAGE                                           
#  12 ELLIPTICITY            1 - B_IMAGE/A_IMAGE                                       
         1 -13.3678    194.0637     44.0756   4.1815479633e+01   3.1732001358e+01    0.9428919    0.8436955  56.82  0.003803586    1.244    0.196
         2 -13.5810    220.9958     14.1272   3.2086978965e+01   2.9412220583e+01    0.8326907    0.7124407 -69.75  0.004012818    1.114    0.102
         3 -12.0260     56.3355      3.7953   5.8441852543e+01   6.7075468592e+01      0.37657    0.3064866  84.95  0.002308414    2.209    0.547
         4 -11.3898     49.7038      4.5580   6.1413885863e+01   6.8148109961e+01    0.2688498    0.1687344 -44.33  0.001498278    2.448    0.591
         5 -11.8703    241.4623      2.8218   2.8345446695e+01   2.6435436610e+01    0.6498924    0.1901836  78.71  0.002844437    3.396    0.706
         6  -9.3350     87.4931    207.0188   1.0309699785e+02   1.9415012719e+01    0.1881941    0.1328305 -64.81 0.0003352248    1.468    0.319
         7 -12.2299    248.7689    246.0225   7.5270413095e+01  -1.1193701373e+01    0.7241276    0.2311053 -34.35  0.003417358    2.894    0.654
         8 -18.2035     19.2673    233.8352   1.2047033101e+02   2.1971483176e+01     7.694562     7.292708 -43.90    0.0583734    1.513    0.339
         9 -10.6570     40.7987    205.9402   1.1390474416e+02   2.5737756198e+01    0.1684673    0.1470938 -85.41  0.001090698    1.129    0.114
        10  -9.7373     64.5870    204.9918   1.0829148240e+02   2.3058237256e+01    0.2065112    0.1359546  87.44  0.001063787    1.618    0.382
        11 -10.5628    192.9621    194.9102   7.6819519004e+01   4.5166221411e+00    0.8476791    0.4385157 -63.77  0.002297804    7.034    0.858
        12 -10.9565     61.1042    198.6431   1.0840896054e+02   2.4985490304e+01    0.2267606    0.1895598 -60.47 0.0002324746    1.271    0.213
        13  -9.7373     32.0480    195.7253   1.1501136921e+02   2.9054701636e+01     0.191841    0.1271646  59.47 0.0008207137    1.391    0.281
        14  -9.8299     83.1801    194.8304   1.0252687046e+02   2.2854477119e+01    0.3010238    0.2011167  19.50 0.0009991039    1.839    0.456
        15  -9.2494     50.1670    213.2881   1.1245921436e+02   2.2982508887e+01    0.1954423    0.1281502  81.18 0.0001809854    1.504    0.335
        16 -10.4067     45.8739    222.6868   1.1423060169e+02   2.1422592016e+01    0.3774185     0.196647 -73.49  0.001978108    1.879    0.468
        17  -9.1998     92.0936    196.3387   1.0053078743e+02   2.1175246414e+01    0.1951518    0.1652594  52.37 0.0004099873    1.114    0.102
        18 -11.8677     55.1965    190.6236   1.0893718136e+02   2.7634011711e+01    0.4591518    0.2988517 -34.48   0.00151655    2.190    0.543
        19 -10.5779     52.3140    249.7409   1.1503746348e+02   1.5096675009e+01    0.2837351   0.08826381 -60.80  0.001249213    3.385    0.705
        20  -9.3532     72.2002    188.2056   1.0438509660e+02   2.5992630472e+01     0.189564    0.1467353  74.23 0.0003835737    1.309    0.236
        21 -11.1713     84.2552    177.7100   9.9763549949e+01   2.6812243255e+01    0.4747108    0.3154372  81.96  0.001522184    1.907    0.476
        22  -9.7068     77.3987    186.1609   1.0278516086e+02   2.5756535405e+01    0.3041951    0.2114394  78.82    0.0010425    1.638    0.389
        23 -10.9358     79.5288    182.3160   1.0168920025e+02   2.6383025384e+01     0.395754    0.3369646 -34.45  0.001451893    1.375    0.273
        24 -10.9965    145.3593    183.4085   8.5256150772e+01   1.5169900797e+01    0.2738759    0.2579938  71.70 0.0006968132    1.183    0.155
        25 -10.3686    183.6676    178.9122   7.5651642746e+01   9.1831811534e+00    0.5121548     0.205281 -53.41  0.001699026    3.491    0.714
        26 -10.2304    180.0638    174.6298   7.5562476600e+01   1.0690577016e+01    0.2614278    0.2061246 -57.88 0.0005793092    1.493    0.330
        27  -9.9979     89.8463    180.8542   9.8789372486e+01   2.5197206972e+01    0.2217766    0.2063738  75.54 0.0003889588    1.033    0.032
        28  -9.9873     92.4335    178.2160   9.7695008725e+01   2.5436570450e+01    0.2241082    0.1435852 -62.16 0.0007791364    1.570    0.363
        29 -11.6046    136.7549    173.3483   8.5421901096e+01   1.8979733575e+01    0.4953062    0.3317719 -72.37  0.002109276    2.068    0.517
        30 -10.1981     47.2040    172.8273   1.0887258861e+02   3.2943825033e+01    0.3403515    0.2554247 -49.15  0.001191012    1.436    0.304
        31 -10.3268    191.8196    166.4589   7.1368022725e+01   1.0172498777e+01     0.348973    0.2666364 -47.60  0.001023887    1.351    0.260
        32 -10.0822    186.7116    165.4731   7.2232327253e+01   1.1311490178e+01     0.422547     0.178808 -38.53  0.001582628    2.362    0.577
        33  -9.8342    120.3409    165.4722   8.8066856323e+01   2.3807434600e+01    0.2856103    0.2199218 -89.69 0.0006602083    1.668    0.400
        34 -11.1589     88.1186    155.2514   9.4902809968e+01   3.1811148152e+01    0.2939148    0.2820857 -33.63 0.0003520382    1.102    0.093
        35 -12.0890    133.9426    146.2879   8.0469748359e+01   2.5784343520e+01     1.437112    0.3514317 -54.58  0.003118272    6.418    0.844
        36 -12.4341     94.4243    148.3681   9.1781716967e+01   3.2517436578e+01    0.7852579    0.5461199 -41.53  0.003626367    1.510    0.338
        37  -9.7635    174.7476    148.8907   7.1216476975e+01   1.7032751075e+01     0.279041    0.2112337 -61.00 0.0008475069    1.545    0.353
        38  -9.4925    179.8435    141.8485   6.8506746318e+01   1.7478878033e+01    0.2051998    0.1796707 -70.99 0.0005475924    1.328    0.247
        39 -11.6674    107.0364    135.2201   8.5344140786e+01   3.3572211571e+01    0.5562922    0.4094995 -25.07  0.001661305    1.644    0.392
        40 -10.6243    105.7472    130.6172   8.4660534955e+01   3.4929905380e+01     0.421612    0.3460439 -68.92  0.001125646    1.321    0.243
        41 -11.5918     94.3874    135.2213   8.9046949431e+01   3.5807636846e+01    0.2900029    0.2717207 -22.74 0.0004886576    1.114    0.102
        42 -10.1596    118.0928    134.8612   8.2128818461e+01   3.1581310465e+01    0.2490101    0.2177701  83.29 0.0007608323    1.318    0.241
        43  -8.9702    149.9292    134.5472   7.3689221259e+01   2.5227551805e+01    0.2218282    0.1543601  42.09 0.0002853392    1.463    0.317
        44 -10.3407    112.0145    150.2368   8.7215867184e+01   2.8993904848e+01    0.4942941    0.2974678  78.73  0.001587158    3.654    0.726
        45  -9.7754     72.1654    216.6719   1.0782068437e+02   1.9418202715e+01    0.2000732     0.152706  86.69 0.0005439403    1.317    0.241
        46 -10.8405    113.4120    127.8160   8.1784072772e+01   3.4165638810e+01    0.4859091    0.2845696  42.32  0.001551319    1.739    0.425
        47 -10.8543     56.8649    210.7774   1.1069886881e+02   2.2726436425e+01    0.2591516    0.1967527  58.42 0.0009997895    1.178    0.151
        48 -10.1701    101.4629    123.5239   8.4248352562e+01   3.7432532726e+01    0.2996539    0.2480519 -16.86 7.616085e-05    1.378    0.274
        49 -10.2722    120.1080    122.8633   7.8675041909e+01   3.4023884661e+01    0.2465944    0.2223127  79.32  0.001237884    1.251    0.201
        50 -11.1206    135.0000    118.0277   7.3399919710e+01   3.2061758849e+01    0.7913439   0.08865212 -45.85  0.001414705    8.801    0.886
        51  -9.4232    109.2198    117.4828   8.0450984313e+01   3.7419667857e+01    0.2210504     0.154466  38.41 0.0009883174    1.462    0.316
        52  -9.6357    167.1217    225.4624   8.7665659913e+01   3.1152805721e+00    0.2233085    0.1702312 -26.03 0.0005197959    1.389    0.280
        53  -9.2778    167.6639    112.3256   6.4047954124e+01   2.6160227448e+01     0.158599    0.1217183 -81.22 0.0007051456    1.719    0.418
        54 -12.1411    117.8663    108.6583   7.5640307427e+01   3.7731598218e+01    0.6973806    0.5154989 -49.95  0.003250878    1.358    0.263
        55  -9.8601    205.5216    110.4135   5.6141381774e+01   1.8358545257e+01    0.2475573    0.2347293 -55.48 0.0006333087    1.045    0.043
        56  -9.3749    162.7786    110.1902   6.4589863469e+01   2.7678155216e+01    0.2307398    0.2058327 -79.90 0.0009550894    1.239    0.193
        57  -8.5385    233.3091    118.6657   5.3461219187e+01   1.1415931785e+01    0.1382281   0.09836278 -64.37  0.000318892    1.675    0.403
        58 -10.7456     66.4544    104.7183   9.0941535476e+01   4.7695848149e+01    0.2837681     0.238207  -7.17  0.001041458    1.293    0.227
        59  -9.8989     63.7850     99.9827   9.0700238787e+01   4.9200147262e+01    0.2590263    0.1894362   5.03  0.001198544    1.613    0.380
        60 -19.1862      7.8009    104.5902   1.1155966480e+02   5.3465939381e+01     17.50684    0.8138021 -70.19   0.02823408   16.134    0.938
        61  -9.8793     74.9150    249.8844   1.1051558121e+02   1.2209784537e+01    0.1711584    0.1231713 -56.19 0.0006173994    1.666    0.400
        62 -10.7835     54.0605     76.0678   8.7816324148e+01   5.5931543407e+01    0.2129613    0.1969991 -23.26 0.0007485142    1.071    0.066
        63 -13.1130    178.5887     57.1337   4.7442585654e+01   3.3486165774e+01     1.664808    0.8158799  39.73   0.00520749    2.953    0.661
        64 -10.4041     45.1443    246.7907   1.1623495404e+02   1.6526889752e+01    0.1318996    0.1049774 -81.81 0.0002943224    1.302    0.232
        65 -12.5317    199.2713     38.6786   3.9837035917e+01   3.1256243684e+01     0.495276    0.4417627 -86.94  0.001277314    1.058    0.055
        66 -10.5866     43.8653     45.5341   8.1958886256e+01   6.3268258311e+01     0.404476    0.1838982  40.93  0.001809909    2.642    0.622
        67  -7.9887     63.7777    246.7134   1.1250475106e+02   1.4265452364e+01   0.09860297   0.09129756 -44.06 0.0002538628    1.438    0.304
        68 -10.1776     60.3459     21.0965   6.4893690231e+01   6.4481843796e+01    0.2168033    0.1489128  27.89 0.0005233577    1.281    0.219
        69 -10.8771     71.2639    240.6311   1.1042552894e+02   1.4501082943e+01    0.1794792    0.1444163  89.20 0.0003417769    1.257    0.205
        70 -10.2061     77.0086    232.0125   1.0836243815e+02   1.5485854889e+01    0.3049148    0.1631099 -53.84  0.001537116    2.137    0.532
