#   1 NUMBER                 Running object number                                     
#   2 MAG_AUTO               Kron-like elliptical aperture magnitude                    [mag]
#   3 X_IMAGE                Object position along x                                    [pixel]
#   4 Y_IMAGE                Object position along y                                    [pixel]
#   5 X_WORLD                Barycenter position along world x axis                     [deg]
#   6 Y_WORLD                Barycenter position along world y axis                     [deg]
#   7 A_WORLD                Profile RMS along major axis (world units)                 [deg]
#   8 B_WORLD                Profile RMS along minor axis (world units)                 [deg]
#   9 THETA_WORLD            Position angle (CCW/world-x)                               [deg]
#  10 FWHM_WORLD             FWHM assuming a gaussian core                              [deg]
#  11 ELONGATION             A_IMAGE/B_IMAGE                                           
#  12 ELLIPTICITY            1 - B_IMAGE/A_IMAGE                                       
         1 -11.0463    231.5899     18.6524   1.9454009493e+01   2.6101690767e+01    0.5231058    0.2413854 -43.08  0.002815155    1.711    0.416
         2 -11.2280    227.2794     22.7256   2.0691143365e+01   2.6543582010e+01    0.4260304    0.3370039 -79.61  0.002867799    1.291    0.226
         3 -10.9914    225.1403     17.4228   1.9577161992e+01   2.7505955354e+01    0.4896447    0.3311086   8.32  0.002760552    2.186    0.543
         4 -11.2695     40.4472      4.7073   5.2158142527e+01   7.3511792012e+01    0.5220054    0.1796344 -35.02  0.002001301    3.001    0.667
         5  -8.4326    144.3189    229.2929   7.7198900438e+01   1.0673648803e+01    0.1174504   0.07634132   4.22 0.0003100115    1.605    0.377
         6 -12.1719    248.7778    245.1357   6.1010102435e+01  -2.6565041228e+00    0.8291948    0.2811106 -33.58  0.004934255    3.055    0.673
         7 -18.9408     16.9121    196.8138   1.0370602222e+02   3.0908315996e+01     12.42278     4.348763 -85.40    0.0568134    3.065    0.674
         8 -10.5545    100.3849    161.5525   7.8139273061e+01   2.8822259187e+01     0.291079    0.2403067  20.97 0.0008522671    1.174    0.148
         9 -11.5757     95.8440    157.5071   7.8745732422e+01   3.0381949149e+01    0.7427296     0.457593 -50.04  0.003606167    1.762    0.432
        10 -12.4838    171.4613    153.0772   5.9485790791e+01   1.8772646101e+01     0.714556    0.4814697 -36.97  0.003872432    1.500    0.333
        11 -10.8307    134.5481    149.8338   6.7194061506e+01   2.5668749440e+01    0.8623715    0.2282019 -51.28  0.002558468    4.681    0.786
        12 -12.1897    179.9268    143.4906   5.5843818240e+01   1.8927618910e+01    0.6640893    0.3695127  32.97  0.003232465    1.805    0.446
        13 -10.8897    142.7039    143.1847   6.3890060609e+01   2.5531010465e+01    0.5543132    0.2829855 -17.34  0.001527605    5.824    0.828
        14 -11.4445    115.0337    138.3915   7.0010735405e+01   3.1413014999e+01    0.4035694    0.2145383 -47.71  0.001730813    1.978    0.494
        15 -10.0098    143.0143    135.4932   6.2205437598e+01   2.6958680280e+01    0.2174445    0.1352874  38.23 0.0005829359    1.539    0.350
        16 -11.0904    112.9590    127.0564   6.8232219283e+01   3.4242316193e+01     0.344307    0.2940878  -1.70  0.001464468    1.301    0.231
        17 -12.7325    112.7274    150.6240   7.2961909533e+01   2.9195075598e+01    0.8332555    0.6796957  61.35  0.004485662    1.409    0.290
        18 -11.2643     93.1936    123.2507   7.3303385772e+01   3.8595540714e+01    0.5572693    0.2717592 -67.21  0.001991695    2.899    0.655
        19  -9.9309    100.0053    122.6099   7.1069876143e+01   3.7563824103e+01    0.2642688    0.2063096 -19.54 0.0008773332    1.554    0.356
        20 -10.8513     85.8447    117.8291   7.4515382424e+01   4.1114675864e+01    0.4277513    0.2265546 -69.53  0.001619894    2.527    0.604
        21  -9.0141    160.9996    117.5178   5.4019644745e+01   2.6891381240e+01    0.2550125    0.1971374 -53.79 0.0009811474    1.496    0.332
        22  -9.1907     73.9529    176.6789   8.7363186861e+01   2.9255068604e+01    0.2837766    0.1680544 -44.41  0.001396824    2.054    0.513
        23  -9.6578    130.8537    207.1182   7.7248942516e+01   1.5815669850e+01    0.1793151     0.149759  35.42 0.0004292052    1.187    0.158
        24  -8.7977    128.8826    200.6660   7.6825645662e+01   1.7164062745e+01    0.1938846    0.1626281 -22.73 0.0006352783    1.313    0.238
        25 -10.3289    127.9244    163.3558   7.1309808476e+01   2.4128405730e+01    0.7637463     0.385101 -17.14  0.001811671    8.590    0.884
        26  -9.7940    182.5496     60.4471   3.5142956694e+01   3.1600985265e+01    0.2520407    0.2316875 -52.68   0.00108426    1.047    0.045
        27 -11.5537    198.6488     47.7812   2.9591940829e+01   2.9706684689e+01    0.5536044    0.4793864  59.76  0.003163226    1.263    0.208
        28 -11.1230    204.3371     42.9743   2.7701383564e+01   2.9063257595e+01    0.4534837    0.3672647  45.37   0.00144382    1.435    0.303
        29 -12.6577    235.5511    156.7290   4.8908285218e+01   8.4697848115e+00    0.7327507    0.4798321  23.46  0.004734597    1.513    0.339
        30 -10.7980    125.5354    245.7874   8.2832840195e+01   1.0597858729e+01    0.3551844    0.1447327 -56.60  0.001857018    3.520    0.716
        31 -12.6332    183.4403    233.4761   7.0184823604e+01   5.4013160660e+00     1.169632    0.7024649  -2.09  0.007458132    1.681    0.405
        32 -10.9169    136.2074    232.0433   7.9179110706e+01   1.1278193886e+01    0.3580218    0.1716697  35.65   0.00199327    1.680    0.405
        33  -8.6645     99.1161    180.8563   8.1277351667e+01   2.5008213773e+01    0.1771806    0.1455242  10.21 0.0006511476    1.261    0.207
        34  -8.8032     60.3455     21.2885   5.1740663668e+01   6.6987199557e+01    0.1476658    0.1051181  17.40 0.0004538406    1.654    0.395
