#   1 NUMBER                 Running object number                                     
#   2 MAG_AUTO               Kron-like elliptical aperture magnitude                    [mag]
#   3 X_IMAGE                Object position along x                                    [pixel]
#   4 Y_IMAGE                Object position along y                                    [pixel]
#   5 X_WORLD                Barycenter position along world x axis                     [deg]
#   6 Y_WORLD                Barycenter position along world y axis                     [deg]
#   7 A_WORLD                Profile RMS along major axis (world units)                 [deg]
#   8 B_WORLD                Profile RMS along minor axis (world units)                 [deg]
#   9 THETA_WORLD            Position angle (CCW/world-x)                               [deg]
#  10 FWHM_WORLD             FWHM assuming a gaussian core                              [deg]
#  11 ELONGATION             A_IMAGE/B_IMAGE                                           
#  12 ELLIPTICITY            1 - B_IMAGE/A_IMAGE                                       
         1 -10.4579    100.4396     54.7039   8.5575066147e+01   5.1181032071e+01    0.1812376    0.1274035 -18.48 0.0009458364    1.603    0.376
         2 -10.8860    160.3012    239.0225   1.1319422631e+02   2.3055998135e-01    0.1840447    0.1790761 -25.69 0.0009536765    1.122    0.109
         3 -10.7956     92.3646    237.2050   1.2750512413e+02   1.1761521236e+01    0.1883527    0.1205775 -79.14 0.0009545895    1.742    0.426
         4 -10.4611    144.5207    232.0426   1.1547401681e+02   4.2495916200e+00    0.2024334     0.138339 -54.53  0.001033089    1.603    0.376
         5 -11.1024     84.0000    226.9734   1.2804077216e+02   1.5283480303e+01    0.2161037   0.07431266 -62.76 0.0008040585    2.954    0.661
         6 -10.7120     72.5074    226.4747   1.3047445686e+02   1.7105367074e+01    0.2368175    0.1079175 -54.53  0.001038554    2.340    0.573
         7 -10.2661    162.9793    224.5231   1.1022831001e+02   2.5778905899e+00    0.2179858    0.1303044  37.49  0.001027554    1.577    0.366
         8 -10.8655    114.3998    223.2277   1.2078557818e+02   1.1232135806e+01    0.1929759    0.1331683 -73.86  0.000950223    1.647    0.393
         9 -10.1617    109.0000    221.9734   1.2181449071e+02   1.2411273091e+01     0.223309   0.07927991 -58.04  0.000801843    2.938    0.660
        10 -10.9068    112.1011    216.6387   1.2031756464e+02   1.3084706474e+01    0.2484219    0.1937176 -76.90 0.0009472699    1.367    0.268
        11 -10.5104    143.7109    216.0127   1.1303172962e+02   7.7164133887e+00    0.2023823    0.1876972 -53.16 0.0009215345    1.131    0.116
        12 -10.3971    199.2328    214.9993   1.0087667059e+02  -1.7634875810e+00    0.1810473    0.1100272 -41.91 0.0007422318    1.626    0.385
        13 -11.0028    185.9907    214.4823   1.0352193719e+02   5.7425893773e-01    0.2591948    0.2012984 -61.43 0.0009607506    1.595    0.373
        14 -11.6390     76.3856    212.2936   1.2786525995e+02   1.9796849633e+01    0.3302654    0.1571134 -58.81  0.001450392    2.041    0.510
        15 -11.0441    218.3829    211.1936   9.6362123019e+01  -4.1715104229e+00    0.1907372    0.1203898 -48.98 0.0009547685    1.737    0.424
        16 -11.9645    116.5212    209.0376   1.1810725107e+02   1.4056178147e+01    0.4941768    0.2888216 -57.49  0.002040509    1.754    0.430
        17 -10.5462    177.1622    210.1734   1.0460397981e+02   2.9675703177e+00    0.1936486    0.1761075  86.56  0.001015579    1.350    0.259
        18 -10.3975    147.9981    209.1938   1.1088067985e+02   8.4165077763e+00    0.2125469    0.1651845 -79.59 0.0009535979    1.616    0.381
        19 -11.3097    198.6873    204.1663   9.8943332168e+01   3.9130413748e-01    0.2555416    0.2176779 -70.82  0.001054589    1.530    0.347
        20 -12.3013    186.1589    203.7158   1.0146622158e+02   2.6716738058e+00    0.4172638      0.27966 -52.17  0.001593112    1.614    0.380
        21 -11.3219     98.6495    204.0734   1.2152185695e+02   1.8244023488e+01    0.3430796    0.1333008 -59.66  0.001263838    2.586    0.613
        22 -12.9617    164.6289    200.9412   1.0562141466e+02   7.1530996904e+00    0.9771432    0.4806369 -37.80  0.003828237    2.318    0.569
        23 -11.5624    162.4666    193.1372   1.0460944857e+02   9.2467852570e+00    0.4971663    0.3283151 -55.16   0.00181882    1.609    0.379
        24 -10.4423    130.5824    202.2557   1.1367595398e+02   1.3119537368e+01    0.2813701    0.1455456 -58.07  0.001137719    2.070    0.517
        25 -10.6157    211.9995    201.5069   9.5757704357e+01  -1.3555323365e+00    0.1772418    0.1217776  63.73 0.0007051034    2.384    0.581
        26 -10.0985    140.2921    199.9494   1.1099376402e+02   1.1871586766e+01    0.2349479    0.1225586 -73.62 0.0007027529    4.147    0.759
        27 -10.4825    177.4710    197.9362   1.0221647910e+02   5.4245425236e+00    0.2218554    0.1415695 -46.97 0.0007483434    1.570    0.363
        28 -10.9381    148.8182    196.8996   1.0845129817e+02   1.0976496249e+01     0.441386    0.1989806 -56.53  0.001616818    2.523    0.604
        29 -11.8819    124.1315    196.1675   1.1413150198e+02   1.5696796873e+01    0.5025268    0.2471247 -55.84  0.002002679    2.073    0.518
        30 -11.4500     88.1413    196.8882   1.2292955591e+02   2.1673817885e+01    0.4955578    0.1109772 -63.34  0.001207907    5.856    0.829
        31 -10.5045    203.1898    197.2044   9.6676265775e+01   9.6809889329e-01    0.1885599    0.1722754 -75.73 0.0007028824    1.369    0.269
        32 -11.2538    112.3834    195.5898   1.1685606750e+02   1.7926434569e+01    0.4723791    0.1746741 -55.58   0.00165505    2.683    0.627
        33 -10.3960    193.4869    195.9814   9.8426267428e+01   2.9209619001e+00    0.2222234    0.1368553 -45.10  0.001030182    1.591    0.371
        34 -10.7086    209.4946    194.9897   9.4979772968e+01   3.1036304751e-01    0.2194512    0.1302985 -42.81  0.001033794    1.596    0.373
        35 -10.3620    132.7622    195.0119   1.1186581552e+02   1.4390389100e+01    0.2027181    0.1255199 -53.90 0.0008865705    1.635    0.389
        36 -10.9543    186.4117    192.8085   9.9287809946e+01   4.8496962580e+00     0.284084    0.1383428 -49.43  0.001138173    2.110    0.526
        37 -12.0058    172.4382    190.4191   1.0184431649e+02   7.9556456235e+00    0.3920088    0.2562506 -56.05  0.001517956    1.675    0.403
        38 -10.5829    102.4769    192.0015   1.1865799475e+02   2.0502502228e+01    0.2338175    0.1420546 -58.93  0.001041162    1.618    0.382
        39 -11.1989    205.8653    191.1469   9.4940872029e+01   1.6889436379e+00    0.2128128    0.1938688 -55.02  0.000724166    1.224    0.183
        40 -10.8054    200.1297    191.1504   9.6100137489e+01   2.7032850849e+00    0.1965387    0.1716657 -62.15  0.001077387    1.327    0.247
        41 -10.1662    179.4223    190.2626   1.0028281853e+02   6.6769398275e+00    0.2051954    0.1402742 -55.96 0.0009462023    1.606    0.378
        42 -11.5603    139.0538    187.6513   1.0898885313e+02   1.4926439697e+01    0.5453166    0.2206463 -48.49  0.001938717    2.464    0.594
        43 -10.5195    210.5753    188.8206   9.3542007816e+01   1.3215415991e+00    0.2009608    0.1283609 -52.27 0.0009459392    1.696    0.410
        44 -10.4548    192.5648    187.3362   9.6895523047e+01   4.8480830543e+00    0.2814627     0.137773 -48.88  0.001132427    2.066    0.516
        45 -11.3301    129.2125    186.8363   1.1120117510e+02   1.6966325160e+01    0.4715942    0.2364097 -45.44    0.0018409    2.084    0.520
        46 -11.4682    165.3739    185.8083   1.0250258117e+02   1.0307040279e+01    0.4362036    0.2739704 -55.04  0.001546231    1.693    0.409
        47 -10.7922    155.6929    185.3431   1.0462381716e+02   1.2274626318e+01    0.4372816    0.1391619 -50.97  0.001349619    3.241    0.691
        48 -11.9658    120.2128    182.7547   1.1263764711e+02   1.9608701402e+01    0.8390201    0.2490222 -57.02   0.00242943    3.730    0.732
        49 -11.6555     94.8628    184.3828   1.1925714893e+02   2.3651730040e+01    0.6985611    0.2000884 -61.11  0.002037974    3.843    0.740
        50 -11.2397    203.9981    183.9711   9.3871657217e+01   3.4483324425e+00    0.3535816    0.2038803 -50.85  0.001494601    1.806    0.446
        51 -12.7691    174.2386    182.4178   9.9833564896e+01   9.3453594105e+00    0.5546247    0.3369404 -45.96  0.001667178    1.611    0.379
        52 -10.2236    197.2948    182.6468   9.4963030597e+01   4.9401242984e+00    0.1441806    0.1165163 -79.95 0.0003816123    1.686    0.407
        53 -12.1491    147.5731    178.6142   1.0517497614e+02   1.5392125419e+01    0.5943005     0.293761 -46.31  0.002297046    2.016    0.504
        54 -10.9174     83.2653    180.9923   1.2161322192e+02   2.6366914137e+01    0.2191853    0.1817551 -68.54 0.0009599959    1.131    0.116
        55 -11.7375    138.1577    177.9261   1.0729663430e+02   1.7381267002e+01    0.4682218    0.2628667 -45.53  0.001536528    1.801    0.445
        56  -9.9523    205.6689    178.3007   9.2378493653e+01   4.2872330171e+00    0.1400682    0.1159162 -85.86 0.0007032786    1.648    0.393
        57 -11.3139    192.1854    177.0100   9.4858466985e+01   7.0653658863e+00    0.3678897    0.2053512 -45.06  0.001584591    1.710    0.415
        58 -11.9715    183.2261    175.0154   9.6339567150e+01   9.2095771719e+00     0.439016    0.3248044 -42.67  0.001681274    1.300    0.231
        59 -10.7333    183.1187    183.6805   9.8155352516e+01   7.3770788332e+00    0.2749729    0.1980002 -54.02  0.001317458    1.460    0.315
        60 -10.2374    217.5190    187.4949   9.1928459968e+01   3.8061251650e-01    0.1399749    0.1262201 -25.26 0.0007829374    1.017    0.017
        61 -11.1812     76.3832    175.1816   1.2241425050e+02   2.8882221196e+01    0.2174376    0.1316265 -75.07 0.0008397647    1.772    0.436
        62 -10.3057    159.2317    174.2500   1.0154005352e+02   1.4102187063e+01    0.2519602    0.1245922 -58.13 0.0008947562    2.436    0.590
        63 -10.8799    105.0052    173.6725   1.1476244522e+02   2.4576066508e+01    0.3317211    0.1655246 -67.41  0.001195448    2.473    0.596
        64 -11.7345    177.4545    170.4019   9.6617988816e+01   1.1344034535e+01    0.4909909    0.2949411 -50.23  0.002113756    1.654    0.395
        65 -10.8184    142.4662    171.4727   1.0493480860e+02   1.8066612447e+01    0.3265619    0.1506132 -49.67  0.001102337    2.130    0.531
        66 -10.7185    134.5307    170.2140   1.0661627477e+02   1.9921629774e+01    0.3851304    0.1474876 -48.89  0.001290615    2.551    0.608
        67 -11.1248    205.9033    169.0901   9.0417117954e+01   6.1149012783e+00    0.3644569    0.1942877 -53.08  0.001504797    2.033    0.508
        68 -10.5429    198.3692    169.6837   9.2049396884e+01   7.4187595056e+00    0.2247397    0.1783337 -78.88   0.00109465    1.673    0.402
        69 -11.9905    121.2702    166.7854   1.0924113044e+02   2.3302380696e+01    0.6850138    0.2561201 -49.93  0.002297553    2.584    0.613
        70 -11.1728    168.0795    167.6371   9.8113618658e+01   1.3830573411e+01    0.4629216    0.2237438 -47.48  0.001767326    2.014    0.503
        71 -11.0936    149.5188    168.3456   1.0258137481e+02   1.7400119291e+01    0.3737161    0.2587924 -46.67  0.001377103    1.420    0.296
        72 -10.9254     88.1359    167.8015   1.1806400983e+02   2.8905455495e+01    0.2929134    0.1732627 -67.01  0.001250508    1.739    0.425
        73 -11.0791    185.1155    166.4187   9.4110847850e+01   1.0692034019e+01    0.3043312     0.216775 -51.76 0.0009579023    1.398    0.285
        74 -10.3109    111.3709    166.5493   1.1173850626e+02   2.5202268143e+01    0.3119022     0.142645 -67.78 0.0009582246    3.356    0.702
        75 -12.0384    192.3132    163.7720   9.2030583681e+01   9.8365931528e+00    0.5903403    0.2511806 -45.52  0.002194966    2.222    0.550
        76 -12.0089    138.9099    162.9349   1.0400278717e+02   2.0798299916e+01    0.7022803    0.3352823 -54.86  0.002567174    2.182    0.542
        77 -11.7679    213.0670    163.3699   8.7827045349e+01   5.9349558754e+00     0.291795    0.2042796 -50.13  0.001444776    1.382    0.276
        78 -10.9307    159.4555    162.5901   9.8999474639e+01   1.6723527610e+01    0.4246877    0.1869958 -46.97  0.001525545    2.209    0.547
        79 -11.7849    205.2992    161.5686   8.8943226764e+01   7.7711129126e+00    0.4150529    0.2398501 -42.83    0.0017783    1.599    0.375
        80 -11.4990    177.7273    158.9099   9.4071364817e+01   1.3815933926e+01    0.5332289     0.280094 -46.53  0.002137827    1.827    0.453
        81 -10.9599    151.3719    159.4729   1.0022276123e+02   1.9095134059e+01    0.4073994    0.2114291 -48.68  0.001576526    1.881    0.468
        82 -11.0480     92.1814    158.8131   1.1528266690e+02   3.0502652617e+01    0.3456968    0.1184413 -62.22  0.001017888    3.509    0.715
        83 -11.8654    196.4418    156.4075   8.9591299491e+01   1.0576678144e+01    0.4778342    0.3003945 -49.91  0.001536311    1.541    0.351
        84 -11.3952    167.8182    155.4702   9.5509469018e+01   1.6620847492e+01    0.5598603    0.2705264 -45.02  0.002119404    2.003    0.501
        85 -10.5217    128.1067    157.7217   1.0558976580e+02   2.4191884674e+01    0.2892325    0.2132781 -62.05  0.001316233    1.404    0.288
        86 -11.0480    104.9851    156.1117   1.1129526433e+02   2.8953299320e+01    0.5840461    0.2228506 -54.76  0.001980102    2.534    0.605
        87 -10.4274    218.3604    156.7691   8.5445294117e+01   6.2692337019e+00    0.2123331    0.1235143 -35.89 0.0009476321    1.668    0.401
        88 -10.9996    188.2387    156.5788   9.1313847471e+01   1.2186291540e+01    0.3046387    0.2015155 -44.99  0.001386281    1.429    0.300
        89 -10.9080    157.5388    154.7878   9.7723456814e+01   1.8908820660e+01    0.3839272    0.1517293 -49.23  0.001285386    2.496    0.599
        90 -11.2971    119.1458    153.7157   1.0703629992e+02   2.6908363327e+01    0.5238289    0.2336675 -54.27  0.001872616    2.234    0.552
        91 -11.3189    204.7284    154.1259   8.7454192137e+01   9.4149633271e+00    0.2864742    0.1958921 -29.76  0.001074772    1.578    0.366
        92 -10.8529    144.5080    153.5419   1.0056636565e+02   2.1890842021e+01     0.337101    0.1529494 -48.85  0.001206541    2.149    0.535
        93 -11.4057     80.9978    153.4199   1.1728323325e+02   3.3672843095e+01    0.3691795    0.1853917 -63.92  0.001455163    2.036    0.509
        94 -11.2910    132.9513    151.0389   1.0288509766e+02   2.4837512396e+01     0.556464    0.2628105 -50.63  0.002046422    2.070    0.517
        95 -11.8270    200.2028    147.5714   8.6904771729e+01   1.1673423414e+01    0.6333444    0.2196376 -42.17  0.002129619    2.727    0.633
        96 -10.6983    182.2021    149.5273   9.1020022952e+01   1.4947566173e+01    0.3110422    0.2041014 -44.77  0.001390228    1.449    0.310
        97 -10.5264    162.4729    149.4973   9.5382539708e+01   1.9085808142e+01    0.3372888    0.1508583 -46.79  0.001208832    2.163    0.538
        98 -10.8119     98.2508    149.0084   1.1163054474e+02   3.1916639812e+01    0.4797111    0.1261272 -54.25  0.001359194    3.609    0.723
        99 -10.2931    142.4723    148.0231   9.9818132391e+01   2.3607983420e+01    0.2517945    0.1529883 -49.14 0.0009147641    1.604    0.376
       100 -10.8074    175.5739    145.2890   9.1486669210e+01   1.7262089375e+01    0.3073474    0.1449854 -49.41  0.001135383    2.089    0.521
       101 -11.9813    148.7589    141.9201   9.6869313041e+01   2.3713264135e+01    0.9112297    0.3427483 -48.53  0.002988613    2.608    0.617
       102 -11.7646    106.3081    142.7506   1.0805672994e+02   3.2012672342e+01    0.7194263    0.2762294 -56.20  0.002366217    2.721    0.632
       103 -11.0100     55.4807    144.9926   1.2286371379e+02   3.9410629817e+01    0.2073434    0.1184715 -88.01 0.0008102463    2.599    0.615
       104 -10.2564    208.6015    143.7846   8.4462857078e+01   1.0769329931e+01    0.2148795    0.1287208 -52.23 0.0009454149    1.643    0.391
       105 -10.9299    165.5541    142.2414   9.3010522092e+01   2.0066105747e+01    0.3980826    0.1488595 -43.69  0.001302782    2.621    0.619
       106 -11.6271    124.2912    140.7470   1.0277025840e+02   2.9038341499e+01    0.6759578    0.2729677 -54.65  0.002228824    2.649    0.622
       107 -11.1205     87.6303    141.2299   1.1293662095e+02   3.5655547745e+01    0.5274326    0.1313907 -53.91   0.00150903    3.636    0.725
       108 -12.1575    190.3034    148.5882   8.9116716106e+01   1.3475554577e+01    0.5700274    0.3563597 -38.95  0.002184131    1.569    0.363
       109 -10.9399    182.0110    140.5232   8.9016523057e+01   1.6936453697e+01    0.3289403    0.2272173 -45.70  0.001422971    1.375    0.273
       110 -11.2318    197.9287    135.2657   8.4601253817e+01   1.4693951806e+01    0.6108278    0.2077758 -41.97  0.002022075    2.800    0.643
       111 -10.9078    172.0479    136.6667   9.0263285000e+01   1.9904527519e+01    0.4455331    0.2208519 -48.21  0.001703742    1.959    0.490
       112 -10.0797    219.7568    136.9985   8.0969934890e+01   9.9271376541e+00    0.2028702    0.1113603 -43.51 0.0008927647    1.631    0.387
       113 -10.4281    138.4815    136.9874   9.8238088911e+01   2.7017990066e+01    0.2519242    0.1530048 -48.31  0.001037089    1.604    0.377
       114 -10.4391    187.6988    134.4825   8.6451684297e+01   1.7015053589e+01    0.2836897    0.1320148 -44.19  0.001072173    2.029    0.507
       115 -10.5766    162.5440    134.7497   9.1935637206e+01   2.2381299880e+01    0.3079205    0.1495625 -41.77  0.001138677    2.060    0.515
       116 -10.9185    179.3078    132.2750   8.7674870365e+01   1.9285400564e+01    0.3609254    0.2056027 -40.89  0.001490859    1.726    0.421
       117 -10.9196    112.5982    132.0217   1.0385073600e+02   3.3415357201e+01     0.371172    0.1466032 -50.14  0.001262827    2.443    0.591
       118 -11.6814    131.6564    128.9788   9.8040639282e+01   3.0295009785e+01    0.7156815    0.2910448 -48.81   0.00245178    2.419    0.587
       119 -11.8768     82.8463    129.5680   1.1174861453e+02   3.9292753590e+01    0.7616142    0.1967016 -56.04   0.00213719    3.969    0.748
       120 -11.3342    143.0462    129.4364   9.5280272429e+01   2.7782637313e+01    0.5455449    0.2361025 -43.08   0.00190985    2.318    0.569
       121 -10.4864    204.7845    129.8169   8.2077659619e+01   1.4379473030e+01    0.2104554    0.1681512 -69.63 0.0008720557    1.347    0.258
       122 -10.6279    192.9760    128.7483   8.4079839786e+01   1.7085447872e+01    0.3447288    0.2024217 -36.34  0.001460725    1.774    0.436
       123 -10.9128    168.3857    127.9967   8.9013540044e+01   2.2585416433e+01    0.4049532    0.1852475 -44.57  0.001489698    2.112    0.527
       124 -11.3464    152.5965    127.0806   9.2397032051e+01   2.6245006524e+01    0.5885074    0.2137223 -50.14  0.001858635    2.878    0.653
       125 -11.9969     98.0991    124.9352   1.0621902650e+02   3.7799698321e+01    0.8709574    0.2685486 -54.51  0.002575636    3.503    0.714
       126 -11.2796    179.9315    123.1019   8.5380334555e+01   2.1087117805e+01    0.4702301    0.2530459 -37.01  0.001869491    1.973    0.493
       127 -11.2392    117.1640    123.3680   1.0049179385e+02   3.4544381706e+01    0.6019874    0.2509709 -50.51  0.002105416    2.386    0.581
       128 -10.4514    188.5518    122.7633   8.3560653708e+01   1.9271193481e+01    0.2945268    0.1431352 -40.31  0.001137486    2.029    0.507
       129 -10.8715     58.3384    123.0047   1.1768221719e+02   4.4446719404e+01    0.2333142    0.1177281 -79.65 0.0007051764    4.431    0.774
       130 -10.9271     42.9934    121.7491   1.2216325513e+02   4.6583546155e+01    0.2432952    0.1390464  79.28 0.0008963633    3.600    0.722
       131 -10.0684    186.3965    128.7859   8.5397050729e+01   1.8490632218e+01     0.216737    0.1402832 -35.11 0.0009422539    1.636    0.389
       132 -10.3480    195.0000    120.9982   8.1901585811e+01   1.8232845144e+01    0.2542868   0.08095252 -42.94 0.0008037603    2.952    0.661
       133 -11.0011    158.2412    119.7717   8.9284304574e+01   2.6595763336e+01    0.4410588    0.2228314 -41.57  0.001693405    1.982    0.496
       134 -10.6759    172.4850    119.5473   8.6087412342e+01   2.3476643910e+01    0.3243434    0.1479325 -43.03   0.00115484    2.131    0.531
       135 -11.7284    141.3507    116.5162   9.2475491677e+01   3.1016946713e+01    0.7968919    0.2708807 -46.83  0.002519147    2.920    0.658
       136 -11.0430    130.1498    116.7491   9.5365395460e+01   3.3369491724e+01    0.4927243    0.2056062 -48.28  0.001721093    2.389    0.581
       137 -10.6278    192.9155    113.9235   8.0649569004e+01   2.0102797092e+01    0.3238465    0.1876907 -40.57  0.001403648    1.683    0.406
       138 -10.4741    185.6244    114.7128   8.2237868663e+01   2.1551576546e+01     0.299964    0.1402063 -39.60  0.001134945    2.153    0.536
       139 -11.6904    108.4324    111.6799   9.9931075693e+01   3.8907105575e+01    0.7411275    0.2679461 -51.91  0.002399957    2.980    0.664
       140 -11.6421     91.8831    109.4398   1.0416262858e+02   4.2471885490e+01    0.8573688    0.2062728 -50.19  0.002399744    4.082    0.755
       141 -11.4410    121.9047    110.2360   9.5845690956e+01   3.6520242935e+01    0.4581357    0.2049086 -40.05  0.001649899    2.355    0.575
       142 -10.7600    174.5611    110.1950   8.3372409133e+01   2.4934744647e+01    0.3773544    0.1466392 -40.62  0.001295306    2.588    0.614
       143 -10.7353    159.2137    109.7964   8.6567931207e+01   2.8476167287e+01    0.3936892    0.1767164 -35.57  0.001362994    2.626    0.619
       144 -10.7265     13.8385    110.0039   1.2910111553e+02   5.1967912981e+01    0.2075845     0.134955  84.72  0.001092997    2.054    0.513
       145 -10.3481    182.5911    108.2510   8.1285341538e+01   2.3518122645e+01       0.2967    0.1367407 -46.46  0.001133527    2.087    0.521
       146 -10.5775    132.9844    108.7456   9.2561478960e+01   3.4499564868e+01    0.2925074    0.1964321 -58.09  0.001277251    1.655    0.396
       147 -10.1383    189.3471    106.7902   7.9638587737e+01   2.2294544706e+01    0.2163253    0.1355406 -35.13 0.0009503138    1.719    0.418
       148 -10.9852    139.3907    102.5570   8.9329261266e+01   3.4393065998e+01    0.4858216    0.1806563 -42.42  0.001635495    2.702    0.630
       149 -11.2387    149.8349    100.7939   8.6382839657e+01   3.2419036122e+01    0.6188837    0.1849044 -46.82   0.00184838    3.481    0.713
       150 -10.5132    166.6776    101.8149   8.2931281889e+01   2.8392490415e+01    0.3132839    0.1387995 -34.98  0.001092382    2.671    0.626
       151 -11.2928    128.4919     99.5892   9.1269585437e+01   3.7372937423e+01    0.4756697    0.2471815 -33.37  0.001815479    2.287    0.563
       152 -10.1650    175.5011    100.5092   8.0796421015e+01   2.6636393887e+01    0.1489334    0.1422526 -75.07 2.282972e-05    1.027    0.026
       153 -10.7989     22.5010    102.5005   1.2486538854e+02   5.3010470427e+01    0.1279062    0.1078397 -52.65 -0.0003709167    1.052    0.049
       154 -12.2320    107.8098     96.1951   9.5931779127e+01   4.2338799500e+01    0.7336109    0.2889573 -49.85  0.002564561    2.752    0.637
       155 -11.0501     94.7458     94.1448   9.9171986774e+01   4.5245877254e+01    0.5609442    0.1821852 -39.58  0.001776258    3.417    0.707
       156 -10.8768     63.4875     95.9924   1.0958237341e+02   4.9925977767e+01    0.1915877    0.1236008 -75.80 0.0008105149    2.590    0.614
       157 -10.1483    177.0000     92.0196   7.8399150061e+01   2.7901306843e+01    0.2443627   0.08207273 -40.76 0.0008029227    2.946    0.661
       158 -11.0103    138.4747     89.9738   8.6163843851e+01   3.7082302200e+01    0.4010734    0.1469953 -41.10  0.001372962    2.775    0.640
       159 -11.5152    124.5237     87.8918   8.9063650862e+01   4.0534087753e+01    0.6437993    0.2982806 -33.35  0.002375833    2.591    0.614
       160 -11.3032     78.2694    111.3843   1.0880426219e+02   4.4306168459e+01    0.5107461    0.2622415 -68.65  0.001755815    3.340    0.701
       161 -11.6408    103.9864     81.0145   9.2671717525e+01   4.6064325204e+01    0.5727908    0.2087349 -41.94  0.002063954    2.769    0.639
       162 -11.1045    140.5670     81.7158   8.3401302985e+01   3.8142314099e+01    0.2858972     0.145653 -35.20  0.001150188    2.153    0.535
       163 -10.2888    150.0000     79.0047   8.0541988166e+01   3.6476181539e+01    0.2391106   0.08312119 -39.24 0.0008054924    2.964    0.663
       164 -10.4357    119.0000     79.0007   8.7961058394e+01   4.3360788850e+01     0.240011   0.08225778 -40.44 0.0008096182    2.992    0.666
       165 -11.0344    127.7733     72.5923   8.3875646019e+01   4.2588859236e+01    0.5052601    0.1938967 -34.34   0.00179272    3.002    0.667
       166 -10.4586    147.0000     65.9810   7.7627468669e+01   3.9343922739e+01    0.2302159   0.08123096 -37.10 0.0008097915    2.994    0.666
