#   1 NUMBER                 Running object number                                     
#   2 MAG_AUTO               Kron-like elliptical aperture magnitude                    [mag]
#   3 X_IMAGE                Object position along x                                    [pixel]
#   4 Y_IMAGE                Object position along y                                    [pixel]
#   5 X_WORLD                Barycenter position along world x axis                     [deg]
#   6 Y_WORLD                Barycenter position along world y axis                     [deg]
#   7 A_WORLD                Profile RMS along major axis (world units)                 [deg]
#   8 B_WORLD                Profile RMS along minor axis (world units)                 [deg]
#   9 THETA_WORLD            Position angle (CCW/world-x)                               [deg]
#  10 FWHM_WORLD             FWHM assuming a gaussian core                              [deg]
#  11 ELONGATION             A_IMAGE/B_IMAGE                                           
#  12 ELLIPTICITY            1 - B_IMAGE/A_IMAGE                                       
         1 -13.7000     30.6136     59.9151   1.0594217075e+02   6.0809167423e+01     1.468272    0.9952394  49.85   0.00548654    2.073    0.518
         2 -11.8226     43.1838     20.5029   8.6459440407e+01   6.6926009820e+01     0.524986    0.3015626  34.05  0.001935271    1.925    0.481
         3 -12.2791    216.0869     14.7619   4.3833098863e+01   2.8917351136e+01    0.6012983     0.471838 -11.28  0.002581718    1.524    0.344
         4 -13.3530    187.4524      7.2527   4.4895471906e+01   3.6968577205e+01    0.9571522    0.5033265 -71.05  0.003965104    2.458    0.593
         5 -10.6819     65.0028     11.0102   7.3064594935e+01   6.5025146061e+01    0.1947008    0.1595294   3.26 0.0004154716    1.016    0.016
         6 -12.6020     43.1899      8.7879   8.0779592592e+01   6.8631648306e+01    0.3704793    0.3277034  31.98  0.002605821    1.530    0.346
         7 -11.8625     58.4062      8.3986   7.4263973327e+01   6.6430582085e+01     0.469593    0.3011382  31.67  0.002573567    1.483    0.326
         8  -9.9245    109.5044      8.4941   5.8551852056e+01   5.6377110998e+01    0.1361228    0.1206367  28.26 0.0008105657    1.020    0.020
         9 -11.7637     49.7632      1.8127   7.4300921137e+01   6.8558612518e+01    0.3755892    0.1722101  45.84  0.001028427    2.458    0.593
        10 -11.3554    165.9957      1.5856   4.5842532395e+01   4.3031656374e+01    0.4657944    0.1235478  69.60  0.001509933    3.435    0.709
        11 -10.4339    148.8786    221.7638   1.0550903499e+02   8.4784241809e+00    0.3301834    0.1355986 -41.30  0.001433834    3.323    0.699
        12 -11.2732    226.8059    221.3660   9.1045694587e+01  -4.5476538073e+00    0.1948614    0.1697725 -55.31  0.001287991    1.844    0.458
        13 -10.7378    233.0000    219.9608   8.9724540074e+01  -5.3562674749e+00    0.1770961   0.06558385 -33.32 0.0007995411    2.922    0.658
        14 -11.4325    239.6896    215.4440   8.7781663806e+01  -5.8586399669e+00    0.4749661    0.1453181 -40.25  0.001853166    4.271    0.766
        15  -9.8287    211.0000    217.0116   9.3130968471e+01  -1.4072463565e+00    0.1836293   0.07013807 -36.94 0.0008044265    2.956    0.662
        16 -11.3016    223.7690    213.3398   9.0202396530e+01  -3.0405046742e+00    0.3431974    0.1765216  19.98  0.001595817    2.376    0.579
        17 -10.7009    116.1312    209.4388   1.1023230665e+02   1.6056405690e+01    0.2928649    0.1422313 -66.91  0.001362198    2.603    0.616
        18 -10.4786     57.2153    205.7299   1.2131217636e+02   2.5297180483e+01    0.2379601    0.1378148  63.93  0.001419322    1.511    0.338
        19 -10.3932     48.8207    201.9600   1.2257989890e+02   2.7070940612e+01    0.2330174    0.1318302  81.12  0.001362702    1.656    0.396
        20 -10.7033     41.6869    200.9996   1.2384882154e+02   2.8094834813e+01     0.247234     0.163144 -72.06 0.0009579889    1.455    0.313
        21 -10.3386    149.3972    198.6191   1.0197871169e+02   1.2335559816e+01     0.241371    0.1229361 -65.43 0.0009552351    3.310    0.698
        22 -10.0181      2.3397    199.6907   1.3087479357e+02   3.2301375295e+01    0.1144202   0.05419083  66.64 0.0007044126    1.688    0.408
        23 -10.2153    112.3336    197.6659   1.0944538606e+02   1.8907312084e+01    0.1383293   0.09004284  70.74 0.0007052224    1.735    0.424
        24 -12.4791    160.3592    192.0031   9.8646581621e+01   1.1520981096e+01    0.6879855     0.497959  72.45  0.003149825    1.866    0.464
        25  -9.8672     66.3319    194.6772   1.1848062992e+02   2.6343474331e+01    0.1318218   0.07623551  69.26 0.0005180612    1.702    0.412
        26  -9.8755    214.7840    193.0045   8.8141879057e+01   1.3184220301e+00    0.1703788    0.1042543 -33.00 0.0006718442    1.720    0.419
        27 -10.6950     11.5960    189.3469   1.2864182648e+02   3.3524981907e+01    0.2089059   0.08365106 -84.53  0.001122791    2.101    0.524
        28 -10.4962     34.4054    187.1986   1.2414005892e+02   3.1712146224e+01    0.1713189   0.08875678 -89.86 0.0009538838    1.753    0.429
        29  -9.9743    109.6421    186.3336   1.0842025419e+02   2.1611282331e+01    0.1442515   0.09315587  71.30 0.0007041773    1.800    0.445
        30 -10.4534    183.3815    182.8463   9.2298914868e+01   8.7793588147e+00    0.3863817    0.1336025 -40.26  0.001409307    3.168    0.684
        31 -10.3976    224.3237    183.6657   8.4570390120e+01   9.8586150136e-01    0.1215953    0.1099349 -85.02 0.0006897291    1.710    0.415
        32 -10.2049    105.9973    175.6040   1.0761610101e+02   2.4450700434e+01    0.3137222    0.1675478  80.05  0.001082629    3.943    0.746
        33 -11.0743     38.3031    174.9545   1.2228215785e+02   3.3885313274e+01    0.1719272    0.1308646 -87.43 0.0008706337    1.079    0.073
        34 -11.4548     45.4696    171.6695   1.2044335576e+02   3.3803005045e+01    0.4683033    0.2240527  85.05  0.002182103    2.445    0.591
        35 -11.2407     55.4138    167.7757   1.1784854539e+02   3.3486823225e+01     0.414236    0.2251018  88.10  0.001987014    2.010    0.502
        36 -10.5285     79.2756    163.4348   1.1187203157e+02   3.1275355720e+01    0.4302429    0.1969003 -88.64  0.001258055    5.535    0.819
        37  -9.9601    138.4994    164.0153   9.8300646138e+01   2.1077899515e+01    0.2043487    0.1267063 -76.89  0.000810475    2.604    0.616
        38 -11.6283    106.6356    158.3020   1.0463733106e+02   2.8110571845e+01     0.611215    0.3589706  71.02  0.002541456    2.463    0.594
        39 -10.6181    121.0283    169.0423   1.0316998934e+02   2.3258093517e+01    0.2332634     0.165267  78.15  0.001139069    1.731    0.422
        40 -10.7980    167.6670    157.3856   9.0478860072e+01   1.6596248331e+01    0.3131083    0.2465651  87.11  0.001510661    1.755    0.430
        41 -11.0772    118.7800    156.8510   1.0150617362e+02   2.6293813830e+01    0.3843873     0.287237  52.95  0.001756645    1.311    0.237
        42 -10.7086    218.3340    156.8586   8.0081396326e+01   6.3124051417e+00    0.2896346    0.1195055 -42.51  0.001100767    2.602    0.616
        43 -10.9533     22.4025    160.0395   1.2429749978e+02   3.8731440101e+01    0.2165794     0.152789  55.17  0.001177306    1.395    0.283
        44  -9.9208     68.3454    154.6717   1.1318294358e+02   3.4787856968e+01    0.1420023   0.08979048  73.13 0.0007050373    1.751    0.429
        45  -9.9218     23.4216    153.7299   1.2349184231e+02   4.0036470471e+01    0.1634905   0.08940116 -67.48 0.0005753184    1.532    0.347
        46 -10.8724    237.4907    151.4903   7.5427172817e+01   3.4381668778e+00    0.1394274    0.1238715  -6.37 0.0003134151    1.039    0.037
        47 -10.2477    189.8279    150.7417   8.4328653414e+01   1.3231088810e+01    0.2829431    0.2000917 -66.73  0.001244535    2.121    0.528
        48 -10.6845     57.0618    147.3848   1.1487343680e+02   3.7914560174e+01    0.4276843    0.1868741  67.26  0.001475375    4.208    0.762
        49 -11.1884    107.4378    145.8503   1.0216343255e+02   3.0774016979e+01      0.48263    0.2535568  71.30  0.001499121    4.340    0.770
        50 -10.3495    148.6174    145.3603   9.2162492085e+01   2.2975531718e+01    0.3383224    0.2224978  87.08  0.001269905    2.838    0.648
        51 -10.2527     87.8146    144.5840   1.0681263072e+02   3.4304485956e+01    0.1982321    0.1217309  52.24 0.0009479864    1.694    0.410
        52  -9.9845    181.9980    142.4671   8.4079432755e+01   1.6461728686e+01    0.2086352    0.1351666  70.72 0.0008081872    2.483    0.597
        53 -10.0854     22.9699    137.9699   1.2198863468e+02   4.3637236576e+01     0.258431    0.1006426  67.35 0.0009596565    4.138    0.758
        54 -10.6846     82.8539    132.0051   1.0579056460e+02   3.8004728790e+01    0.3171407    0.1840998 -73.26  0.001411265    1.936    0.484
        55 -12.1306    100.1307    129.0260   1.0063726301e+02   3.5914907633e+01    0.7929826    0.4553758  69.29  0.002986996    2.912    0.657
        56 -10.4914     59.9894    125.5132   1.1072266934e+02   4.2689566528e+01    0.2888374    0.1504453  80.35  0.001047993    3.608    0.723
        57 -11.3195     43.8897    123.7213   1.1477686553e+02   4.4957822495e+01    0.6350883    0.2925487 -88.67  0.002374934    3.492    0.714
        58 -11.2093     27.4266    121.3936   1.1884782930e+02   4.7079572120e+01    0.6646131     0.273017  83.49  0.002119796    5.339    0.813
        59 -11.8372    193.3086    118.4033   7.5847812661e+01   1.8512845025e+01    0.6210865    0.4774968 -69.06  0.002209169    1.722    0.419
        60 -10.4007     71.0111    120.0128   1.0668469592e+02   4.2551691889e+01    0.2290845    0.1598125  77.74   0.00113938    1.764    0.433
        61 -11.2117    141.0000    118.0059   8.7526376188e+01   3.0448736773e+01    0.4567914    0.2791412 -43.11  0.001939708    1.618    0.382
        62 -10.1343      2.7314    117.4787   1.2484277957e+02   4.9797130429e+01     0.285734    0.1007665  75.78 0.0008992942    6.082    0.836
        63 -10.6932     15.0618    121.2078   1.2207224317e+02   4.8114080390e+01    0.2761651    0.2084365  16.69  0.001844126    1.813    0.448
        64 -10.6706    108.6365    112.8840   9.4664760584e+01   3.8123717345e+01    0.5746927    0.2391246 -61.09  0.001777309    3.534    0.717
        65 -10.8481     78.7674    112.5511   1.0295237230e+02   4.3206161789e+01    0.4806761    0.2639461 -84.59  0.001642362    3.737    0.732
        66 -11.0575    174.4702    111.1004   7.7903339143e+01   2.4297151666e+01    0.4188127    0.2885814 -46.37    0.0010583    1.478    0.324
        67 -12.5086    159.8571    110.6482   8.1073936335e+01   2.7786966796e+01    0.8256387    0.4616742 -57.82  0.003018947    2.403    0.584
        68 -10.3676     91.8449    111.2001   9.8925897495e+01   4.1468194831e+01     0.443587    0.1642851 -60.21  0.001429924    3.265    0.694
        69 -11.6812     15.2057    110.2449   1.2067623442e+02   5.0625376189e+01    0.6756138    0.3187257 -87.12  0.003274933    2.239    0.553
        70 -12.0458     44.6945    101.1936   1.1064536610e+02   5.0181386297e+01    0.6606774    0.3671365  89.08   0.00284393    2.765    0.638
        71 -12.0815    127.5462    100.3737   8.6280365364e+01   3.7143442738e+01    0.6205934    0.3064662 -55.61  0.002213251    2.472    0.595
        72 -12.9701    141.7330    103.7074   8.3555267400e+01   3.3345386911e+01    0.7515489    0.5879842 -55.76  0.003553448    1.353    0.261
        73 -11.9230    115.7036    102.5729   9.0072991127e+01   3.9090099203e+01     1.167243     0.321663  36.16  0.002791842    5.945    0.832
        74 -12.0199    108.4161     99.5592   9.1284716711e+01   4.1175627470e+01    0.6707101      0.46406  83.74  0.002763844    2.393    0.582
        75 -10.2873     22.6850    102.3166   1.1741471359e+02   5.1904120165e+01    0.1228254    0.0833473  77.64 0.0002894168    1.647    0.393
        76 -10.9963     82.3091    100.8815   9.9211436525e+01   4.5393882498e+01    0.2539177    0.2170855  26.00 0.0006593691    1.330    0.248
        77 -11.2768     62.7933     95.2993   1.0381496091e+02   4.9458164344e+01    0.4075027    0.2148346 -77.39  0.001533641    3.153    0.683
        78 -13.2090    170.1989     90.7864   7.3208417941e+01   2.9250895353e+01    0.4525234     0.384691  65.93  0.001028635    1.279    0.218
        79 -10.8981     34.2625     88.7002   1.1142776699e+02   5.4090824361e+01    0.4873749    0.1867308 -70.27  0.001936096    2.816    0.645
        80 -11.7765     42.5025     87.9958   1.0861491225e+02   5.3469641158e+01    0.4525151    0.2618728 -25.54  0.001572014    2.408    0.585
        81 -10.9426     45.8470     82.4413   1.0624637174e+02   5.4392923889e+01    0.6419273    0.3541788  73.74  0.002225062    4.914    0.797
        82 -11.4873     87.2166     87.3651   9.4168064907e+01   4.7673083410e+01    0.4349838    0.2773413  65.83  0.001824013    2.537    0.606
        83 -10.9025    104.5860     83.6198   8.7838101158e+01   4.5383704044e+01    0.3931424    0.2780177 -81.53  0.001530914    2.323    0.569
        84  -9.9292    141.3025     83.6613   7.7841495240e+01   3.7543701158e+01    0.1600096    0.1249219 -73.61 0.0004452635    1.670    0.401
        85 -10.8061     24.1831     80.6079   1.1310421040e+02   5.6769530366e+01     0.391907    0.1973735 -83.15  0.001750767    2.723    0.633
        86  -9.7619      2.0345     77.9406   1.1996733838e+02   5.8746498245e+01    0.1979797    0.0974697 -47.60  0.001128368    1.735    0.424
        87 -10.7877     62.4301     70.3083   9.7335991553e+01   5.5105896217e+01    0.2779296     0.110254 -46.85  0.001135612    2.142    0.533
        88 -11.1501     82.0754     72.9510   9.1536846781e+01   5.1637301360e+01    0.4147854    0.2739411 -77.07  0.001708953    2.772    0.639
        89  -9.9301    116.0025     73.0025   8.1212463457e+01   4.5264208122e+01    0.3031462    0.1925831 -81.18 0.0009582773    4.127    0.758
        90 -11.4460    223.1623     70.8240   5.7924833429e+01   1.9644103688e+01    0.3083456    0.2722493 -63.49  0.000691657    1.158    0.137
        91 -10.6372     51.8847     70.8520   1.0117831716e+02   5.6302756510e+01    0.2422536      0.18487 -61.95 0.0009203288    1.306    0.235
        92 -11.4730      8.4340     56.7660   1.1365232159e+02   6.3037115807e+01    0.4997237    0.3354085  73.60  0.002969186    2.214    0.548
        93 -11.6290    221.2574    248.7118   9.6340996089e+01  -6.8675281057e+00    0.4835927     0.172403  45.38  0.002246132    2.761    0.638
        94 -12.2750    238.2797     64.4811   5.4158909194e+01   1.7048099894e+01    0.5023713    0.2487667  83.74  0.001725847    3.755    0.734
        95 -11.0113     74.4325     58.9800   8.9537210545e+01   5.5708742447e+01    0.3869768    0.3183791 -55.31   0.00200768    1.353    0.261
        96 -11.0619    102.3596     62.1839   8.1578267266e+01   5.0138059241e+01    0.3605406    0.2037512  60.34  0.001406892    2.689    0.628
        97 -11.4508     19.1959     59.5508   1.1019603680e+02   6.1773775801e+01    0.3411453    0.2238043 -43.94  0.001263302    1.247    0.198
        98 -11.0386     39.4832     52.9202   1.0045799269e+02   6.1437227178e+01    0.3179213    0.2574405 -18.21  0.001290193    1.223    0.182
        99 -12.2151    149.1161     52.2635   6.5843422881e+01   4.1252981054e+01    0.3602076     0.298099  48.30 0.0003899801    1.187    0.158
       100 -10.0375     87.2767     53.0028   8.3072592057e+01   5.4690042158e+01     0.206786    0.1683248 -29.51 0.0005203036    1.121    0.108
       101 -10.7872    157.0875     44.9736   6.1704990871e+01   4.0342114810e+01    0.2930179    0.2066301  52.89 0.0004155859    1.371    0.271
       102 -11.9134     71.3045     42.4747   8.4593678402e+01   5.9282492523e+01     0.582332    0.3278361  53.60  0.002583775    2.729    0.634
       103 -11.4592      7.7408     43.3447   1.1059959543e+02   6.5871468236e+01    0.4675719    0.2432682  37.11  0.002660382    2.655    0.623
       104 -12.2704     40.8069     38.2132   9.4850051812e+01   6.4167117121e+01     0.499146    0.3101911  -3.03  0.001906697    1.972    0.493
       105 -12.1889    120.3300     34.5355   6.6324164023e+01   5.0827044813e+01    0.2962559    0.2753899  46.82   0.00168855    1.126    0.112
       106 -10.7207    106.5293     29.9441   6.8192395710e+01   5.4550325799e+01     0.466901    0.3225684  83.89  0.002053429    2.581    0.613
       107 -10.4914    101.9576     29.4518   6.9286538495e+01   5.5597069740e+01    0.4374787    0.2130147 -40.28  0.001856885    2.241    0.554
       108 -10.1974     73.3103     32.2988   7.9731955723e+01   6.0645790026e+01    0.2507464    0.1718662  64.55  0.001187907    2.638    0.621
       109 -10.1451      2.9903    248.7967   1.3287907569e+02   2.3448576882e+01    0.1224717   0.08627608 -77.77 0.0008867066    1.607    0.378
       110  -9.7767     46.5442     16.5088   8.3134057735e+01   6.7094188100e+01    0.1918552     0.141671   5.03 0.0009420009    1.247    0.198
       111 -10.9770    239.7621     20.6627   4.3025058182e+01   2.2531174112e+01    0.2561682    0.2106948 -86.43 0.0006178948    1.161    0.139
       112  -9.8379     32.6779    242.2970   1.2810896235e+02   2.1477701675e+01    0.1105227   0.05305802  64.78 0.0005251418    1.621    0.383
       113  -9.5913     74.1580     19.6046   7.3843364111e+01   6.2342479709e+01    0.1846158    0.1086794  31.23 0.0009378607    1.685    0.407
       114  -9.8158     88.7937     18.2000   6.8406893236e+01   5.9759756333e+01    0.2091655    0.1451036 -65.54 0.0009502308    2.806    0.644
       115 -10.5138    222.2115     15.9944   4.3535822955e+01   2.7269817073e+01    0.2488165    0.1880522  78.26  0.001193297    1.272    0.214
       116 -10.3229    179.9900     12.9820   4.7547636695e+01   3.8329360905e+01    0.1696689    0.1547711  75.52 0.0003445031    1.019    0.019
       117 -11.5836     22.3902    239.1948   1.2956027866e+02   2.3117488994e+01    0.2609194    0.1221433 -77.13  0.001733388    1.964    0.491
       118 -10.2682      7.9995    240.5004   1.3182090757e+02   2.4349509209e+01    0.1010489   0.08804608   1.87 0.0005796265    2.451    0.592
       119  -9.6782      2.6710    240.3160   1.3260869983e+02   2.4891864882e+01    0.1071209    0.0460139  65.07 0.0005929802    1.678    0.404
       120 -10.7691     12.7931    227.5448   1.3050656396e+02   2.6135605655e+01    0.1985347    0.1117428  74.90 0.0005957106    1.315    0.239
       121 -10.0465    104.4673    225.4716   1.1436142206e+02   1.5002190586e+01    0.2199303    0.1154934 -63.94  0.001205427    2.160    0.537
       122 -10.8792     95.6580    224.6920   1.1591469104e+02   1.6455674247e+01    0.2556323    0.1388215  68.50  0.001347392    2.067    0.516
