#   1 NUMBER                 Running object number                                     
#   2 MAG_AUTO               Kron-like elliptical aperture magnitude                    [mag]
#   3 X_IMAGE                Object position along x                                    [pixel]
#   4 Y_IMAGE                Object position along y                                    [pixel]
#   5 X_WORLD                Barycenter position along world x axis                     [deg]
#   6 Y_WORLD                Barycenter position along world y axis                     [deg]
#   7 A_WORLD                Profile RMS along major axis (world units)                 [deg]
#   8 B_WORLD                Profile RMS along minor axis (world units)                 [deg]
#   9 THETA_WORLD            Position angle (CCW/world-x)                               [deg]
#  10 FWHM_WORLD             FWHM assuming a gaussian core                              [deg]
#  11 ELONGATION             A_IMAGE/B_IMAGE                                           
#  12 ELLIPTICITY            1 - B_IMAGE/A_IMAGE                                       
         1 -15.2632      4.3164    119.0202   1.2993216991e+02   4.9332437002e+01     7.578895    0.6762168 -77.17   0.01802003   10.766    0.907
         2 -13.5609    204.6184     29.8765   5.8443221414e+01   3.0116288976e+01     1.336382      1.28027  18.64  0.006026275    1.060    0.057
         3 -13.5338    221.0728     12.6260   5.1374666254e+01   2.7720126540e+01    0.9966477    0.8791615  33.49  0.002346939    1.218    0.179
         4 -11.8316     79.4979    166.8679   1.1796793351e+02   3.1870865067e+01    0.3877655    0.3725967 -63.13  0.002879805    1.362    0.266
         5 -13.2897    244.5103    247.3472   9.9518883180e+01  -4.4808193379e+00    0.9286664    0.3929736  38.50  0.005866675    1.678    0.404
         6 -13.8788    126.6818    249.4829   1.1782123046e+02   1.2246933351e+01     1.325901    0.2395609  42.60  0.005378086    3.983    0.749
         7 -13.4840      9.9437    207.3666   1.3372771287e+02   3.2276595995e+01    0.7327091     0.498275  51.46  0.003756834    1.325    0.246
         8 -13.0317     39.8799    210.8032   1.2900770655e+02   2.8791617400e+01    0.5226836    0.3440436  72.74  0.002497508    1.158    0.137
         9 -15.1643      9.8435    242.4978   1.3497976989e+02   2.6862415519e+01     2.499036     1.166749  50.07   0.01865749    1.488    0.328
        10 -14.8141     27.4263    223.9014   1.3167536156e+02   2.7976176841e+01    0.8850968    0.7469132  63.19  0.008281954    1.386    0.279
        11 -13.9734    173.8417    249.4459   1.1046759011e+02   5.5046247771e+00     1.303081    0.3282183  41.49    0.0060109    2.905    0.656
        12 -12.8422    104.8864    230.1945   1.1962573482e+02   1.7815828692e+01    0.8342721   0.07345763  44.53  0.002703482    5.951    0.832
        13 -13.5885     98.0629    247.5728   1.2211196353e+02   1.6334149089e+01    0.7305329    0.3257026  43.28   0.00475119    1.693    0.409
        14  -8.8956    152.6028    213.1664   1.0973289852e+02   1.3131576156e+01    0.1245774    0.1092514 -21.29  0.000278012    1.515    0.340
        15 -11.8858     52.8267    195.8821   1.2580412941e+02   2.9886665909e+01    0.2284052    0.1834715  53.71 0.0005364313    1.260    0.206
        16 -11.9888     60.1556    187.5905   1.2381457163e+02   3.0492954140e+01    0.2107532    0.1762556  81.08  0.000442178    1.155    0.134
        17 -10.6053     27.9787    186.0389   1.2961282409e+02   3.4258127747e+01    0.1812173   0.08604563  65.74  0.001142312    1.769    0.435
        18 -10.7340     71.7886    174.9718   1.2040693792e+02   3.1358368151e+01    0.1915256    0.1573166  69.23 0.0003313279    1.044    0.042
        19 -13.0576     57.6712    172.9823   1.2301354667e+02   3.3470075167e+01     0.404254    0.2336564 -51.00  0.001488971    2.319    0.569
        20 -13.4504      9.7951    158.0681   1.3137607608e+02   4.1091029774e+01     0.975144    0.3446604  78.79   0.00479211    2.985    0.665
        21 -12.4774    217.5614    248.7329   1.0369183432e+02  -7.9254986807e-01     0.409211    0.1676578  42.51   0.00245723    1.783    0.439
        22 -10.2733     93.6582    151.1377   1.1291577040e+02   3.2916576510e+01    0.2411143    0.2151372 -85.76 0.0007788534    1.098    0.090
        23 -11.8875     82.1130    149.7841   1.1527436526e+02   3.4855677828e+01    0.2502549    0.2088066 -63.05 0.0005374314    1.279    0.218
        24  -9.1961     97.2737    147.0394   1.1150789783e+02   3.3182176693e+01    0.1712626    0.1487015  87.89 0.0003360655    1.072    0.067
        25 -11.6009     68.3892    143.2025   1.1748231160e+02   3.8031129686e+01    0.4743941    0.3140167  78.23  0.001876711    1.528    0.346
        26 -10.6860     64.6855    141.6763   1.1813067304e+02   3.8813287113e+01    0.2549777    0.1916611 -61.46 0.0008578188    1.361    0.265
        27  -9.6967    107.1396    136.4302   1.0753556366e+02   3.3737540033e+01    0.2928596    0.2216641  -5.60   0.00149565    2.261    0.558
        28 -10.3641     93.8522    133.7509   1.1017536900e+02   3.6402912880e+01    0.1991012    0.1806746 -77.66 0.0004037574    1.087    0.080
        29  -8.8468    105.0043    123.2637   1.0562322764e+02   3.6783377772e+01    0.1705101    0.1568152  64.34 0.0002758645    1.063    0.060
        30  -9.3057    160.5220     78.4814   8.1296243187e+01   3.4234451173e+01     0.149149    0.1480248 -20.44 9.464876e-05    1.039    0.037
        31 -10.0757     87.6548    165.7882   1.1615260100e+02   3.0947744002e+01    0.2436582    0.1649414  60.74  0.000818935    1.335    0.251
        32 -12.4151    199.2655    247.9699   1.0637618130e+02   1.9317323806e+00    0.3678893    0.2236145  44.35  0.002639663    1.293    0.227
        33 -12.0441    186.1103    247.5471   1.0835321103e+02   3.9034973287e+00    0.3507456    0.1813904  29.52  0.002177048    1.904    0.475
