#   1 NUMBER                 Running object number                                     
#   2 MAG_AUTO               Kron-like elliptical aperture magnitude                    [mag]
#   3 X_IMAGE                Object position along x                                    [pixel]
#   4 Y_IMAGE                Object position along y                                    [pixel]
#   5 X_WORLD                Barycenter position along world x axis                     [deg]
#   6 Y_WORLD                Barycenter position along world y axis                     [deg]
#   7 A_WORLD                Profile RMS along major axis (world units)                 [deg]
#   8 B_WORLD                Profile RMS along minor axis (world units)                 [deg]
#   9 THETA_WORLD            Position angle (CCW/world-x)                               [deg]
#  10 FWHM_WORLD             FWHM assuming a gaussian core                              [deg]
#  11 ELONGATION             A_IMAGE/B_IMAGE                                           
#  12 ELLIPTICITY            1 - B_IMAGE/A_IMAGE                                       
         1 -14.9364      7.0849    135.4319   1.4218957504e+02   4.6407983980e+01     7.417971     1.747661 -76.81   0.02310427    5.147    0.806
         2 -13.2405    199.3092     28.4987   6.5710444053e+01   3.2035485270e+01     1.300476      1.24992  70.25   0.00685004    1.217    0.178
         3 -13.3174    214.8884     10.7567   5.9806460861e+01   3.0334288586e+01    0.9664123    0.8561001  47.66   0.00491564    1.449    0.310
         4 -11.4205      3.0935      8.9926   1.1543764318e+02   7.1493805409e+01    0.4056485    0.1374897 -37.78  0.002259381    2.220    0.550
         5 -11.4033    100.0757    245.3871   1.3400421775e+02   1.0635074033e+01    0.2949067    0.2031285  70.54  0.001404121    1.388    0.280
         6 -12.7768    246.3325    248.3228   1.0580082216e+02  -1.4022530590e+01      1.32957    0.4708502  37.05  0.006195362    2.492    0.599
         7 -10.3331     65.5939    249.4149   1.4089758013e+02   1.5047827643e+01     0.238316    0.1794066  70.23 0.0006465018    1.036    0.035
         8 -10.9573     45.9595    248.6248   1.4433355481e+02   1.7826186751e+01    0.3287568    0.2041532  81.54  0.001955684    1.373    0.272
         9 -11.3637     49.1703    244.9924   1.4349464443e+02   1.8109150803e+01    0.3293328    0.2883211  41.90    0.0024012    1.538    0.350
        10 -10.5519     29.0574    249.1461   1.4725831151e+02   1.9795518101e+01     0.280264    0.2141372  85.50  0.001665431    1.190    0.160
        11 -12.0732     35.7468    243.7469   1.4576360175e+02   2.0030544622e+01    0.5858614    0.4129539 -59.84  0.003104846    1.847    0.459
        12 -11.9479      4.6782    248.3241   1.5116496203e+02   2.2617478647e+01      1.04354    0.2878127  42.25  0.005513541    2.860    0.650
        13 -11.5829      6.0796    241.3983   1.5059099199e+02   2.3775759705e+01    0.5201331    0.2154998  65.79  0.002436729    1.977    0.494
        14 -10.9965     17.5198    241.0240   1.4869169336e+02   2.2646141877e+01    0.2398181    0.1068792  56.60  0.001226079    1.771    0.435
        15 -11.8300     13.8486    239.7161   1.4922691654e+02   2.3291842624e+01    0.3046577    0.2375592 -67.64  0.001722131    1.626    0.385
        16  -9.9775    183.0469    238.5201   1.1635027853e+02  -2.4622380279e+00    0.2087428    0.1128892  38.66 0.0005405159    1.564    0.361
        17 -11.3896     51.7475    236.2475   1.4232833721e+02   1.9489584580e+01    0.4899543    0.2360845  65.49  0.002091733    1.962    0.490
        18 -12.6697    162.5101    248.7521   1.2203207405e+02  -5.3680967590e-01    0.6974816    0.6419899 -60.04  0.004655634    1.338    0.253
        19 -10.8827    233.5946    236.7130   1.0615465837e+02  -1.0600812938e+01    0.2274792    0.1948771 -61.09  0.001098802    1.924    0.480
        20 -13.9464     95.4985    227.8891   1.3292459708e+02   1.4794010540e+01     5.543819    0.4088144  46.86   0.01091226   10.666    0.906
        21  -9.7406    228.1457    227.3185   1.0552500303e+02  -8.3931803771e+00    0.2431934    0.1488094 -58.34  0.001075428    3.330    0.700
        22  -9.3057    183.0167    222.5028   1.1370082408e+02   2.3172362356e-01    0.2059822    0.1090394  57.52 0.0008099113    2.748    0.636
        23  -9.9874    138.6720    249.6605   1.2690748791e+02   3.4308100283e+00    0.1925067    0.1196354  31.91 0.0003697564    1.648    0.393
        24 -12.3566      9.8739    206.9736   1.4788327592e+02   3.0298436374e+01    0.6279386    0.4308968  36.21  0.002919984    1.755    0.430
        25 -12.7526     29.7537    231.2048   1.4594254055e+02   2.3208270635e+01    0.3132483    0.2403328 -79.86 0.0007527451    1.309    0.236
        26 -10.8397      4.2659    228.6204   1.5020328832e+02   2.6429931463e+01    0.2313632    0.1780862  54.81  0.001557157    1.370    0.270
        27 -11.5459     57.6475    197.9321   1.3745089079e+02   2.6868214918e+01     0.340358    0.2407206 -75.03 0.0005968665    1.286    0.223
        28  -9.7486    192.0218    193.0686   1.0636861978e+02   3.8891207661e+00    0.4492658    0.2419995 -62.13   0.00158971    3.462    0.711
        29 -13.8323     35.0286    224.6356   1.4449541844e+02   2.3928752207e+01    0.8254027    0.5835243  67.88  0.002398047    1.124    0.110
        30 -10.5387      8.8561    193.4338   1.4711837986e+02   3.3279633871e+01    0.2299299    0.1620611  67.04  0.000511337    1.239    0.193
        31 -11.8250     64.2509    189.4585   1.3498941593e+02   2.7908271690e+01    0.2790867    0.2479887 -67.15 0.0004499361    1.238    0.192
        32 -13.1189     44.9054    213.5124   1.4166580278e+02   2.5072564300e+01     1.244443     1.117665  82.75  0.008822461    1.248    0.199
        33 -13.0771     61.5020    174.5796   1.3369673087e+02   3.1758729585e+01    0.5427141    0.2800976 -46.62  0.002427445    2.351    0.575
        34 -10.5805     75.0197    176.6376   1.3073966864e+02   2.9373971220e+01    0.2427506    0.2192781  86.55  0.000364321    1.047    0.045
        35  -9.7735     94.7030    171.6868   1.2513058718e+02   2.7453989364e+01    0.3406885    0.2088921  50.29 0.0005587733    1.617    0.382
        36 -11.7013     82.7873    167.5172   1.2741770362e+02   3.0375193071e+01    0.6935995    0.6249499 -52.17  0.004013649    1.217    0.178
        37 -12.0357      9.8992    231.1671   1.4939680676e+02   2.5367352563e+01    0.5600044    0.2033635  88.95  0.002732369    2.713    0.631
        38 -10.0960     96.0524    152.1344   1.2125100105e+02   3.1925533881e+01    0.3187549    0.2977073 -47.06 0.0008473304    1.144    0.126
        39 -11.8825     84.4445    150.8918   1.2410402309e+02   3.4132281750e+01    0.3065833     0.260323 -46.34 0.0007851939    1.240    0.194
        40  -8.8418     99.0450    147.7260   1.1958355011e+02   3.2472781522e+01    0.1974922    0.1913591  57.12   0.00034402    1.080    0.074
        41 -11.9458     67.9890    142.9949   1.2711268262e+02   3.8473443192e+01    0.6149447    0.4427327 -85.92  0.002012262    1.513    0.339
        42 -10.8650     64.6891    141.6685   1.2777980164e+02   3.9240052943e+01    0.3610838    0.2263521 -49.17 0.0009092884    1.553    0.356
        43  -9.4397    108.5078    136.8327   1.1470788610e+02   3.3372020991e+01    0.4257911    0.2733141 -18.11  0.001582815    2.813    0.644
        44 -10.2860     95.3901    134.2646   1.1777575227e+02   3.6343106880e+01    0.2602215    0.2413548 -24.17  0.000458084    1.184    0.155
        45 -10.9696     26.1260    128.6163   1.3627923436e+02   4.6531349497e+01    0.2820038    0.2178485  58.48 0.0007486167    1.462    0.316
        46  -9.1733     74.4824    128.0384   1.2241285834e+02   4.1153586717e+01    0.2607237    0.1877358  57.62 0.0007768062    1.602    0.376
        47  -9.1144    105.9728    123.6879   1.1238173069e+02   3.6944240663e+01    0.1991871    0.1882525  47.26 0.0003079712    1.083    0.076
        48  -9.5038     78.8271    122.4732   1.1996062457e+02   4.1830092660e+01    0.2630641    0.2099819  81.10  0.001209702    1.509    0.337
        49  -9.8295     65.9404    121.3749   1.2353664592e+02   4.3926007285e+01    0.2511139    0.2031422  70.48 0.0005046452    1.446    0.308
        50  -9.8631    167.6823    112.7374   9.3547209848e+01   2.5907807148e+01    0.2937654    0.2578665 -89.51 0.0006948878    1.254    0.203
        51  -8.9413     47.1909     99.6965   1.2469976447e+02   5.1168459314e+01    0.1929503    0.1556488  56.83   0.00113626    1.539    0.350
        52 -11.3567    242.7418     94.5905   7.5105256686e+01   1.1774387906e+01    0.3846607    0.2531033  53.73  0.001940103    1.644    0.392
        53  -8.8661     64.7104     80.9033   1.1412911761e+02   5.3086713562e+01    0.1801229    0.1622731 -36.67 0.0005314709    1.082    0.076
        54  -9.0573    158.5278     77.4762   8.6062022416e+01   3.4968676469e+01    0.1532993    0.1459246  56.69 4.268765e-05    1.013    0.013
        55  -8.3859     59.2944     76.6949   1.1481302239e+02   5.4654025753e+01    0.2029727    0.1189836  41.84 0.0006675611    2.018    0.504
        56  -9.1636     55.8117     74.7644   1.1548934206e+02   5.5478055335e+01    0.1821119    0.1734424  54.78 0.0004008371    1.338    0.252
        57 -12.5032      4.7169     50.4206   1.2825520351e+02   6.4591467303e+01    0.5396525    0.4683585  65.10  0.002775079    1.759    0.432
        58 -10.4109     81.3348    249.0663   1.3796259858e+02   1.2837765182e+01    0.2049126    0.1540392  45.13  0.001316285    1.312    0.238
        59 -10.4666     22.7115    245.5394   1.4809538422e+02   2.1207750661e+01    0.1709139    0.1496582  63.77 0.0007136663    1.427    0.299
        60 -11.0558      3.2843     38.1258   1.2547728859e+02   6.6880317355e+01    0.2600013    0.1517642 -52.69  0.001712439    1.486    0.327
