#   1 NUMBER                 Running object number                                     
#   2 MAG_AUTO               Kron-like elliptical aperture magnitude                    [mag]
#   3 X_IMAGE                Object position along x                                    [pixel]
#   4 Y_IMAGE                Object position along y                                    [pixel]
#   5 X_WORLD                Barycenter position along world x axis                     [deg]
#   6 Y_WORLD                Barycenter position along world y axis                     [deg]
#   7 A_WORLD                Profile RMS along major axis (world units)                 [deg]
#   8 B_WORLD                Profile RMS along minor axis (world units)                 [deg]
#   9 THETA_WORLD            Position angle (CCW/world-x)                               [deg]
#  10 FWHM_WORLD             FWHM assuming a gaussian core                              [deg]
#  11 ELONGATION             A_IMAGE/B_IMAGE                                           
#  12 ELLIPTICITY            1 - B_IMAGE/A_IMAGE                                       
         1 -14.1608    167.5549     44.4096   7.3041410202e+01   3.7758018380e+01     1.196641     1.078363   2.03  0.003965839    1.356    0.262
         2 -14.3156    183.0969     11.8515   6.2291108629e+01   3.7907042171e+01     1.653206     1.149714  75.62  0.007566445    1.221    0.181
         3 -10.9614    167.7655    245.2733   1.1816417082e+02  -1.3932987488e+00    0.2696106    0.1781361 -28.58  0.001088587    1.973    0.493
         4 -13.1471    189.1475    248.8662   1.1450829872e+02  -5.5396479104e+00    0.8197234    0.3597268  37.74  0.003841321    1.969    0.492
         5 -11.6253    176.1379    248.9466   1.1706340381e+02  -3.4047082642e+00     0.304051    0.2268164 -27.76 0.0008173069    1.590    0.371
         6  -9.9557    133.5185    248.8933   1.2548526912e+02   3.7830714738e+00     0.183934    0.1625407 -76.47  0.000423919    1.279    0.218
         7 -10.8626    138.7872    250.0276   1.2459383883e+02   2.6981176259e+00    0.8079011    0.3211558 -42.79  0.003297155    3.557    0.719
         8 -10.3120    134.7637    243.5712   1.2452875247e+02   4.5362879836e+00    0.5058712    0.3140281 -26.96  0.002300414    2.980    0.664
         9 -10.7888    138.5352    243.0055   1.2369348900e+02   3.9976788623e+00    0.3670119    0.2587294 -68.11  0.002033298    1.717    0.418
        10 -15.2452    100.9272    242.6858   1.3116022625e+02   1.0296832335e+01     1.433937    0.9366941 -47.69  0.005199612    1.987    0.497
        11 -19.9030     61.4098    171.3247   1.3056497982e+02   3.2135763039e+01     19.65762     4.459039 -64.48   0.05926954    4.197    0.762
        12 -10.8010    150.6391    182.5075   1.1107532879e+02   1.4066121766e+01    0.3395487    0.2685472 -87.06 0.0006182264    1.547    0.353
        13 -10.8287    155.0644    187.2538   1.1098604549e+02   1.2153128671e+01    0.3525997    0.2861487  81.68 0.0006898031    1.474    0.322
        14 -10.6916    151.7849    195.9620   1.1335402559e+02   1.0925129965e+01    0.3595993    0.2353445  34.68 0.0008408534    1.564    0.361
        15 -11.0148    153.1202    191.9319   1.1230991787e+02   1.1527089495e+01    0.3617924    0.2703393  85.11  0.001357102    1.791    0.442
        16 -11.0295    149.6605    187.9331   1.1233953874e+02   1.3068654092e+01    0.3736771    0.2694888  42.07  0.001811609    1.341    0.254
        17 -10.7702    159.0238    194.8269   1.1153425119e+02   9.7638669637e+00    0.2569966    0.2167322 -47.21 0.0008247471    1.243    0.196
        18 -10.4372    180.6525    193.4315   1.0656090333e+02   5.8453912758e+00    0.2635222    0.2150638  65.74 0.0009698549    1.447    0.309
        19  99.0000     12.3439    190.9089   1.4372745461e+02   3.3101503531e+01    0.4093001    0.1360593 -70.28  0.001896928    2.350    0.575
        20 -10.0322    176.0079    186.8156   1.0626119222e+02   8.0964021312e+00    0.2163355    0.1697806 -72.69  0.001052871    1.609    0.378
        21 -10.7099    164.4960    187.0002   1.0882499159e+02   1.0340191164e+01     0.288363    0.2049469  58.65  0.001349657    1.567    0.362
        22 -10.4813    168.0032    240.3183   1.1736232571e+02  -5.9396401254e-01    0.1879516    0.1524005  38.83 0.0003948828    1.072    0.067
        23 -10.2268    133.1638    183.0968   1.1523995403e+02   1.7355298264e+01    0.3898527    0.2322802 -83.76  0.001384876    3.081    0.675
        24 -10.5366     29.5662    183.4985   1.3941476548e+02   3.3066006889e+01    0.2625206    0.1559158  55.73  0.001470171    1.662    0.398
        25 -10.1354    185.1681    169.8813   1.0079965066e+02   9.7595428577e+00    0.4059031    0.2599666 -59.34  0.001746398    1.888    0.470
        26 -10.2255    189.5799    178.8028   1.0173182474e+02   7.0350090412e+00    0.4240063    0.2988663  76.48  0.001825047    2.258    0.557
        27 -10.1582    188.5325    175.4832   1.0126381623e+02   7.9199001551e+00    0.3182901    0.2546991 -55.88 0.0008187735    1.351    0.260
        28  -9.9911    136.8159    180.1958   1.1383683719e+02   1.7308088577e+01    0.2041481    0.1836112  -2.06  0.000774078    1.340    0.254
        29 -10.2768     13.6702    239.7731   1.4699212522e+02   2.2623683364e+01   0.08843003     0.080971 -85.11 0.0006418233    1.518    0.341
        30  -9.4440      3.7056    180.2820   1.4460637552e+02   3.6250893272e+01    0.1496226    0.1134535  80.53 0.0007216757    1.119    0.106
        31  -9.7189    169.9437    178.4674   1.0591197562e+02   1.1060148876e+01    0.2377239    0.1452576  44.60  0.001033793    1.609    0.378
        32  -9.6329    109.0161    245.8364   1.2993836756e+02   8.3928334521e+00    0.2713389    0.1500919 -46.55  0.001186296    2.399    0.583
        33 -10.8079    204.5604    175.0942   9.7870400116e+01   4.8115498852e+00     0.392999    0.3141103 -48.85  0.001818214    1.293    0.226
        34 -10.6701     21.8323    236.0937   1.4535663799e+02   2.2464776893e+01    0.1394764   0.06851179 -76.62 0.0007203718    1.760    0.432
        35 -10.6101    196.5930    175.3456   9.9549073937e+01   6.3339667272e+00    0.3559482    0.2663676  49.25  0.001771772    1.400    0.286
        36  -9.8220     10.8141    174.6806   1.4261412653e+02   3.6911097192e+01    0.1512514    0.1226969 -78.27 0.0003254241    1.128    0.113
        37  -9.4272    160.3662    241.7922   1.1912217262e+02   4.6569127577e-01    0.2249709    0.1282451 -53.20   0.00112446    2.090    0.522
        38 -10.4902    230.6023    167.9977   9.1373617399e+01   1.1967448332e+00    0.3964017    0.1070099 -49.74 0.0009489988    6.483    0.846
        39 -11.8734    140.5691    228.5984   1.2120556075e+02   6.3495636643e+00    0.7587246    0.3862987  44.51  0.001263538    1.738    0.425
        40 -11.0937    192.2597    164.0346   9.8042270370e+01   9.5096516758e+00    0.5253099    0.3223809 -58.59  0.001035509    1.999    0.500
        41 -11.2170     22.2825    221.4009   1.4422694564e+02   2.5445410702e+01    0.1702475    0.1129823 -75.11 0.0004340826    1.356    0.263
        42  -9.8908     14.7913    163.9400   1.4066986881e+02   3.9038236257e+01    0.2640156    0.1915174  14.35  0.001643993    1.980    0.495
        43 -11.2672    186.0059    220.8311   1.1049676083e+02  -3.3579144296e-01     0.236994    0.2022942 -36.48    0.0013938    1.259    0.205
        44 -11.3522    189.2074    155.2433   9.6752514346e+01   1.1974175771e+01    0.4946274     0.462184  28.61  0.001766771    1.105    0.095
        45 -13.1550    133.9594    146.0826   1.0745297070e+02   2.5802018705e+01     1.580159    0.4309264 -55.71  0.003671042    5.584    0.821
        46 -10.2799    165.8178    153.9767   1.0160508673e+02   1.7254821967e+01     0.384241     0.263394  76.57  0.001550614    2.163    0.538
        47  -9.6853    152.4205    151.1967   1.0409979940e+02   2.0746926152e+01    0.2204064    0.1482397 -60.56 0.0005133835    1.644    0.392
        48  -9.6601    174.6478    148.9606   9.8485618526e+01   1.6444111508e+01    0.2815075    0.2394287 -80.80 0.0006980734    1.349    0.259
        49 -11.9301    143.8749    145.5022   1.0486899834e+02   2.3865118054e+01    0.6686995    0.3956813 -72.55  0.002339505    2.797    0.642
        50 -12.5485    142.0636    139.6940   1.0397251841e+02   2.5584676644e+01    0.6855296    0.4223579  52.33  0.002859186    1.708    0.415
        51 -12.7555    135.5681    127.3421   1.0264143197e+02   2.9791970323e+01     1.575691    0.3304847 -50.89  0.003492599    5.916    0.831
        52  -9.2884    218.3663    220.1590   1.0395336867e+02  -5.7867914492e+00     0.175509    0.1199456 -47.79 0.0004390388    1.732    0.423
        53  -9.5998    119.2310    212.9386   1.2341180062e+02   1.3312246922e+01    0.1987066    0.1860633 -15.44 0.0007700223    1.347    0.258
        54  -8.6749    166.6602    133.2877   9.6610275556e+01   2.1621885271e+01    0.1606146    0.1247151  88.64 0.0006576834    1.639    0.390
        55 -10.6294    160.3226    127.5431   9.6670999100e+01   2.4299116200e+01    0.4709371    0.2790075 -59.04  0.001242526    1.998    0.499
        56 -12.0055    114.0919    118.3181   1.0605879339e+02   3.6258896180e+01    0.5407389     0.277398 -50.46  0.002139195    1.914    0.477
        57 -10.3760     24.4566    211.9821   1.4308226120e+02   2.7221623790e+01    0.1672135   0.07451688 -54.87 0.0006334954    2.662    0.624
        58 -11.3233    134.7285    112.0325   9.8980658551e+01   3.3377836714e+01    0.5287138    0.1491509 -45.18  0.001517721    3.509    0.715
        59  -9.6630    167.9291    112.8454   9.1267877912e+01   2.5688196492e+01    0.3610319    0.2419417  87.85  0.001393141    2.362    0.577
        60 -10.8938    126.0294    112.3067   1.0131259716e+02   3.5176314401e+01    0.2248173    0.2054537  50.87  0.001164585    1.113    0.102
        61  -9.2084    151.2026    241.1885   1.2088079944e+02   2.1510412631e+00    0.1737189    0.1409041  61.09  0.000593767    1.263    0.208
        62 -12.3711    116.3799    109.5320   1.0318102183e+02   3.7770762532e+01    0.5222132    0.3741647  38.13  0.002208298    1.453    0.312
        63  -9.9091    205.3262    110.2579   8.3082869064e+01   1.7554358329e+01    0.3045699    0.2088988  48.67  0.001061672    1.543    0.352
        64 -11.9221     18.3190    108.8132   1.3231891219e+02   5.1533104739e+01    0.4000579    0.2325999   0.75  0.002139736    2.441    0.590
        65 -10.3417      6.4086    102.0648   1.3477308365e+02   5.3845864389e+01    0.2089238    0.1466096 -27.49 0.0009887263    1.576    0.365
        66 -11.5175     11.6241    205.7869   1.4504940531e+02   2.9893485748e+01    0.2363228    0.2161652  34.29  0.001781763    1.563    0.360
        67 -10.0708    140.2583    201.0621   1.1683786830e+02   1.2030895040e+01    0.2724064    0.2506145 -50.06  0.001541276    1.171    0.146
        68  -9.5984    146.4567     81.5352   8.7766177886e+01   3.6870223830e+01    0.1486528    0.1449249  66.26 0.0001365356    1.003    0.003
        69 -11.3391    183.0919    201.1422   1.0752083594e+02   3.8620457305e+00     0.295987    0.2068788  32.95  0.001473621    1.410    0.291
        70  -9.5976    135.0873    198.1354   1.1749406571e+02   1.3634656227e+01    0.2105502    0.2007734  -3.60 0.0005020213    1.215    0.177
        71 -10.7877    121.1667    197.4010   1.2052978741e+02   1.6365626373e+01    0.2474582    0.2347016 -75.40 0.0002680207    1.103    0.093
        72 -13.4731    155.5201     58.9461   7.9365918798e+01   3.8545998311e+01     1.193808    0.9977431  60.57  0.001050761    1.126    0.112
        73 -12.3974    172.0166     36.6673   7.0209279671e+01   3.7702919579e+01    0.4238657    0.3850904  47.88 0.0009271487    1.192    0.161
        74  -9.0299    159.9755    247.9865   1.2011264956e+02  -5.2861836920e-01    0.1546479     0.131336  39.93 0.0003296274    1.003    0.003
        75  -9.9970     13.5165     59.9702   1.2355696190e+02   6.2107468285e+01    0.1694958    0.1580609  21.75 0.0003998476    1.392    0.282
        76  -9.9620    169.5813    195.3129   1.0930795699e+02   7.6122926096e+00    0.2559188    0.1430942 -52.60 0.0008520575    1.965    0.491
