#   1 NUMBER                 Running object number                                     
#   2 MAG_AUTO               Kron-like elliptical aperture magnitude                    [mag]
#   3 X_IMAGE                Object position along x                                    [pixel]
#   4 Y_IMAGE                Object position along y                                    [pixel]
#   5 X_WORLD                Barycenter position along world x axis                     [deg]
#   6 Y_WORLD                Barycenter position along world y axis                     [deg]
#   7 A_WORLD                Profile RMS along major axis (world units)                 [deg]
#   8 B_WORLD                Profile RMS along minor axis (world units)                 [deg]
#   9 THETA_WORLD            Position angle (CCW/world-x)                               [deg]
#  10 FWHM_WORLD             FWHM assuming a gaussian core                              [deg]
#  11 ELONGATION             A_IMAGE/B_IMAGE                                           
#  12 ELLIPTICITY            1 - B_IMAGE/A_IMAGE                                       
         1  -8.5005    241.4832    107.5081   5.8982774170e+01   1.0138725568e+01    0.1411314     0.125141 -37.27 0.0002287738    1.011    0.011
         2  -9.5536    248.5323    223.5161   8.1656578287e+01  -8.7593101096e+00    0.3088831    0.1904918   7.86  0.001241041    1.574    0.364
         3 -10.5935    248.3865    214.0612   8.0016000705e+01  -7.5393628310e+00    0.7690193    0.2956389 -24.42  0.003265657    3.137    0.681
         4 -11.5644    231.8659    244.5202   8.8030632668e+01  -8.9732062130e+00     1.553508    0.6324819  21.57  0.006593846    3.315    0.698
         5  -9.2552    237.1871    234.0316   8.5403432251e+01  -8.4588609536e+00    0.2629026    0.1913135  26.22   0.00176544    1.202    0.168
         6  -9.4559    248.9048    231.5902   8.2972912344e+01  -9.7921804305e+00    0.3825253    0.1662119 -26.69  0.001984932    2.349    0.574
         7 -10.0842    242.3637    237.4624   8.5070747620e+01  -9.5933103521e+00    0.6732062    0.3301402  -4.69  0.002929946    3.261    0.693
         8  -9.6928    245.6015    229.1180   8.3120329657e+01  -9.0391834906e+00     0.277106    0.1894106  -4.13  0.001005122    1.311    0.237
         9  -9.5920    241.4062    228.7582   8.3784648377e+01  -8.4062069886e+00    0.4336486     0.222571 -10.02  0.002123935    2.573    0.611
        10  -9.1914    233.2280    250.5470   8.8734770880e+01  -9.8605241167e+00    0.3710967    0.1267318  33.99  0.001781954    2.440    0.590
        11  -9.3563    238.0677    245.4735   8.7104250998e+01  -9.9398632981e+00    0.4719253    0.1890602 -23.33  0.002218651    3.174    0.685
        12  -9.7671    248.2186    238.4498   8.4231233697e+01  -1.0503285680e+01    0.4264879      0.23853  12.49  0.002487102    1.765    0.433
        13 -10.1955    248.8961    243.9820   8.5016662900e+01  -1.1221414425e+01    0.4061933    0.3022612  24.50  0.002926943    1.244    0.196
        14 -10.3351    246.9761    250.0502   8.6306813193e+01  -1.1639817959e+01    0.8283823    0.1770476  36.87   0.00327701    3.970    0.748
        15  -9.8413    242.9928    245.5383   8.6268937527e+01  -1.0612690901e+01    0.3569644     0.215981  -5.07  0.001445487    1.659    0.397
        16  -8.8528    202.6733    250.2442   9.4114544559e+01  -5.4595699396e+00    0.2533931    0.1303656  29.21  0.001395598    1.663    0.399
        17  -8.1500    184.8754    250.6898   9.7441351991e+01  -2.8324361937e+00    0.2493175    0.0878131  34.04  0.001085634    2.514    0.602
        18 -10.8332     97.7406    245.8239   1.1329153554e+02   1.1335618057e+01    0.6563984    0.2663498  61.92  0.002647206    3.603    0.722
        19 -10.9109     89.8200    242.7262   1.1448413530e+02   1.3021383286e+01    0.6891556    0.2397999  56.52  0.002786994    3.324    0.699
        20 -11.5222     81.7547    244.7045   1.1616708618e+02   1.3807775293e+01    0.7300348    0.4146358  35.27  0.004229038    1.778    0.437
        21 -10.8569     72.0309    249.3179   1.1832270563e+02   1.4319221174e+01    0.7779896     0.201778  43.88  0.003460347    2.754    0.637
        22 -10.5723     62.6164    248.6669   1.1995520488e+02   1.5668551684e+01    0.3618982    0.3264562 -81.61  0.002680565    1.417    0.294
        23  -9.3958     48.4156    250.0354   1.2253388781e+02   1.7202718690e+01    0.3182489    0.1479377  35.59  0.001797487    2.205    0.546
        24  -7.6560    167.3438    249.3394   1.0052657107e+02   6.8320119959e-02    0.1231198   0.08452403  12.00 0.0007048587    1.777    0.437
        25  -8.4377    128.8332    248.6216   1.0771935006e+02   6.1895178709e+00    0.1856328   0.08739801  47.51 0.0009496601    1.758    0.431
        26  -8.0709     31.3160    248.3444   1.2534191156e+02   1.9498403983e+01   0.08962926   0.08072264 -61.39 0.0007048215    1.716    0.417
        27  -9.3861    218.9221    244.8289   9.0368395194e+01  -7.1680344560e+00    0.2809785     0.183303   7.35 0.0008782658    1.533    0.348
        28  -8.4939    211.7695    245.5655   9.1767532288e+01  -6.2138367290e+00    0.2461741    0.1367303  20.20  0.001354841    1.797    0.444
        29  -8.7392     41.9303    245.0024   1.2333905048e+02   1.8877910723e+01     0.231696    0.1395997 -72.06  0.001147807    1.741    0.426
        30  -8.5297    198.2851    244.7564   9.4108046922e+01  -4.0869879298e+00     0.245135    0.1482099   8.18   0.00122045    2.107    0.525
        31  -9.5631    110.7975    243.9184   1.1062967424e+02   9.7251252261e+00    0.2562684    0.1440633  86.31  0.001229809    2.930    0.659
        32  -9.3770    115.8304    243.0993   1.0957972810e+02   9.0996216825e+00     0.195013    0.1399112  62.80 0.0007640622    1.334    0.250
        33 -11.5934     70.9061    239.3804   1.1772542856e+02   1.6250007986e+01     0.571691     0.433431  61.20  0.003984453    1.018    0.017
        34 -11.0048     79.7262    235.9240   1.1576630655e+02   1.5679354314e+01      0.60062    0.2431839  46.95  0.003013366    1.965    0.491
        35 -10.3335    225.3712    240.7964   8.8585567798e+01  -7.6027977498e+00    0.2920904    0.1821627  -5.73  0.001733627    1.751    0.429
        36 -10.5559    104.5411    240.6912   1.1148671552e+02   1.1224101519e+01    0.3605106    0.2009153  85.88  0.001757783    2.773    0.639
        37  -7.4690    210.3143    241.3278   9.1380890218e+01  -5.4557804370e+00    0.1241104   0.07929619   9.14 0.0004028819    1.672    0.402
        38  -9.6914     50.7582    239.5813   1.2142478484e+02   1.8805334533e+01    0.2874978    0.2074023 -76.92  0.001458287    1.448    0.310
        39 -10.8279     89.7300    249.5821   1.1512790798e+02   1.1838698412e+01    0.9011379    0.1942762  38.99  0.003373554    3.757    0.734
        40  -8.0933    177.5047    242.9903   9.7736379607e+01  -6.1505775580e-01    0.1565399   0.09923737 -10.93 0.0008084311    2.393    0.582
        41 -11.2810     93.7497    236.0071   1.1308506358e+02   1.3659291249e+01    0.5400785    0.2698753  49.03  0.002553694    1.635    0.389
        42 -11.1151     87.6511    230.1016   1.1368078134e+02   1.5639842569e+01    0.4072407    0.3746697 -87.25  0.002555504    1.258    0.205
        43 -10.8645     94.9058    227.3800   1.1196653390e+02   1.5088061679e+01    0.4041947    0.2268463  52.31  0.002211069    1.524    0.344
        44  -8.8181     41.8271    236.8667   1.2284141965e+02   2.0385040605e+01     0.213648    0.1272098 -77.67  0.001388901    1.629    0.386
        45 -10.1471    228.8126    234.8482   8.7014305751e+01  -7.3603268526e+00    0.5633712    0.1949917  31.19  0.002442914    2.786    0.641
        46 -11.4922     59.0705    231.3705   1.1928635579e+02   1.9302961913e+01    0.5134681    0.4503267  81.16  0.003106187    1.232    0.188
        47  -9.8488    103.1937    234.2393   1.1106503464e+02   1.2575615412e+01    0.2297843    0.1631838  89.53  0.001398189    1.585    0.369
        48  -8.7136    110.9805    233.1710   1.0941649535e+02   1.1578654096e+01    0.2192469    0.1143172  58.34  0.001083927    1.998    0.500
        49  -7.9773    124.4738    231.9891   1.0660257849e+02   9.6699222385e+00    0.1607369    0.1024727  82.55 0.0006826369    2.315    0.568
        50  -8.4587    118.5077    232.5070   1.0785019276e+02   1.0523435873e+01    0.1270472    0.1039673  52.20 0.0008105731    1.013    0.012
        51  -8.1334    225.0921    229.9538   8.6873145732e+01  -6.1871621437e+00    0.1992124    0.1233268   8.59 0.0008233215    1.710    0.415
        52  -8.5132    215.7018    229.9809   8.8585231295e+01  -4.7722515409e+00    0.2611493    0.1302904  17.58 0.0008667573    2.673    0.626
        53  -9.2168    104.1392    229.2191   1.1032824996e+02   1.3350439542e+01    0.2369506    0.1436615  78.40  0.001221446    2.122    0.529
        54 -12.0879     71.3404    222.9916   1.1620321704e+02   1.9303205052e+01    0.6820362    0.5209251  50.69  0.003716463    1.174    0.148
        55 -10.2710     80.3768    228.2720   1.1492622063e+02   1.7025928769e+01    0.3636002    0.2141086 -83.49  0.002042586    1.876    0.467
        56 -11.3932     83.1439    222.5475   1.1381265242e+02   1.7737970002e+01    0.5926985    0.2209605  44.18  0.002718701    2.200    0.546
        57  -9.2785     45.6527    229.4882   1.2164515999e+02   2.1329576526e+01    0.2265516    0.2037955  49.74  0.001713149    1.400    0.286
        58  -9.8069    235.5690    227.2375   8.4548868908e+01  -7.3784800313e+00    0.3725425    0.2169064 -12.86  0.002080429    1.872    0.466
        59  -8.0641     37.3297    229.3371   1.2316059679e+02   2.2335809204e+01   0.09799991   0.08547336 -51.31 0.0005904656    1.732    0.423
        60  -8.8306    229.7681    226.2422   8.5410733366e+01  -6.3984000025e+00    0.2308926    0.1489684 -17.57 0.0008030564    1.560    0.359
        61  -8.2736    240.6046    224.2598   8.3155961619e+01  -7.7275930908e+00    0.1599085    0.0989133 -17.31 0.0005178023    1.582    0.368
        62  -9.9332    240.3918    218.5653   8.2202572468e+01  -6.9635057191e+00    0.4025106    0.1973217 -24.80  0.002069298    2.119    0.528
        63  -9.8724     50.5049    222.4710   1.2021047911e+02   2.2109742098e+01     0.303075    0.2227824 -69.73   0.00183281    1.474    0.322
        64  -9.0925    100.5071    221.5515   1.1019248680e+02   1.5353062600e+01    0.2087923    0.1178108 -79.84 0.0009860249    2.277    0.561
        65 -10.0867     60.3162    220.5721   1.1815432846e+02   2.1248081426e+01    0.2926891    0.2700796  50.25  0.001542247    1.348    0.258
        66  -9.0224     42.4431    220.7425   1.2161659733e+02   2.3423092131e+01    0.2588133   0.09709992 -71.38  0.001282231    2.516    0.602
        67  -9.7037     94.0387    221.0446   1.1145304156e+02   1.6431780750e+01    0.2124874    0.1280205  65.19 0.0009538941    1.700    0.412
        68  -9.3577    232.4198    218.8746   8.3668341981e+01  -5.8200798501e+00    0.3358142    0.1402041 -23.50  0.001416052    3.154    0.683
        69  -9.8560    232.5593    212.6849   8.2549126599e+01  -5.0000908788e+00    0.3633368     0.159647 -38.43  0.001741444    2.416    0.586
        70  -8.8816    226.6080    218.1208   8.4583843208e+01  -4.8332685605e+00    0.3771018    0.1942968 -11.03    0.0016385    3.007    0.667
        71  -8.1992     30.4287    216.7679   1.2361010435e+02   2.5581349520e+01    0.1453351   0.09143881 -70.18 0.0004350179    1.599    0.375
        72 -10.1555     92.0775    215.3420   1.1121726925e+02   1.7849259065e+01     0.251058    0.1832711  56.58  0.001507238    1.172    0.147
        73 -11.1305     85.2654    214.5636   1.1254061258e+02   1.9014577876e+01    0.3435346    0.2995244  75.18  0.001650289    1.087    0.080
        74 -10.7919     54.1912    212.3934   1.1866098777e+02   2.3685145569e+01    0.3479749    0.3256802 -67.26  0.002396307    1.415    0.294
        75 -11.3512     65.1017    211.2429   1.1634828873e+02   2.2511520834e+01    0.4047597    0.3612573  67.30  0.002004759    1.177    0.150
        76 -10.3742    240.5173    203.4343   7.9448990188e+01  -4.9389220803e+00    0.2546426    0.1875708 -16.50 0.0008188298    1.232    0.188
        77 -10.0346     98.4798    210.5673   1.0931487557e+02   1.7831588549e+01     0.381471    0.1833464  52.50  0.001776766    1.960    0.490
        78 -11.6729     78.8162    207.5982   1.1312695103e+02   2.1373571645e+01    0.4321533    0.3562957  65.70  0.002202701    1.018    0.017
        79  -9.5296    235.5618    206.7169   8.0931929241e+01  -4.6338228527e+00    0.3013395     0.110057 -30.77  0.001256669    2.910    0.656
        80  -9.7996     48.2027    206.1803   1.1933375792e+02   2.5714415372e+01    0.2256907    0.2042532 -73.92  0.001524091    1.349    0.259
        81  -9.6810    247.1836    205.3766   7.8646115555e+01  -6.2130802298e+00    0.2647562    0.1625406  -4.01  0.001188577    1.744    0.427
        82 -10.8293     89.2624    204.1508   1.1050599950e+02   2.0559558156e+01    0.3336834    0.2519705  59.26  0.001433885    1.162    0.140
        83 -11.0181     58.6916    201.8055   1.1676706813e+02   2.5332723420e+01    0.4156998    0.2554338  27.95  0.002251714    2.047    0.512
        84 -10.5057    239.9130    210.8174   8.0906184697e+01  -5.8620904745e+00    0.4816876    0.2168815 -19.35  0.002054793    3.016    0.668
        85 -11.2180     71.7259    199.3136   1.1373195764e+02   2.4125151016e+01    0.3713243    0.2493565 -58.32  0.002113189    1.624    0.384
        86  -7.9948     43.2930    201.3378   1.1992405264e+02   2.7322627285e+01    0.1102796    0.0885409 -51.67 0.0003510438    1.646    0.393
        87  -9.6002    249.9507    198.9271   7.6970872202e+01  -5.7467205593e+00    0.3085102    0.1650691 -27.24  0.001638119    1.750    0.429
        88 -10.8719     82.8288    199.1843   1.1130657441e+02   2.2567479862e+01    0.3510389    0.2444318  47.43   0.00200111    1.303    0.233
        89  -8.4626     49.9960    197.9815   1.1823395254e+02   2.7243062745e+01    0.2119889    0.1199112  67.62  0.001139215    1.683    0.406
        90  -9.7864     92.2533    195.9676   1.0883072324e+02   2.1838619105e+01    0.2571293    0.2331484  28.91  0.001592933    1.320    0.242
        91  -9.0598    243.3925    187.2662   7.5869080807e+01  -3.0715177386e+00    0.2156148    0.1129717 -42.89  0.001037396    2.156    0.536
        92 -10.8290    247.0400    190.7919   7.5921611925e+01  -4.1589637409e+00    0.4201063    0.2552361 -20.64  0.002116596    1.573    0.364
        93  -9.8816    249.8213    184.6923   7.4260027245e+01  -3.7139837920e+00    0.4240555    0.1663538 -34.87  0.001503621    2.362    0.577
        94  -7.8517    117.4970    193.4961   1.0283645801e+02   1.8255700688e+01    0.1398923     0.123287  61.85 0.0008103703    1.039    0.037
        95 -10.0539     85.1960    192.9129   1.1001339029e+02   2.3572151819e+01    0.2284581    0.2026506  33.02  0.001250381    1.320    0.242
        96  -9.9289     76.8240    193.0355   1.1189614549e+02   2.4770279573e+01    0.2533059    0.1434048  54.60  0.001160199    1.656    0.396
        97  -8.2394    178.0094    190.9724   8.9171263428e+01   7.7804259627e+00    0.2045434    0.1575139   4.00  0.000333804    1.505    0.335
        98 -11.1887     67.2840    190.3626   1.1370702188e+02   2.6688856693e+01    0.3277661    0.3011697  86.18  0.002161614    1.163    0.140
        99  -7.7998     50.3138    191.6615   1.1756754419e+02   2.8582887473e+01    0.1359089   0.07799342  69.02 0.0007046914    1.696    0.410
       100 -10.2432     79.4723    189.0018   1.1080918766e+02   2.5277523179e+01    0.2742748    0.1592301  53.98  0.001379609    1.625    0.384
       101  -8.4706     81.4933    184.4941   1.0976997166e+02   2.5987377072e+01    0.1351987    0.1181255  75.54  0.000810624    1.006    0.006
       102  -9.7036     68.9745    182.2960   1.1237651810e+02   2.8267668350e+01    0.1875574    0.1598373  65.56 0.0006179828    1.077    0.071
       103  -9.1314     56.0379    181.9455   1.1529429545e+02   3.0047987459e+01      0.19438    0.1517856 -41.63  0.001138992    1.720    0.419
       104 -10.0742    243.8374    180.6866   7.4495511153e+01  -2.1654821773e+00    0.2664173    0.1806903   7.36  0.001135518    1.571    0.363
       105  -9.8896     76.0548    178.7008   1.1027363620e+02   2.8093353446e+01    0.3698786    0.1108025  48.25   0.00128515    3.384    0.705
       106  -8.7577     79.0034    172.2481   1.0869046249e+02   2.9153612725e+01    0.1791171    0.1121044  39.42 0.0008914836    1.605    0.377
       107  -9.7748     64.0393    169.9853   1.1199541103e+02   3.1772918034e+01    0.2445142    0.1694679 -83.37  0.001132277    1.365    0.267
       108  -9.7253    246.0954    167.0576   7.1347249213e+01  -4.5804318622e-01    0.2477946    0.1680788 -34.81  0.001363471    1.380    0.275
       109  -7.8651    237.3227    168.3285   7.3124972603e+01   8.4358179772e-01    0.1413913    0.0960433   1.26 -9.186538e-05    1.693    0.409
       110  -9.6756     70.0062    167.2850   1.1018554681e+02   3.1598331408e+01    0.1907954    0.1687839  74.00  0.001071293    1.054    0.052
       111  -9.0028     54.6116    166.7753   1.1386730283e+02   3.3732755275e+01    0.1943302     0.111772 -82.79 0.0009556347    1.720    0.419
       112  -8.9010    248.0268    161.5175   6.9873409619e+01   7.7566268064e-02    0.1867857    0.1285063  39.99 0.0007820933    1.568    0.362
       113  -9.1806    250.6707    156.1955   6.8321015954e+01   4.5955645584e-01    0.2689422    0.1030277 -41.74  0.001077809    2.560    0.609
       114  -9.3399    246.2002    156.5311   6.9131759117e+01   1.1778668023e+00    0.2586215    0.1603531  -2.01  0.001192884    2.182    0.542
       115  -8.5505    238.4953    157.0104   7.0543218477e+01   2.4615015313e+00    0.1969071    0.1098699 -13.86 0.0007929673    2.481    0.597
       116  -7.9305     49.3374    151.3263   1.1321145233e+02   3.8044389606e+01    0.1326222   0.09481522 -40.91 0.0007051596    1.724    0.420
       117 -10.8533    247.0000    143.9458   6.6303639811e+01   3.0577034712e+00    0.4310684    0.2447469 -42.34  0.002090154    1.699    0.411
       118  -8.3522    234.4051    144.8138   6.8605980657e+01   5.2378970781e+00    0.2063803    0.1222389 -24.73 0.0006351215    1.737    0.424
       119 -10.1545    247.8323    128.2516   6.2720576357e+01   5.4660301243e+00    0.4063156    0.2675928 -23.01  0.002068118    1.511    0.338
       120  -8.8200    232.5850    129.7227   6.5528822754e+01   8.1628638763e+00     0.284781    0.1290797 -32.99   0.00114335    2.110    0.526
       121  -9.8113    239.0896    121.3296   6.2539293203e+01   8.3029326671e+00    0.4333376    0.2792466 -18.35  0.002047886    1.783    0.439
       122  -8.1404     72.6835    120.3300   1.0151716039e+02   4.2602893301e+01    0.1473619    0.1073797  78.55 0.0004589095    1.682    0.406
       123  -9.4654    247.2365    117.1543   6.0321966975e+01   7.4030629764e+00    0.3062399    0.2022377 -15.50  0.001486862    1.789    0.441
       124  -8.7072    230.9902    112.4899   6.1790547338e+01   1.1454360945e+01    0.3491668     0.174314 -31.25  0.001448789    1.977    0.494
       125  -8.2566    220.3165    113.3560   6.3783690391e+01   1.3564694324e+01    0.1518051     0.113505   3.26 0.0004770781    1.747    0.428
