#   1 NUMBER                 Running object number                                     
#   2 MAG_AUTO               Kron-like elliptical aperture magnitude                    [mag]
#   3 X_IMAGE                Object position along x                                    [pixel]
#   4 Y_IMAGE                Object position along y                                    [pixel]
#   5 X_WORLD                Barycenter position along world x axis                     [deg]
#   6 Y_WORLD                Barycenter position along world y axis                     [deg]
#   7 A_WORLD                Profile RMS along major axis (world units)                 [deg]
#   8 B_WORLD                Profile RMS along minor axis (world units)                 [deg]
#   9 THETA_WORLD            Position angle (CCW/world-x)                               [deg]
#  10 FWHM_WORLD             FWHM assuming a gaussian core                              [deg]
#  11 ELONGATION             A_IMAGE/B_IMAGE                                           
#  12 ELLIPTICITY            1 - B_IMAGE/A_IMAGE                                       
         1 -14.7905    165.0258     40.8747   7.8025080475e+01   3.8928170347e+01      1.31586      1.06022  -5.52  0.004066191    1.424    0.298
         2 -14.6356    180.9193      7.9385   6.5450346012e+01   3.8636617706e+01     1.509606    0.8770289  61.46  0.006229784    1.558    0.358
         3 -11.7634    133.7910    247.5080   1.2986590430e+02   7.5738803283e+00    0.1578305    0.1456965  70.80 0.0002739405    1.224    0.183
         4 -20.1293     69.1384    176.4802   1.3430125947e+02   3.0440087532e+01     16.72164     6.194245 -67.16   0.07149837    2.648    0.622
         5 -10.5469    104.6949    201.7681   1.2994507587e+02   1.9973388445e+01    0.1748472    0.1619723  69.23  0.001168484    1.140    0.123
         6 -10.8310    139.1328    200.7814   1.2279586912e+02   1.4391947287e+01    0.2288655    0.1735055 -82.27 0.0007624167    1.639    0.390
         7 -11.8365    161.3461    197.5696   1.1780723037e+02   1.0988522259e+01     0.273598    0.2261449  75.49   0.00159698    1.452    0.311
         8 -10.8931    113.0027    195.9290   1.2746101185e+02   1.9761712654e+01    0.4807791    0.3198868  -0.71  0.001899773    4.163    0.760
         9 -12.7893    180.3713    192.9974   1.1324751537e+02   8.2671871332e+00    0.3602483    0.2791128 -74.45  0.001942742    1.903    0.475
        10 -13.0016    174.8805    193.2372   1.1437281905e+02   9.2430597771e+00     0.515296    0.3683861 -78.81  0.002017075    2.355    0.575
        11 -13.5261    175.4283    186.1538   1.1300003974e+02   1.0348171681e+01    0.6473847    0.3851826 -61.04  0.002607651    2.536    0.606
        12 -13.4311    167.0019    188.0383   1.1503782143e+02   1.1606489001e+01    0.4893015     0.434622   5.30  0.002149777    1.231    0.187
        13 -12.0628    163.4639    188.4682   1.1583259043e+02   1.2192909889e+01      0.30398    0.2328456  48.36 0.0009548573    1.212    0.175
        14 -11.4420    169.8271    195.1880   1.1571376672e+02   9.8452944987e+00    0.1993302    0.1724733  57.46  0.001197475    1.208    0.172
        15 -10.5714    150.7019    245.9769   1.2669044504e+02   5.1521468011e+00      0.14576    0.1336066  50.33 0.0004841495    1.175    0.149
        16 -11.6680     13.8685    239.8620   1.4959394018e+02   2.4569632484e+01    0.2708229    0.1038307 -85.93  0.001612335    2.357    0.576
        17 -13.4944    207.3493    178.2146   1.0526932506e+02   5.6167211016e+00    0.6613367    0.4770291 -24.96  0.003609739    1.446    0.308
        18 -12.2467    203.6606    172.1827   1.0476625824e+02   7.2921130254e+00    0.5281694    0.3646458 -25.60  0.002741295    1.540    0.351
        19 -11.5296    153.8292    185.3000   1.1726453907e+02   1.4568363351e+01    0.2275721     0.192446 -69.10  0.001115644    1.364    0.267
        20 -11.8846     11.0185    240.9971   1.5008710451e+02   2.4660889762e+01    0.2641374    0.1373154  65.17   0.00152123    1.377    0.274
        21 -10.4966    131.7915    235.8305   1.2889084248e+02   9.6724183479e+00    0.1535707    0.1168026  66.60 0.0002689793    1.324    0.244
        22 -11.3919    170.5026    185.0643   1.1379573531e+02   1.1470125431e+01    0.2755432    0.2519624  76.62  0.000845373    1.254    0.202
        23 -13.3173    195.7172    170.0527   1.0587064562e+02   9.1929803754e+00    0.6104005    0.4356329 -45.78  0.001890221    1.556    0.357
        24 -11.7971    193.8129    164.9835   1.0520746207e+02   1.0439016472e+01    0.3196909    0.3056274  27.08 0.0009042449    1.073    0.068
        25 -11.3558     10.3677    174.8579   1.4657336432e+02   3.7307743605e+01    0.1749341    0.1398233  75.86 0.0004693512    1.124    0.110
        26 -13.3143    138.4134    171.3070   1.1808627425e+02   2.0163201106e+01    0.7321036    0.5395883  74.60  0.003703015    1.650    0.394
        27 -12.6006    143.9905    168.6992   1.1638249065e+02   1.9625706107e+01    0.6084341    0.3782853  87.25  0.002280584    3.315    0.698
        28 -12.0499    125.8138    171.8095   1.2096461242e+02   2.2387972866e+01    0.3052176    0.2403214 -64.93 0.0009683351    1.337    0.252
        29  -9.6481    135.1906    234.6226   1.2812356939e+02   9.3216264177e+00    0.1611926    0.1210567  47.76  0.000374634    1.070    0.065
        30 -11.7348    177.3119    169.5057   1.0944940732e+02   1.2928040108e+01    0.2441282    0.1303452 -42.00  0.001072355    1.991    0.498
        31 -10.1958    219.1477    224.1511   1.1137111292e+02  -2.9548146115e+00    0.1480384    0.1327812  35.47 0.0003369562    1.308    0.235
        32 -11.4456    201.5197    166.0106   1.0391639709e+02   8.7342305751e+00    0.3168204    0.1984423 -57.27  0.001323476    2.327    0.570
        33 -11.5346     14.2443    221.8171   1.4866335771e+02   2.7726707755e+01    0.1872516    0.1233035 -65.59 0.0006078161    1.799    0.444
        34 -10.8048    139.2675    249.9075   1.2916866926e+02   6.3760754387e+00    0.2579561    0.1433284  51.73  0.001526172    1.532    0.347
        35 -10.9747     14.9551    163.9922   1.4481374671e+02   3.9208794831e+01    0.2414207    0.1792453  20.03  0.001327011    1.931    0.482
        36 -10.1207      2.6237    164.5695   1.4744176352e+02   4.0109115415e+01    0.1100067   0.08144235 -87.52 0.0002330053    1.074    0.069
        37 -10.7872    222.5608    161.8018   9.9108390006e+01   5.3234712639e+00     0.243352    0.1967549 -56.30 0.0008146509    1.618    0.382
        38 -11.1729    130.0381    161.0832   1.1808398205e+02   2.3838658271e+01    0.2166632    0.1980824  68.67 0.0004989728    1.050    0.048
        39 -12.5602    163.0772    155.1400   1.0951620988e+02   1.8513313953e+01    0.3638321    0.3205509 -61.35  0.001259306    1.239    0.193
        40 -13.9326    133.7841    145.5553   1.1413518971e+02   2.6408374462e+01     1.335984    0.3845201 -54.94  0.003647459    4.750    0.789
        41 -12.2853    128.3042    142.9526   1.1489387246e+02   2.8041971494e+01    0.3652521    0.2100372  43.00 0.0008803871    1.724    0.420
        42 -11.4121    174.4332    148.9256   1.0574563021e+02   1.7351238679e+01    0.2856662    0.2527409  67.76 0.0008533603    1.251    0.201
        43 -13.2157    143.9785    145.3701   1.1171580462e+02   2.4404260141e+01    0.5585788    0.3638358 -66.36  0.002441891    1.966    0.491
        44 -11.1044      1.6520    214.1944   1.5039593494e+02   3.0322149261e+01    0.1562217    0.1029114 -74.77  0.001180913    1.523    0.344
        45 -12.5371    134.8902    112.0505   1.0606340743e+02   3.3371827179e+01    0.7004653     0.151662 -45.46  0.001799525    4.575    0.781
        46 -14.5514    135.7017    127.3884   1.0963932383e+02   2.9920830754e+01     1.487598    0.5059261 -47.23  0.004885151    2.944    0.660
        47 -12.5638    116.1838    211.9421   1.2893755205e+02   1.6228921032e+01    0.3092878    0.2625335  87.43  0.001460639    1.210    0.174
        48 -10.6853    125.0462    245.7728   1.3122441174e+02   9.1802000947e+00    0.3660997    0.1354328 -55.98  0.001786172    3.355    0.702
        49 -11.0400      6.0445    136.9955   1.4451276174e+02   4.5826330027e+01    0.1977072     0.172008 -15.51 0.0009477895    1.663    0.399
        50 -12.3426    160.5406    128.0334   1.0397007060e+02   2.4465209194e+01    0.4261657    0.3301683 -52.87  0.001906876    1.355    0.262
        51 -12.4937    110.5084    212.0032   1.3006253899e+02   1.7126048251e+01    0.5985752    0.3111641  70.80  0.002587782    2.985    0.665
        52 -12.4501    108.4579    207.5322   1.2991458090e+02   1.8280556933e+01    0.2780427    0.2000665  33.17 0.0006381816    1.538    0.350
        53 -10.7460    167.6223    112.6339   9.8537836413e+01   2.5938933145e+01    0.3202107    0.2296214 -81.09  0.001336084    2.097    0.523
        54 -12.0045    163.7800    203.0906   1.1822455299e+02   9.6095868096e+00    0.2856758    0.2355811  61.67 0.0003843733    1.301    0.231
        55 -10.7102    205.4603    110.1953   9.0298281767e+01   1.7633502293e+01    0.2671809    0.2117079  48.36 0.0006739576    1.297    0.229
        56 -11.9999    157.7116    202.0440   1.1925838739e+02   1.0874387208e+01    0.4867554    0.3095961  68.65  0.002161764    2.304    0.566
        57 -10.7855      6.9075    101.9474   1.4045627771e+02   5.3616510734e+01    0.1744559    0.1617651 -70.45 0.0006866896    1.212    0.175
        58 -11.2253    154.6642    196.2215   1.1893123448e+02   1.2438256055e+01    0.3887092    0.2584414  83.65  0.001769299    2.623    0.619
        59 -11.1046    169.0022    202.5066   1.1710296104e+02   8.7688598186e+00    0.1976303    0.1153544  42.99 0.0003754947    1.498    0.332
        60 -10.4190    144.7994     80.3896   9.4741309074e+01   3.7521651233e+01    0.2154183     0.141948  40.93 0.0005056697    1.584    0.369
        61 -14.4873    153.5272     55.8164   8.5073513893e+01   3.9649832101e+01      1.24068     1.092724  49.68 0.0009950267    1.115    0.103
        62 -10.5420    159.9761    248.5533   1.2536440340e+02   3.3294140193e+00    0.1533215    0.1495076  38.04 0.0005077946    1.254    0.203
        63 -12.8830    169.1421     32.9373   7.4798546616e+01   3.8908482485e+01    0.4104133     0.353418 -17.43 0.0008662774    1.255    0.203
        64 -10.5994     13.5474     59.9362   1.3083014280e+02   6.2428630643e+01     0.164763    0.1390292 -47.92 0.0004136073    1.091    0.083
        65 -10.5854    141.1595     32.8312   7.9954741701e+01   4.6022639600e+01    0.2086506     0.192405 -80.89 0.0004112199    1.194    0.163
