#   1 NUMBER                 Running object number                                     
#   2 MAG_AUTO               Kron-like elliptical aperture magnitude                    [mag]
#   3 X_IMAGE                Object position along x                                    [pixel]
#   4 Y_IMAGE                Object position along y                                    [pixel]
#   5 X_WORLD                Barycenter position along world x axis                     [deg]
#   6 Y_WORLD                Barycenter position along world y axis                     [deg]
#   7 A_WORLD                Profile RMS along major axis (world units)                 [deg]
#   8 B_WORLD                Profile RMS along minor axis (world units)                 [deg]
#   9 THETA_WORLD            Position angle (CCW/world-x)                               [deg]
#  10 FWHM_WORLD             FWHM assuming a gaussian core                              [deg]
#  11 ELONGATION             A_IMAGE/B_IMAGE                                           
#  12 ELLIPTICITY            1 - B_IMAGE/A_IMAGE                                       
         1 -14.0531    180.8418     44.6126   5.5135877003e+01   3.4433005599e+01     1.214849    0.9524593  20.30  0.004124973    1.584    0.369
         2 -13.4160    201.3332     18.1679   4.4652930013e+01   3.2547466646e+01    0.7866499    0.4981714  86.18  0.003644442    1.595    0.373
         3 -13.8697    203.7949     12.3257   4.2801225303e+01   3.2575592293e+01    0.9515758    0.6496586 -89.16  0.005035291    1.422    0.297
         4 -12.8599    150.1398    192.8992   9.8582236695e+01   1.2884996977e+01    0.4627356     0.271435 -52.26  0.002048867    1.909    0.476
         5 -12.7660    249.5058    248.0399   8.8960495075e+01  -1.1351196830e+01    0.6871313    0.3006433  34.82  0.003934333    1.866    0.464
         6 -18.1417     47.9819    232.6226   1.2350226066e+02   2.0979353894e+01     6.843843     5.565663  65.65   0.04421608    1.185    0.156
         7 -12.1485     70.3644    190.4406   1.1544790489e+02   2.6503326639e+01    0.3707207    0.3337135 -63.63  0.001434079    1.342    0.255
         8  -9.5067      2.4729    192.4783   1.2926338436e+02   3.3599255451e+01    0.1063842   0.08242238 -84.37 0.0007991971    1.249    0.200
         9 -13.1758     75.8983    245.5891   1.1956996464e+02   1.5086589144e+01    0.3086098    0.1933864 -72.65  0.001276418    1.733    0.423
        10 -11.6257    149.3529    177.0817   9.5984757556e+01   1.6119555508e+01    0.2608264    0.1950401  50.42 0.0003662501    1.277    0.217
        11 -11.4514    186.8581    175.0602   8.7595985546e+01   9.1986891241e+00    0.3303482    0.3193088  40.06 0.0009753035    1.116    0.104
        12 -11.6448     68.7635    172.8335   1.1371639857e+02   3.0606714426e+01    0.4337894    0.1776697  54.43  0.001727023    2.637    0.621
        13 -12.0664     89.9705    212.7023   1.1385654308e+02   1.9115278444e+01    0.3624388    0.2507218  55.28  0.000986423    1.218    0.179
        14  -9.5079     17.6862    167.5390   1.2458374084e+02   3.7576808578e+01     0.119734    0.1162375 -16.74 0.0009017768    1.520    0.342
        15 -19.0817     34.5880     98.8306   1.1167133019e+02   5.2104467291e+01     17.23835    0.8592789 -64.48   0.02783298   15.601    0.936
        16 -11.8597     96.6602    155.0578   1.0439255371e+02   3.0500987836e+01    0.2814828    0.2515637  88.43 0.0003628453    1.035    0.034
        17 -13.3409    101.4562    149.1453   1.0213563033e+02   3.1073481446e+01    0.6616647    0.4590875 -38.43  0.001948857    1.752    0.429
        18  -9.5882      5.4906    154.9579   1.2626996220e+02   4.1391429443e+01    0.1626217   0.08903022 -78.61 -3.287338e-05    1.412    0.292
        19 -12.0917    133.8769    146.3637   9.3517958488e+01   2.5685001252e+01       1.0374    0.2342819 -53.95  0.002390729    6.177    0.838
        20 -11.7032    113.3107    151.5862   9.9629640664e+01   2.8419961672e+01    0.3018672    0.2351597  88.20 0.0007325074    1.440    0.306
        21 -11.6205     87.5060    202.6826   1.1323240415e+02   2.1480450552e+01    0.3570921    0.2816708 -76.41  0.001538777    1.274    0.215
        22 -11.5592     24.4754    205.8071   1.2596257276e+02   2.8805575929e+01    0.3322029    0.1591482  67.78  0.001233003    1.810    0.447
        23 -11.0471    191.7281    192.7728   9.0010896797e+01   5.2032292557e+00    0.4334517    0.2520179 -68.03  0.001443903    5.095    0.804
        24 -12.2666    110.9972    136.0979   9.7101024929e+01   3.2432855984e+01    0.5125622    0.3164108 -33.49  0.002133865    2.167    0.538
        25 -11.8850    100.1079    135.1219   9.9759830845e+01   3.4607505544e+01    0.2709367    0.2674418  69.28 0.0003287093    1.107    0.096
        26 -12.0865    105.8615    130.9332   9.7350893793e+01   3.4580912837e+01    0.4275692    0.3567898 -71.83  0.001221356    1.197    0.164
        27 -10.7246    117.0614    127.9435   9.3718415515e+01   3.3188840179e+01     0.232609    0.2242176 -31.84 0.0007682256    1.113    0.101
        28 -10.6795    105.1555    123.3883   9.5871276437e+01   3.6486068302e+01    0.2675544    0.2190176 -29.27 0.0007400272    1.419    0.295
        29  -9.9223    111.9159    117.4880   9.2639205944e+01   3.6604120199e+01    0.2179311    0.1510661  42.33  0.000383119    1.497    0.332
        30  -9.8499    231.1212    113.8541   6.5377257265e+01   1.0952486823e+01     0.215766    0.1920283 -51.55 0.0007892893    1.176    0.150
        31  -9.7477    167.6559    112.3578   7.7330073476e+01   2.5675937045e+01    0.1674991    0.1257657 -79.70 0.0007035056    1.831    0.454
        32 -10.0375    205.5092    110.4820   6.9049732380e+01   1.7218734612e+01    0.1517974    0.1448444 -30.32   0.00027176    1.006    0.006
        33  -9.6511     77.2843    104.6657   9.9569007741e+01   4.5569591449e+01    0.1432553    0.1088882  87.75 0.0003026819    1.620    0.383
        34 -10.6277     65.1917     99.0883   1.0201322647e+02   4.8606386012e+01    0.2698597    0.1752835  64.54  0.001254167    2.136    0.532
        35 -12.9563    166.4059     58.9509   6.2167874429e+01   3.5964390208e+01    0.5251503    0.4597962  75.69 0.0009324574    1.182    0.154
        36 -11.7272     75.2721    250.6599   1.2007423339e+02   1.4313192104e+01    0.1717714   0.07326682  48.98 0.0002409749    1.759    0.431
        37 -11.7148     81.3087    194.9816   1.1363694838e+02   2.3988003779e+01    0.5273356    0.2647964  48.99  0.002634207    1.777    0.437
        38 -12.6618    185.7492     37.9011   5.2352733828e+01   3.4094832400e+01    0.5985787    0.4329347  40.23  0.001504563    1.554    0.356
        39 -10.3872    167.0801    224.3871   1.0009884354e+02   4.4390940151e+00     0.198918    0.1857554 -58.97 0.0005267325    1.312    0.238
