#   1 NUMBER                 Running object number                                     
#   2 MAG_AUTO               Kron-like elliptical aperture magnitude                    [mag]
#   3 X_IMAGE                Object position along x                                    [pixel]
#   4 Y_IMAGE                Object position along y                                    [pixel]
#   5 X_WORLD                Barycenter position along world x axis                     [deg]
#   6 Y_WORLD                Barycenter position along world y axis                     [deg]
#   7 A_WORLD                Profile RMS along major axis (world units)                 [deg]
#   8 B_WORLD                Profile RMS along minor axis (world units)                 [deg]
#   9 THETA_WORLD            Position angle (CCW/world-x)                               [deg]
#  10 FWHM_WORLD             FWHM assuming a gaussian core                              [deg]
#  11 ELONGATION             A_IMAGE/B_IMAGE                                           
#  12 ELLIPTICITY            1 - B_IMAGE/A_IMAGE                                       
         1 -13.4435    218.5599     47.7622   3.5742147861e+02   2.5795275097e+01    0.8208734    0.6964582  27.58  0.001284326    1.679    0.405
         2 -12.6326    247.0844     23.3400   3.5027597528e+02   2.3431915702e+01    0.6329346    0.5486451 -21.06  0.004934513    1.486    0.327
         3 -10.0066    227.3246      9.5318   3.4842897883e+02   2.8447165933e+01    0.2118964    0.1604171 -56.71 0.0006725695    1.017    0.017
         4  -9.7948      2.3240      2.4550   4.4712585248e+01   7.9231449722e+01    0.2158409    0.1356931 -41.73  0.001056061    1.521    0.343
         5  -8.8869    108.4002    240.2383   5.6046254355e+01   1.0784100770e+01    0.1410571    0.1215763 -84.68 0.0009435776    1.580    0.367
         6  -9.2706    100.9908    250.3987   5.8711017054e+01   9.9502676991e+00    0.1679638    0.1231579  26.52  0.001097299    1.068    0.064
         7  -9.2999     74.6585    250.2180   6.4474635574e+01   1.2975104649e+01    0.2096132    0.1470936  12.05 0.0008056794    1.460    0.315
         8  -9.4625     75.8157    245.7806   6.3858645711e+01   1.3629190891e+01    0.3024817    0.1324383 -54.82  0.001532026    2.728    0.633
         9 -16.5149     26.7730    166.5166   6.9966529559e+01   3.6396083205e+01     11.26289      5.43789  68.73   0.04680146    2.331    0.571
        10 -10.2190     73.8101    189.8038   5.8758689710e+01   2.5286367230e+01    0.2925883    0.1952148 -65.96 0.0009179524    1.643    0.391
        11  -9.9263     52.6381    189.8966   6.4589770784e+01   2.7889023208e+01    0.2424806     0.181842  47.06 0.0002674995    1.196    0.164
        12 -14.9555      5.4408    228.8220   7.8940267210e+01   2.3938887035e+01    0.7482538    0.5199173  75.96  0.003215045    1.365    0.268
        13  -9.1366     94.1671    182.6442   5.2281754660e+01   2.4095474665e+01    0.3236964     0.219827  85.13  0.001341407    2.132    0.531
        14 -16.7773      5.8738    216.7800   7.8444415284e+01   2.6403908393e+01     3.178755     1.891533  56.37   0.01082841    1.384    0.278
        15  -9.0473     70.8747    183.2962   5.8769853032e+01   2.7182198946e+01    0.1877765    0.1655448  32.30 0.0002829014    1.063    0.059
        16  -9.9243     60.0031    179.1482   6.1355251273e+01   2.9567382093e+01    0.2263453    0.1970125 -65.80 0.0003851878    1.226    0.185
        17 -10.7832    179.2769    165.2127   2.9115771026e+01   1.4258173888e+01    0.7660191    0.4883388 -30.96  0.004061082    1.486    0.327
        18 -11.1129    171.9790    174.3354   3.2296192933e+01   1.3773678773e+01    0.4689142    0.3464233  10.04  0.001736095    1.376    0.273
        19 -10.4138    173.2974    169.6882   3.1158297983e+01   1.4396512333e+01    0.2631908    0.2178078  66.34  0.001157604    1.813    0.449
        20 -10.6017     99.4609    169.5814   4.8802721544e+01   2.6275298372e+01    0.4516377    0.3082934  61.66  0.002084054    1.833    0.454
        21 -10.4511     86.1810    166.6594   5.2066874211e+01   2.8991022110e+01    0.8303246    0.4275433 -72.62   0.00321567    2.603    0.616
        22 -10.9437     91.5629    167.3906   5.0647291306e+01   2.8003536457e+01    0.5202661     0.271937  36.20  0.002215082    1.760    0.432
        23 -10.4159    110.5728    167.0514   4.5359081602e+01   2.5088684685e+01    0.2786793    0.2604326 -75.34 0.0004363958    1.195    0.163
        24  -9.0837    142.0731    164.0434   3.6885659090e+01   2.0522567799e+01    0.2098324    0.1767625  88.86 0.0008634059    1.663    0.399
        25 -12.8625     66.5986    126.2955   5.1148513603e+01   4.2176831297e+01     1.803275     1.097278 -58.96   0.00782856    1.627    0.385
        26 -11.4441     53.6040    121.7385   5.4965952618e+01   4.5254822480e+01    0.6757116    0.3758411 -69.60 0.0003763764    1.876    0.467
        27 -12.1514     76.2411    150.0500   5.2319637972e+01   3.4580978465e+01     1.283716     0.726922 -65.16 0.0004558242    1.882    0.469
        28 -11.9295     62.0225    161.0381   5.8446031627e+01   3.3801472976e+01    0.5471517    0.3957757 -22.46  0.002601483    1.784    0.440
        29 -11.9841     67.0736    156.8012   5.6265923432e+01   3.4193411893e+01    0.6318895    0.5079175 -40.62  0.001670803    1.375    0.273
        30 -13.2903     63.8489    144.8312   5.5421347096e+01   3.7724148167e+01    0.7314606    0.6479937 -57.04 0.0008331785    1.158    0.137
        31 -14.9124     10.0255    206.3892   7.7034361139e+01   2.8322582288e+01    0.9115223     0.590766   0.53  0.002991678    2.025    0.506
        32 -10.4913    237.1355    159.6893   1.8382630506e+01   6.8883994091e+00    0.1585371    0.1531248 -32.78  0.001214957    1.451    0.311
        33 -12.3591     70.0525    144.9470   5.3416545717e+01   3.6804237243e+01    0.6268157    0.4446456  68.45  0.002377567    1.653    0.395
        34  -9.3146    125.3717    238.7895   5.2166077273e+01   8.9680034933e+00    0.1518557    0.1063046 -32.30 0.0003090315    1.613    0.380
        35 -10.5888     42.7698    155.0621   6.3765361126e+01   3.7708775475e+01    0.2533941    0.2139473  45.56 0.0002645228    1.119    0.107
        36  -9.6954    102.8845    238.8209   5.7123946327e+01   1.1694243835e+01    0.1863081    0.1758526 -16.23 0.0006129108    1.234    0.190
        37  -9.2363    125.1885    153.0920   3.8887647111e+01   2.5730469438e+01    0.2726822    0.2045481 -71.02  0.001302687    1.710    0.415
        38 -13.4914     54.2856    217.7245   6.6641960743e+01   2.1505555252e+01     1.185579    0.8153995 -22.07  0.005912154    2.050    0.512
        39 -10.5560    134.0000    147.5496   3.5524893906e+01   2.5365510362e+01     1.309984    0.2921327 -53.24  0.002853271    7.446    0.866
        40  -9.5935    132.4852    143.8121   3.5111402533e+01   2.6443087924e+01    0.3419374    0.2747778  12.31   0.00173319    1.376    0.273
        41 -10.9912     41.5885    147.0659   6.3170551766e+01   3.9950226739e+01    0.3083962    0.2602687  46.99 0.0004214968    1.134    0.118
        42 -11.4791     83.9809    144.3769   4.8890818953e+01   3.4806069385e+01    0.7063693    0.5015985 -22.71  0.003148131    1.840    0.456
        43 -10.5840    108.9270    145.3463   4.1692044378e+01   3.0348389628e+01    0.2981616    0.2672882  41.79 0.0006220251    1.102    0.092
        44  -9.5675    100.9346    143.8165   4.3669118519e+01   3.2107598160e+01    0.2344031    0.2132806 -52.78  0.000271359    1.127    0.113
        45 -10.2368     36.8097    142.5744   6.4231900413e+01   4.1672842092e+01    0.2928279    0.2311336 -82.61 0.0007402292    1.243    0.195
        46  -9.2166     71.4797    232.8805   6.3763924518e+01   1.6507519376e+01    0.1959552    0.1435124  32.92 0.0007419701    1.109    0.098
        47 -10.8232     74.4706    136.6185   5.0472961471e+01   3.8282483379e+01    0.3434672    0.2536594  58.79  0.001129884    1.476    0.322
        48 -11.4666    102.2779    132.1136   4.0806343706e+01   3.4674714923e+01     1.093093    0.5509206  18.72  0.003246739    3.673    0.728
        49 -10.1656     72.2686    224.6134   6.2837913523e+01   1.8027281118e+01    0.2315716    0.2123081  46.04 0.0004913464    1.113    0.102
        50  -9.0379    125.0226    133.9401   3.4857159702e+01   2.9996918078e+01    0.2213105     0.204951  86.63 0.0004314203    1.215    0.177
        51  -9.6222    122.6614    130.0030   3.4584176077e+01   3.1326122026e+01    0.3240028    0.2454493 -78.12  0.001482762    1.758    0.431
        52 -12.5934     50.5483    142.6761   5.9536975123e+01   4.0054436170e+01     2.689265    0.9442835  55.07  0.006489518    4.929    0.797
        53  -9.3767     32.6088    133.5639   6.4572193522e+01   4.4540596193e+01    0.3505774    0.1688476  57.73  0.001132869    2.429    0.588
        54 -11.5809     86.2788    131.8603   4.5686031966e+01   3.7566028660e+01    0.2968889     0.288098  -3.78 0.0004359051    1.072    0.067
        55 -10.4239     43.8119    131.0361   6.0151588970e+01   4.3993581440e+01    0.3592893    0.2071022 -67.13  0.001469283    1.685    0.407
        56  -9.7432    136.0000    129.4808   3.1044116877e+01   2.8853810342e+01    0.3347392    0.0836693 -46.34 0.0009361237    3.946    0.747
        57 -10.4111    175.0015    222.8726   3.9762102303e+01   5.3875904726e+00    0.2047144    0.1570359 -22.18 0.0008225375    1.246    0.198
        58  -9.9681     31.9543    126.2454   6.3835493819e+01   4.6596996395e+01     0.260032     0.216403  80.28 0.0003207036    1.193    0.161
        59  -8.6113    219.1409    126.1607   1.4459449695e+01   1.4419098165e+01    0.1620454    0.1310265 -49.21 0.0002683585    1.297    0.229
        60  -8.5517    184.2675    126.6396   2.0170249750e+01   2.0246511710e+01    0.1350844    0.1020101 -62.31 0.0004178807    1.643    0.391
        61  -9.9535    109.6271    125.4392   3.7136511645e+01   3.4877839378e+01    0.3573189    0.3099114  28.02  0.001816877    1.180    0.153
        62  -8.8694    127.5661    123.4636   3.1755340909e+01   3.1811998225e+01     0.148849    0.1468955 -56.65 0.0001420617    1.035    0.034
        63  -9.8146    115.5439    121.4905   3.4515974747e+01   3.4636837220e+01    0.2803866    0.1486636  29.36  0.001033958    2.334    0.571
        64  -9.8951     96.6146    121.0333   4.0001022616e+01   3.8391891737e+01    0.2869102    0.2221166  22.38 0.0006318717    1.427    0.299
        65 -11.8932     58.5754    129.9905   5.4677207152e+01   4.2369589103e+01    0.9604595    0.5156682 -67.96  0.002808034    1.937    0.484
        66 -10.5915     37.8642    117.3677   6.0213286643e+01   4.8387520440e+01     0.525113    0.2052941  16.26  0.001741229    3.252    0.692
        67 -13.6471     54.1816    233.6276   6.7878687240e+01   1.8297605771e+01      1.60777    0.8153219 -48.57   0.00590007    2.567    0.610
        68  -9.5855    106.3248    116.0823   3.5842707088e+01   3.7703732286e+01    0.2401213    0.2112186  22.30 0.0003538827    1.206    0.171
        69 -10.7000    244.0746    114.6325   8.9121558574e+00   1.2323224803e+01    0.2192549    0.1288618 -42.36  0.001321315    1.411    0.291
        70 -10.8689     22.1088    113.6496   6.5951709202e+01   5.0960526461e+01    0.3324694    0.3196172 -76.77  0.001944428    1.033    0.032
        71 -11.2019     52.6698    110.5637   5.3111365308e+01   4.8367279045e+01    0.3706679    0.3287523 -67.41  0.001272515    1.111    0.100
        72 -11.3721     32.4970    109.9344   6.1129061743e+01   5.0990886992e+01    0.5510651    0.3908465 -42.76  0.002017176    1.467    0.318
        73  -9.0358     28.3782    107.7445   6.2479054172e+01   5.2001553121e+01    0.2341556    0.1925527  50.23 0.0006654729    1.250    0.200
        74 -11.1064     23.7494    104.8136   6.3973690312e+01   5.3230345918e+01    0.4642002    0.3060714  43.23  0.001571701    1.566    0.361
        75 -10.1248    161.3297    222.3289   4.2403399591e+01   7.1599049573e+00    0.2200573   0.09156996  20.91 0.0009502961    2.603    0.616
        76  -9.6549    114.4847    108.5188   3.1542016409e+01   3.7780357293e+01    0.1526104    0.1515668 -13.00 7.091196e-05    1.021    0.020
        77  -8.7519    212.5408    106.7223   1.1284573236e+01   1.8521522660e+01    0.1792821    0.1023013 -45.39 0.0009280504    1.570    0.363
        78  -8.9533    134.4014    105.2017   2.5428618962e+01   3.4286736912e+01    0.2246186    0.1393629 -53.62  0.000956809    1.717    0.418
        79  -9.9430     58.0523     98.5295   4.8222782261e+01   5.0737699084e+01    0.2346896    0.1493766  32.88 0.0006000071    1.575    0.365
        80  -9.7200     23.2082     95.7631   6.2714190192e+01   5.5732692495e+01    0.2013053    0.1574184 -36.70 0.0005643038    1.317    0.240
        81  -9.6686     78.5733     92.3003   3.8620424897e+01   4.8757885777e+01    0.2952714    0.2250479  75.41  0.001328099    1.684    0.406
        82  -8.4580    103.6860     92.3914   3.0240633314e+01   4.3641726030e+01    0.1652848    0.1234208 -87.38 0.0003870106    1.840    0.457
        83 -10.7469     46.1827     91.4655   5.1478986292e+01   5.4290171217e+01    0.3356358    0.2550894  51.30  0.001636678    1.420    0.296
        84  -8.5676    162.3087     88.3056   1.4942258334e+01   3.1451469504e+01    0.1397932    0.1137662   8.16  0.000287903    1.610    0.379
        85  -9.5601     24.2099     87.1420   6.0634313532e+01   5.7950615397e+01    0.2076831    0.1662307  69.70  0.001079505    1.386    0.279
        86 -10.5575     53.3722     90.9281   4.8232864268e+01   5.3399737858e+01    0.3188799    0.1727993 -45.43  0.001137338    1.885    0.469
        87  -8.1987     96.3256     83.6567   2.9909454431e+01   4.7132234591e+01    0.1615976    0.1237113  89.07 0.0007050846    1.738    0.425
        88  -9.6209     51.9931     83.0187   4.6683477754e+01   5.5604903101e+01    0.1812413     0.174012 -46.92 0.0003612945    1.027    0.026
        89  -9.3349     32.6974     82.0082   5.5399046586e+01   5.8428117522e+01    0.2050717    0.1813877 -59.97 0.0002063494    1.092    0.084
        90  -9.6187     26.3322     78.6890   5.7765057214e+01   5.9966564320e+01    0.2608812    0.1869438  23.81 0.0006849586    1.442    0.306
        91  -9.5602    101.9554     76.9460   2.6018409527e+01   4.7311015197e+01    0.2288881    0.2148119 -89.33 0.0004316267    1.100    0.091
        92  -8.8559    184.6626     76.7064   8.2478625871e+00   2.8581243272e+01    0.1298998    0.1061308  15.27 0.0004574483    1.647    0.393
        93  -9.8525     38.4325     76.1798   5.1087506767e+01   5.9225614840e+01    0.3712409     0.180295  39.76  0.001175514    2.131    0.531
        94  -9.2231     30.4918     72.4999   5.4086948832e+01   6.1109264260e+01    0.1431262    0.1358262 -37.87 0.0008106394    1.004    0.004
        95  -8.5375    131.9885    211.5099   4.7145731041e+01   1.2841213336e+01    0.1910721     0.112841  29.72 -4.238859e-05    1.475    0.322
        96 -11.9311    195.3670     62.4219   3.2713278572e+00   2.8474698699e+01    0.5474796     0.438105  71.75  0.002109937    1.356    0.262
        97 -12.8369    208.2958     54.9804   5.0120415234e-02   2.6869015430e+01    0.8955604    0.7019435 -45.17  0.003243228    1.085    0.078
        98  -9.6392    125.2100    246.1313   5.3051653551e+01   7.8017544944e+00    0.3357042      0.10171 -55.44  0.001384778    4.306    0.768
        99 -10.1898      2.0027     62.4875   6.7679539597e+01   6.5932322228e+01    0.2572382    0.1808658  83.92  0.001166567    1.583    0.368
       100  -9.7001    210.8428    198.7058   2.9366014592e+01   4.5827513420e+00    0.1998763    0.1588556 -15.36 0.0004537427    1.094    0.086
       101 -10.6548     22.5915     47.0514   5.0685876622e+01   6.8110016224e+01     0.275574    0.1796377  40.97  0.001379617    1.707    0.414
       102 -10.2862     11.6496     45.0787   5.7228347738e+01   6.9604247816e+01    0.2212085    0.1766156  26.21   0.00056051    1.326    0.246
       103 -11.3948    249.0101     29.6665   3.5143161416e+02   2.2412655574e+01    0.3483369    0.3163365  -0.96  0.002281548    1.592    0.372
       104 -10.0530    192.7161    194.5377   3.1874388193e+01   7.4837625713e+00    0.5943676    0.3305537 -61.97  0.001857476    7.646    0.869
       105  -9.6240     24.6439     31.6804   4.2860400992e+01   7.1162607899e+01    0.1443931   0.09564677 -13.90            0    1.756    0.430
       106 -11.0971      5.3386     22.7378   5.3562357945e+01   7.5059767739e+01    0.5856507    0.2052733  21.15  0.002461654    2.745    0.636
       107  -9.6082     60.8287     21.2081   1.7490921877e+01   6.6319303896e+01    0.2350011    0.2076525  50.95 0.0006327601    1.085    0.078
       108  -8.6378    189.4320     14.8039   3.5191750303e+02   3.5659628797e+01    0.1546059    0.1167992 -18.18   0.00087332    1.622    0.383
       109 -15.5513     15.6465    239.4758   7.7013830449e+01   2.0953747228e+01     1.574104     1.053222 -35.07  0.009487598    2.265    0.559
