#   1 NUMBER                 Running object number                                     
#   2 MAG_AUTO               Kron-like elliptical aperture magnitude                    [mag]
#   3 X_IMAGE                Object position along x                                    [pixel]
#   4 Y_IMAGE                Object position along y                                    [pixel]
#   5 X_WORLD                Barycenter position along world x axis                     [deg]
#   6 Y_WORLD                Barycenter position along world y axis                     [deg]
#   7 A_WORLD                Profile RMS along major axis (world units)                 [deg]
#   8 B_WORLD                Profile RMS along minor axis (world units)                 [deg]
#   9 THETA_WORLD            Position angle (CCW/world-x)                               [deg]
#  10 FWHM_WORLD             FWHM assuming a gaussian core                              [deg]
#  11 ELONGATION             A_IMAGE/B_IMAGE                                           
#  12 ELLIPTICITY            1 - B_IMAGE/A_IMAGE                                       
         1 -10.7558    198.1037     32.9301   2.8979068483e+02   6.1610678809e+00   0.03442949   0.02111552  70.00   0.00178639    2.479    0.597
         2 -10.6861    205.5545     23.7889   2.8964588634e+02   6.2181725900e+00   0.03859487     0.022756  74.28  0.001765236    2.899    0.655
         3 -10.9090    227.2942     16.4555   2.8934546329e+02   6.1653614406e+00   0.03409127   0.03191705  37.08  0.003424923    1.060    0.057
         4 -12.5368    237.2571      4.3817   2.8915281045e+02   6.2398390087e+00    0.1047825   0.05654358  26.87  0.009784084    1.841    0.457
         5  -8.6254    157.1997     16.0262   2.9016272908e+02   6.6081834187e+00   0.01304164   0.01092753  82.58 0.0007802561    1.372    0.271
         6 -11.1271    219.3107      9.0329   2.8939192096e+02   6.2994363596e+00   0.04647998   0.03247015  70.85  0.004083176    1.873    0.466
         7  -9.2103    149.1341     10.0667   2.9021959288e+02   6.7260875455e+00   0.02227821   0.01316957  35.51  0.002187603    1.630    0.387
         8 -12.3517     39.0112    217.9686   2.9281378042e+02   5.0478098333e+00   0.06881516   0.04970914  72.41  0.004326334    1.762    0.432
         9 -10.3993     29.6493    210.5556   2.9287700610e+02   5.1900863905e+00   0.02928411   0.02107745 -19.52    0.0019701    1.671    0.402
        10  -7.5073    143.1601    223.6681   2.9163189918e+02   4.3368134995e+00  0.009332539  0.008112688 -69.96 0.0008184731    1.208    0.172
        11  -7.6047    110.7546    224.6010   2.9201641405e+02   4.5275363912e+00   0.01004754  0.005747777  39.32 0.0009504504    1.717    0.418
        12  -9.0220    154.6523    213.1289   2.9143161921e+02   4.3851649405e+00   0.02586469   0.01432739  14.46  0.002294227    2.188    0.543
        13 -12.2310     54.6029    196.4924   2.9249724488e+02   5.1955426212e+00   0.07743949   0.06771475 -72.02  0.006827242    1.207    0.172
        14  -9.0229     11.1004    206.8352   2.9307077847e+02   5.3471423374e+00   0.01765851   0.01144471  25.42  0.001156983    1.537    0.349
        15 -10.5119    191.5331    190.1482   2.9085668618e+02   4.4167943612e+00   0.03974416   0.01892483 -77.84  0.002884485    3.538    0.717
        16  -8.0757    220.0259    185.7972   2.9049667205e+02   4.2886766598e+00   0.01820497  0.005977368  19.32  0.001026466    5.172    0.807
        17  -8.8023    191.6339    173.7657   2.9075266586e+02   4.6023178617e+00   0.01134508  0.009215973  32.12 0.0007021962    1.202    0.168
        18  -7.4567    196.2934    169.6245   2.9067222946e+02   4.6203355080e+00  0.007054461  0.005061917  67.15 0.0001552461    1.738    0.425
        19  -7.3489     97.5499    162.4787   2.9178185947e+02   5.3159551251e+00  0.006639977  0.006407218 -12.17 6.481757e-07    1.036    0.035
        20  -7.4497     66.1768    158.3579   2.9212320337e+02   5.5575265317e+00  0.009150184  0.005841358  37.87  0.000221283    1.531    0.347
        21  -7.7511     19.0982    150.9304   2.9262792951e+02   5.9336334984e+00  0.009882621  0.008772447  56.84  0.000347024    1.189    0.159
        22  -9.4361    133.6016    144.1542   2.9124513848e+02   5.3001781561e+00   0.04936546   0.01492637 -69.15  0.002575538    6.434    0.845
        23  -9.8343    135.7927    135.4758   2.9116502006e+02   5.3851830465e+00     0.024906    0.0126762 -58.04  0.002272414    1.948    0.487
        24  -9.2326     46.4033    209.8716   2.9267676216e+02   5.0941469659e+00   0.01287164  0.009753887  16.61  0.000592745    1.369    0.270
        25  -8.1207    143.6404    144.7819   2.9113165789e+02   5.2305766558e+00  0.009225713  0.006431259 -75.72 0.0004634331    1.659    0.397
        26  -7.5283     20.8259    145.1735   2.9257168246e+02   5.9884201202e+00  0.009102949  0.007522798 -28.61  0.001029109    1.289    0.224
        27 -10.0906     68.9659    137.2169   2.9195809527e+02   5.7806265345e+00   0.01620513  0.009369125 -64.79  0.001541951    1.835    0.455
        28  -7.5158    204.5964    136.8168   2.9036905281e+02   4.9412712590e+00   0.00906234  0.006507614 -79.90 0.0004974967    1.652    0.395
        29  -7.8389    161.4899    128.9583   2.9082350982e+02   5.2992538308e+00   0.00948572  0.005867754  83.39 0.0008095498    2.549    0.608
        30  -9.9651     66.6077    127.2731   2.9192337178e+02   5.9083149517e+00   0.02274196    0.0109711 -45.52  0.001977566    2.175    0.540
        31  -8.3384    200.0184    124.7031   2.9034635721e+02   5.1074152570e+00   0.01049014  0.009245925 -56.49 0.0004437378    1.150    0.130
        32  -9.0772    133.1835    121.1083   2.9110530613e+02   5.5647009683e+00   0.01993319   0.01337246  37.00  0.002076145    1.454    0.312
        33  -8.8601    135.0000    113.8956   2.9103873209e+02   5.6353560265e+00    0.0293523  0.004739149 -60.47  0.001542723    5.865    0.829
        34  -8.8258    134.8029    106.5515   2.9099488189e+02   5.7200294118e+00   0.01981856   0.01043104 -60.79  0.001822435    1.932    0.482
        35  -7.7317    186.3591    119.6776   2.9047439123e+02   5.2496868468e+00  0.007223666  0.004946576  60.20 0.0007043873    1.772    0.436
        36 -10.3807    245.5955    115.3637   2.8975525707e+02   4.9289351517e+00   0.01349728   0.01199592  26.78 0.0004903466    1.104    0.094
        37  -7.6748    202.9591    110.4784   2.9022249629e+02   5.2506124567e+00   0.01050413  0.004650807  48.11  0.000809636    2.714    0.632
        38  -7.6550     55.9834    110.0223   2.9193963763e+02   6.1703282813e+00  0.007981388  0.007630415 -54.00 0.0003643013    1.063    0.059
        39  -7.3870    174.4473    109.4528   2.9054934781e+02   5.4400970586e+00  0.006590116  0.006431844   1.29  0.000409973    1.012    0.012
        40  -7.5848     33.8657    106.8857   2.9217912917e+02   6.3430587026e+00  0.009354555  0.007749448  60.06 0.0004671966    1.326    0.246
        41  -7.4194     66.6526    105.3223   2.9178515955e+02   6.1575709682e+00  0.007160893  0.004968998  60.54 0.0007049471    1.740    0.425
        42  -8.6305    191.2365    102.2071   2.9030745903e+02   5.4176827111e+00   0.00973964  0.008868374 -14.83 0.0005188278    1.136    0.119
        43  -8.0459    140.4797    101.4939   2.9089665353e+02   5.7421482398e+00   0.00661653  0.006462805  33.94 0.0001108213    1.026    0.025
        44  -8.9710    248.4023     96.8859   2.8960611660e+02   5.1211091974e+00   0.01652138   0.01092408 -81.65   0.00122379    1.925    0.481
        45  -8.3642    195.3276     97.0506   2.9022717793e+02   5.4507087002e+00  0.009354597  0.008410187 -67.84 0.0004299356    1.156    0.135
        46  -7.7058    145.8510     95.3541   2.9079518729e+02   5.7784458000e+00   0.00992642   0.00630307  14.59 0.0009558634    1.772    0.436
        47  -8.4932    151.1099     88.7351   2.9069201118e+02   5.8208664693e+00   0.02105898   0.01179032  56.12  0.001839877    2.341    0.573
        48  -8.7713    153.4160     85.1760   2.9064263152e+02   5.8469187986e+00   0.02183843   0.01414495 -84.52   0.00172359    2.064    0.516
        49  -7.8163    136.4586     88.0132   2.9085894174e+02   5.9203264831e+00   0.01368191   0.00893318  88.30  0.001267948    2.171    0.539
        50  -9.0031    160.7696     75.4417   2.9049531715e+02   5.9116257398e+00   0.03152499   0.01646906  57.03  0.002565367    2.748    0.636
        51 -11.0301    166.2392     72.0039   2.9040967599e+02   5.9165551712e+00   0.03948315   0.03666355  61.30  0.003320707    1.132    0.117
        52 -10.1621    164.0886     63.9287   2.9038398786e+02   6.0216425056e+00   0.02432429   0.01673217  32.04  0.001552592    1.410    0.291
        53 -10.2235    160.0176     59.5398   2.9040398524e+02   6.0968522702e+00   0.02248382   0.01657136 -76.48 0.0006053005    1.547    0.353
        54  -9.7406    145.8080     75.1874   2.9066881128e+02   6.0077611555e+00   0.02338587   0.01617673  69.54  0.001632594    1.893    0.472
        55  -7.6148    184.7035     77.6828   2.9022945214e+02   5.7368999194e+00  0.006925766  0.005000975 -25.85 0.0003369052    1.609    0.379
        56  -7.4622    215.2009     75.3874   2.8985846346e+02   5.5725469031e+00  0.008919135  0.005992067  38.06 0.0002776206    1.458    0.314
        57  -7.7354    237.1836     72.8073   2.8958538116e+02   5.4644507199e+00  0.009841139  0.008868934  57.51 0.0004435228    1.168    0.144
        58  -6.9701     46.4957     65.4795   2.9177127080e+02   6.7353570879e+00  0.006614642  0.006455543   5.24 0.0007460178    1.007    0.007
        59 -11.7176    178.9608     55.8732   2.9015923554e+02   6.0202966525e+00   0.05431424   0.04025406  58.75  0.004372491    1.546    0.353
        60  -9.6328    186.1118     47.8053   2.9002473714e+02   6.0672131865e+00   0.02704509   0.01165051  50.72  0.002002559    3.161    0.684
        61  -8.8449    197.5283     54.0279   2.8993044092e+02   5.9253179061e+00   0.01186469   0.00947872  25.02 0.0003115135    1.236    0.191
        62  -8.3855    137.2445     44.9955   2.9057898001e+02   6.4038997092e+00   0.01048152   0.00912293  29.94 0.0004095687    1.125    0.111
        63 -10.1258    185.0252     40.9670   2.8999433990e+02   6.1515850185e+00   0.03076245   0.01673102  51.97  0.002720896    2.229    0.551
        64 -10.3795    186.9550     36.5714   2.8994405008e+02   6.1894028668e+00   0.02982062   0.01699005  41.07  0.002410501    1.751    0.429
        65 -10.3564    178.5668     34.2536   2.9002757266e+02   6.2680706193e+00   0.01858833   0.01541426 -87.39 0.0008992495    1.373    0.271
        66 -10.8370    180.0745     30.1630   2.8998413800e+02   6.3050617059e+00   0.02611843   0.02028554  67.67  0.001201489    1.520    0.342
        67  -9.8570    204.9367     38.7621   2.8974756362e+02   6.0522239874e+00   0.01778861   0.01412088 -56.17 0.0005911707    1.270    0.213
        68  -7.6460    131.5582    248.4910   2.9192276318e+02   4.1267039814e+00  0.006579837  0.006459261  -0.05 5.983247e-05    1.009    0.009
        69  -8.9119    193.2975     27.6707   2.8981372415e+02   6.2507465169e+00   0.01302026   0.01015885  61.79 0.0006521211    1.462    0.316
        70  -8.2537    250.5122     39.0065   2.8921655206e+02   5.7644365412e+00    0.0100455  0.006668701 -63.59 0.0008848475    1.568    0.362
        71  -9.6921    213.5851     30.9671   2.8959728174e+02   6.0865745120e+00   0.01608361   0.01441503 -53.71 0.0007151827    1.128    0.114
        72  -9.0367     71.6777    243.4286   2.9259079957e+02   4.5558468935e+00   0.01215631   0.01013316 -31.52 0.0002530913    1.263    0.208
        73  -9.0019    149.8650     31.9542   2.9034902870e+02   6.4732372109e+00   0.01994037   0.01000718 -65.30  0.001752808    2.174    0.540
        74  -7.5147    229.6636     32.6950   2.8942026321e+02   5.9664369265e+00  0.007025253  0.005033326 -22.01 0.0003405285    1.670    0.401
        75  -7.3535     96.3723    238.8273   2.9227345010e+02   4.4550305176e+00  0.009652941  0.005762346 -48.34 0.0004409728    1.688    0.408
        76  -6.9560      6.4691    233.4283   2.9329075063e+02   5.0732185180e+00  0.006690521  0.006300325 -12.49 0.0008042955    1.077    0.071
        77  -7.9898    164.3767     21.5193   2.9011334649e+02   6.5010961735e+00    0.0139249  0.008142984 -32.92 0.0007870995    2.114    0.527
        78 -10.4838    146.0469     20.9460   2.9032434909e+02   6.6219384486e+00   0.01158499   0.01057466 -54.33  0.001397994    1.110    0.099
        79  -7.6435    137.9982    228.7154   2.9172380465e+02   4.3115157896e+00   0.00911832  0.008615901  29.60 0.0003999212    1.041    0.039
        80  -7.9165    189.8693     15.1796   2.8977502355e+02   6.4138145933e+00   0.01017768  0.008864167  55.65 0.0006040682    1.214    0.176
        81  -9.3163     48.9546    222.6814   2.9272691893e+02   4.9326288689e+00   0.01547115   0.01073317 -56.18 0.0005501671    1.442    0.306
