#   1 NUMBER                 Running object number                                     
#   2 MAG_AUTO               Kron-like elliptical aperture magnitude                    [mag]
#   3 X_IMAGE                Object position along x                                    [pixel]
#   4 Y_IMAGE                Object position along y                                    [pixel]
#   5 X_WORLD                Barycenter position along world x axis                     [deg]
#   6 Y_WORLD                Barycenter position along world y axis                     [deg]
#   7 A_WORLD                Profile RMS along major axis (world units)                 [deg]
#   8 B_WORLD                Profile RMS along minor axis (world units)                 [deg]
#   9 THETA_WORLD            Position angle (CCW/world-x)                               [deg]
#  10 FWHM_WORLD             FWHM assuming a gaussian core                              [deg]
#  11 ELONGATION             A_IMAGE/B_IMAGE                                           
#  12 ELLIPTICITY            1 - B_IMAGE/A_IMAGE                                       
         1 -13.6598    158.6494    104.1794   3.5989138106e+01   2.9996823951e+01     5.444402     1.197558 -45.98   0.01610508    4.325    0.769
         2 -15.1256    243.1555     44.1547   1.2956606177e+01   2.3562898593e+01     4.333676     1.766568 -70.71   0.02074535    3.373    0.704
         3 -16.8730    240.9374    100.6410   2.3388911067e+01   1.6329351239e+01     5.665759     4.703555 -39.56   0.04318475    1.159    0.137
         4  -8.6329    236.7319      9.4782   6.9905952476e+00   2.8618189482e+01    0.1227036   0.08746524  76.41 0.0009300032    1.595    0.373
         5  -8.5279     95.8413      6.8395   2.0274199027e+01   5.9398717822e+01    0.1737651    0.1331475 -78.69            0    1.302    0.232
         6  -9.8170    118.2066      4.7299   1.5685893552e+01   5.4202370363e+01    0.2432139    0.2134267  13.44 0.0005717816    1.582    0.368
         7  -9.2497    112.1382      5.1681   1.6749404073e+01   5.5624888360e+01    0.1858695    0.1549632  62.41 0.0006485428    1.219    0.180
         8  -8.4566    236.6171      1.7559   5.5837771090e+00   2.9440642193e+01    0.1361865   0.06912781 -48.33 0.0003695473    1.423    0.297
         9 -10.2108    222.1146    212.9019   4.4534408164e+01   2.0613659341e+00    0.2195218    0.1844777  36.50  0.000682904    1.657    0.396
        10 -10.7033    248.5045    249.0402   4.5561405520e+01  -4.8631547570e+00     0.345128    0.1920369   5.27  0.002590937    1.635    0.389
        11  -8.5132    225.0468    207.7814   4.3323579675e+01   2.4888373324e+00    0.1432853    0.1339979 -11.54  0.001166394    1.397    0.284
        12  -9.3254     11.6155    207.2018   9.2495726581e+01   2.7847264376e+01    0.1809721    0.1123834 -68.34 0.0009606681    1.759    0.432
        13  -9.1995    106.7493    205.6663   6.6895620003e+01   1.7411374889e+01    0.1976338    0.1704926 -28.72  0.000573911    1.251    0.200
        14 -10.4512    204.3376    201.9873   4.5800827588e+01   5.5629309026e+00    0.3372637    0.2764304 -52.00  0.001011441    1.561    0.359
        15 -11.0461    192.8331    194.7780   4.6682073483e+01   8.0617611744e+00    0.8228151    0.4366913 -63.84  0.003095737    5.163    0.806
        16  -8.4610    250.4482    198.2607   3.8240918104e+01   1.3138912592e+00    0.1299177    0.0806757 -42.34 0.0007905526    1.531    0.347
        17  -8.8136     14.5068    246.8845   9.3376376689e+01   1.8987994797e+01    0.1837754    0.1315875  34.30 0.0004716433    1.125    0.111
        18 -12.8421    215.5546    181.3253   4.0709266983e+01   7.4514846055e+00    0.9853103    0.8310536 -39.46   0.00720608    1.229    0.186
        19 -13.2192    227.1642    167.5540   3.6708867508e+01   8.1683242823e+00     1.337793    0.9989399  41.01  0.001279962    1.655    0.396
        20 -14.2922    193.7174    104.7783   3.0129747680e+01   2.3300347339e+01      4.29196     1.052326  49.22   0.01501201    4.573    0.781
        21  -9.3886    187.5040    210.2631   5.0026792516e+01   6.1956132190e+00    0.1821092    0.1523381  -5.43 0.0006174599    1.022    0.022
        22  -8.7050    250.6811    222.5494   4.1691258885e+01  -1.8407805222e+00    0.1510351   0.07172464 -37.46  0.000244654    1.722    0.419
        23  -8.3266    151.5610    180.8111   5.2565576898e+01   1.6133104632e+01    0.1650141    0.1278329 -62.94 0.0004472873    1.551    0.355
        24 -11.0151    178.6147    170.0329   4.5200369288e+01   1.4206311697e+01    0.7528281    0.4997771 -56.99  0.004106496    1.759    0.431
        25 -10.2210    185.1123    168.9435   4.3800176545e+01   1.3470355842e+01    0.8106577    0.3501252 -56.84   0.00314103    3.592    0.722
        26 -11.9132    191.4684    153.4629   3.9918270278e+01   1.5262312954e+01    0.6738499    0.4581766 -52.34   0.00311665    1.498    0.333
        27 -10.3807    191.8970    144.2359   3.8149323313e+01   1.6809236538e+01    0.2758937    0.2195355 -28.56 0.0004007355    1.225    0.184
        28 -12.5159    192.9722    164.8911   4.1690029649e+01   1.3064675411e+01    0.6824408    0.4827082 -48.10  0.001699507    1.385    0.278
        29 -11.7099    200.3860    164.0418   4.0277028484e+01   1.2178787712e+01    0.6435146    0.3577738 -42.55   0.00205937    1.597    0.374
        30  -9.7571      7.5026    165.0520   9.1548792045e+01   3.8589105900e+01    0.2112457    0.1288887 -84.59   0.00103687    1.602    0.376
        31  -7.9971     40.5009    158.5422   8.0179422299e+01   3.7293471584e+01    0.1480431      0.13315  53.84  0.000148566    1.032    0.031
        32  -9.1752    220.7477    155.6432   3.5642055375e+01   1.0810129850e+01    0.2160315    0.1766154  60.24  0.001491512    1.684    0.406
        33 -10.4925      4.9800    153.4062   9.1687838758e+01   4.1806503420e+01     0.346747    0.2059074  61.33    0.0014542    1.617    0.382
        34  -9.8052    210.8182    150.9166   3.6306920294e+01   1.2904904526e+01    0.2947908    0.1926238 -48.72  0.001392719    1.445    0.308
        35 -13.4726    229.3721    101.5609   2.4827240545e+01   1.7920561631e+01    0.8741847    0.4001151  42.10  0.004359916    3.325    0.699
        36  -8.6323     60.7421    150.0070   7.2329749986e+01   3.7049055347e+01    0.2149185    0.1927587 -84.13  0.001148765    1.143    0.125
        37  -7.6868     50.4254    187.4646   8.0123704365e+01   2.8787619741e+01    0.1376441    0.1309897  30.30 0.0008031149    1.094    0.086
        38 -10.8555    209.3605    145.2203   3.5515683920e+01   1.4042057587e+01    0.3957143     0.247553 -46.37  0.002335572    1.427    0.299
        39 -11.8302     67.9277    142.9235   6.8829504219e+01   3.7878225529e+01    0.9562845    0.7044615 -87.76  0.003977357    1.542    0.352
        40 -10.4010    157.6540    141.9947   4.4191204175e+01   2.2840541242e+01    0.3100082     0.273027 -15.08  0.001169319    1.231    0.188
        41 -10.3752      9.6279    140.0205   8.9145418307e+01   4.5042704965e+01    0.2591478    0.2027952  24.48 0.0001686027    1.284    0.221
        42 -13.5621      4.8747    126.1313   8.9836501691e+01   4.9069023053e+01     2.462418     1.685872  -1.65   0.00708475    1.638    0.389
        43 -13.1187     50.5851    123.2557   7.1658155849e+01   4.5446487654e+01      1.34605     1.067766  15.08  0.002005663    1.347    0.258
        44 -13.7944     42.2615    121.6385   7.4582212424e+01   4.6923870965e+01     3.369698     1.324401  21.31  0.005833325    2.734    0.634
        45  -8.4387    125.2834    133.0603   4.9873644441e+01   3.0524617237e+01     0.236614    0.1034658 -34.29 0.0007015465    4.093    0.756
        46 -10.8985    149.2369    110.5165   3.9330348801e+01   3.0641090922e+01    0.3750764    0.3470929  23.19 0.0008427525    1.252    0.201
        47 -10.6810    126.4325    105.7176   4.3463986141e+01   3.6205142178e+01     0.725198    0.3921629 -63.59  0.002833615    2.438    0.590
        48 -10.1530    121.9997    102.9962   4.3931077481e+01   3.7684071821e+01    0.3101572    0.2238334 -58.63  0.001181418    1.429    0.300
        49  -8.6627    108.7918    106.8517   4.8448092505e+01   3.9530510634e+01    0.2179458    0.2044151  11.79 0.0004434338    1.219    0.180
        50 -10.9221     32.4836    128.8279   7.9418719732e+01   4.6088894247e+01    0.4426122    0.3732952  -3.64 0.0002924565    1.316    0.240
        51 -12.0410     33.9172    122.9821   7.8053835674e+01   4.7508647976e+01    0.6653113    0.4064489  11.60 0.0009558209    1.830    0.453
        52  -9.9306    113.5258    104.8419   4.6635876739e+01   3.9019842398e+01    0.2826058    0.2126579  47.50  0.001064237    1.296    0.228
        53 -10.2092    142.9957    101.9539   3.8698827904e+01   3.3575872113e+01     0.306393    0.2592883 -89.47 0.0007826716    1.239    0.193
        54 -10.1400    127.3717     91.8711   3.9819585400e+01   3.8835417654e+01    0.2943142    0.2388014 -58.71 0.0005037562    1.228    0.186
        55 -12.8285    175.9222     98.2201   3.1551699030e+01   2.7703818724e+01    0.9368809    0.6658852 -12.38  0.001524673    2.349    0.574
        56  -7.9008     80.6050     84.8228   5.1706217165e+01   5.0030727214e+01    0.1810484    0.1435214 -69.70 0.0001830821    1.391    0.281
        57  -8.4475    142.2386     74.1722   3.1972295731e+01   3.8909677955e+01     0.192726    0.1503444 -77.40  0.000401304    1.310    0.237
        58  -8.4298    131.5224     68.0097   3.2550901410e+01   4.2377503771e+01    0.1977997     0.135803 -46.93 -3.45611e-05    1.473    0.321
        59 -11.5268    198.4064     56.7990   1.9389644849e+01   2.9865087735e+01     0.438967    0.3161518 -32.04  0.002534496    1.600    0.375
        60 -11.0358    177.6908     47.6832   1.9729377912e+01   3.5336101075e+01    0.4218981    0.2317137 -41.33  0.002231127    1.708    0.414
        61 -10.3083    183.0314     58.5798   2.1596368507e+01   3.2670028232e+01    0.2520717    0.1641131 -42.94 0.0001647869    1.441    0.306
        62 -10.6405    184.5238     55.0164   2.0598006628e+01   3.2880876967e+01    0.3667176    0.1966556 -56.91  0.001301684    1.740    0.425
        63 -10.5013    138.0009     60.3527   2.9124938593e+01   4.2196928125e+01    0.4623186    0.3265723 -86.52  0.002051804    1.542    0.351
        64  -8.6708    120.6462     59.0479   3.2422703182e+01   4.6395035720e+01    0.1932257       0.1726 -57.07 0.0006011504    1.168    0.144
        65  -8.6919    116.8030     58.1780   3.3063603320e+01   4.7427558471e+01     0.179864    0.1690963  -1.36 0.0004731928    1.362    0.266
        66 -10.6483    182.8603     46.8607   1.8923911239e+01   3.4368000704e+01    0.4671833    0.1989334 -32.00  0.002057117    2.777    0.640
        67  -8.2417     39.1599     54.4239   6.0347300286e+01   6.3844084354e+01    0.1764626    0.1222383  41.20 0.0008979407    1.404    0.288
        68  -9.3324    135.7907     50.8483   2.6902441306e+01   4.4206979016e+01    0.3828306    0.1826406  62.08  0.001687965    1.968    0.492
        69  -9.3809    141.8700     49.1524   2.5330755791e+01   4.3059921970e+01    0.1758616    0.1649154  41.60 0.0008635347    1.350    0.259
        70  -9.2878    201.4164     46.8601   1.6944397973e+01   3.0643202482e+01    0.2132774    0.1448771  53.01  0.001294707    1.892    0.471
        71 -11.2516    141.4809     40.2106   2.2905502496e+01   4.4441590164e+01    0.5323769    0.3395567  -9.62  0.002315165    3.190    0.687
        72  -9.8206    179.3414     41.8908   1.8169442674e+01   3.5779039061e+01     0.245397    0.1632482  71.42  0.000350926    1.470    0.320
        73 -11.5905    188.0298     59.5374   2.1191562704e+01   3.1518431676e+01    0.7491598    0.2500955 -38.78 0.0003853846    2.751    0.637
        74  -9.8233    120.3237     43.3676   2.7761326052e+01   4.8957269537e+01    0.4583438    0.2481064 -26.58  0.001544765    2.649    0.623
        75  -9.7135    196.0311     38.9316   1.5751688343e+01   3.2741680396e+01    0.3473459    0.2427341 -79.83   0.00104504    1.283    0.220
        76  -9.3874    190.6691     39.6744   1.6443627309e+01   3.3724984248e+01    0.1928638    0.1610008  72.95 0.0008264529    1.323    0.244
        77  -9.4706    190.1737     36.5942   1.5801554438e+01   3.4223711190e+01     0.220962    0.1624306 -43.71 0.0006571806    1.334    0.250
        78 -10.6492    244.9977    184.9650   3.6977903216e+01   3.6553442833e+00    0.1826514    0.1571637 -18.58 0.0003638034    1.178    0.151
        79 -11.1140    148.6521     33.5714   1.9970318552e+01   4.3677695203e+01    0.4147853    0.2497292 -19.21  0.001960947    2.649    0.622
        80  -9.1505    230.2646    182.8349   3.8720185270e+01   5.5316181897e+00    0.1697859    0.1425426  -0.41  0.000587036    1.195    0.163
        81  -9.1825     44.3596     19.8268   4.3386451083e+01   6.9286133674e+01    0.1697085    0.1211937 -23.58 0.0009396051    1.694    0.410
        82  -8.7048    238.9259     16.9336   8.2455675095e+00   2.7438676214e+01    0.1404343    0.1164154 -62.02 0.0003458291    1.240    0.194
        83  -8.9512    152.5898     16.2033   1.4738457876e+01   4.4876337716e+01    0.1517087    0.1234744 -20.17 0.0009405845    1.673    0.402
        84  -8.7956     45.5087     15.0189   4.0394143861e+01   6.9754576307e+01    0.1703885    0.1289837 -34.40 0.0003883674    1.517    0.341
        85  -8.6332    192.6976    223.3131   5.0987476719e+01   3.5926028903e+00    0.1836904    0.1229525  23.43 0.0007804499    1.420    0.296
        86  -9.0600     17.5180    222.5081   9.1648986811e+01   2.3863564026e+01     0.126871    0.1089934  42.78 6.129155e-05    1.064    0.060
        87  -8.8461    239.6971    221.3693   4.3089869923e+01  -7.4184861313e-01    0.1269383    0.1230188 -37.68 0.0008420273    1.753    0.430
        88  -8.7965    226.4643    215.5524   4.4243386720e+01   1.2641931050e+00    0.1561324    0.1061347 -26.73  0.001128935    1.187    0.158
