#   1 NUMBER                 Running object number                                     
#   2 MAG_AUTO               Kron-like elliptical aperture magnitude                    [mag]
#   3 X_IMAGE                Object position along x                                    [pixel]
#   4 Y_IMAGE                Object position along y                                    [pixel]
#   5 X_WORLD                Barycenter position along world x axis                     [deg]
#   6 Y_WORLD                Barycenter position along world y axis                     [deg]
#   7 A_WORLD                Profile RMS along major axis (world units)                 [deg]
#   8 B_WORLD                Profile RMS along minor axis (world units)                 [deg]
#   9 THETA_WORLD            Position angle (CCW/world-x)                               [deg]
#  10 FWHM_WORLD             FWHM assuming a gaussian core                              [deg]
#  11 ELONGATION             A_IMAGE/B_IMAGE                                           
#  12 ELLIPTICITY            1 - B_IMAGE/A_IMAGE                                       
         1 -10.1654      2.0000     13.5191   4.7010410042e+01   7.7494538594e+01     0.641044    0.1375363 -59.46  0.002086489    5.090    0.804
         2  -9.6789      2.0448      3.2267   4.0471792537e+01   7.9377276822e+01    0.4279639    0.1920171 -52.40  0.002121583    2.405    0.584
         3  -9.7251     12.4411      3.8357   3.0468982794e+01   7.7984182944e+01    0.2340888    0.1561072 -23.77  0.001366441    1.582    0.368
         4 -10.0675     31.1656    230.8625   6.8172306628e+01   2.0253196813e+01    0.3869309    0.2116918 -42.21  0.001922191    2.570    0.611
         5  -9.6858     41.8477    249.3726   6.6700666297e+01   1.5515843503e+01    0.4078768    0.1772174  50.82  0.002058722    2.079    0.519
         6 -12.2554     54.3812    212.9654   6.1131582034e+01   2.1804065958e+01     1.537682    0.5825093 -57.16  0.003752299    2.796    0.642
         7 -12.4566     10.8658    180.0043   7.0759715249e+01   3.3935943319e+01     1.158448    0.9098114  32.90  0.004509572    1.229    0.186
         8 -14.3669     19.9137    167.7642   6.7245826397e+01   3.6377634301e+01     7.424075     2.554063  77.53   0.02253937    4.240    0.764
         9  -8.9095     83.1439    222.0572   5.4758131204e+01   1.6581439580e+01    0.3205222    0.1135184 -49.33  0.001187411    3.173    0.685
        10  -9.3407     67.0721    220.7311   5.8597072443e+01   1.8704441929e+01    0.2445622    0.1861752 -73.92 0.0005939127    1.492    0.330
        11 -13.9600      8.1580    208.7287   7.2840412704e+01   2.7161597561e+01     2.262382     1.708838 -79.20   0.01387778    1.392    0.282
        12 -10.6075     27.7561    229.3621   6.8914610508e+01   2.0886908793e+01     0.366367    0.1857002 -59.64  0.001879344    2.286    0.562
        13  -8.9902     36.7851    218.4360   6.6045849612e+01   2.2401653756e+01    0.1799273    0.1521645 -75.35 0.0004585516    1.311    0.237
        14  -7.3248    103.5036    202.5006   4.7405428284e+01   1.8157115490e+01    0.1353529     0.123269  25.00 -9.644901e-05    1.023    0.023
        15  -8.0195    210.8377    198.7951   2.4512124099e+01   5.2159387289e+00    0.1393766    0.1258714 -19.67 0.0005250197    1.320    0.243
        16  -8.6787     69.1742    194.4037   5.5362284300e+01   2.4371378238e+01    0.2140237    0.1107426  38.08 0.0009545308    1.719    0.418
        17  -9.4905     53.9889    193.3052   5.9433360163e+01   2.6425737825e+01    0.2026373    0.1712486  36.77 0.0006116025    1.086    0.079
        18 -12.2914     15.5061    247.8524   7.2558531708e+01   1.8200902661e+01     1.369201    0.5236434  22.76  0.001916328    2.281    0.562
        19  -7.9202    208.4969    189.4586   2.3363430488e+01   6.9099759207e+00    0.1192435   0.09365159 -18.20  0.000211141    1.021    0.021
        20  -8.4368     71.6951    185.6762   5.3630153098e+01   2.6142545594e+01    0.1436213    0.1066906 -26.20 0.0007032694    1.641    0.391
        21  -8.0774     83.0144    184.5011   5.0333222566e+01   2.4944412001e+01    0.2032751    0.1225391  -3.04 0.0008103063    2.551    0.608
        22  -8.2109     64.4918    183.8963   5.5451591633e+01   2.7480160798e+01    0.2038875     0.140763 -71.18  0.000663307    1.528    0.346
        23  -8.1144    111.3030    183.6779   4.2708458180e+01   2.1180473014e+01    0.1405751    0.1074346  64.16 0.0003214631    1.633    0.388
        24  -9.2087     39.6016    232.3476   6.6228440824e+01   1.9135472142e+01    0.3148396    0.2088486 -34.68  0.001591524    2.049    0.512
        25  -8.0800     74.3037    174.0366   5.1360570255e+01   2.8661505137e+01    0.1991608    0.1800481  89.48 0.0004061023    1.146    0.127
        26  -8.6203    106.3095    228.6671   4.9981013502e+01   1.2540725603e+01    0.1275143    0.0891828  52.81 0.0004094622    1.672    0.402
        27  -8.4591    233.5811    168.3880   1.5913877315e+01   7.1721805543e+00    0.2317827   0.08413218 -48.67 0.0009609612    3.551    0.718
        28 -11.7413     49.7386    143.6660   5.4789831806e+01   3.9825052193e+01    0.6593705    0.4317363 -24.85  0.001360378    2.042    0.510
        29 -10.4062     45.2143    160.0716   5.8460039136e+01   3.5916297129e+01    0.4711085    0.3198069 -18.44  0.001492321    1.971    0.493
        30 -11.0449     51.5020    155.9813   5.5912345168e+01   3.6274859398e+01    0.8662142    0.5036463  83.77 0.0009162689    2.124    0.529
        31  -8.4005    153.6979    163.3462   2.9080444991e+01   1.9066182798e+01    0.1324855     0.110567 -89.66 0.0007039232    1.687    0.407
        32  -8.9307    238.1987    161.8288   1.4135226759e+01   7.5986049024e+00     0.158698    0.1104787 -18.64 0.0007905466    1.314    0.239
        33 -11.3607     23.5953    148.1392   6.4368187092e+01   4.1360740853e+01     1.277052     0.414107 -81.96  0.004088992    3.403    0.706
        34 -10.4492     72.4764    157.2083   4.9428583917e+01   3.3195311331e+01    0.7463521    0.4889338 -86.09  0.003285494    1.850    0.459
        35 -11.7167     64.8368    148.4673   5.0468770483e+01   3.6557615055e+01    0.5174274    0.4597879 -60.82  0.001126635    1.134    0.118
        36 -12.0238     70.0205    144.6639   4.8150395866e+01   3.6834411807e+01     1.296748    0.7244363  43.14  0.004312041    1.768    0.434
        37  -8.0683    164.5079    227.4796   3.7321021772e+01   5.9499665647e+00    0.1195688   0.09786548  -0.11 0.0001580322    1.015    0.015
        38  -7.9862    233.3227    156.3161   1.3830137008e+01   9.0027586421e+00    0.1168413   0.07594872 -14.80 0.0007042335    1.664    0.399
        39  -9.8670     29.8816    151.8813   6.2601840770e+01   3.9750239491e+01    0.3373001    0.2083168  23.92   0.00110418    1.643    0.391
        40  -8.7268    109.0188    145.3684   3.6505450137e+01   3.0426910604e+01    0.2668138    0.2224229 -66.20 0.0007406488    1.259    0.205
        41  -8.8637     36.9368    142.8510   5.9132837661e+01   4.1518045179e+01    0.2650645    0.2042679 -71.39 0.0007901555    1.254    0.202
        42 -10.8827     77.1830    131.8061   4.3412855417e+01   3.9134889421e+01    0.4691211    0.3544619 -50.59   0.00122997    1.329    0.247
        43  -8.9413     94.0334    131.9780   3.8088551631e+01   3.6286341783e+01    0.3209969    0.2303329 -20.80  0.000752971    1.877    0.467
        44  -9.2235     39.8716    129.1318   5.6169927689e+01   4.5002696669e+01    0.2780089    0.1939923  71.75 0.0004151819    1.564    0.361
        45  -8.5023    105.3042    130.9332   3.4518606918e+01   3.4553451435e+01    0.2220097    0.1949369 -59.21 0.0007017017    1.128    0.114
        46  -8.8756     56.9937    128.5066   4.9762774882e+01   4.3024313990e+01    0.2341943    0.1062865  49.95 0.0008102497    2.537    0.606
        47  -8.1957    104.2302    126.0239   3.3731974808e+01   3.5935804627e+01    0.2171745    0.1724775   6.28 0.0006180972    1.594    0.373
        48  -8.3039     72.2460    226.3951   5.7842482057e+01   1.6938058134e+01    0.1904959   0.09817985  35.71 0.0005469302    1.613    0.380
        49  -9.5826     90.7152    121.1901   3.6738737366e+01   3.9573094304e+01    0.3769593    0.3059676  19.21 0.0008348429    1.401    0.286
        50  -8.1934    102.7356    115.9822   3.1811691936e+01   3.8632782947e+01    0.2128801    0.1982446 -57.70 0.0004176173    1.051    0.049
        51  -9.4934     59.5844    111.7555   4.5474994723e+01   4.7179678671e+01    0.6297061    0.3538041  79.70  0.002103346    3.197    0.687
        52  -8.5264     52.6727    113.6712   4.8540842412e+01   4.7657589385e+01    0.1622185    0.1144297 -30.27 0.0007050833    1.705    0.414
        53  -8.3462     23.7543    105.2311   5.8985274590e+01   5.3315617903e+01    0.2796648    0.2052832  -4.66  0.001178833    1.582    0.368
        54  -8.9559     52.1131    101.4526   4.6126868929e+01   5.1020308279e+01    0.2957384    0.2226003 -75.62 0.0006684829    1.396    0.284
        55  -8.7901     75.0566     97.7269   3.6267060241e+01   4.8258919631e+01    0.2870069    0.2167072  88.75  0.001296209    1.654    0.395
        56  -8.6858     18.1121     81.6452   5.7498123778e+01   6.0233360782e+01    0.2369799    0.1896644 -87.38 0.0005551914    1.299    0.230
        57  -9.9751      2.1342     64.4122   6.3086649404e+01   6.5810965954e+01    0.5451083   0.07355403 -73.51  0.001315303    6.527    0.847
        58 -11.7582    247.5357     44.9074   3.5104312703e+02   2.2723374886e+01    0.7010374    0.3720538 -39.48  0.003129569    1.419    0.295
        59 -11.4806    218.7507     61.4882   3.5671735017e+02   2.5458216539e+01    0.4930876    0.3584367 -64.61  0.002795641    1.258    0.205
        60 -12.4632    231.3245     54.5091   3.5414350481e+02   2.4197668317e+01    0.9839992    0.7300078  45.49  0.006592269    1.999    0.500
        61  -9.8218      1.8472     49.8275   6.0268889933e+01   6.9475626740e+01    0.3876695    0.1069302 -71.86  0.001320728    3.560    0.719
        62  -9.4273     13.0587     60.2261   5.5557826326e+01   6.6171032586e+01    0.2456334    0.1881157 -63.41 0.0006365198    1.252    0.201
        63  -9.8338      2.1326     31.3007   5.4714597910e+01   7.3777757720e+01    0.4016975   0.05694556 -63.30  0.001193002    5.083    0.803
        64  -8.6832     31.9666     31.5058   3.2832970804e+01   7.0356045257e+01     0.206583    0.1253504  34.04  0.001028948    1.579    0.367
        65 -12.9491      6.9215    240.0108   7.4228301198e+01   2.0477543867e+01     1.488399     1.030435 -33.52  0.004285312    2.086    0.521
        66 -10.5268     55.1788    236.1227   6.2755586761e+01   1.6794539083e+01    0.3789532    0.2286398 -70.31  0.001338219    1.911    0.477
        67  -9.1979     60.4935     21.3922   1.3094746851e+01   6.6520922004e+01    0.2602269    0.1591568  58.51 0.0009172146    1.572    0.364
