#   1 NUMBER                 Running object number                                     
#   2 MAG_AUTO               Kron-like elliptical aperture magnitude                    [mag]
#   3 X_IMAGE                Object position along x                                    [pixel]
#   4 Y_IMAGE                Object position along y                                    [pixel]
#   5 X_WORLD                Barycenter position along world x axis                     [deg]
#   6 Y_WORLD                Barycenter position along world y axis                     [deg]
#   7 A_WORLD                Profile RMS along major axis (world units)                 [deg]
#   8 B_WORLD                Profile RMS along minor axis (world units)                 [deg]
#   9 THETA_WORLD            Position angle (CCW/world-x)                               [deg]
#  10 FWHM_WORLD             FWHM assuming a gaussian core                              [deg]
#  11 ELONGATION             A_IMAGE/B_IMAGE                                           
#  12 ELLIPTICITY            1 - B_IMAGE/A_IMAGE                                       
         1 -13.2916    193.8322     31.3762   6.5456635503e+01   3.2596547045e+01     1.875405     1.208234  22.90  0.008300759    1.869    0.465
         2 -13.4318    205.1196     17.4064   5.9679587736e+01   3.1189477887e+01     1.076049    0.9145243 -66.35  0.004360517    1.243    0.196
         3 -13.1804    210.3782     11.2098   5.7259256339e+01   3.0452390007e+01    0.8272877    0.6586267   6.72  0.001427561    1.401    0.286
         4 -12.9749      2.5784      4.5203   1.2154591053e+02   7.3655123320e+01     1.149423    0.5959986   5.60  0.006882366    2.215    0.548
         5 -10.4811    222.3440    245.1029   1.0820116807e+02  -1.6471883975e+00    0.1989435    0.1067174  27.98 0.0007797935    1.335    0.251
         6  -9.8571    204.9396    250.5093   1.1179519070e+02   2.5660505227e-01    0.1699634   0.07697294  36.59 0.0004250391    1.558    0.358
         7 -10.3368    184.3423    250.3902   1.1524303950e+02   3.1566940138e+00    0.2404563   0.09326283  35.58  0.001319506    1.861    0.463
         8 -10.5944    169.6773    248.6126   1.1754021706e+02   5.4228770456e+00    0.2774609    0.1655327  17.69 0.0008590358    1.940    0.485
         9 -11.4079    149.9196    248.3527   1.2091827685e+02   8.2339037796e+00    0.3104258    0.2640688  64.70   0.00251599    1.475    0.322
        10 -10.3750    143.1054    249.0823   1.2216936065e+02   9.0917950615e+00    0.1643169    0.1537075  74.94 0.0004368333    1.417    0.294
        11 -11.3630    116.4146    239.0150   1.2587420062e+02   1.4048550230e+01    0.4657678    0.2715017 -41.32  0.002786563    2.650    0.623
        12 -11.4777    134.2769    249.3022   1.2371286957e+02   1.0275683364e+01    0.4330203    0.1852993  40.27  0.002566142    1.660    0.397
        13 -11.7942    125.0405    249.1899   1.2529186200e+02   1.1537259788e+01     0.653896    0.1884354  36.26   0.00304932    2.825    0.646
        14 -12.1381    125.5197    241.0097   1.2445071819e+02   1.2543798866e+01    0.5713422    0.3079596  37.70  0.003678458    1.409    0.291
        15 -10.7162     99.1649    247.7988   1.2960430460e+02   1.5086108634e+01    0.4140251    0.1982749  62.85  0.002408199    2.518    0.603
        16 -10.0349    102.7438    247.4231   1.2896520567e+02   1.4684756077e+01    0.2194725    0.1334718  50.56  0.001128778    1.262    0.207
        17 -11.2189    114.9698    250.3064   1.2711333885e+02   1.2724192683e+01     0.399572    0.2044672  36.55    0.0018065    1.527    0.345
        18 -11.3758    109.7291    247.2909   1.2775844878e+02   1.3805524520e+01    0.3736133    0.2978603 -86.97  0.002204658    1.576    0.365
        19  -9.7625     89.2317    250.6497   1.3148665299e+02   1.5923093852e+01    0.2097152    0.1075057  32.66 0.0003211396    1.852    0.460
        20 -10.8750     88.0017    247.5241   1.3147469609e+02   1.6503789662e+01    0.3340259    0.2143192  29.61  0.002399889    1.669    0.401
        21 -10.2936     81.4839    246.6598   1.3251204164e+02   1.7407976351e+01    0.3520279    0.1905985  84.14  0.002302245    2.429    0.588
        22  -9.4140     74.9270    250.4923   1.3384759594e+02   1.7638352202e+01    0.2654886   0.08335588  34.19  0.001338019    2.982    0.665
        23 -12.5860     63.5525    245.4290   1.3542109219e+02   1.9646436826e+01      1.48566    0.5461987  28.05  0.006701452    4.442    0.775
        24 -14.3054      9.1990    148.7835   1.4018957541e+02   4.1916837468e+01     2.838139     1.020965  83.90   0.01360944    2.837    0.648
        25 -14.0461      3.2212    186.6588   1.4313433254e+02   3.5067854547e+01     2.438975    0.3583644 -76.77  0.009908932    5.132    0.805
        26 -11.7617     63.1635    221.6229   1.3402131576e+02   2.3321027657e+01    0.6520081    0.3618106 -89.42  0.003226482    2.008    0.502
        27 -14.2578      9.6601    209.9742   1.4282839360e+02   3.0502686212e+01     1.747096     1.009608 -85.91   0.01346068    1.577    0.366
        28 -12.9485     13.7532    238.8328   1.4311127907e+02   2.5577276992e+01    0.5262209    0.2730201  52.75   0.00420951    1.316    0.240
        29 -13.1031     38.5775    228.6198   1.3870144022e+02   2.4824520879e+01    0.5200589    0.3184536  42.26  0.002052313    1.364    0.267
        30 -14.4762     44.8661    218.7838   1.3710871157e+02   2.5763846728e+01     1.308022    0.8573731  25.74  0.009322532    1.902    0.474
        31 -12.4542    135.6761    241.0695   1.2266294934e+02   1.1133744962e+01    0.5878857    0.3033915  46.08  0.002835893    1.516    0.340
        32 -11.1283    134.1266    232.5233   1.2206001186e+02   1.2489564864e+01    0.2215978    0.2071459  62.94 0.0008150666    1.289    0.224
        33  -9.7967    102.1661    243.3932   1.2874404030e+02   1.5311936035e+01    0.1527475   0.09592763  55.70  0.001087861    1.362    0.266
        34 -11.4414     90.5648    239.5621   1.3045667443e+02   1.7316725603e+01    0.4723843     0.255528  80.18  0.002402719    2.625    0.619
        35 -11.3060     97.1612    239.8195   1.2932833261e+02   1.6452067667e+01    0.3102828    0.2462629  27.49  0.001987976    1.445    0.308
        36 -11.4174     98.5698    231.9319   1.2843406365e+02   1.7415184231e+01    0.3606544    0.2268904 -84.57 0.0004831486    2.080    0.519
        37 -10.6633    112.8443    230.0539   1.2568474681e+02   1.5797762138e+01    0.3091887    0.1961299  36.55  0.001721128    1.307    0.235
        38 -11.5473    105.5957    228.8186   1.2689109945e+02   1.6953309962e+01      0.52486    0.2552677  45.74  0.003174333    1.566    0.361
        39 -12.0004    245.0571    240.9447   1.0392675495e+02  -4.3667026951e+00    0.3108446    0.1637768 -26.18  0.002067956    2.208    0.547
        40  -9.7689     83.9405    242.0322   1.3177845387e+02   1.7772370428e+01    0.1490254    0.1427611  -9.24  0.001191596    1.567    0.362
        41  -9.4138     82.3991    238.2987   1.3177962460e+02   1.8500224463e+01    0.2565772   0.09472495  38.15   0.00143554    2.086    0.521
        42 -10.1830    172.8802    240.4911   1.1603819665e+02   5.8893846638e+00    0.1842579    0.1531286  84.69  0.001331234    2.053    0.513
        43 -11.4260    135.5441    236.3533   1.2220452047e+02   1.1772943368e+01    0.3942234    0.2350386  27.89  0.001487136    1.648    0.393
        44 -10.4707    104.3657    237.9291   1.2790906003e+02   1.5794902892e+01    0.1898482    0.1075152  45.87 0.0006674581    1.307    0.235
        45 -14.0138      5.9422    245.1685   1.4447545011e+02   2.5312296286e+01    0.9949079    0.5583094  73.55  0.008506897    1.389    0.280
        46 -10.9005    164.3183    241.3884   1.1764566112e+02   7.0225928221e+00    0.3095998    0.1889639  60.13   0.00182054    2.443    0.591
        47 -10.7501    122.3800    233.0249   1.2423987370e+02   1.4067454534e+01    0.2815629    0.2761049 -82.81  0.001823214    1.342    0.255
        48  -9.9861    130.3688    235.8254   1.2307912210e+02   1.2570723653e+01    0.1563813    0.1429273 -83.53 0.0008109795    1.422    0.297
        49 -10.1580    127.3318    233.8252   1.2342433809e+02   1.3268259550e+01    0.2420464    0.1476225  37.33 0.0009715438    1.277    0.217
        50  -9.7294     55.4110    235.8416   1.3623839525e+02   2.1958490579e+01    0.2828136    0.1339712  63.94  0.001600713    1.930    0.482
        51  -8.5481     51.2721    234.3153   1.3685246536e+02   2.2634218204e+01   0.07755603   0.07645039  24.44 0.0002735357    1.559    0.358
        52  -9.3432     84.5320    234.0845   1.3110073169e+02   1.8863573760e+01    0.1283163   0.09872121 -78.89 0.0004923613    1.531    0.347
        53  -9.1728     77.9934    233.4618   1.3220370716e+02   1.9748139131e+01     0.140013    0.1158994  66.74 0.0004116542    1.173    0.148
        54 -10.8975    156.7868    231.5682   1.1784140150e+02   9.3310737674e+00    0.1924399     0.163303  32.04 0.0003033641    1.147    0.128
        55  -9.3826     62.9606    233.0331   1.3478725105e+02   2.1554785565e+01      0.12962    0.1146203  22.87 0.0003751694    1.568    0.362
        56  -8.6029     92.4698    232.5342   1.2957474978e+02   1.8106131500e+01     0.107189   0.08080663  48.96 4.674172e-05    1.024    0.023
        57 -10.1731    141.8871    230.3664   1.2041366252e+02   1.1668107255e+01    0.2438965    0.1700058 -10.13 0.0008130045    2.331    0.571
        58  -9.2975     56.5939    230.6875   1.3574271426e+02   2.2620160345e+01    0.3071398   0.08414152  43.39  0.001633652    2.424    0.588
        59 -10.4382     84.6824    229.4681   1.3072472911e+02   1.9540517928e+01    0.2473354    0.1752936  32.91 0.0006089036    1.426    0.299
        60 -10.6031     77.3535    220.8566   1.3139093268e+02   2.1780161253e+01     0.241325    0.1495055  57.22 0.0004528751    1.342    0.255
        61 -10.4724     79.8134    227.7751   1.3146824922e+02   2.0395940135e+01    0.2775055    0.2168607  -5.62  0.001128852    2.295    0.564
        62 -10.1061     78.9811    224.5449   1.3137532944e+02   2.0999323017e+01    0.2079316    0.1764047  19.51 0.0007809464    1.569    0.363
        63  -9.1613    180.0253    228.5286   1.1326528523e+02   6.2400485435e+00    0.2008959    0.1389673  73.42  0.001046599    3.439    0.709
        64 -10.1013    166.1564    227.1156   1.1559357597e+02   8.5023952914e+00     0.229149    0.1742418 -72.04  0.001501192    2.267    0.559
        65  -9.9084    197.5174    226.5987   1.0988300957e+02   3.8287588189e+00    0.2468806    0.1752198  53.28  0.001316632    1.900    0.474
        66 -10.4858     92.5555    225.9316   1.2901765666e+02   1.9091235777e+01    0.2322879    0.1195043  45.99 0.0008231414    1.475    0.322
        67  -9.1383    147.4128    225.4461   1.1883473686e+02   1.1523958874e+01    0.1254672     0.111208 -76.47 5.670075e-05    1.544    0.352
        68 -10.7595    138.2552    214.1361   1.1921155667e+02   1.4491816398e+01    0.3933938    0.3745354  48.25  0.002618754    1.220    0.180
        69 -11.0780    141.9545    221.6268   1.1940236515e+02   1.2861286581e+01    0.2533882    0.2081326  20.26 0.0002293711    1.284    0.221
        70 -10.0289    145.2991    221.6964   1.1878380080e+02   1.2353773643e+01     0.202124    0.1412898  54.08 0.0005077865    1.454    0.312
        71  -9.7756    132.3956    224.7275   1.2154018597e+02   1.3822730252e+01    0.1953836    0.1680505  28.72 0.0008831655    1.203    0.169
        72 -10.3133    129.2534    221.0242   1.2172074223e+02   1.4810530730e+01    0.2270552     0.171561  59.95 0.0009184027    1.370    0.270
        73 -10.6757    117.3336    224.3029   1.2429783014e+02   1.6022276608e+01    0.2005838    0.1578808  42.77 0.0002565473    1.048    0.046
        74 -10.9867     99.3246    223.4128   1.2755507161e+02   1.8598566004e+01    0.3384834      0.18404  48.98 0.0001254568    1.462    0.316
        75 -10.3969    160.5387    223.7199   1.1619634832e+02   9.7879435046e+00    0.2210556    0.1513316  19.90 0.0008373793    1.504    0.335
        76  -9.8699    110.9987    221.1090   1.2516226296e+02   1.7377884540e+01    0.2420038    0.1464032 -58.18  0.001366709    2.066    0.516
        77 -11.4210     72.8758    210.0533   1.3138383549e+02   2.4090565281e+01    0.3882036    0.2190444  28.31  0.001684149    1.999    0.500
        78 -10.7481     70.7309    218.8365   1.3245346233e+02   2.2896320930e+01    0.3475187    0.2320598 -86.07  0.002354573    1.614    0.380
        79  -9.7844     67.8267    214.6091   1.3267954703e+02   2.3928627344e+01    0.1663627    0.1302022  84.46 0.0004735297    1.275    0.216
        80 -10.7232    245.5310    220.4468   1.0074571733e+02  -2.5941061482e+00    0.2071605    0.1003683 -24.27  0.001223107    2.216    0.549
        81  -9.3305    164.5520    220.4453   1.1503238056e+02   9.6070177273e+00    0.1778829     0.106592 -26.60 0.0006295115    2.362    0.577
        82  -9.5175    104.9029    218.8562   1.2608904091e+02   1.8556535225e+01    0.1677374    0.1272583  49.80 0.0003116381    1.046    0.044
        83 -10.0954     99.8108    217.4656   1.2691824756e+02   1.9458910593e+01    0.1845678     0.165517  -7.88  0.001026061    1.570    0.363
        84  -9.0032    119.3278    217.2111   1.2318635695e+02   1.6804369486e+01    0.1344925    0.1044035 -81.84 0.0002539757    1.636    0.389
        85  -9.1979     93.8057    217.0020   1.2800953004e+02   2.0325015831e+01    0.1785623    0.1042524  69.57  0.001063761    2.001    0.500
        86  -9.7435     88.1947    212.7763   1.2869594927e+02   2.1734091008e+01    0.1928508    0.1419483  87.91 0.0005932196    1.488    0.328
        87  -9.8795    136.2063    227.5881   1.2114863745e+02   1.2870295155e+01    0.2753821    0.1496009 -49.28  0.001676411    2.409    0.585
        88  -9.8433    101.8994    211.6682   1.2595993771e+02   2.0101947591e+01    0.2526865     0.106337  49.83  0.001296997    2.084    0.520
        89 -10.6509    107.2969    209.3691   1.2467757560e+02   1.9730078222e+01    0.3534216    0.2687376  -1.75  0.001460253    2.087    0.521
        90 -10.6522    112.5736    208.3354   1.2353453019e+02   1.9153706786e+01    0.2120582    0.1718156  40.17 0.0003506194    1.097    0.089
        91  -9.2195    134.7711    208.0376   1.1914169262e+02   1.5933138942e+01    0.1772838    0.1311651  -7.88  0.001066604    2.007    0.502
        92 -11.9770     93.3879    202.6972   1.2673771710e+02   2.2735432895e+01    0.4328228    0.3721091  74.33  0.003210296    1.168    0.144
        93  -8.9338     32.9396    206.9967   1.3860785987e+02   2.8928747721e+01    0.1294341    0.1135611 -56.32 0.0004613041    1.613    0.380
        94 -10.8819    247.1480    205.9335   9.8103940167e+01  -1.4199413812e+00    0.3137193    0.1344792  22.50  0.001521892    2.369    0.578
        95  -9.1005    125.7983    205.7814   1.2063499446e+02   1.7633788335e+01    0.1628225    0.1179628  54.87 0.0005094559    1.310    0.237
        96  -9.8765    166.9826    203.2403   1.1219334885e+02   1.1571427361e+01    0.1720754    0.1278505  35.46  0.001089959    1.074    0.069
        97  -9.5641    102.9674    202.8559   1.2484584738e+02   2.1403855825e+01      0.32053    0.1575494  45.13  0.001769789    1.652    0.395
        98  -9.8115     64.1611    202.0719   1.3243029153e+02   2.6486039100e+01    0.2269601    0.1432172  27.58 0.0005207519    1.815    0.449
        99 -10.5364     32.6892    201.8650   1.3838298366e+02   2.9841225937e+01    0.1690736    0.1292032  55.86 0.0003285761    1.109    0.098
       100  -9.3740    196.5428    200.4949   1.0613162985e+02   7.1134448240e+00    0.1266461   0.09760211  24.37 -3.236814e-06    1.010    0.010
       101  -8.8396    183.1917    200.4099   1.0864151276e+02   9.3153159862e+00    0.1660558   0.09918685  43.99  0.000307923    1.515    0.340
       102  -8.8470    149.6757    203.6953   1.1564485251e+02   1.4278679416e+01    0.1207792   0.08621234  14.32 0.0005483097    1.642    0.391
       103  -9.5456    119.9616    199.4391   1.2103955901e+02   1.9526451374e+01    0.1660262     0.147255  52.08 8.248987e-05    1.095    0.087
       104  -9.9707    115.0756    200.1373   1.2211061857e+02   2.0131467299e+01    0.1740538    0.1429185  45.85  0.000320059    1.008    0.008
       105  -9.8131     44.0735    199.4309   1.3610612716e+02   2.9142337983e+01    0.2430293    0.1771652  46.39  0.001358454    1.220    0.180
       106  -9.0187    250.6502    199.6992   9.6456750091e+01  -1.3105895149e+00    0.1274062   0.06932283  14.78  0.000703825    1.692    0.409
       107  -8.4416     86.2662    199.2594   1.2782298894e+02   2.4264726607e+01    0.1440411     0.121338  23.52 0.0001906064    1.424    0.298
       108  -9.1526     85.8312    195.8242   1.2757614657e+02   2.4923418199e+01    0.1977026    0.1488995  86.76 0.0002830445    1.400    0.286
       109  -9.3781    134.0389    197.7411   1.1797180993e+02   1.7658581692e+01    0.1699383    0.1362434  39.85 0.0002920128    1.024    0.024
       110  -9.1820    133.6957    194.3859   1.1759422888e+02   1.8254676403e+01    0.1614075    0.1424558  36.98 0.0002921359    1.076    0.071
       111 -10.1639     98.9625    197.0869   1.2503590794e+02   2.2940208650e+01    0.4668072    0.1620097  47.87  0.001427323    2.561    0.609
       112  -9.3764    102.6817    195.7314   1.2412790281e+02   2.2656113036e+01      0.18672    0.1563511 -25.34 0.0003766491    1.661    0.398
       113 -11.5255     64.1225    194.9280   1.3186951620e+02   2.7757261008e+01    0.2934508    0.2254988 -46.66  0.001598085    1.781    0.438
       114 -11.7972     69.6991    187.4419   1.3008878576e+02   2.8464014332e+01    0.2664684    0.2416246  -5.46  0.000737974    1.548    0.354
       115  -9.9191     32.3650    189.9595   1.3777715488e+02   3.2001456837e+01    0.3018702    0.1636709  41.57  0.002003212    1.591    0.372
       116 -12.4501     37.9788    194.2880   1.3695221881e+02   3.0674236587e+01    0.2381833    0.1735595 -83.21 0.0005023216    1.336    0.251
       117  -9.6086     40.6925    188.1613   1.3603267386e+02   3.1523660107e+01    0.2259553    0.1488414  67.59 0.0009445229    1.277    0.217
       118  -8.7595    107.6433    196.2796   1.2317419883e+02   2.1857261815e+01    0.1251464   0.07693323  58.77 0.0004804274    1.660    0.398
       119 -11.0055    249.3199    194.1517   9.5702188991e+01  -5.4258445098e-01    0.3408252    0.2037985  19.13  0.002063691    1.367    0.269
       120  -9.4256    113.0803    195.5583   1.2197541163e+02   2.1192015139e+01    0.2561259    0.1246731  49.23   0.00131482    1.852    0.460
       121  -8.9648    113.0000    192.0062   1.2156241092e+02   2.1811783795e+01    0.1555176    0.1395609   4.72 0.0003261096    1.374    0.272
       122  -9.3900     31.5943    195.2907   1.3822870741e+02   3.1109018013e+01    0.2608933   0.09075104  43.91   0.00146626    2.172    0.540
       123  -9.7055     20.4691    192.4175   1.4017419469e+02   3.2632657723e+01    0.3125513    0.1316021  81.70  0.001799553    2.305    0.566
       124  -9.7871    159.9396    194.1133   1.1222845561e+02   1.4056645338e+01    0.1902978    0.1569126  32.97 0.0004274802    1.017    0.017
       125  -9.7689    120.7187    191.6788   1.1991681842e+02   2.0711224529e+01    0.3852584    0.2450436 -45.62  0.002089335    1.929    0.482
       126  -9.0181    118.2039    190.0108   1.2022733129e+02   2.1377783609e+01     0.159646    0.1424746  55.06            0    1.087    0.080
       127  -9.6587     72.8773    193.0511   1.2994571669e+02   2.7053670525e+01    0.1639669    0.1381121  57.66 0.0003943783    1.055    0.052
       128  -9.1890     25.6606    192.3382   1.3919288329e+02   3.2187498809e+01    0.1949115    0.1203979  62.00  0.001330304    1.281    0.219
       129 -10.0063    191.4926    191.4518   1.0560264697e+02   9.1414273110e+00    0.2239708    0.1773787  23.27 0.0006190677    1.023    0.023
       130  -9.0045     84.7287    192.4071   1.2746210801e+02   2.5675028018e+01    0.1462414    0.1008638  32.80 0.0002518749    1.451    0.311
       131 -11.1492     15.1315    190.0974   1.4106464844e+02   3.3504452600e+01    0.2603636    0.2002928  79.79   0.00205337    1.114    0.102
       132 -14.3191     30.4784    245.9897   1.4075996649e+02   2.2984504841e+01     1.581793     0.805573  34.55    0.0115973    1.859    0.462
       133  -9.2071    135.2855    190.0411   1.1666971156e+02   1.8716165607e+01     0.162969    0.1464698  43.24 0.0003564963    1.083    0.076
       134 -11.0394    250.0621    187.5212   9.4385075804e+01   4.2205591333e-02    0.3333806    0.1604951 -19.22  0.001757323    2.099    0.524
       135 -10.0870     76.9302    188.4592   1.2868497565e+02   2.7387807192e+01    0.2291779    0.1735746 -84.01  0.001072894    1.364    0.267
       136  -8.8068    111.3647    188.1588   1.2142938788e+02   2.2723482682e+01    0.1553955    0.1129943 -80.82  0.000825857    1.692    0.409
       137 -10.1397     24.1707    184.4387   1.3905924833e+02   3.3766480363e+01    0.1924524    0.1670935  85.04  0.001408964    1.218    0.179
       138  -9.9642     30.0041    183.7939   1.3787601480e+02   3.3360907372e+01    0.2210757    0.1763706 -80.73  0.001139668    1.282    0.220
       139  -8.9177    154.7074    184.6714   1.1184172852e+02   1.6396026380e+01    0.1270573   0.09360332   8.45 0.0006120117    1.625    0.385
       140 -10.4783    140.8110    183.5134   1.1456799495e+02   1.8905827895e+01    0.3823799    0.1851593  53.05  0.001220205    2.386    0.581
       141  -9.2344     37.2228    184.2258   1.3646509456e+02   3.2597294943e+01    0.1853874    0.1142679  37.10  0.001243331    1.558    0.358
       142  -9.5426    126.1781    180.1114   1.1719043285e+02   2.1863635894e+01    0.2196896    0.1736462 -89.56  0.001199785    1.604    0.377
       143  -9.6826    115.3652    177.5869   1.1918407722e+02   2.4010825646e+01    0.3010775    0.1841683 -65.68  0.001615972    1.994    0.499
       144  -9.0343     47.7774    179.6774   1.3398600655e+02   3.2393689703e+01    0.1520052   0.08225855  44.23 0.0005782644    1.585    0.369
       145 -10.0096     20.0024    179.0368   1.3958867289e+02   3.5136416400e+01    0.1538716     0.123922  73.51  0.000456164    1.068    0.063
       146  -8.6411     92.5442    178.4343   1.2428370645e+02   2.7193598355e+01    0.1204197    0.1044824  53.84 -1.165236e-05    1.026    0.025
       147  -9.4562    121.9423    175.5600   1.1745605936e+02   2.3349731152e+01    0.1727446    0.1598659  56.89 0.0003259773    1.088    0.081
       148 -11.2639     78.7975    175.3325   1.2693963814e+02   2.9619126468e+01    0.2798163    0.2215538  35.36 0.0009703033    1.286    0.222
       149  -9.6591     64.4714    175.4603   1.3007676709e+02   3.1355374238e+01    0.2938509    0.1684195  51.21 0.0008054805    1.535    0.349
       150 -10.7402     66.9074    172.3182   1.2923740488e+02   3.1679399783e+01    0.4368942    0.2590728  80.87  0.002457293    1.897    0.473
       151 -12.3127    248.2384    171.8600   9.1742485864e+01   2.0566578499e+00    0.5406012    0.3671688  30.62  0.003301998    1.294    0.227
       152 -13.5921    245.1455    158.4173   8.9588458925e+01   4.1471478003e+00     1.823185    0.7910888 -38.49  0.008082587    2.834    0.647
       153 -13.2226    248.3323    114.6666   7.9476390369e+01   9.0618899309e+00     1.469356    0.8377473  -9.27  0.006921173    1.876    0.467
       154 -11.0475    249.5559    151.1251   8.7346418873e+01   4.2686520014e+00    0.4852059     0.285944 -27.17  0.002628496    1.640    0.390
       155 -11.8252    247.9995    142.5335   8.5781998477e+01   5.5913253776e+00     0.678735     0.458926  13.63  0.003094533    1.360    0.265
       156 -12.5871    248.6045    134.0692   8.3837956076e+01   6.5387277143e+00    0.9841079    0.6352571 -25.01  0.005383198    1.447    0.309
       157  -9.5566    107.2968    172.9917   1.2033628894e+02   2.6088743433e+01    0.1708074    0.1531423  68.52  0.001123933    1.103    0.093
       158  -9.1266     95.3519    172.6444   1.2295665087e+02   2.7899006997e+01    0.1841341    0.1242854  65.19 0.0005162826    1.575    0.365
       159  -9.0548     53.7300    171.4789   1.3204182917e+02   3.3348233433e+01    0.3503744    0.1056646  44.08  0.001596092    2.712    0.631
       160 -10.5429     28.5701    170.5826   1.3734774852e+02   3.6013742712e+01     0.298328    0.1680476 -69.90  0.001916771    1.701    0.412
       161 -12.8564    248.1198    101.5546   7.6405292923e+01   1.0796363574e+01    0.8546957    0.5818331 -24.24  0.004577694    1.326    0.246
       162 -11.0245     44.5832    168.2809   1.3375991721e+02   3.4941974990e+01    0.3958516    0.3586217 -67.31  0.003016899    1.305    0.234
       163 -12.1604     86.8057    166.9522   1.2417291880e+02   3.0193491500e+01    0.5748847    0.4273138  45.05  0.003575173    1.212    0.175
       164 -10.6476     89.4796    159.3961   1.2257692595e+02   3.1331520916e+01    0.4142587    0.2261332 -73.28  0.001360044    2.185    0.542
       165  -9.4132    126.6522    167.7916   1.1523794265e+02   2.4005395581e+01    0.2451369    0.1502733  59.36 0.0009990218    1.952    0.488
       166  -9.7277     68.8986    166.8968   1.2823226109e+02   3.2511598155e+01     0.180198    0.1474006  69.34  0.000518602    1.088    0.080
       167  -8.8453     58.4934    167.4838   1.3062518410e+02   3.3612213312e+01      0.11679   0.09832444  69.12 0.0008104288    1.006    0.006
       168  -8.7707     53.7710    164.9939   1.3144375909e+02   3.4633854278e+01    0.1427536   0.08784787 -75.11 0.0003802876    1.567    0.362
       169  -9.3379     32.9982    164.9838   1.3602122151e+02   3.6717195838e+01    0.1658884    0.1352958  79.66 0.0003758428    1.041    0.040
       170 -10.5086     39.7699    162.0643   1.3431167779e+02   3.6664329380e+01    0.3071863    0.1638214  22.99  0.001227934    2.346    0.574
       171  -9.1745     78.9873    158.6874   1.2495556575e+02   3.2896540487e+01    0.1681281    0.1427647  51.12 0.0005977167    1.092    0.084
       172  -9.0687     81.9520    156.2309   1.2393982365e+02   3.3006432888e+01     0.170048    0.1170315  26.53 0.0004291213    1.634    0.388
       173  -8.7866    112.3820    157.7793   1.1694358092e+02   2.8224820840e+01    0.1550168    0.1241509 -46.10 0.0002519506    1.395    0.283
       174  -8.4542     52.3134    158.3275   1.3113944309e+02   3.6146288472e+01    0.1104623   0.08710029 -39.96 0.0007043021    1.669    0.401
       175 -10.8692     23.9609    149.4863   1.3690690126e+02   4.0653906176e+01     0.220517    0.1636872 -79.38 0.0008303873    1.205    0.170
       176 -11.2998     31.9289    155.8227   1.3557211382e+02   3.8665726950e+01    0.3681898    0.2115564 -54.34  0.002215947    1.971    0.493
       177 -12.2941     23.3765    155.5415   1.3746575096e+02   3.9459132115e+01    0.4281146    0.3691405  66.82  0.003334766    1.129    0.114
       178  -9.3654    228.3758    155.3018   9.1865537068e+01   7.4898002093e+00    0.1691511     0.117708 -31.47 0.0004920951    1.561    0.360
       179 -10.8037     98.9672    151.3725   1.1915445071e+02   3.1585375094e+01    0.3262524    0.2898439 -44.78  0.001279666    1.262    0.208
       180  -9.5796    102.0194    146.4852   1.1763622825e+02   3.2123764055e+01    0.3509834    0.1886256 -37.25  0.001274231    2.629    0.620
       181  -9.8263     72.7014    156.3528   1.2615374073e+02   3.4181453008e+01    0.3199494    0.1565895  43.14  0.001510612    1.860    0.462
       182  -9.9831    113.8772    150.6796   1.1543473383e+02   2.9389117674e+01    0.2848546    0.2175271 -56.50 0.0007302301    1.409    0.290
       183  -9.9764     60.5102    151.1650   1.2845813251e+02   3.6725665784e+01    0.2650831    0.1377879  55.81  0.001364012    1.960    0.490
       184 -10.7962     55.7310    149.3070   1.2940280139e+02   3.7653571320e+01    0.5113357    0.3636794  63.35  0.003201856    1.328    0.247
       185  -9.4005     86.8320    151.0431   1.2205870772e+02   3.3410139742e+01    0.2014108    0.1578862  72.99 0.0008284834    1.309    0.236
       186  -9.1859     31.0450    150.5452   1.3535872532e+02   3.9833064912e+01    0.1635148     0.104854  33.80  0.001044183    1.637    0.389
       187 -12.5924     67.9471    144.4102   1.2582131797e+02   3.7278080567e+01    0.6536395    0.4438882  71.37  0.002744671    1.564    0.360
       188 -11.3821     39.0103    146.5318   1.3314095719e+02   3.9948569283e+01    0.3852037    0.1716474  40.65   0.00205611    2.077    0.518
       189 -10.8480    133.3339    142.2311   1.0920941801e+02   2.7706379610e+01    0.6890115    0.2410362 -51.59  0.002451639    3.289    0.696
       190 -10.5398    236.3239    145.9895   8.8499248711e+01   7.2576859085e+00    0.2664358    0.1826333  34.01 0.0008284699    1.340    0.254
       191  -8.8080     88.2778    146.3647   1.2102430398e+02   3.4183217723e+01    0.1265297   0.09849668 -29.24  0.000624992    1.674    0.403
       192 -11.6364     32.7048    140.3869   1.3410210395e+02   4.1828683069e+01    0.3239883    0.1638928 -87.96   0.00103866    1.931    0.482
       193  -9.7173     25.7495    139.4351   1.3570837615e+02   4.2618764006e+01      0.13528    0.1120686   7.72 0.0009493149    1.622    0.383
       194 -11.1986     60.2819    136.7848   1.2678370381e+02   3.9830979418e+01    0.3370483    0.2106804  88.68  0.001384515    1.759    0.431
       195 -11.1914     73.2186    139.2252   1.2378958898e+02   3.7734664498e+01    0.3685663    0.3453195  27.63  0.001047312    1.206    0.170
       196 -10.1750    110.5635    136.2386   1.1371513235e+02   3.2880646806e+01    0.3299168    0.2396855   8.53  0.001332375    1.892    0.471
       197 -10.2978     79.9141    132.0985   1.2097852027e+02   3.8402610516e+01    0.3397716    0.1907984  62.21 0.0006865481    2.279    0.561
       198 -11.3654     45.3149    131.2540   1.2998674969e+02   4.2638429957e+01    0.3874565     0.246001  74.01  0.001694376    1.643    0.392
       199 -12.6946     20.3860    121.5994   1.3552350780e+02   4.6892512306e+01    0.4464345     0.337637   2.38  0.002997742    1.809    0.447
       200 -12.0901     41.4067    205.1502   1.3695568758e+02   2.8412733517e+01     1.355549   0.09459855  39.86  0.005432481    4.312    0.768
       201 -12.6884     11.7444    127.1792   1.3819292877e+02   4.6273113665e+01    0.5618548    0.3084715   6.35  0.003199845    2.766    0.639
       202  -9.5157     85.0868    173.9471   1.2539762314e+02   2.9061823360e+01    0.1869414    0.1407374  61.13 0.0003483111    1.224    0.183
       203 -11.6298     67.0966    128.3821   1.2383031305e+02   4.0874194667e+01    0.3896632    0.3076749 -83.20  0.002363019    1.233    0.189
       204  -9.8872    116.7178    128.6239   1.1066350542e+02   3.3419139348e+01    0.3595745    0.2158392  -8.31  0.001166695    4.481    0.777
       205  -9.0413     74.3073    128.6149   1.2192537871e+02   3.9913607958e+01    0.1396263   0.09284325  73.13 0.0007019517    1.802    0.445
       206 -10.5117    209.8335    125.7171   8.8773907717e+01   1.5249396882e+01    0.2824711    0.2317618 -11.20 0.0004963274    1.154    0.134
       207  -9.1688    234.2978    125.3266   8.4252371133e+01   1.0378948768e+01     0.145888   0.09488035  10.55 0.0003082627    1.632    0.387
       208 -10.1401     38.0395    121.4867   1.3079012809e+02   4.5491464431e+01    0.1827068    0.1429393 -78.80 0.0003489166    1.113    0.102
       209 -11.5485     32.1829    120.1473   1.3222851904e+02   4.6298003038e+01    0.4349101    0.2194652  77.38  0.002133419    2.341    0.573
       210 -10.2169     54.9152    120.5502   1.2602513416e+02   4.4030374444e+01    0.2757762    0.2092862  -1.84  0.001145032    1.812    0.448
       211 -11.9174     15.1209    114.6038   1.3629888019e+02   4.8796401436e+01    0.2829514    0.2024398 -78.86  0.001912048    1.147    0.128
       212 -11.0230    168.2581    113.4661   9.4487150589e+01   2.6154431078e+01    0.3627053     0.320676 -89.97 0.0009941774    1.508    0.337
       213  -9.3681    203.7599    111.4375   8.6484780481e+01   1.8721569928e+01    0.2132547    0.1276264  35.43 0.0009447948    1.641    0.391
       214 -10.1674     31.5895    110.8999   1.3133675996e+02   4.8424428825e+01    0.2094224    0.1638852  46.57 0.0005319867    1.359    0.264
       215  -9.4734     57.9803    109.6596   1.2348253689e+02   4.6163574364e+01    0.2160733   0.06899203  49.11 0.0007050177    4.374    0.771
       216  -9.7043    231.9888    116.5199   8.2585521030e+01   1.2039623725e+01    0.2020463    0.1324999  44.30  0.000511283    1.538    0.350
       217 -11.8819     31.3569    127.0023   1.3316738068e+02   4.4848367157e+01    0.3703457    0.2430473  57.26  0.001689044    1.498    0.332
       218  -9.1988     42.8147     92.1645   1.2524096420e+02   5.1745501770e+01    0.1707045    0.1308802 -43.84 0.0002657067    1.316    0.240
       219  -9.6847     23.8575     88.1686   1.3075871254e+02   5.4189873893e+01    0.1659663    0.1233661 -49.10 0.0004331799    1.307    0.235
       220 -10.5926    250.0510     86.7006   7.2510864616e+01   1.2311012937e+01    0.1905055    0.1694826   8.16 0.0005497475    1.073    0.068
       221  -8.9314     77.8548     85.1722   1.1228683081e+02   4.9223611991e+01    0.1800442     0.152553 -24.28 0.0002333084    1.251    0.200
       222  -8.7368     64.0031     76.6860   1.1488294031e+02   5.3006737874e+01      0.14632    0.1250926  25.82 0.0008551838    1.284    0.221
       223 -11.3397    201.3448    246.2369   1.1185414980e+02   1.1818217236e+00    0.3326134    0.1496132  42.36 0.0009631545    1.835    0.455
       224 -10.4478    193.7829    245.0623   1.1298724830e+02   2.3758804182e+00    0.1861294    0.1298813  34.40 0.0003014127    1.127    0.113
       225 -11.0527     56.3835    195.8209   1.3347344985e+02   2.8473848751e+01     1.256622    0.4094888 -66.75  0.006270421    3.076    0.675
       226 -10.8814    189.9125     15.6761   6.1085705717e+01   3.5336942046e+01    0.2790641    0.2097782 -31.71 0.0009324854    1.351    0.260
