#   1 NUMBER                 Running object number                                     
#   2 MAG_AUTO               Kron-like elliptical aperture magnitude                    [mag]
#   3 X_IMAGE                Object position along x                                    [pixel]
#   4 Y_IMAGE                Object position along y                                    [pixel]
#   5 X_WORLD                Barycenter position along world x axis                     [deg]
#   6 Y_WORLD                Barycenter position along world y axis                     [deg]
#   7 A_WORLD                Profile RMS along major axis (world units)                 [deg]
#   8 B_WORLD                Profile RMS along minor axis (world units)                 [deg]
#   9 THETA_WORLD            Position angle (CCW/world-x)                               [deg]
#  10 FWHM_WORLD             FWHM assuming a gaussian core                              [deg]
#  11 ELONGATION             A_IMAGE/B_IMAGE                                           
#  12 ELLIPTICITY            1 - B_IMAGE/A_IMAGE                                       
         1 -16.1798    241.5213     19.1779   6.0703430398e+01   2.3339034395e+01     2.044059     1.300153 -70.85   0.01166208    1.424    0.298
         2 -17.5298    248.1401     32.6494   6.2894983876e+01   2.0143462615e+01     8.038314     6.573694  57.66   0.02822876    1.469    0.319
         3 -15.8539    249.3869     17.6553   5.9692944455e+01   2.1786091101e+01     2.017483    0.5598428 -48.29    0.0081245    3.054    0.673
         4  -9.3862     92.5620     10.7258   8.2023567061e+01   5.8792877792e+01    0.2151706    0.1170297 -15.20  0.001074108    2.034    0.508
         5  -8.7899    165.1447      5.3558   6.6019982309e+01   4.3002256093e+01    0.2593782    0.1798945 -12.75 0.0005817182    1.850    0.459
         6  -9.1667    128.4894      5.4810   7.2035514910e+01   5.1625473820e+01    0.1298994     0.107528  48.43 0.0001102577    1.036    0.035
         7  -9.0487    158.5682      3.4760   6.6430518021e+01   4.4752555529e+01    0.2856536     0.197953  35.92  0.001069476    1.606    0.377
         8 -10.6189    160.7250    128.3225   1.0102623691e+02   2.4172753092e+01    0.5013351    0.3594021 -64.48  0.002197266    1.625    0.385
         9  -9.8762    219.3871    181.8483   1.0063597669e+02   8.1341602597e-01    0.2400958    0.1939329  51.39 0.0007801476    1.364    0.267
        10  -9.4502    214.8752    182.6903   1.0168227581e+02   1.5303802386e+00    0.3697957    0.1243918  39.97  0.001270434    3.066    0.674
        11  -9.8773    222.0395    178.0128   9.9337469909e+01   9.8655792863e-01     0.433251    0.3343483  89.87   0.00210326    2.125    0.529
        12 -10.8392    223.8647    171.6609   9.7663205274e+01   1.7700605274e+00    0.8639445    0.4790335  58.47  0.003568546    2.521    0.603
        13 -10.3437     45.7465    175.4981   1.3796130795e+02   3.3410806175e+01    0.4922581    0.2216639  89.89  0.001961973    3.072    0.675
        14  -8.3103    250.4830    175.4730   9.3633511168e+01  -3.8024324875e+00     0.134027    0.1188859 -13.43  6.64547e-05    1.010    0.010
        15  -8.9389    241.7406    174.1904   9.4905910659e+01  -2.0324482791e+00    0.2854311    0.2003964  47.36  0.001510877    1.569    0.363
        16  -8.1525    194.6463    172.3446   1.0359879797e+02   7.5227568071e+00    0.1526337    0.1190947  89.33 0.0007038695    1.821    0.451
        17 -10.5574    229.7404    166.4936   9.5469150338e+01   1.5566437486e+00    0.3657492    0.2697186 -73.14  0.001730699    2.129    0.530
        18  -8.8603     37.3075    164.6489   1.3855529142e+02   3.6863399298e+01    0.1339423   0.08153514  76.39 0.0007043104    1.712    0.416
        19 -12.0180     68.3949    144.6688   1.2805988863e+02   3.7764304882e+01     1.211101    0.8523791  53.70  0.004421952    1.520    0.342
        20 -11.2282     50.7301    161.4318   1.3502902151e+02   3.6076264883e+01    0.3688348    0.3334176 -50.21 0.0009213469    1.319    0.242
        21 -12.1446     58.2425    156.7702   1.3256060070e+02   3.6239309003e+01    0.8513111    0.6854619 -78.76  0.003101957    1.071    0.066
        22 -11.6679     64.4016    152.1143   1.3031998847e+02   3.6535999147e+01    0.6738032    0.4575543  87.42  0.001661822    1.610    0.379
        23  -8.1095    155.5099    159.7206   1.0946208737e+02   1.8430257282e+01    0.2084789    0.1481806 -62.16 0.0009116955    1.564    0.360
        24  -8.6039     25.9804    230.9558   1.4685030161e+02   2.3830718702e+01    0.1683283    0.1271777  81.92 0.0005210195    1.099    0.090
        25  -9.9104    171.3847    205.8773   1.1498373327e+02   5.7015348801e+00    0.2403056    0.2070377  44.16 0.0002680432    1.062    0.058
        26 -11.8157    186.2482    120.3002   9.3405282149e+01   1.9936761074e+01    0.9098069    0.5444491 -52.29  0.003743281    1.776    0.437
        27  -8.9411    118.0410    150.4885   1.1650438964e+02   2.8156624727e+01    0.2410996     0.199671 -43.21 0.0002220077    1.283    0.221
        28 -10.3085    176.8740    119.4523   9.5189204042e+01   2.2310463888e+01    0.4091429    0.3077893 -17.73  0.001450457    1.701    0.412
        29 -11.0505    168.1351    114.2015   9.5783655738e+01   2.5451580631e+01    0.5661107    0.4651045  75.97 0.0008372099    1.361    0.265
        30  -8.0440     91.0326    115.7545   1.1597469714e+02   4.1134552654e+01    0.1987165    0.1762703 -57.14 0.0004176577    1.058    0.055
        31  -9.4329    175.3613    115.1338   9.4426927998e+01   2.3555265433e+01    0.3081421    0.2167377 -60.93 0.0008147918    1.617    0.382
        32  -9.9709    157.3687    113.6686   9.8112788193e+01   2.8077432910e+01    0.4643784    0.2578293 -66.27  0.001522907    3.103    0.678
        33 -10.4667    197.7424    112.2834   8.9091736371e+01   1.8828259812e+01    0.4044164    0.2668212 -73.28  0.001622808    2.190    0.543
        34  -9.9231    134.7355    110.6594   1.0286265584e+02   3.3815624511e+01    0.8942674    0.2233917 -44.90  0.002435027    3.958    0.747
        35  -9.8371    133.2986     99.4542   1.0022003745e+02   3.6504008071e+01     0.644934    0.2947354 -54.95   0.00218335    2.821    0.645
        36  -8.3409    146.9961    158.0328   1.1108009262e+02   2.0598666380e+01    0.2338398    0.2187826  74.40 0.0004376899    1.051    0.049
        37  -9.5694    206.1670    102.9538   8.5184598059e+01   1.8624052607e+01    0.3547154    0.2704529 -71.77  0.001319673    1.501    0.334
        38  -8.3194    203.2269     99.4296   8.4846478752e+01   1.9981242652e+01    0.2563013    0.1970419  65.81 0.0004289054    1.355    0.262
        39  -9.1499    145.6622    102.3929   9.7926259365e+01   3.3127574966e+01    0.2831788    0.2657979  24.75 0.0005810757    1.128    0.114
        40 -10.1012    121.6460    103.1197   1.0427630265e+02   3.8213191938e+01    0.4670919    0.2261983  39.90  0.001784787    2.196    0.545
        41 -10.3234    154.7211     97.1985   9.4347904107e+01   3.2080901051e+01     0.518277    0.3105801  38.40  0.002114155    1.863    0.463
        42  -9.5855    138.9143     92.6966   9.6916787393e+01   3.6629834866e+01    0.3818287    0.3055788 -84.67 0.0007752497    1.580    0.367
        43  -9.5733    204.4358     90.3399   8.2347533156e+01   2.1359842042e+01    0.6167569    0.3231698  66.70  0.002288166    2.268    0.559
        44  -9.7343    196.8514     86.5138   8.2737047718e+01   2.3887307017e+01    0.5921334    0.2999408  47.40  0.002343047    2.087    0.521
        45  -9.3976    127.6032    112.6035   1.0520871744e+02   3.4916468606e+01     0.405179     0.216671 -57.21  0.001537289    2.182    0.542
        46 -10.6802    151.7813     87.8520   9.2441228524e+01   3.4601300547e+01    0.3365935    0.2789702 -35.26 0.0007918737    1.244    0.196
        47 -10.6888    191.1918    115.6878   9.1241670172e+01   1.9701631699e+01    0.4717313    0.3381465  84.69   0.00195204    1.888    0.470
        48 -10.3570    179.5075    148.5026   1.0158367754e+02   1.5624282392e+01    0.3823795    0.3358904  63.23  0.001947661    1.186    0.157
        49  -9.2773    109.7651     75.4015   9.9587160939e+01   4.6204458479e+01    0.2023998    0.1330908  33.29 0.0005040076    1.618    0.382
        50  -9.3448    134.0000    147.0694   1.1182493066e+02   2.5783130090e+01     0.481998    0.1592565 -50.75   0.00150835    3.053    0.672
        51  -9.3487    192.1591    193.5951   1.0840668410e+02   3.9650840162e+00      0.75754    0.3765557 -65.44  0.001824848    8.044    0.876
        52  -9.2041    106.5136     62.0160   9.6302635844e+01   4.9239093494e+01    0.2152068    0.1354591 -36.55 0.0009842652    1.588    0.370
        53  -8.7692    122.4961     54.4776   8.9542016448e+01   4.7120865880e+01    0.1421295    0.1319341  25.09 0.0001573984    1.020    0.019
        54  -9.6900    250.1213    141.9399   8.6605371270e+01   1.9726509748e+00    0.3926763    0.1734086 -28.24   0.00145379    2.815    0.645
        55  -9.6107    183.5934    143.0952   9.9453677829e+01   1.5844583352e+01     0.279958    0.2226273  41.54  0.001349125    1.280    0.219
        56 -11.0460    181.2701    135.6179   9.8192819405e+01   1.7929620085e+01    0.6740204    0.3439109  61.90   0.00232899    2.718    0.632
        57  -9.0755    172.0145     36.0925   7.3533522446e+01   3.7942367828e+01    0.4965977    0.2148407 -47.18  0.001964876    2.621    0.618
        58 -10.1950    186.5171    138.0726   9.7652711427e+01   1.6227984681e+01    0.4277466    0.3133219  50.37 0.0009320498    1.380    0.275
        59 -10.7773    112.5996     30.4675   8.4012482334e+01   5.2577839799e+01    0.3450244    0.2257094   4.00  0.001152185    1.924    0.480
        60  -8.4536    115.9138    135.1846   1.1373652949e+02   3.2142714467e+01    0.2139995    0.1937815  86.81 0.0002925319    1.129    0.114
        61  -9.5429    162.1826     27.7345   7.2817350413e+01   4.1395439179e+01    0.3968841    0.3190067  19.56   0.00183942    1.512    0.338
        62 -10.4647    121.4497     25.7987   8.0285066568e+01   5.1201912161e+01    0.2879938     0.169672 -20.45  0.001252757    1.923    0.480
        63  -7.9529     97.9646    132.0129   1.1776230978e+02   3.6174798523e+01    0.1771272     0.160553 -63.83 0.0003929078    1.034    0.033
        64  -8.9962    171.0786     22.3186   6.9846526033e+01   3.9830572929e+01    0.2667009    0.1949792 -33.49  0.001342801    1.521    0.343
        65  -9.1393     92.0440     19.2612   8.5406241088e+01   5.8027782289e+01    0.2423018    0.1681576 -26.74 0.0006582984    1.522    0.343
        66  -8.6938     92.5009     15.4824   8.3849736909e+01   5.8336721929e+01    0.2197354       0.1155 -28.52 0.0008981514    2.008    0.502
        67  -8.3965    167.0766     13.3082   6.7947371058e+01   4.1769704640e+01    0.1982392    0.1450687  67.11  0.001122269    1.177    0.150
        68 -11.4291      4.5068    173.6708   1.4650866754e+02   3.7943951838e+01    0.4850617    0.3307079 -72.23  0.003329978    1.237    0.191
        69  -9.6535    135.7842    129.8763   1.0742775890e+02   2.9332647853e+01    0.5081466    0.1676627 -41.40  0.001491016    3.452    0.710
        70 -11.8013      7.7849    189.9426   1.4715561027e+02   3.4144858798e+01     0.852748    0.4760422  53.71  0.005408233    1.695    0.410
        71 -10.0583    213.1788    187.5562   1.0299961913e+02   9.8752150933e-01     0.407921    0.2087849  46.92  0.001773186    1.991    0.498
        72 -12.8117     24.1963    176.9740   1.4275939314e+02   3.5423359049e+01    0.8442262    0.6524503 -88.55  0.003629423    1.005    0.005
        73  -9.5990    134.8878    121.7436   1.0566132276e+02   3.1348666668e+01    0.6251209    0.3007466 -55.79  0.002230125    2.400    0.583
