#   1 NUMBER                 Running object number                                     
#   2 MAG_AUTO               Kron-like elliptical aperture magnitude                    [mag]
#   3 X_IMAGE                Object position along x                                    [pixel]
#   4 Y_IMAGE                Object position along y                                    [pixel]
#   5 X_WORLD                Barycenter position along world x axis                     [deg]
#   6 Y_WORLD                Barycenter position along world y axis                     [deg]
#   7 A_WORLD                Profile RMS along major axis (world units)                 [deg]
#   8 B_WORLD                Profile RMS along minor axis (world units)                 [deg]
#   9 THETA_WORLD            Position angle (CCW/world-x)                               [deg]
#  10 FWHM_WORLD             FWHM assuming a gaussian core                              [deg]
#  11 ELONGATION             A_IMAGE/B_IMAGE                                           
#  12 ELLIPTICITY            1 - B_IMAGE/A_IMAGE                                       
         1 -13.2485    218.7402     52.4237   9.0981290993e+00   2.5261948937e+01     1.209889     1.031287  -4.26  0.006827827    1.473    0.321
         2 -12.9603    235.8640     40.3367   4.5099088381e+00   2.3330223335e+01    0.8378747    0.6012331 -43.86  0.002958522    1.108    0.097
         3 -12.4465      2.6356     22.7016   6.6066551424e+01   7.4368725141e+01    0.8222305    0.3566474 -65.25  0.003536494    2.412    0.585
         4 -11.3403      2.5724     11.0398   6.0350283640e+01   7.6705749544e+01    0.3927959     0.211403 -42.20  0.001938372    1.469    0.319
         5  -9.8367    158.1182      9.1013   3.2198621342e+00   4.4802847846e+01    0.1954689    0.1786974  52.61 0.0004717587    1.199    0.166
         6 -10.2186      2.1269      4.2566   5.6564190446e+01   7.7983414661e+01    0.3934991    0.1281488 -50.54  0.001763274    2.693    0.629
         7 -10.1439     42.1836    233.7000   8.3069469834e+01   1.9402797515e+01    0.6244942     0.166102 -78.35  0.002433239    4.442    0.775
         8 -10.9342     71.8875    243.3300   7.7712854550e+01   1.4215462453e+01    0.6229573    0.2809019  86.78   0.00269394    3.792    0.736
         9 -10.8688     33.6447    249.3117   8.5581921130e+01   1.7373758011e+01    0.7909361    0.1395231  40.55  0.003472932    3.022    0.669
        10 -10.0747     27.6057    250.2557   8.6762286573e+01   1.7813813479e+01    0.2470566    0.2021171  39.32  0.001911134    1.290    0.225
        11 -13.0236     32.8365    198.2588   8.2816906433e+01   2.7854945773e+01     1.267169    0.9485252  48.83  0.001477357    1.196    0.164
        12 -12.9049     20.8305    185.7296   8.4816725502e+01   3.1926390432e+01    0.9668549    0.5598531 -32.81  0.004583307    3.004    0.667
        13 -15.5110     30.3687    177.4771   8.1870998253e+01   3.2998099685e+01     11.14753     3.982719  86.67   0.03901882    3.662    0.727
        14 -11.6868    126.0223    229.6998   6.5162261032e+01   9.6629023735e+00    0.3837697     0.327335 -57.48  0.002321482    1.386    0.278
        15 -11.5083    131.4784    227.5044   6.3749333124e+01   9.2923051506e+00    0.3386865    0.3298858 -15.71  0.002412267    1.169    0.145
        16  -9.4572     47.4157    230.6736   8.1807473302e+01   1.9423555208e+01    0.2594371    0.1279174 -79.59  0.001032513    2.151    0.535
        17 -11.4769    109.8103    230.0760   6.8607391950e+01   1.1799934601e+01    0.3987828    0.1916006  44.99  0.001995496    1.894    0.472
        18 -10.2731    144.1449    229.8447   6.1443967432e+01   7.1446943306e+00    0.1821763    0.1542901  40.78 0.0006169413    1.206    0.171
        19  -9.3200     36.1962    227.9187   8.3955231614e+01   2.1177505379e+01    0.2383876    0.1352616 -71.69  0.001013844    1.842    0.457
        20 -14.6044      9.2763    206.7144   8.8547271514e+01   2.8206040868e+01     1.438397     1.225902  31.39  0.005462801    1.405    0.288
        21  -8.8416    142.2088    215.7845   5.9901355168e+01   9.8331499372e+00    0.1959137    0.1522409 -49.88 0.0005464948    1.458    0.314
        22  -8.6530    168.2821    207.1926   5.3152426283e+01   7.5111000886e+00    0.1692743     0.113303 -50.33 0.0007458637    1.767    0.434
        23  -8.7785    130.0583    205.6911   6.1070011364e+01   1.3497136102e+01    0.1820538    0.1554765  27.97 0.0005290055    1.072    0.067
        24 -11.2374     93.9546    201.7710   6.8786428411e+01   1.9564266481e+01    0.4485948    0.2035929  22.54  0.001753946    2.950    0.661
        25 -10.7657     82.9905    204.5003   7.1668601129e+01   2.0484762118e+01    0.2847867    0.2515492  -3.58  0.001760123    1.406    0.289
        26 -11.1421     86.7829    203.3851   7.0657029372e+01   2.0211215712e+01    0.4116388    0.2785268  31.97   0.00225024    1.422    0.297
        27 -13.3942      3.9241    236.5352   9.0705243152e+01   2.2592800006e+01    0.6338141    0.4371319 -65.77  0.004492832    1.788    0.441
        28 -10.6257    110.7244    197.5599   6.4302538955e+01   1.8029148999e+01    0.3804125    0.1349129  27.88  0.001299731    3.442    0.709
        29 -10.9935     82.8308    195.9661   7.0716293578e+01   2.2371509227e+01    0.5623924    0.2893461  38.19  0.002668995    1.754    0.430
        30 -10.4425    117.2739    196.1906   6.2578287735e+01   1.7330969460e+01    0.3162844    0.1770084  25.30  0.001221968    1.946    0.486
        31  -9.3319    105.2836    196.3091   6.5405483728e+01   1.9100658954e+01    0.1296984    0.1040911 -17.63 0.0002247132    1.568    0.362
        32 -10.7736    126.9342    193.5301   5.9937063680e+01   1.6396600037e+01    0.3682386    0.2338698 -50.23 0.0008089087    1.659    0.397
        33  -8.8658     79.2651    190.5943   7.0934279766e+01   2.4068792146e+01    0.1875152    0.1286202  23.03   0.00096031    1.639    0.390
        34  -9.0816     78.2212    184.9863   7.0499446593e+01   2.5506969582e+01    0.3702995      0.16056  57.20   0.00136111    3.023    0.669
        35  -9.9736     98.8827    181.2707   6.4800607596e+01   2.3390095224e+01    0.2686206    0.2371538  32.85 0.0006771394    1.139    0.122
        36  -8.7471     92.5137    175.5184   6.5555475184e+01   2.5688535836e+01     0.142049     0.131714  68.33 1.560867e-05    1.028    0.027
        37 -14.2066      6.7888    245.4314   9.0443998041e+01   2.0669090105e+01     1.037322    0.7406898  22.15  0.004287244    1.753    0.430
        38  -8.3838    124.3217    172.6638   5.7070085685e+01   2.1285323074e+01    0.1479767    0.1122645  73.20 0.0007050365    1.710    0.415
        39  -9.5639     71.9087    167.6738   6.9856654729e+01   3.0552908486e+01    0.4146641    0.1971262 -82.28  0.001520199    2.898    0.655
        40  -9.9137    230.5284    166.5198   3.3966870712e+01   4.8935517968e+00    0.2345211    0.1033319 -43.94  0.001037442    2.391    0.582
        41  -9.2588    110.1785    167.0436   5.9622408860e+01   2.4913840393e+01    0.2111357    0.2036017  89.93 0.0004329327    1.038    0.037
        42 -10.6119     87.2330    164.8197   6.5295748387e+01   2.9064544068e+01    0.6331103    0.2650809  52.51  0.001809828    3.017    0.669
        43 -10.9899     52.4723    164.0934   7.4697469715e+01   3.3941246193e+01    0.4255404    0.2951173 -19.71  0.001363635    2.208    0.547
        44 -11.0414     58.3093    159.7767   7.2534463981e+01   3.4333199595e+01     0.315573    0.2700365 -21.08 0.0006733455    1.492    0.330
        45 -12.6175     55.5883    147.3339   7.1608579208e+01   3.7914517833e+01    0.5359581    0.3861129 -23.14 0.0009543722    1.933    0.483
        46 -11.1981     69.6028    158.6059   6.9198167214e+01   3.3156482610e+01     1.084062    0.5216033  72.52  0.003448648    3.951    0.747
        47 -12.1382     77.8450    147.6411   6.5087806534e+01   3.4811743682e+01     1.442926    0.6407166 -56.55  0.003388725    2.089    0.521
        48 -11.4703     69.4393    152.1620   6.8269970953e+01   3.4838336686e+01    0.4559437    0.3522442  64.95 0.0005153022    1.320    0.243
        49 -13.2149     68.7882    144.4982   6.7229184460e+01   3.6930413630e+01     3.145117     1.485211  83.99  0.008144055    5.751    0.826
        50  -9.0197    244.3894    156.1761   2.9695052635e+01   4.4579344776e+00    0.1817914   0.09781127 -40.32 0.0009424653    1.695    0.410
        51 -15.2925      7.9316    220.9510   8.9397189108e+01   2.5323546728e+01      4.99668     1.833277  18.88        0.013    4.190    0.761
        52  -9.5747    134.0941    146.3014   4.9409440625e+01   2.5534444670e+01    0.6561967    0.1564737 -53.59  0.001542572    5.597    0.821
        53 -11.6401     81.2221    133.7103   6.1491225453e+01   3.7934307500e+01    0.4008563    0.2723313 -51.82 0.0006154127    1.411    0.292
        54  -9.7818    106.1205    128.9467   5.3030849400e+01   3.4919605164e+01    0.5553373    0.2672662 -42.08  0.002019026    2.235    0.553
        55  -9.8587     58.7075    225.6794   7.9081212419e+01   1.9130192435e+01    0.2123915     0.183998 -59.69 0.0009436435    1.402    0.287
        56  -9.9405     95.1020    135.0285   5.7594558950e+01   3.5327085424e+01    0.4815612       0.3323 -10.61   0.00196209    2.310    0.567
        57  -9.3219     94.1139    122.0625   5.4998058021e+01   3.8819211784e+01    0.2483202    0.2019763 -26.01  0.001076431    1.424    0.298
        58  -8.3869     65.6853    120.2624   6.3735628392e+01   4.3822291874e+01    0.1505169    0.1118562  69.41 0.0002379474    1.541    0.351
        59 -10.8656     56.9824    234.8462   8.0118500347e+01   1.7537244213e+01    0.2879675    0.1902903 -76.80  0.001441697    1.628    0.386
        60  -9.3317     53.9110    229.6101   8.0384254128e+01   1.8904116709e+01    0.3602322    0.1971331  89.09  0.001990153    2.018    0.505
        61  -9.0496    104.3537    116.8595   5.0622926216e+01   3.8266068572e+01    0.2188323    0.1869202 -46.85 0.0003981461    1.120    0.107
        62  -8.0651    183.6623    116.6818   3.1126350979e+01   2.1939741301e+01    0.1533561     0.115052  -0.77   0.00070491    1.705    0.413
        63  -8.3711    140.7726    158.9619   5.0445296225e+01   2.1465585278e+01    0.1843259    0.1196211 -46.69 0.0008373245    1.516    0.340
        64  -9.5188    205.2853    110.5190   2.5697526201e+01   1.8715139498e+01    0.2575499    0.2358984  34.57 0.0009689274    1.248    0.199
        65 -10.4569     51.8494    109.2417   6.6268541940e+01   4.8627107474e+01     0.320623    0.2334298 -81.88 0.0009303478    1.408    0.290
        66  -9.4106     23.9975    105.2832   7.5817117159e+01   5.2551780138e+01    0.1871981    0.1759027 -68.63 0.0007957327    1.122    0.109
        67 -10.9984     53.3948     95.6683   6.2649100234e+01   5.2054666641e+01    0.4928232    0.2023136 -51.82  0.001857559    2.114    0.527
        68  -9.8786     20.1621     90.8592   7.4935609197e+01   5.6725032089e+01    0.2183389    0.1754273  88.97 0.0005388846    1.239    0.193
        69  -9.7135     62.0726    234.1390   7.9017057610e+01   1.7083207697e+01    0.2255931    0.1523975  78.30  0.000519763    1.517    0.341
        70 -12.4336    208.8150     58.0384   1.1680198017e+01   2.6604275767e+01    0.8946799    0.5554451  39.37  0.003487806    2.245    0.555
        71  -9.4071     43.7469    248.9083   8.3631587698e+01   1.6389075697e+01    0.2295116    0.1571607  32.95  0.001167671    1.391    0.281
        72 -11.6297    228.5116     45.6153   6.4270257716e+00   2.4140254358e+01    0.4284628    0.3511052  42.02  0.001377184    1.617    0.381
        73 -10.2130     56.9852    246.5869   8.0914521251e+01   1.5354304527e+01    0.2470876    0.1537592 -71.73 0.0006405063    1.805    0.446
        74  -8.6157     83.2215     61.9946   4.0498102683e+01   5.5238048017e+01    0.2010304    0.1188267 -42.71 0.0003549906    1.606    0.377
        75 -10.9697      2.2941     49.9816   7.5114767991e+01   6.8200132872e+01    0.4379518    0.0973461 -69.49  0.001454837    3.733    0.732
        76  -9.1285     42.8893     44.7792   5.0816086509e+01   6.5707507635e+01    0.2354771    0.1865983  51.98 0.0007346593    1.644    0.392
        77 -12.0429     11.2173     42.1081   6.7625159168e+01   6.9568012538e+01    0.3477256    0.2988816 -15.50  0.002254357    1.202    0.168
        78 -10.8519     17.9892     27.5173   5.7424414726e+01   7.2183351929e+01    0.2295907    0.1860822  47.41  0.001296434    1.701    0.412
        79 -11.6582     24.7251     33.3355   5.5863721133e+01   7.0314641513e+01     0.393968    0.3797896 -59.97  0.001576344    1.310    0.237
        80 -10.4365     12.5166     32.6542   6.3320160221e+01   7.1581314934e+01    0.2014857    0.1168289  15.33  0.001076069    1.901    0.474
        81 -10.9858     51.1736    242.3881   8.1795729362e+01   1.6771895261e+01    0.4722075    0.2234406 -67.44  0.002049498    2.322    0.569
        82 -10.4023    211.3096    245.8733   5.1032675606e+01  -3.7642225209e+00     0.293268    0.1359881 -31.13  0.001696015    2.155    0.536
        83 -10.6697     10.8696     24.3243   6.0793634891e+01   7.3458722792e+01    0.2070436    0.1584656 -55.69 0.0005558796    1.330    0.248
        84  -9.7657     60.1741     21.4145   3.0858973823e+01   6.6935943157e+01    0.2484539    0.1879717   8.38 0.0006286814    1.358    0.264
        85  -8.9506    189.4826     15.4475   2.0756970846e+00   3.6508116345e+01      0.13281    0.1142212 -63.86 0.0001139894    1.005    0.005
        86  -9.3199    111.8457    243.1945   6.9608728451e+01   9.2431387959e+00    0.1735911    0.1374765  47.53 0.0004621219    1.170    0.145
