#   1 NUMBER                 Running object number                                     
#   2 MAG_AUTO               Kron-like elliptical aperture magnitude                    [mag]
#   3 X_IMAGE                Object position along x                                    [pixel]
#   4 Y_IMAGE                Object position along y                                    [pixel]
#   5 X_WORLD                Barycenter position along world x axis                     [deg]
#   6 Y_WORLD                Barycenter position along world y axis                     [deg]
#   7 A_WORLD                Profile RMS along major axis (world units)                 [deg]
#   8 B_WORLD                Profile RMS along minor axis (world units)                 [deg]
#   9 THETA_WORLD            Position angle (CCW/world-x)                               [deg]
#  10 FWHM_WORLD             FWHM assuming a gaussian core                              [deg]
#  11 ELONGATION             A_IMAGE/B_IMAGE                                           
#  12 ELLIPTICITY            1 - B_IMAGE/A_IMAGE                                       
         1 -14.0380    186.1810     31.5917   6.6420532556e+01   3.5159030018e+01    0.9291738    0.8142675 -85.01  0.003019321    1.042    0.040
         2 -14.5016    193.5891     20.5455   6.2756043086e+01   3.4707466122e+01    0.8144264    0.7395628  41.52  0.001445286    1.379    0.275
         3 -10.3382     48.1592    217.5625   1.3886726548e+02   2.3308343021e+01     0.283065    0.2099259  -4.00  0.001480209    2.911    0.656
         4 -16.1498    121.4586    236.7065   1.2622854149e+02   8.1321667933e+00     7.716819     2.477622  38.77    0.0287347    2.951    0.661
         5 -11.0881     43.4166    214.7045   1.3953781038e+02   2.4537243780e+01    0.3686714    0.1403261  54.41  0.001638341    2.532    0.605
         6 -12.8401    196.1887    196.3562   1.0384108337e+02   2.4189683322e+00     1.100147    0.7696222  82.95  0.004663557    2.752    0.637
         7  -9.9508     59.2210    188.9059   1.3333669140e+02   2.8405886976e+01    0.2184704    0.1359923 -46.74  0.001082203    1.975    0.494
         8 -11.5666    208.1479    185.6351   9.9290698494e+01   2.2160505527e+00    0.3738759    0.2696174   7.36  0.001312808    1.755    0.430
         9 -11.5941    212.6740    181.9446   9.7644977711e+01   2.0660605219e+00    0.3308324    0.2521942 -17.79  0.001138505    1.418    0.295
        10 -12.1651     81.1528    181.0778   1.2713622877e+02   2.7106078809e+01    0.4376124    0.2844852 -40.59  0.001837095    1.996    0.499
        11 -12.3003     84.7465    175.3516   1.2536546977e+02   2.7929914472e+01    0.4755414    0.3765899 -16.36  0.001513204    1.908    0.476
        12 -13.7335     61.8787    210.4248   1.3532392000e+02   2.3063868387e+01    0.8034853     0.483538  50.68  0.001453126    1.537    0.349
        13 -10.6866    197.9926    176.5186   9.9449887128e+01   5.9528649799e+00    0.3255748    0.1825006 -59.09  0.001272248    2.461    0.594
        14 -10.5573     51.9224    208.4252   1.3718124305e+02   2.4854050353e+01    0.2010703    0.1451575  85.24 0.0003790546    1.186    0.157
        15 -11.4597    137.9821    171.0076   1.1162981147e+02   1.9331430804e+01    0.2386654    0.2307004  86.41 0.0006442632    1.014    0.014
        16 -16.0801     69.8387    150.0004   1.2483146173e+02   3.6412573755e+01     4.929617     2.810608  71.06   0.01618333    2.648    0.622
        17 -11.1434    185.0023    168.2249   1.0039714507e+02   1.0279792299e+01    0.3420924    0.2662665 -73.83  0.000901069    1.625    0.385
        18 -11.0688     79.0992    211.2736   1.3177966244e+02   2.0373281209e+01    0.3461185    0.2694029 -40.25  0.001741847    1.780    0.438
        19 -11.7849    107.7867    203.1228   1.2435764462e+02   1.7554923232e+01    0.3111696    0.2380356  14.10  0.001547753    1.916    0.478
        20 -12.3491     96.8027    158.5006   1.1936238950e+02   3.0063837878e+01    0.6246337    0.3895096 -34.16  0.001446986    2.206    0.547
        21 -13.9727     52.4694    230.8445   1.3927496417e+02   1.9890932834e+01     1.041106    0.7815854 -42.95  0.006260571    2.086    0.521
        22 -10.1200     63.9506    230.1896   1.3699446653e+02   1.8463507039e+01    0.1932331    0.1279939  63.36 0.0003699527    1.295    0.228
        23 -10.4674    115.0330    211.0007   1.2394533109e+02   1.4550269052e+01    0.2165845    0.1539503  73.58  0.000336065    1.543    0.352
        24 -11.4437     40.8644    208.1718   1.3942539726e+02   2.6305147174e+01      0.26161    0.1474609  58.91 0.0006873713    1.637    0.389
        25 -10.1626     69.4883    227.7707   1.3565450929e+02   1.8188810961e+01    0.1719188    0.1138964 -75.44  0.000979876    1.437    0.304
        26 -10.3053    174.6776    149.3109   9.8429541183e+01   1.6531155195e+01     0.159121    0.1239825 -87.52 0.0003956176    1.651    0.394
        27 -11.3064    133.7679    144.2560   1.0689955137e+02   2.6467686088e+01    0.9633667    0.1966134 -53.53   0.00190967    7.353    0.864
        28 -11.4123    108.1427    142.0111   1.1300234685e+02   3.2060523033e+01    0.5655938    0.2871969 -36.17  0.002005088    2.707    0.631
        29 -12.3023     96.3792    142.6456   1.1627976394e+02   3.4022536098e+01    0.2786018      0.25729 -42.67 0.0004215967    1.141    0.124
        30 -13.4612     69.8039    196.4829   1.3193128661e+02   2.5141876741e+01    0.7127864    0.5886987  82.78  0.002342903    1.045    0.043
        31 -19.2987     15.7667    131.4144   1.3637290065e+02   4.6876298594e+01      19.0387     1.762584 -68.72   0.03565611   12.429    0.920
        32 -10.9698    115.2935    131.8048   1.0876840702e+02   3.3139130604e+01    0.2856775    0.2530445   2.10  0.000605442    1.351    0.260
        33 -11.5660    104.0087    129.0668   1.1117395999e+02   3.5933467180e+01    0.5290667    0.3819449  84.06  0.001233786    1.904    0.475
        34 -11.4861    160.8780    126.7856   9.6161694381e+01   2.4545626934e+01    0.3686216    0.2241329 -49.89  0.001521675    1.636    0.389
        35 -10.1454    110.4860    120.0881   1.0721747772e+02   3.6815363267e+01     0.212714    0.2087562  65.46 0.0004367018    1.056    0.053
        36  -9.8165      1.3053    206.1846   1.4696076647e+02   3.0942020408e+01   0.08824421   0.07919995 -73.21 0.0002247614    1.448    0.309
        37 -12.6925     42.1089    114.3725   1.2595035038e+02   4.8472308559e+01    0.4632638     0.181024  39.35  0.001956288    2.925    0.658
        38 -10.2943    205.3382    110.1263   8.2902142721e+01   1.7783409301e+01    0.2603293    0.2083403  43.73 0.0008088358    1.392    0.281
        39  -9.2519     42.3079    221.2925   1.4036304729e+02   2.3236005108e+01    0.1076057   0.09192695 -54.85 0.0006910441    1.582    0.368
        40 -10.6356    167.5630    112.6898   9.1094491078e+01   2.6024352205e+01    0.3257231    0.2396138  88.20  0.001410911    1.790    0.441
        41 -11.4885     64.7214    104.8628   1.1687736265e+02   4.7925921060e+01    0.2350656    0.1924501   4.39  0.001071426    1.421    0.296
        42  -9.6209     73.0128    102.0000   1.1358547312e+02   4.7385256388e+01     0.213052   0.08134901  35.09 0.0005719757    2.864    0.651
        43 -13.8840    176.0949     40.5307   7.0213174575e+01   3.6447432466e+01    0.8165548    0.6314036  -5.65  0.001095426    1.795    0.443
        44 -11.8423     87.6028    240.6877   1.3347219487e+02   1.2819206963e+01    0.2602314    0.1950629  81.40 0.0004687297    1.240    0.193
