#   1 NUMBER                 Running object number                                     
#   2 MAG_AUTO               Kron-like elliptical aperture magnitude                    [mag]
#   3 X_IMAGE                Object position along x                                    [pixel]
#   4 Y_IMAGE                Object position along y                                    [pixel]
#   5 X_WORLD                Barycenter position along world x axis                     [deg]
#   6 Y_WORLD                Barycenter position along world y axis                     [deg]
#   7 A_WORLD                Profile RMS along major axis (world units)                 [deg]
#   8 B_WORLD                Profile RMS along minor axis (world units)                 [deg]
#   9 THETA_WORLD            Position angle (CCW/world-x)                               [deg]
#  10 FWHM_WORLD             FWHM assuming a gaussian core                              [deg]
#  11 ELONGATION             A_IMAGE/B_IMAGE                                           
#  12 ELLIPTICITY            1 - B_IMAGE/A_IMAGE                                       
         1 -17.4163    238.8619     54.3475   6.3728690688e+01   2.0034218878e+01     4.161162     3.093692 -56.80   0.01685323    1.170    0.145
         2  -8.6385     80.3656     12.7835   8.0444018075e+01   6.0486416344e+01    0.2691597    0.1839081 -42.17 0.0009583514    1.950    0.487
         3  -8.1593    223.9807      9.1143   5.5981251461e+01   2.9106229299e+01    0.1646605     0.140751  81.67  0.000410153    1.227    0.185
         4  -7.8711    130.4188      6.7327   6.7026655668e+01   5.0640440221e+01    0.1553096    0.1166059   7.92 0.0009450013    1.642    0.391
         5  -8.0990    182.0413      3.2966   5.8850713728e+01   3.9109971306e+01    0.1726978    0.1296391  77.48   0.00031734    1.090    0.082
         6  -8.6385    105.9632      1.7268   7.0137860937e+01   5.6345786605e+01    0.1785147    0.1319231  54.81  0.001149214    1.135    0.119
         7  -8.9389    153.6569    220.3115   1.1523146998e+02   5.5331493015e+00    0.2353878    0.2226208  17.52 0.0004137582    1.094    0.086
         8 -12.3754    205.3841    204.8690   1.0158410147e+02  -7.8479269979e-01     2.350558      1.28592   8.72  0.007775251    4.286    0.767
         9 -11.3375    222.8994    186.9339   9.4632871315e+01  -5.6205590172e-01     1.198663    0.9940336  14.34  0.006857301    1.235    0.190
        10 -11.9426    230.2590    171.6073   9.0138571026e+01   9.6903227325e-01     1.695436     1.153484  11.60    0.0081288    1.995    0.499
        11 -10.8266    246.3921    164.4351   8.5831764973e+01  -5.3742347809e-01    0.6278897    0.4780625  40.06  0.001878116    1.478    0.323
        12 -10.3858    247.3898    159.9130   8.4739726382e+01   1.0414685939e-01    0.5411857    0.3180111  49.44 0.0004110367    2.015    0.504
        13 -11.5945    248.4724    155.0231   8.3557072106e+01   7.9785228143e-01     1.112874    0.6519812 -35.90  0.004911999    1.532    0.347
        14  -9.8719    123.9997    206.0109   1.1945365131e+02   1.3876265647e+01    0.2039418    0.1862086  64.96  0.001156874    1.023    0.022
        15  -7.7707     12.2972    206.6927   1.4380339291e+02   2.9450419613e+01    0.1242952   0.06997878  71.30 0.0007004888    1.590    0.371
        16  -9.2359    192.6322    195.3284   1.0234790505e+02   3.3206660143e+00    0.9554254     0.450813 -63.44  0.002322969    7.504    0.867
        17 -10.1968      3.6514    169.5700   1.4249438281e+02   3.8647845995e+01    0.2974409    0.2087552  58.87  0.001928413    1.455    0.313
        18  -7.7856    102.9472    162.0046   1.1676644939e+02   2.8000238256e+01    0.1789137    0.1609472 -68.34 0.0003916978    1.061    0.057
        19 -11.4655     29.1889    161.4420   1.3562241973e+02   3.8311678130e+01      0.76043     0.722473 -76.24  0.005196281    1.203    0.169
        20 -10.2290    215.4825    153.2544   8.8995937224e+01   7.2673054078e+00    0.2483982    0.2372662 -75.54  0.000256211    1.141    0.123
        21 -10.4219     54.2744    149.8381   1.2747137282e+02   3.8359027577e+01     0.413608    0.3713524 -36.93 0.0009053815    1.260    0.206
        22 -11.9831     66.0886    144.1113   1.2324842278e+02   3.8228701773e+01     1.003252    0.8962817   2.45  0.003272931    1.355    0.262
        23  -9.7619    237.5206    145.0192   8.3286628288e+01   4.6080547893e+00    0.3136258    0.2683839 -42.33  0.001225904    1.044    0.042
        24  -9.7915    227.6353    149.4993   8.5954724655e+01   5.6319240395e+00     0.421499    0.3567232  66.85   0.00182813    1.404    0.288
        25  -9.6440    231.4166    146.7485   8.4699581700e+01   5.4337516456e+00    0.4857774    0.2661766  61.15  0.002025436    2.604    0.616
        26  -8.3839    144.2789    148.6666   1.0344467417e+02   2.3176328792e+01    0.2989372    0.1901391 -59.13  0.001183115    1.713    0.416
        27  -7.7077    179.3247    147.6962   9.5100559597e+01   1.5911776884e+01     0.156555    0.1232586 -87.75 0.0007032126    1.641    0.391
        28  -8.4934    188.5251    139.6851   9.1299493943e+01   1.5636091947e+01    0.3238648    0.2390524  54.80  0.001071145    1.442    0.306
        29  -9.9793    190.1981    249.5159   1.1243088611e+02  -5.8879654800e+00     0.510426    0.1497655  31.59  0.001631115    4.382    0.772
        30  -9.9929    217.8642    131.7987   8.3818847983e+01   1.1004928178e+01    0.5394611    0.3606332  87.06  0.001607256    2.451    0.592
        31  -8.6925    205.6433    114.2716   8.2014146706e+01   1.7037689318e+01    0.2873498    0.2112197 -88.03 0.0008518127    1.731    0.422
        32  -9.3413    214.0364    117.5268   8.1268002365e+01   1.4579991535e+01    0.3342015    0.2583456 -54.44 0.0007697705    1.231    0.187
        33 -10.7166    208.8282    111.9228   8.0894166049e+01   1.6789437883e+01    0.8169946    0.5154224  70.34  0.003591371    1.986    0.496
        34  -9.4500    167.9423    115.8397   8.9977296482e+01   2.5254700460e+01    0.6484864    0.3399862 -55.99  0.002406436    2.255    0.557
        35  -9.4921    123.7693    111.6363   9.9684241949e+01   3.5920282622e+01    0.2765612    0.2309152 -50.01   0.00112982    1.186    0.157
        36  -9.0652    211.3140    133.4164   8.5376656827e+01   1.2050089298e+01    0.4847125    0.2895963 -24.62  0.001962846    2.270    0.559
        37  -9.4021    222.2435    105.8605   7.7232203856e+01   1.5016117883e+01    0.2587344    0.2293269  61.50 0.0002912131    1.215    0.177
        38 -10.0307    222.0244    101.9725   7.6389650604e+01   1.5775720449e+01    0.3781908    0.3025558  47.53  0.001079343    1.419    0.295
        39  -9.8646    126.4638    106.3276   9.7563717002e+01   3.6505537164e+01    0.4089202    0.1914513  43.00  0.001531488    2.175    0.540
        40  -8.0866    144.6957    105.5177   9.2713772671e+01   3.2693315538e+01    0.2806921     0.150311  43.69 0.0007697617    1.910    0.476
        41 -10.4344    200.2523    100.7331   7.9781510656e+01   2.0837154252e+01    0.4694563    0.3872806 -43.19  0.001600724    1.188    0.159
        42  -8.0640    118.3355    102.3103   9.8667793566e+01   3.9054553425e+01    0.1553812    0.1205516  -0.25 0.0007043894    1.680    0.405
        43  -8.6661    152.7017    101.4930   8.9739476017e+01   3.1701141975e+01    0.4773767    0.2487817  31.44  0.001621462    2.985    0.665
        44  -9.3206    187.6348     98.3534   8.1537026585e+01   2.4190600782e+01    0.2913459    0.2373421 -20.89  0.001448411    1.485    0.327
        45  -9.0182    131.0068     98.2099   9.4176871735e+01   3.7228736222e+01    0.2729266    0.2193866 -45.27 0.0009470599    1.245    0.197
        46  -9.7077    166.3344     94.3674   8.4819882700e+01   2.9937462435e+01    0.4402298    0.4206257 -20.60  0.001749565    1.146    0.127
        47  -8.1118    160.2546     96.5170   8.6706215511e+01   3.0943082146e+01    0.2084608    0.1440885  40.20 0.0009312629    1.562    0.360
        48  -8.8666    112.8350     96.1275   9.8488283293e+01   4.1465756862e+01    0.2093309    0.1785402  -3.65 0.0007796416    1.320    0.243
        49  -9.5722    225.7873    132.8094   8.2649898664e+01   9.1950455677e+00    0.2398922    0.2261579 -48.24 0.0007849283    1.041    0.039
        50  -8.8476    171.9248     91.9955   8.3033478129e+01   2.9073484119e+01    0.2394021    0.2110834  60.61 0.0003373714    1.123    0.110
        51  -8.7831    175.2583     88.9800   8.1579869631e+01   2.8848900878e+01    0.1994201    0.1848605 -54.83  0.001077256    1.074    0.069
        52 -10.2208    181.6057     87.3717   7.9931342035e+01   2.7644589449e+01    0.7641783    0.3005329  44.11  0.002581544    3.058    0.673
        53  -8.1837    190.2867    131.3494   8.8993888332e+01   1.6993271698e+01     0.214141     0.143793  59.74 0.0005941216    1.669    0.401
        54  -9.0152    138.4064     88.9276   8.9740027807e+01   3.7431914236e+01     0.341684    0.2454043 -25.18  0.001076305    1.631    0.387
        55  -8.7926    128.9561     90.0390   9.2433473430e+01   3.9309519944e+01    0.2472642    0.1879739   3.10  0.001133357    1.772    0.436
        56  -8.9749    160.5950    130.4950   9.5262991150e+01   2.3766335693e+01    0.3465723    0.2569571  71.67  0.001533337    1.656    0.396
        57  -8.6886    176.8572     80.2635   7.9014857292e+01   3.0039264576e+01    0.3177665    0.2121858 -34.12  0.000980203    1.621    0.383
        58  -8.9768    158.6918     70.9309   8.0136415513e+01   3.5960818709e+01    0.2053149    0.1909137 -51.24   0.00114599    1.108    0.098
        59  -8.4443    138.8238     66.9358   8.3352975980e+01   4.1264770158e+01    0.2156311    0.1901262  23.74 0.0004849967    1.220    0.180
        60  -7.5051     49.5752     61.4758   1.0851715506e+02   5.8569796916e+01    0.1260849     0.107678 -20.76 0.0001407982    1.038    0.037
        61  -8.9309    185.7478     59.0804   7.2020928927e+01   3.1395468339e+01    0.2501899    0.1970077 -55.55 0.0004839879    1.259    0.205
        62 -11.0819    161.3673     54.4327   7.5077863182e+01   3.7917996417e+01    0.4764462    0.3750209   1.09  0.002476851    1.732    0.423
        63  -8.5189     94.9881     53.1642   9.0542158522e+01   5.2745136803e+01    0.2275666    0.1828728 -28.52 0.0006524834    1.266    0.210
        64 -10.3684    192.5668     54.3006   6.9761435167e+01   3.0495103629e+01    0.3564329    0.2568389  78.66 0.0005034336    1.349    0.259
        65  -9.2583    148.3661     51.8865   7.6913434600e+01   4.1367063966e+01    0.4258835    0.2615261  16.77  0.001696073    2.995    0.666
        66  -8.0448    130.0473     49.6724   8.0228972738e+01   4.5903609687e+01    0.1903049    0.1648281  52.56 0.0003490763    1.074    0.069
        67  -9.0095    192.8037     47.6723   6.8110230982e+01   3.1395207745e+01    0.2688448    0.1775675 -40.23 0.0006436545    1.568    0.362
        68  -9.6331    134.6020    121.2133   9.9307890120e+01   3.1513200199e+01    0.4886248    0.2541077 -49.37  0.001584383    1.921    0.479
        69  -8.2008    188.6095     53.7135   7.0224157313e+01   3.1518745291e+01    0.2110376    0.1611338  47.14 0.0006623206    1.451    0.311
        70  -8.0033    132.3114     43.8491   7.7943787893e+01   4.6192326199e+01    0.1892066    0.1698063 -20.16  0.001126893    1.223    0.182
        71  -9.2749    132.9592     38.4010   7.6146306802e+01   4.6751120788e+01    0.3909149    0.2275746 -27.14  0.001303574    1.962    0.490
        72  -9.4963    134.0000    115.0817   9.7897997142e+01   3.3000858860e+01     0.512838    0.2071206 -44.33  0.001422768    2.455    0.593
        73  -9.2144    166.2722     41.4260   7.0677033427e+01   3.8559114032e+01    0.2675674    0.1163393  58.17  0.001019941    2.031    0.508
        74  -8.6801    154.4579     39.1979   7.2139564736e+01   4.1653457018e+01    0.2246416    0.1388773 -26.88 0.0006232864    1.902    0.474
        75 -10.5279    133.8753    108.8189   9.6294601227e+01   3.4385238007e+01    0.7842172    0.2846009 -43.12  0.001709137    2.760    0.638
        76  -7.5959     45.5173     33.4346   1.0036544622e+02   6.3605837045e+01    0.1209708   0.09503474  -2.66 0.0002462569    1.040    0.038
        77  -7.9814     93.8331     32.1570   8.3689334549e+01   5.5842616510e+01    0.1805456    0.1350063  22.55 0.0006124063    1.288    0.223
        78  -7.5730     70.5979    123.2121   1.1775496630e+02   4.2672874336e+01    0.1930488    0.1213852 -46.77 0.0003368842    1.478    0.324
        79  -8.7530    227.1545    121.5397   7.9931778531e+01   1.1060277720e+01    0.2416997    0.2276042  49.33  0.001187943    1.189    0.159
        80  -9.4297    169.1754     24.8852   6.5854695874e+01   3.9889076467e+01    0.3929023    0.2335463 -17.93  0.001309919    2.350    0.575
        81  -8.6105    153.4374     26.7236   6.8837081234e+01   4.3390405656e+01    0.1627673    0.1309115  -5.38  0.000944566    1.585    0.369
        82  -9.2364    220.7136    121.6572   8.1045117045e+01   1.2371608232e+01    0.3838591    0.2746344  50.24  0.001929991    1.522    0.343
        83  -8.3623     84.7753     21.5772   8.2461161386e+01   5.8779501439e+01    0.1970775    0.1593465 -14.75 0.0006130447    1.290    0.225
        84  -9.1541     74.8771     17.2839   8.3791888820e+01   6.1036925364e+01    0.2167219    0.1938768 -35.85  0.000312039    1.454    0.312
        85  -8.5200    171.1835     16.2792   6.3362487460e+01   4.0348839041e+01    0.1848307    0.1749811  12.98 0.0003359993    1.334    0.251
        86 -10.3102    155.7292    248.7602   1.1920891813e+02  -1.2669722451e-01    0.6975374    0.1852572  45.31  0.002367242    3.586    0.721
        87 -10.2491    199.2561    247.3087   1.1030137399e+02  -6.9719293019e+00    0.3470418    0.1388379  39.15  0.001546742    2.235    0.553
        88 -11.9873    241.3939    242.5878   1.0155616895e+02  -1.2490160468e+01    0.2520219    0.2176896  -4.83 0.0006275073    1.163    0.140
        89  -7.8908      6.0115    236.4916   1.4696893815e+02   2.3755445537e+01    0.1391812   0.09829596  47.81 0.0004143307    1.466    0.318
