#   1 NUMBER                 Running object number                                     
#   2 MAG_AUTO               Kron-like elliptical aperture magnitude                    [mag]
#   3 X_IMAGE                Object position along x                                    [pixel]
#   4 Y_IMAGE                Object position along y                                    [pixel]
#   5 X_WORLD                Barycenter position along world x axis                     [deg]
#   6 Y_WORLD                Barycenter position along world y axis                     [deg]
#   7 A_WORLD                Profile RMS along major axis (world units)                 [deg]
#   8 B_WORLD                Profile RMS along minor axis (world units)                 [deg]
#   9 THETA_WORLD            Position angle (CCW/world-x)                               [deg]
#  10 FWHM_WORLD             FWHM assuming a gaussian core                              [deg]
#  11 ELONGATION             A_IMAGE/B_IMAGE                                           
#  12 ELLIPTICITY            1 - B_IMAGE/A_IMAGE                                       
         1 -12.9550      8.7654     25.5993   4.7493584022e+01   7.4445967229e+01    0.5842184    0.2675365 -50.10  0.002281192    2.020    0.505
         2 -12.1248     24.3928     20.2147   3.2309726957e+01   7.3558514605e+01    0.4417344    0.1927783 -34.99  0.001859146    2.728    0.633
         3 -11.2700     12.2335      1.5984   2.9729559869e+01   7.8355584399e+01    0.2802625    0.1990039  19.31  0.001289568    1.295    0.228
         4 -12.1691      9.6698      6.4967   3.5834101556e+01   7.7932186824e+01    0.3495139    0.2365528 -40.98  0.001601308    1.526    0.345
         5 -11.5095      2.1148      3.4061   4.1512501885e+01   7.9322420388e+01    0.3528251    0.2416816 -42.31  0.002184613    1.455    0.313
         6 -11.2236      7.1705      1.9819   3.5005267542e+01   7.8982956958e+01    0.3179817    0.2096066  27.66  0.001220054    1.373    0.272
         7 -11.8650     16.0152     18.8626   3.7990095691e+01   7.4966046386e+01    0.3475296    0.1878084 -48.29  0.001765116    1.908    0.476
         8 -12.2492     11.5312     14.7011   3.9413350678e+01   7.6276214267e+01    0.3344217    0.2171393 -31.76  0.001875567    1.545    0.353
         9 -13.6098    247.0380      6.4710   3.4367782756e+02   2.6952990001e+01    0.7462527     0.389345 -47.71  0.005182225    1.305    0.234
        10 -13.0404      4.3615     13.1814   4.5291939878e+01   7.7320826581e+01    0.9104635    0.3554718 -54.27  0.004162708    2.530    0.605
        11 -10.5224     32.1764      7.9956   1.9329405250e+01   7.4111777909e+01    0.2093655    0.1396995   5.01  0.001088771    1.961    0.490
        12 -11.8287     16.6454      7.7043   3.0384921029e+01   7.6780569813e+01    0.2746207    0.1872547  -0.21  0.001376744    1.696    0.410
        13 -11.4278     19.5573      2.7884   2.4363893106e+01   7.7047341506e+01     0.310272    0.1920412  14.45  0.001217152    1.980    0.495
        14 -11.5516     27.2258      3.9646   1.9661575987e+01   7.5554373014e+01    0.3468378    0.2179354   0.74  0.001754029    2.232    0.552
        15 -12.3277    108.8011    241.4421   5.0731024042e+01   9.9301276399e+00    0.3917221    0.2419291  63.74  0.001978584    2.672    0.626
        16 -11.7184    249.0657    249.1553   2.5769918386e+01  -4.8670170886e+00    0.3143374    0.1662114 -18.35   0.00197917    1.435    0.303
        17 -12.2995     99.9361    246.4803   5.3244074053e+01   1.0024348152e+01    0.5774034    0.3364541  70.06  0.002730231    3.239    0.691
        18 -10.3503     51.6883    249.9197   6.4548242104e+01   1.4489528178e+01    0.2611541    0.1373532  33.69  0.001448995    1.457    0.314
        19  -9.9466     27.4686    250.4565   7.0101329804e+01   1.6684545154e+01    0.2659796    0.1160014  36.34  0.001408662    1.668    0.400
        20 -11.2314     21.6372    248.8546   7.1352593953e+01   1.7513650602e+01    0.4022219    0.1738413  37.81  0.002144408    1.676    0.403
        21 -11.2060     72.9901    241.2860   5.8962326347e+01   1.3931405308e+01     0.390577    0.2112172  67.93  0.001868301    2.693    0.629
        22 -10.7593     62.8640    241.7393   6.1380068241e+01   1.4920368100e+01    0.3273793    0.1787611  53.18  0.001724847    1.875    0.467
        23 -11.4364     54.2787    240.7057   6.3332390322e+01   1.6011571674e+01    0.4232794     0.218119  68.26  0.002065286    2.479    0.597
        24 -11.6644    249.3123    239.8568   2.4465026567e+01  -3.8239147159e+00    0.3704812    0.1430041 -35.38  0.002325833    2.080    0.519
        25 -11.0499    248.8286    232.8817   2.3558132525e+01  -2.9661705103e+00    0.1769887    0.1212235 -14.34 0.0007752816    1.013    0.013
        26 -11.9718    247.3059    226.1820   2.2818352976e+01  -2.0338491277e+00    0.4410636    0.1657286 -29.14  0.002546164    2.196    0.545
        27 -10.6196     38.4334    241.4167   6.7119204281e+01   1.7439723484e+01    0.2872418    0.1449287  50.49  0.001518832    1.751    0.429
        28 -10.6448     29.8668    241.9357   6.9154854571e+01   1.8140194043e+01    0.3578205    0.1193933  33.75  0.001650526    2.107    0.525
        29 -11.3911     84.1183    239.4147   5.6188583901e+01   1.3071203613e+01       0.3418    0.1953648  49.18  0.001814798    1.825    0.452
        30 -11.6118     17.3587    239.2884   7.1956726759e+01   1.9789780311e+01    0.6513682    0.1567299  35.16   0.00277013    2.555    0.609
        31 -11.7149    125.7730    240.0070   4.6816720552e+01   8.2629507698e+00    0.3492107   0.09736657  38.90  0.001312337    3.578    0.721
        32 -10.0284    171.0071    239.5014   3.7478312716e+01   3.3890871424e+00    0.1706017   0.08372891   3.59 0.0008106361    2.615    0.618
        33 -10.7085     45.6619    237.2463   6.5152748623e+01   1.7573201264e+01    0.3389696    0.1786932  69.79  0.001699276    2.260    0.558
        34 -11.6527    242.1880    237.3026   2.5140892458e+01  -2.9577725838e+00    0.3205961    0.1540948 -13.42  0.001403976    2.046    0.511
        35 -11.5434     65.4040    249.1852   6.1348223541e+01   1.3236937713e+01    0.4096051    0.1632411  34.90  0.001998964    1.888    0.470
        36 -10.3217      7.0496    235.5086   7.4225570436e+01   2.1426339774e+01    0.2393884    0.1300546  63.25  0.001319817    1.652    0.395
        37 -11.0535     33.0874    232.7005   6.7910273490e+01   1.9729038008e+01    0.3927188    0.2092739  68.22  0.002029509    2.012    0.503
        38 -10.1425      1.4412    233.9598   7.5484963422e+01   2.2191615987e+01    0.1682332    0.1078718  85.48   0.00102352    1.585    0.369
        39 -10.7442     63.5134    230.6922   6.0349638960e+01   1.7055430007e+01    0.3494915    0.1578322  62.04  0.001429324    3.160    0.684
        40 -10.3791     11.6023    231.8725   7.3032652865e+01   2.1811542849e+01    0.2502913    0.1400339  36.26  0.001058476    1.400    0.286
        41 -10.7173    104.0032    229.9827   5.0564576973e+01   1.2586357311e+01    0.2093447    0.1402772  52.81  0.001148471    1.764    0.433
        42 -10.4149     48.0558    229.5593   6.4057483153e+01   1.8915982194e+01    0.2436041    0.1595715  66.81  0.001365111    1.626    0.385
        43 -10.3433     40.2915    229.2845   6.5950415344e+01   1.9751921126e+01    0.2775359    0.1287845  52.44  0.001325002    2.023    0.506
        44 -11.0288      6.2713    228.1133   7.4175584038e+01   2.3042407528e+01    0.4220568    0.1758707  79.47  0.001993699    2.514    0.602
        45 -11.1861    236.5016    227.9938   2.4660202447e+01  -1.3391844573e+00    0.2369951   0.07206929 -34.21  0.001208835    2.696    0.629
        46 -11.1999     95.8075    228.3162   5.2310604189e+01   1.3870885606e+01    0.2800867   0.08128692  33.72  0.001084302    2.679    0.627
        47 -10.7362     12.0738    226.2577   7.2711864459e+01   2.2967345434e+01    0.2948307    0.1451251  61.15  0.001399142    1.852    0.460
        48 -11.4939    128.2000    248.7346   4.7304183126e+01   6.5378003271e+00    0.3271307    0.1248163  31.51  0.001577495    2.137    0.532
        49 -10.1150     55.7524    222.7448   6.1628448064e+01   1.9555945904e+01    0.1923626    0.1042529  85.93  0.000892993    2.429    0.588
        50 -10.6572     44.0036    220.9827   6.4469160824e+01   2.1163870886e+01    0.2946023    0.1588552  52.55  0.001474291    1.746    0.427
        51 -10.8877     19.8658    221.5508   7.0592846786e+01   2.3326674448e+01    0.4131939    0.1096013  42.63  0.001657251    2.661    0.624
        52 -11.1077      2.3757    220.3347   7.4875544492e+01   2.5033273205e+01    0.3432782    0.1890643  76.33  0.001740657    1.741    0.426
        53  -9.9027     64.3131    221.6343   5.9376413929e+01   1.8859277625e+01    0.1427596   0.08384961  54.36 0.0007038949    1.764    0.433
        54 -10.7849     21.4813    228.4815   7.0516301566e+01   2.1682515856e+01    0.3650509    0.1339365  37.07  0.001697069    1.998    0.499
        55 -11.2744     11.8605    216.6035   7.2385528659e+01   2.5107014544e+01    0.3994747    0.2138292  43.90  0.002128851    1.502    0.334
        56 -11.7890    248.3817    213.3777   2.0784329271e+01  -5.3351567263e-01    0.3402824    0.1478939 -29.38  0.002090874    1.813    0.448
        57 -10.1520     33.6320    215.8154   6.6780550501e+01   2.3336358787e+01    0.1836921    0.1123224  79.58 0.0009546783    1.762    0.432
        58 -10.6952     26.2014    211.1871   6.8433512943e+01   2.5086899956e+01    0.4342605    0.1721333 -82.22  0.001840114    2.766    0.638
        59 -11.1061      3.0783    211.9384   7.4434737465e+01   2.6857709227e+01    0.3473044    0.2135255  43.24  0.001978075    1.320    0.243
        60 -10.7437      2.3957    206.2037   7.4417882849e+01   2.8227301577e+01    0.3222902    0.2098466  74.15  0.001586985    1.417    0.294
        61  -9.8875     45.9770    212.3167   6.3320326380e+01   2.2887824620e+01    0.2419377   0.03432689  40.98  0.000704859    4.305    0.768
        62 -11.7268     13.4086    204.6943   7.1468026226e+01   2.7713116665e+01    0.5503097    0.2337817  55.38  0.002475364    2.116    0.527
        63 -10.2844    236.4837    205.0230   2.1224305325e+01   1.6553017787e+00     0.161033   0.06790284 -23.42 0.0008102988    2.560    0.609
        64 -10.7038     30.1165    201.6485   6.6797549586e+01   2.6950441181e+01    0.3150694    0.1703963  74.35   0.00147623    2.004    0.501
        65 -10.4104    250.4704    199.9870   1.8457203660e+01   9.9728581965e-01      0.24253   0.07333892 -34.41  0.001207227    2.606    0.616
        66  -9.6877     37.3295    200.6663   6.4753823463e+01   2.6480192904e+01    0.1516075   0.08358941  53.93 0.0007052013    1.723    0.420
        67 -10.4297     22.0479    199.7321   6.8881772801e+01   2.8150186517e+01    0.2636304    0.1520761  60.05  0.001320185    1.625    0.385
        68 -10.2457    243.6274    199.1654   1.9281590348e+01   1.7521464626e+00    0.1633313   0.07348733 -30.12 0.0009590401    1.781    0.439
        69 -12.0201      5.8848    195.5532   7.3091944575e+01   3.0489159324e+01    0.5403659     0.302229  55.99  0.002693046    1.559    0.358
        70 -11.9807      3.8570    188.2733   7.3353721417e+01   3.2419591676e+01    0.4221902    0.2291349  87.81  0.002042272    1.781    0.439
        71  -9.7957    237.3285    196.3353   1.9738367503e+01   2.7541049141e+00    0.1151016   0.06610829 -14.02  0.000705194    1.725    0.420
        72 -11.3657     17.9854    193.1720   6.9629221002e+01   3.0094909948e+01    0.4837756    0.2485659  72.08  0.002234846    1.989    0.497
        73 -10.2112     33.1390    194.4161   6.5452592635e+01   2.8402550168e+01    0.2802148    0.1592795  73.75  0.001311922    1.898    0.473
        74 -11.3119     10.9379    188.7427   7.1378237458e+01   3.1766491765e+01    0.4355396    0.2203211  66.99  0.001977894    1.912    0.477
        75 -10.5138    246.4913    190.5166   1.7516793020e+01   2.6339468278e+00     0.109571   0.07783145 -21.12  0.000810046    1.041    0.040
        76 -10.9678     27.7300    187.0466   6.6458852738e+01   3.0742570550e+01    0.4622897    0.1148502  40.97  0.001592298    3.062    0.673
        77 -10.2013     39.9799    183.9520   6.2629147437e+01   3.0309008567e+01    0.2679078    0.1281077  70.16  0.001034434    2.624    0.619
        78 -11.1154     16.3597    182.3733   6.9466424909e+01   3.2925545238e+01    0.4454836    0.2167646  63.61  0.001958556    2.043    0.511
        79 -13.1609      7.0186    174.9371   7.1825100866e+01   3.5556677765e+01      1.06707    0.3810638 -88.93  0.004025938    2.862    0.651
        80 -10.9542      1.7363    165.2632   7.2963685823e+01   3.8439099629e+01    0.3580161    0.1967156  71.13  0.001691817    1.716    0.417
        81 -10.5978     23.4844    180.4503   6.7235395399e+01   3.2800611696e+01    0.3416224    0.1377036  64.87  0.001257475    2.870    0.652
        82 -11.1100     31.3226    173.7073   6.4334658531e+01   3.3809823207e+01     0.597068    0.1888035 -84.62  0.001824274    4.134    0.758
        83 -11.4056     19.6419    172.5507   6.7842071904e+01   3.5177898386e+01    0.5212823    0.2777107 -88.95  0.002350461    1.901    0.474
        84 -11.3929     16.8935    164.7581   6.8151400436e+01   3.7460701836e+01     0.328344    0.1896633 -89.14  0.001527985    1.707    0.414
        85 -12.6494     12.8943    154.3830   6.8713238720e+01   4.0560751936e+01    0.9381463    0.1942201  38.74  0.002979505    3.579    0.721
        86 -12.4480      7.3256    146.8915   7.0083293994e+01   4.2996647373e+01    0.4933848    0.2851386  74.28   0.00219264    1.699    0.411
        87 -10.8333     34.5057    146.4825   6.0552986582e+01   4.0803639982e+01     0.459358    0.2025998  65.72  0.001543467    3.115    0.679
        88 -11.5726     20.7500    141.6995   6.4919884312e+01   4.3412423635e+01    0.5256211    0.2455986  85.20  0.002005188    2.424    0.587
        89 -11.8209      9.9892    136.7049   6.8382201469e+01   4.5619109872e+01    0.6311485    0.3175708 -83.05  0.002704749    1.894    0.472
        90 -10.6452     32.6620    132.9898   5.9550793283e+01   4.4729719587e+01    0.2561978    0.1056991  78.58 -0.000275831    4.394    0.772
        91 -11.8998      5.4574    125.1958   6.9161507344e+01   4.9104919080e+01    0.7052127    0.3731085  66.15  0.003048959    1.971    0.493
        92 -11.2597     22.0155    123.4492   6.2451794369e+01   4.8394662838e+01    0.6751097    0.1670008 -70.15  0.002062124    3.444    0.710
        93 -11.6242     10.1204    113.0756   6.6134509691e+01   5.2192682623e+01    0.7875291    0.3321115  82.35  0.002800189    2.870    0.652
        94 -11.0360     13.9714    100.1769   6.2866210289e+01   5.5512621429e+01    0.4349425     0.206074 -69.22   0.00180581    1.910    0.476
        95 -11.4167      2.7501     95.4341   6.7508006496e+01   5.7493647692e+01    0.6198119    0.2747809  83.86  0.002381836    2.564    0.610
        96 -10.5184     15.2839     87.0939   6.0227165534e+01   5.8990564497e+01    0.4614718    0.1969969  60.99  0.001525837    3.604    0.723
        97 -11.7214      4.4520     76.1219   6.4116336467e+01   6.2613342576e+01    0.6997557    0.2928329 -84.68  0.002677231    2.661    0.624
        98 -10.7963     18.4301     77.3235   5.6750890590e+01   6.1340879600e+01    0.4221435    0.2181789  83.52  0.001588222    2.859    0.650
        99 -10.8549     13.1708     68.0630   5.7701048676e+01   6.4163041492e+01    0.4941396     0.111616 -57.16  0.001630355    3.224    0.690
       100 -11.6663      3.1062     62.9175   6.2655753190e+01   6.6111260711e+01    0.6115108    0.2971898 -79.56  0.002663926    2.148    0.534
       101 -11.2875     16.8368     52.9313   5.1568967591e+01   6.7607759112e+01    0.5754902    0.2450048 -75.70  0.002059929    3.399    0.706
       102 -11.8185      3.1344     51.2930   6.0227358298e+01   6.9011939066e+01    0.5929911    0.2276364 -55.75    0.0025208    2.162    0.537
       103 -10.9593     23.8897     43.3421   4.3673944220e+01   6.9052774193e+01     0.573051    0.2527024 -32.81  0.002111713    3.141    0.682
       104 -12.1992     12.3084     39.7668   5.0368815707e+01   7.1068353384e+01    0.6505422    0.2660675 -59.75  0.002778652    2.335    0.572
       105 -11.9408      1.4959     38.4836   5.8120182194e+01   7.2149087659e+01    0.5378336    0.1220168 -69.16  0.001726643    4.344    0.770
       106 -10.4527    201.1763    249.2114   3.3308116633e+01  -9.1259781549e-01    0.1928976    0.0883632 -10.13 0.0009580291    2.899    0.655
       107 -11.8983    249.8881     21.5084   3.4638861506e+02   2.4900763532e+01    0.2820416    0.1119531 -39.56  0.001673204    1.773    0.436
       108 -10.3831    184.9701    250.0000   3.6267823989e+01   4.9427172979e-01    0.1745091   0.05209604  26.26 0.0008029887    2.946    0.661
       109 -12.0560    143.2077    248.4096   4.4135066643e+01   4.9722374101e+00    0.3576927    0.1579176  22.35  0.001840629    1.953    0.488
       110 -11.3022     90.3091    248.0114   5.5562222700e+01   1.0804636134e+01    0.3103589    0.1938888  51.30  0.001774017    1.770    0.435
       111 -11.1942     77.1511    248.3051   5.8584629113e+01   1.2166977689e+01    0.3224624    0.1717939  46.27  0.001729984    1.796    0.443
       112 -10.8236     35.0750    248.1714   6.8260705461e+01   1.6427750022e+01    0.3037464    0.1561765  39.88  0.001664601    1.490    0.329
       113 -11.4063     83.8449    247.0706   5.6947467618e+01   1.1675551542e+01    0.2779612    0.1736836  32.61  0.001496051    1.294    0.227
       114 -11.2541    243.0764    245.5205   2.6146093561e+01  -3.9960111483e+00    0.2518688   0.09799873 -28.81  0.001544052    2.082    0.520
       115 -10.9745    218.8657    245.4104   2.9854134844e+01  -1.9958334653e+00    0.2150615   0.09999187 -24.60  0.001316543    1.909    0.476
       116 -11.1495    234.1050    244.0315   2.7281407637e+01  -3.1060420380e+00    0.2635191    0.1360924 -17.50  0.001781394    1.636    0.389
       117 -12.0367    116.1999    244.1783   4.9386365546e+01   8.6222468154e+00    0.2842504    0.1782995  52.16  0.001568058    2.087    0.521
       118 -10.6650     45.6242    244.7090   6.5627269673e+01   1.6091310806e+01     0.350206    0.1096989  32.66   0.00155069    2.242    0.554
       119 -11.6885      3.9999    242.4974   7.5128120286e+01   2.0248332596e+01    0.5032003    0.2152414  59.63   0.00263073    2.024    0.506
