#   1 NUMBER                 Running object number                                     
#   2 MAG_AUTO               Kron-like elliptical aperture magnitude                    [mag]
#   3 X_IMAGE                Object position along x                                    [pixel]
#   4 Y_IMAGE                Object position along y                                    [pixel]
#   5 X_WORLD                Barycenter position along world x axis                     [deg]
#   6 Y_WORLD                Barycenter position along world y axis                     [deg]
#   7 A_WORLD                Profile RMS along major axis (world units)                 [deg]
#   8 B_WORLD                Profile RMS along minor axis (world units)                 [deg]
#   9 THETA_WORLD            Position angle (CCW/world-x)                               [deg]
#  10 FWHM_WORLD             FWHM assuming a gaussian core                              [deg]
#  11 ELONGATION             A_IMAGE/B_IMAGE                                           
#  12 ELLIPTICITY            1 - B_IMAGE/A_IMAGE                                       
         1 -13.8246     70.0285    145.0509   7.7358888842e+01   3.7312810775e+01     3.578848     1.763193 -88.47   0.01159419    4.096    0.756
         2 -13.0663    207.1158     49.8538   2.0007892323e+01   2.7042540729e+01     1.030548     1.010321 -88.15  0.003385505    1.129    0.114
         3 -13.1421    218.4513     41.2207   1.6350598421e+01   2.5489553279e+01    0.8492249    0.7352325  47.30  0.001786063    1.354    0.262
         4 -12.2463    246.4135     21.1051   8.8750031494e+00   2.1625235186e+01    0.8204955    0.5303284 -74.62  0.004719655    1.428    0.300
         5 -11.6688    247.7292     14.1781   7.2957601651e+00   2.2156870498e+01    0.7019289    0.3376393  84.85  0.003490048    2.097    0.523
         6  -9.5613     69.8530     14.6342   3.8491436800e+01   6.3755147720e+01    0.2976939    0.2118682  64.00  0.001630971    2.138    0.532
         7 -10.9709      2.5187     10.8402   6.8208569833e+01   7.2579613213e+01     0.288355    0.1265036 -34.08   0.00131703    1.760    0.432
         8  -9.9610    158.1585      8.7998   1.5500283703e+01   4.4375856796e+01    0.2060363    0.1707537 -84.52 0.0005891964    1.215    0.177
         9 -11.3875    147.6940    228.5688   7.2123418577e+01   6.3986003998e+00    0.3952776    0.2910242  45.73  0.002321811    1.160    0.138
        10 -10.1469     75.3306    248.1402   8.8486898176e+01   1.4251115391e+01    0.3399462    0.2048279 -54.60  0.002042706    2.192    0.544
        11 -11.4848     71.7158    241.9676   8.8633491815e+01   1.5869924713e+01    0.5018493    0.2931504  68.84  0.001468349    1.599    0.375
        12  -8.3744     62.3012    250.6434   9.1035273522e+01   1.5563101054e+01    0.1234425    0.0649031  66.02 0.0003967376    1.710    0.415
        13 -12.5337     34.7896    160.4686   8.8580051319e+01   3.7865597929e+01    0.9519526    0.7143181  68.67  0.005903051    1.251    0.201
        14 -13.3882     46.7195    178.1468   8.7699819691e+01   3.2438841493e+01     2.791897    0.9155779  49.88   0.01120674    3.036    0.671
        15 -15.4719      7.1013    140.9693   9.3376860512e+01   4.4824078666e+01     14.46263     3.370571 -83.22    0.0355848    8.305    0.880
        16 -15.8155     32.8047    185.4035   9.1507286948e+01   3.2361375362e+01     8.835196     3.371306  64.47   0.02644573    3.264    0.694
        17 -16.2633      8.9742    229.1328   9.9027987477e+01   2.5737227624e+01     4.234829     1.640156  23.36   0.01666595    6.418    0.844
        18  -9.2938     85.2231    228.0422   8.4732004575e+01   1.6579480087e+01    0.1698701     0.138952  73.00 0.0004774236    1.085    0.079
        19 -10.3446    166.9474    225.1804   6.7708579484e+01   3.6560467164e+00    0.2562842    0.1716039  23.80   0.00136376    1.569    0.363
        20  -9.6490    141.4746    222.4678   7.2529296288e+01   8.5441660969e+00    0.1339625    0.1141452  44.65 0.0001650584    1.006    0.006
        21  -9.1556    127.6615    222.6939   7.5428729232e+01   1.0862022441e+01    0.1264059    0.1015696   9.17 0.0003452828    1.678    0.404
        22  -9.7726     94.9944    219.9008   8.1863532823e+01   1.6702242726e+01    0.1976023    0.1673004  63.91 0.0006077443    1.028    0.027
        23  -8.8663    142.5119    216.9069   7.1499463172e+01   9.3787543272e+00    0.1772095    0.1357959 -56.42 0.0004760315    1.510    0.338
        24  -8.6740    128.6071    215.7079   7.4263963818e+01   1.2019616152e+01    0.1682389    0.1273828 -76.09 0.0006783989    1.563    0.360
        25  -8.9026    132.4797    213.0729   7.3060531370e+01   1.1854804000e+01    0.1789542     0.135508 -60.27 0.0004339466    1.499    0.333
        26  -8.3936    167.8005    205.0225   6.4243586967e+01   7.0050895232e+00    0.1620698    0.1112913 -45.51 0.0003375257    1.634    0.388
        27 -10.1475     75.3214    199.6745   8.3708794355e+01   2.3854651221e+01    0.2773346    0.2067394 -89.20 0.0007725763    1.271    0.213
        28 -13.2730      7.6034    180.2503   9.6441141150e+01   3.5913533923e+01    0.5992807     0.470223 -79.99  0.003703275    1.193    0.162
        29 -10.4479    192.1975    193.5680   5.7072554469e+01   4.5222987197e+00    0.7997664    0.4200715 -64.61  0.002172948    7.043    0.858
        30 -10.7371    163.4999    192.9442   6.3032584759e+01   1.0062649214e+01    0.5625853    0.2680417 -59.05  0.002055693    3.197    0.687
        31  -9.3968     76.7864    230.6519   8.6652260860e+01   1.7294168354e+01     0.202707    0.1879167 -51.93  0.001228613    1.501    0.334
        32 -10.6925     70.4932    227.2780   8.7566478949e+01   1.8831351110e+01    0.3651492    0.3601311 -79.21  0.002673165    1.431    0.301
        33 -10.2966     76.4157    183.2120   8.1431627680e+01   2.7358640608e+01     0.413838    0.2587816  72.80  0.001444569    1.755    0.430
        34  -9.4666     80.1421    181.8041   8.0371088425e+01   2.7130451118e+01    0.2234159    0.1670282 -86.18 0.0007127961    1.304    0.233
        35  -8.6189     94.0000    182.4549   7.7197086607e+01   2.4832073681e+01    0.3049375   0.07693604 -59.87 0.0009458149    4.025    0.752
        36 -10.7009     98.9829    180.9417   7.5789309036e+01   2.4360837065e+01    0.2980965    0.2722666  74.05 0.0006832614    1.024    0.023
        37  -9.4682    127.0034    177.7595   6.8597847176e+01   2.0129711964e+01    0.2635681    0.1555218  84.55 0.0008913398    3.590    0.721
        38 -10.3697    180.3831    175.7910   5.6066510140e+01   1.0073100307e+01    0.2853464    0.1998312  41.65  0.001129445    1.359    0.264
        39  -9.4584    199.6387    173.8464   5.1627107912e+01   6.6275403142e+00    0.1986251     0.132513 -49.12 0.0005167294    1.707    0.414
        40 -10.9683    231.3736    171.7499   4.5050147315e+01   1.0054139978e+00    0.3544442    0.1957131  25.64  0.001571463    2.171    0.539
        41 -10.3711     66.4386    169.1704   8.1937482659e+01   3.2022675755e+01    0.2681577      0.20439  80.89 0.0004513974    1.249    0.200
        42 -13.2684     76.6840    154.3831   7.7138025068e+01   3.4097583974e+01     2.754349     1.567798  68.36  0.003945186    2.355    0.575
        43 -11.5566     62.5357    165.3858   8.2382786726e+01   3.3440569853e+01    0.5156649     0.353735  20.35  0.001669874    1.969    0.492
        44 -11.7679     67.5059    161.0405   8.0527696525e+01   3.3804911824e+01    0.5173025    0.3691077  32.02  0.001701121    1.586    0.369
        45 -12.8741     64.4645    148.6408   7.9437225707e+01   3.7201580916e+01    0.6027068    0.5649259  62.59  0.001708169    1.137    0.121
        46 -13.5529     13.0172    218.3497   9.7753459083e+01   2.7440595082e+01    0.5704741    0.2898992  57.89  0.001275913    1.572    0.364
        47  -8.9679    110.5169    167.4768   7.0761896104e+01   2.5456374357e+01    0.2633109    0.1405543 -69.98  0.001024586    2.415    0.586
        48 -11.3126    231.6558    166.3157   4.3861353114e+01   1.8527953170e+00    0.3965974    0.2229743  29.50  0.001811346    1.995    0.499
        49 -15.4242      8.4600    207.1979   9.7958799645e+01   3.0128039806e+01     1.206614     1.070827  69.38  0.006712331    1.333    0.250
        50 -10.1712    247.0772    164.0456   4.0669079608e+01  -5.2923536239e-01    0.2802307    0.1682445 -53.28   0.00105694    2.389    0.581
        51 -10.2768    245.7835    159.0641   3.9841966272e+01   4.9529457183e-01    0.3643312    0.2092761 -52.08  0.001558904    2.368    0.578
        52 -10.1605     51.1628    158.1767   8.4256875342e+01   3.6587273032e+01    0.4870753    0.2439831  63.53  0.002105762    2.456    0.593
        53 -15.4286     12.7403    244.3562   9.9128849706e+01   2.2519360607e+01    0.9533288    0.6282041  78.37  0.006012097    1.138    0.121
        54 -10.5528    133.7652    145.6904   6.0575333806e+01   2.6023039639e+01     1.201703     0.304923 -54.60  0.002805182    5.754    0.826
        55 -10.8151     82.9743    149.0220   7.4564680996e+01   3.4442227007e+01    0.3280135    0.3179446  32.37 0.0004384891    1.177    0.150
        56 -11.1236     85.5994    145.7998   7.3278847369e+01   3.4811195752e+01    0.6021358     0.395972 -85.82  0.002687815    1.872    0.466
        57  -9.4585     23.7622    147.8795   8.9913849175e+01   4.1885080180e+01    0.3014044    0.1413017 -81.01  0.001452668    1.954    0.488
        58 -13.7821      1.9198    247.5748   1.0100214123e+02   2.3022637881e+01    0.3659226    0.2142052 -89.20  0.001441518    1.412    0.292
        59  -9.5882     28.5304    142.5975   8.8085962008e+01   4.2703035824e+01    0.2185832    0.1789121 -82.93 0.0005417481    1.015    0.015
        60  -9.5389     18.9112    141.6082   9.0457256939e+01   4.3774702485e+01    0.2263218    0.1653595  85.22 0.0007879192    1.224    0.183
        61 -10.3543     99.7355    135.4071   6.7353443696e+01   3.4957788487e+01    0.5615496    0.3674994 -15.35  0.002158332    2.836    0.647
        62  -9.8299    105.1007    130.2661   6.4744441912e+01   3.5221002092e+01    0.3780413    0.3231364  62.19  0.001951338    1.226    0.184
        63  -9.1576    109.4259    127.6692   6.2951665289e+01   3.5030087030e+01     0.267397    0.2264187  15.94 0.0006828186    1.386    0.279
        64 -11.5718     86.6122    134.2575   7.0774501131e+01   3.7446941757e+01     0.296185    0.2563811 -56.61 0.0004382817    1.110    0.099
        65  -9.1910     19.1544    134.5409   8.9593012787e+01   4.5419671945e+01     0.263527    0.1386959  88.77  0.001315773    1.960    0.490
        66  -9.6013     44.4748    129.7617   8.1954170193e+01   4.4198130521e+01    0.2157638    0.1848725  44.17 0.0006252151    1.301    0.231
        67 -10.3091     42.0330    124.6572   8.1839515553e+01   4.5689813730e+01    0.2567754    0.2005227  76.37 0.0004195635    1.359    0.264
        68 -10.7498     96.5986    123.0541   6.5514671193e+01   3.8465484914e+01    0.3228364     0.276678  -0.06 0.0008477704    1.416    0.294
        69  -8.4483    116.3179    122.3572   5.9781526975e+01   3.4937969643e+01    0.1606922    0.1232258 -13.01 0.0007044914    1.754    0.430
        70  -8.5896     94.1759    118.2170   6.5096110469e+01   4.0038191046e+01    0.2100922    0.1732178  88.78 0.0009549769    1.406    0.289
        71  -9.9520     32.4418    118.0754   8.3605572646e+01   4.8204613147e+01    0.2566068    0.1963741  10.45 0.0003058994    1.670    0.401
        72  -9.0463     24.9867    118.1849   8.5821796298e+01   4.8823232906e+01    0.2046266    0.1245709 -32.15  0.001074145    2.073    0.518
        73  -9.0296    106.5004    117.0097   6.1231118980e+01   3.8086717055e+01    0.2075182    0.2009677  50.61 -0.0005559686    1.060    0.057
        74  -8.2391    183.4890    116.4919   4.1773191473e+01   2.1239475682e+01    0.1563995    0.1507472  -0.30 0.0003679895    1.066    0.062
        75 -10.4697    112.9517    173.2027   7.1168948993e+01   2.3712788123e+01     0.369009    0.2025661  40.37  0.001614245    1.759    0.431
        76  -9.7561    205.3118    110.2965   3.5861217159e+01   1.7358633013e+01      0.31926    0.2557748  49.20 0.0007793953    1.294    0.227
        77 -10.6343     30.8540    108.4736   8.2513560298e+01   5.0628760207e+01    0.3926636    0.1808852  46.04  0.001375034    2.656    0.623
        78  -8.6608     40.2764    108.6387   7.9592007423e+01   4.9708887665e+01    0.1326858   0.09479155  82.16 0.0005084868    1.663    0.399
        79  -9.4851     66.8083    104.9234   7.0372029231e+01   4.7453983011e+01    0.2323431    0.2062784  66.47 0.0004941257    1.269    0.212
        80  -9.7454     24.0359    104.9737   8.4060354782e+01   5.2016841654e+01     0.199061    0.1626022 -63.56 0.0008524628    1.008    0.008
        81  -9.2244    132.4196    103.0664   5.0356266174e+01   3.5879845252e+01    0.3428197    0.2504437 -89.11  0.001022854    2.044    0.511
        82  -8.8358     60.0294    100.0239   7.1429443454e+01   4.9502646887e+01    0.2154028    0.1639792  76.39  0.001111352    1.709    0.415
        83  -8.1683     75.2961     97.6786   6.5875519812e+01   4.7916063396e+01    0.1404266    0.1122074  85.33 0.0003275335    1.617    0.382
        84 -10.0449     52.8628     95.1512   7.2676964519e+01   5.1514702474e+01     0.410346    0.1582662 -64.37  0.001501794    2.932    0.659
        85  -8.2656     26.3221     93.6272   8.1308707315e+01   5.4474484665e+01    0.1284146   0.09019988  76.79 0.0007031632    1.810    0.447
        86  -9.6103     48.6932     92.5837   7.3493763111e+01   5.2584314934e+01    0.1664261    0.1261012  41.11 0.0009354162    1.522    0.343
        87  -9.0206     78.8687     91.0563   6.2957676074e+01   4.8863627048e+01    0.2060729    0.1864862 -82.62 0.0002915682    1.273    0.214
        88  -8.2246    159.3045     81.6141   3.7553020852e+01   3.3847040427e+01    0.1663661    0.1211075 -71.87 0.0007018361    1.796    0.443
        89  -8.2896    155.6887     77.3135   3.7105369257e+01   3.5527216760e+01    0.1584711    0.1223989 -76.89 0.0003327003    1.633    0.387
        90 -10.1860     35.6351     69.4796   7.2486305696e+01   5.9055359537e+01    0.3227692    0.2084137  60.35 0.0004922798    2.590    0.614
        91 -10.8955     19.1286     63.6676   7.7451988163e+01   6.1640350299e+01    0.2739914    0.2525643 -32.35  0.000875522    1.173    0.147
        92 -12.0992     13.5831     60.4394   7.8885093759e+01   6.2682521719e+01     0.471657     0.359079  44.72  0.001169869    1.759    0.431
        93 -12.3462    196.0524     57.4483   2.3664419681e+01   2.8670740208e+01    0.6883518    0.5825642  17.41 0.0008915004    1.492    0.330
        94  -8.6584    152.5230    245.0989   7.3427668400e+01   2.8652248623e+00    0.1505709    0.1269962 -53.85 0.0004718552    1.478    0.323
        95  -9.8961     68.7292     61.5196   5.7517324371e+01   5.6618684476e+01    0.3199409    0.2240529  52.81  0.000925468    1.914    0.478
        96  -8.4518     82.7531     61.4201   5.2516846290e+01   5.4344419834e+01    0.1368608    0.1093851 -67.83 0.0006921069    1.735    0.424
        97  -8.8249    148.6693    244.2972   7.4072522438e+01   3.6235314616e+00    0.1260625   0.08557353  60.34 0.0007028268    1.640    0.390
        98 -10.3222     13.7056     47.9962   7.5564987138e+01   6.5208149227e+01    0.1762341    0.1265858 -44.61  0.000619849    1.084    0.078
        99  -9.6415     21.4823     44.5089   7.1078935926e+01   6.5334126804e+01    0.1211106   0.09514561 -34.19 8.629613e-05    1.009    0.009
       100  -8.4939    106.4764     37.4688   3.6297872077e+01   5.3580351946e+01    0.1386032     0.129336  26.63 3.427362e-05    1.059    0.056
       101 -11.2488     22.5621     31.8818   6.6229009612e+01   6.7566276502e+01     0.303912    0.2656971  31.36  0.002187191    1.544    0.352
       102 -10.3196    119.0621    241.6423   7.9533788147e+01   8.8650394690e+00     0.385385    0.1790196 -59.99  0.001907532    2.615    0.618
       103 -10.1124    111.8000    241.6250   8.0948718241e+01   1.0014232221e+01    0.2110389    0.1797624  66.07 0.0004360365    1.115    0.103
       104 -10.6808      2.3244     22.8923   7.3015062248e+01   7.0571008114e+01    0.2762651   0.08962058 -49.22  0.001413076    2.183    0.542
       105  -9.4050     60.4038     21.1071   4.4944457347e+01   6.4558087634e+01    0.2059836     0.147453  20.87 0.0003954805    1.266    0.210
       106  -9.3185    189.3008     15.0186   1.3146016582e+01   3.5884076780e+01    0.1870963    0.1683372 -75.26 0.0005278035    1.082    0.076
       107 -14.6525      4.1015    237.3443   1.0022503408e+02   2.4668528667e+01    0.4905447    0.3247272 -77.15  0.002534241    1.518    0.341
       108  -9.0622     90.1031    238.4219   8.4821047064e+01   1.3899356630e+01    0.1900391    0.1527062 -65.66 0.0006111126    1.463    0.317
