#   1 NUMBER                 Running object number                                     
#   2 MAG_AUTO               Kron-like elliptical aperture magnitude                    [mag]
#   3 X_IMAGE                Object position along x                                    [pixel]
#   4 Y_IMAGE                Object position along y                                    [pixel]
#   5 X_WORLD                Barycenter position along world x axis                     [deg]
#   6 Y_WORLD                Barycenter position along world y axis                     [deg]
#   7 A_WORLD                Profile RMS along major axis (world units)                 [deg]
#   8 B_WORLD                Profile RMS along minor axis (world units)                 [deg]
#   9 THETA_WORLD            Position angle (CCW/world-x)                               [deg]
#  10 FWHM_WORLD             FWHM assuming a gaussian core                              [deg]
#  11 ELONGATION             A_IMAGE/B_IMAGE                                           
#  12 ELLIPTICITY            1 - B_IMAGE/A_IMAGE                                       
         1 -16.1533    149.8765    121.1053   9.7543797171e+01   2.8053018102e+01     3.267757     3.121493  63.62   0.01717096    1.050    0.048
         2 -14.5870    173.4904    119.4873   9.1713855999e+01   2.3018293932e+01     2.194797     1.360727  -5.15  0.006545358    4.393    0.772
         3 -14.9047     11.0117     20.9419   1.1219045042e+02   6.8869854686e+01     1.617499    0.8190383 -15.00  0.009533169    2.037    0.509
         4 -12.7799     30.2346      6.9720   9.7800394760e+01   6.8765759241e+01    0.6193613    0.3180538  10.34  0.003495379    2.195    0.544
         5 -13.0822     73.4047      2.7205   8.0496416548e+01   6.2688589324e+01    0.7738342    0.3955923  49.98  0.004371865    1.735    0.424
         6 -12.3145     75.6668     13.4275   8.4046983324e+01   6.1306213518e+01    0.3574879    0.2572111  31.75  0.001026934    1.164    0.141
         7 -13.6103     95.8505      3.2166   7.4741715592e+01   5.8378558326e+01     1.310092    0.3901548  58.28  0.005348228    2.992    0.666
         8 -12.9441     87.1918     11.5977   8.0035673677e+01   5.9353828883e+01    0.8468766    0.6060631 -62.63  0.003490538    2.462    0.594
         9 -11.8315    123.6222     10.4728   7.1186454469e+01   5.1879160670e+01    0.3129117    0.1817324  46.48 0.0009718995    1.491    0.329
        10 -11.1006    115.3664      9.7859   7.2641355369e+01   5.3750079945e+01    0.2123894     0.159188   4.25  0.001297614    1.527    0.345
        11 -10.7013    130.3816      4.9587   6.8198450732e+01   5.0843830585e+01    0.2718619   0.08799616  53.09 0.0008139038    2.362    0.577
        12 -12.3598     82.0144     13.9993   8.2391438134e+01   6.0097976407e+01    0.3069066    0.2727396  32.41 0.0006742313    1.158    0.136
        13 -11.0706     22.3885      2.5536   9.9244443732e+01   7.0153820884e+01    0.2327905    0.1458101 -37.71  0.001580332    1.955    0.488
        14 -11.7660     33.9358    177.1617   1.3775897852e+02   3.4073614190e+01    0.2627117    0.1723371 -11.10  0.001257579    3.142    0.682
        15 -11.3758    240.7931    171.3851   9.0246438426e+01  -1.2508429526e+00    0.3772482    0.2716921 -51.86  0.002002273    1.531    0.347
        16 -12.8626    204.0383    170.6926   9.7049099790e+01   5.7799098262e+00    0.8908651    0.3916568  52.45  0.003242533    2.784    0.641
        17 -13.1767    211.7780    165.8507   9.4480503801e+01   5.1993461852e+00    0.7737907    0.5303969   0.23  0.003381601    2.181    0.542
        18  -9.9230    248.3821    169.2728   8.8496714216e+01  -2.1945617351e+00    0.1368282    0.0989649   2.19 0.0006997196    1.704    0.413
        19 -12.2040    221.0950    156.4832   9.0681153671e+01   5.1769080220e+00    0.5585582    0.4437185  33.50  0.002955458    1.357    0.263
        20 -14.0849    218.6991    137.4901   8.6937689969e+01   9.3413202674e+00     2.409559     1.649169  -3.89   0.01015397    2.411    0.585
        21 -14.2095    194.2875    148.8550   9.4259087447e+01   1.2221601616e+01     1.680936    0.8494353 -32.71  0.006268605    2.353    0.575
        22 -15.0576    202.2322    128.6938   8.8023242096e+01   1.4614030102e+01     2.796597      2.04599 -22.74    0.0129735    1.646    0.392
        23 -12.5055    249.6434    146.6280   8.3593171843e+01   1.5969848327e+00     1.178836    0.4444434 -49.23  0.004334863    2.895    0.655
        24 -11.1384     19.6506    153.6769   1.3837906268e+02   4.1009429141e+01    0.1273292   0.08063759 -45.85  0.000704889    1.748    0.428
        25 -12.6651     58.5938    144.8762   1.2711566005e+02   3.8933467213e+01    0.6388973    0.4483304  80.50  0.003143243    1.659    0.397
        26 -13.9121     50.5023    143.1672   1.2899611703e+02   4.0347470093e+01    0.9113842    0.6019764  47.41 0.0008027178    1.664    0.399
        27 -13.1831    171.3046    157.9788   1.0125515251e+02   1.5202425213e+01    0.6842397    0.3550335  43.91  0.002696435    1.939    0.484
        28 -12.2600    193.9274    248.9075   1.1358792940e+02  -6.3227961331e+00     0.276467    0.2042558  34.11  0.001686177    1.162    0.139
        29 -12.1368    132.0811    103.4413   9.7381695269e+01   3.5790943983e+01    0.3666081    0.2685058  13.85  0.001115351    1.898    0.473
        30 -12.0858    111.9626    121.9288   1.0753537160e+02   3.5847507397e+01    0.4046973    0.3293981  21.23  0.001705631    1.427    0.299
        31 -11.7781     74.8566    158.2736   1.2514510689e+02   3.3415297720e+01    0.2911557    0.1672874 -40.58  0.001259579    2.156    0.536
        32 -11.8920     44.5390     98.0534   1.2198969100e+02   5.1562038640e+01    0.3847229    0.2729222 -16.82  0.002137455    1.656    0.396
        33 -11.8955    184.5018    246.9577   1.1511701863e+02  -4.4769688742e+00     0.177383     0.127313 -41.42  0.001036081    1.599    0.375
        34 -12.6067    188.9615     94.7955   8.2347305612e+01   2.4302537157e+01    0.4176179    0.3313017  69.96  0.001159434    1.301    0.231
        35 -11.9674    112.0143     96.0352   1.0074425783e+02   4.1537220171e+01    0.2371558    0.2315483 -25.01   0.00132476    1.008    0.008
        36 -11.0433     55.1795     95.0324   1.1783595534e+02   5.0998340128e+01     0.222948    0.1978155   0.14  0.001374925    1.206    0.171
        37 -13.1440     34.8619    135.9335   1.3204740836e+02   4.3789591941e+01    0.4319608    0.2018763  27.20  0.002035565    2.576    0.612
        38 -13.0552      4.5740     84.5118   1.3225956582e+02   5.7731993734e+01    0.4973985    0.3301096 -46.03  0.003275434    1.209    0.173
        39 -12.6478     18.1431     79.4364   1.2659887914e+02   5.7918874351e+01    0.3808856    0.1140786 -47.50  0.001668532    2.469    0.595
        40 -12.2301     22.1773     78.8469   1.2505991705e+02   5.7736422577e+01    0.2048795    0.1497416   9.78 0.0008364607    1.566    0.362
        41 -11.4693     76.2465     77.7682   1.0626533339e+02   5.1632227061e+01    0.1978847    0.1530555  -9.90  0.001072665    1.395    0.283
        42 -12.7567     30.6769     82.4829   1.2297216699e+02   5.6271278454e+01    0.2884543    0.2085263  21.92  0.001788106    1.586    0.370
        43 -11.2891    233.6313    154.5038   8.7975297446e+01   3.1293312654e+00    0.3102827    0.2411134 -63.53   0.00162381    1.539    0.350
        44 -10.1723     66.5240     76.4683   1.0908144266e+02   5.3344109776e+01    0.1340883    0.1192791 -23.21 6.623458e-05    1.007    0.007
        45 -11.0589    250.1649     74.2381   6.8174574294e+01   1.4101837921e+01    0.1817823    0.1606448 -59.44 0.0004481304    1.111    0.100
        46 -11.1000    144.6369     73.8186   8.5990828522e+01   3.8675170176e+01      0.23804    0.1930925  42.73 0.0004397727    1.226    0.185
        47 -11.9791    120.4856     73.5144   9.1882831792e+01   4.4144797812e+01    0.3144681     0.221683  24.50 0.0009227716    1.677    0.404
        48 -12.6584     96.8303     71.8756   9.8049985089e+01   4.9196722787e+01    0.5602639    0.3134106  32.10  0.001503917    1.960    0.490
        49 -13.3287     35.1738     70.3880   1.1829365475e+02   5.8302553845e+01     0.712674    0.3104207  34.67   0.00345118    2.641    0.621
        50 -11.7925     18.8807     72.3032   1.2467479726e+02   5.9317623405e+01    0.1899386    0.1457107 -58.68 0.0004839245    1.263    0.208
        51 -12.6307     59.4567     70.7537   1.0979089317e+02   5.5426493167e+01    0.5385273     0.273132 -31.91  0.002465965    2.105    0.525
        52 -12.3080     55.1072     67.2344   1.1024805436e+02   5.6661795313e+01    0.2675301    0.2310414  45.49 0.0008826666    1.465    0.317
        53 -11.5049     81.9927     69.5174   1.0190438871e+02   5.2258867944e+01    0.2549999    0.1882489  15.72 0.0009397248    1.466    0.318
        54 -11.0983     83.7366     65.9596   1.0022752811e+02   5.2603835690e+01    0.2091273    0.1720972  -6.47 0.0003871552    1.209    0.173
        55 -11.6840     70.7736     68.4667   1.0524539658e+02   5.4241419891e+01    0.2844858     0.221781  76.76  0.001474974    2.201    0.546
        56 -12.6482     48.7943     67.9777   1.1270877867e+02   5.7299631721e+01    0.2869368    0.1773222  19.13  0.001558482    1.785    0.440
        57 -11.7528    121.6944    127.3639   1.0624303943e+02   3.2668551692e+01    0.3996316    0.2932797  49.03  0.001445496    1.404    0.288
        58  -9.7241    100.2500     64.7226   9.4795139185e+01   4.9807657069e+01    0.1241752    0.1104326 -76.90  0.000682387    1.456    0.313
        59 -11.2639     28.1386    125.8852   1.3230833330e+02   4.6797484279e+01    0.1991425    0.1592382  89.50 0.0008734321    1.285    0.222
        60 -11.9679    125.4631     57.4879   8.5701042189e+01   4.5735842869e+01    0.3036981    0.2398264  48.06 0.0005667709    1.196    0.164
        61  -9.7928    174.6869     56.2958   7.4989493620e+01   3.4316766355e+01     0.146307    0.1056922 -77.04 0.0004612565    1.599    0.375
        62 -10.7839    137.1776     55.8020   8.2402738430e+01   4.3345427602e+01    0.2047964    0.1757372  54.03 0.0004565999    1.098    0.090
        63 -10.8700    133.1185     53.8647   8.2749693797e+01   4.4567107820e+01    0.2403068     0.211553  52.03 0.0008189194    1.070    0.065
        64 -11.5908    210.9549     54.1798   6.8792712832e+01   2.5929196625e+01    0.2062482    0.1812372 -62.22 0.0003941272    1.103    0.093
        65 -12.3032     67.2647     53.5521   1.0160461003e+02   5.7378874832e+01    0.3505066    0.2900053 -56.87  0.001689784    1.614    0.380
        66 -10.3846     92.8281     52.8506   9.3122455822e+01   5.3155905237e+01    0.1686212    0.1579328  55.57 0.0005050364    1.268    0.211
        67 -11.9334    145.6386     51.1551   7.9164558834e+01   4.2061065590e+01    0.2919462    0.2374213  55.08 0.0006289742    1.138    0.121
        68 -13.2905     42.1911     47.7093   1.0875208367e+02   6.1686603258e+01    0.5288839    0.3516538   1.30 0.0008531329    1.569    0.363
        69 -12.5945     41.5867     42.7497   1.0728132333e+02   6.2565137522e+01    0.5549624    0.2940719   9.51  0.002567254    2.453    0.592
        70 -11.7424     79.7246     48.7295   9.5798561188e+01   5.6137841036e+01    0.4043063    0.2003259 -28.24 0.0008961046    2.190    0.543
        71 -12.3821      2.7329     46.1602   1.2408935455e+02   6.5324119385e+01    0.4038487    0.2526793 -50.99  0.001585534    1.341    0.254
        72 -12.6300    187.6475    232.9844   1.1224068971e+02  -2.7261162428e+00    0.3271019    0.1817911  39.04  0.001622977    1.607    0.378
        73 -11.3938    205.4956    229.4920   1.0811254344e+02  -5.1676617753e+00    0.1313321    0.1144822  16.16 0.0008106276    1.001    0.001
        74 -11.6764    156.9376     43.9579   7.4836003024e+01   4.0379806264e+01    0.2188516    0.2122346   9.07 0.0004657774    1.162    0.139
        75 -12.6756     70.1267     35.2059   9.4131572674e+01   5.9690564247e+01    0.4049188    0.2906131  24.27  0.001714481    1.277    0.217
        76 -11.4537     82.5625     33.8872   8.9637425855e+01   5.7736457127e+01    0.3155171    0.2272412   2.85 0.0009072439    1.447    0.309
        77 -11.5297     79.5371     30.2522   8.9245426392e+01   5.8736918282e+01      0.27639    0.2106989 -10.49  0.001106377    1.283    0.220
        78 -10.4768    176.4567     33.4865   6.8676058777e+01   3.7032931759e+01    0.1358829    0.1198426  78.05 -1.306679e-05    1.012    0.011
        79  -9.8753    147.9944     33.7732   7.3592075387e+01   4.3821605818e+01    0.1749513    0.1019556  60.16 0.0008419609    1.532    0.347
        80 -10.8105    140.9938     31.4902   7.4265536233e+01   4.5739081817e+01     0.177828    0.1746563  33.95 -0.0001422081    1.111    0.100
        81 -12.2578     83.6485     22.8183   8.5235187670e+01   5.8870815311e+01    0.3214098      0.26231  21.78 0.0007516565    1.047    0.045
        82 -11.6606     63.9659     17.5754   8.9438302451e+01   6.2858012347e+01    0.4156973    0.2044863  42.61  0.001838243    1.871    0.465
        83 -11.0992    192.3159    217.3352   1.0859277301e+02  -8.3615401119e-01    0.1409301    0.1023094   1.71 0.0007047532    1.693    0.409
        84 -11.8153    200.6263    210.6913   1.0570065358e+02  -1.1339325352e+00    0.3224972    0.2453167 -71.77  0.001640007    2.015    0.504
        85 -11.2638     53.4939    201.4997   1.3619436856e+02   2.6085314598e+01    0.1314252    0.1074766  83.68 6.559077e-05    1.001    0.001
        86 -11.2603     41.4887    199.9816   1.3856748162e+02   2.7934315492e+01    0.1981671    0.1073902 -73.69   0.00104018    1.613    0.380
        87 -12.0246     71.5053    197.9947   1.3185647289e+02   2.4405617245e+01    0.2094896     0.122462 -68.69  0.001039913    1.612    0.380
        88 -12.0501    213.9331    196.3899   1.0032086912e+02  -9.5257002801e-01    0.3984582    0.2441972  37.53  0.001951452    1.617    0.382
        89 -12.1685    187.1003    194.9769   1.0549642675e+02   4.2993740985e+00    0.3626875    0.3366692  83.00  0.001552575    1.261    0.207
        90  -9.7528    237.9890    189.0000   9.4311769281e+01  -3.8458529117e+00    0.2071573   0.07504258  41.98 0.0006906315    2.904    0.656
