#   1 NUMBER                 Running object number                                     
#   2 MAG_AUTO               Kron-like elliptical aperture magnitude                    [mag]
#   3 X_IMAGE                Object position along x                                    [pixel]
#   4 Y_IMAGE                Object position along y                                    [pixel]
#   5 X_WORLD                Barycenter position along world x axis                     [deg]
#   6 Y_WORLD                Barycenter position along world y axis                     [deg]
#   7 A_WORLD                Profile RMS along major axis (world units)                 [deg]
#   8 B_WORLD                Profile RMS along minor axis (world units)                 [deg]
#   9 THETA_WORLD            Position angle (CCW/world-x)                               [deg]
#  10 FWHM_WORLD             FWHM assuming a gaussian core                              [deg]
#  11 ELONGATION             A_IMAGE/B_IMAGE                                           
#  12 ELLIPTICITY            1 - B_IMAGE/A_IMAGE                                       
         1 -12.6827    116.9765     45.3194   7.8676916565e+00   4.9643900240e+01     1.426661    0.4600784 -39.86  0.005050225    2.960    0.662
         2 -11.6821    104.5632     11.8373   3.5796637351e+02   5.7031122375e+01    0.4743333     0.297235 -26.59  0.001747333    1.805    0.446
         3 -12.7558    105.6574     19.9307   9.3715007873e-01   5.5875043687e+01    0.3589213     0.276041 -76.46 0.0006962004    1.290    0.225
         4 -11.6288     58.2329     29.3834   1.9059527701e+01   6.5785270012e+01    0.4847005    0.3731365   8.83   0.00105531    1.656    0.396
         5 -11.2519     20.6541     21.6419   3.6246986047e+01   7.3821262096e+01    0.5439756    0.3148817 -32.10  0.002358256    1.913    0.477
         6 -11.6031     35.5092     17.3679   2.3863019351e+01   7.2127695696e+01    0.4789061    0.3482666 -13.55  0.001584245    1.629    0.386
         7  -9.8294     22.1584      2.8530   2.2785359849e+01   7.6565876466e+01    0.2152917    0.1436611 -22.63 0.0009732174    1.649    0.393
         8 -11.9681     23.1518     10.5252   2.7570615604e+01   7.5305972336e+01    0.5158406    0.4079015  30.97  0.002585429    1.148    0.129
         9 -11.4954     15.8816     14.7734   3.5954332575e+01   7.5696881596e+01    0.4817402    0.2916081 -13.87  0.001944456    2.244    0.554
        10 -11.5572     15.7837      9.4859   3.2603530287e+01   7.6597782524e+01    0.6806313    0.2776658  42.95  0.001706609    2.571    0.611
        11 -11.9444    164.2366     18.3258   3.5244543632e+02   4.1871050986e+01    0.3741089    0.2634028  45.52  0.001380301    1.914    0.477
        12 -11.2579    127.1521     15.6324   3.5585018578e+02   5.1025304667e+01    0.4110633    0.2867794 -17.38  0.001564631    1.822    0.451
        13 -10.3885    132.1744     14.8256   3.5491188483e+02   4.9878655069e+01    0.2959969    0.2512599  35.46   0.00117534    1.517    0.341
        14 -10.5258    136.4073     14.4043   3.5424743665e+02   4.8890593546e+01    0.3745566    0.1836002  68.13  0.001791898    1.851    0.460
        15 -10.0989    225.5813     13.4887   3.4702946683e+02   2.9698200788e+01    0.1754002    0.1251622 -60.37 0.0004231732    1.045    0.043
        16 -10.6142     88.8157      8.0407   3.5938756157e+02   6.1314242852e+01    0.3146304    0.2613174  77.81  0.001080117    1.067    0.063
        17 -10.8935     85.9593     14.0836   2.7300208296e+00   6.1393219369e+01    0.3370795    0.2641781  19.09  0.001445175    1.612    0.380
        18  -9.5869     84.7812      9.9573   1.1369134398e+00   6.2115349790e+01    0.1799078    0.1166479 -41.74 0.0003963243    1.646    0.393
        19 -12.1899     48.7213     12.8099   1.4329558971e+01   7.0143098444e+01    0.7314579    0.2403396  51.45  0.002864381    2.632    0.620
        20 -10.6952    191.0718     12.7133   3.4885355583e+02   3.6585953250e+01    0.2193785     0.126343 -47.29 0.0005974388    1.395    0.283
        21 -10.3896      5.6924      8.9838   4.1469121088e+01   7.7960508477e+01    0.2108175    0.1591444 -35.48  0.000903302    1.278    0.218
        22 -11.4129    211.9769      9.7196   3.4692242356e+02   3.2674829003e+01    0.3383537    0.2280354 -24.21  0.001711532    1.797    0.443
        23 -11.4323     63.7750      9.9337   6.9074885165e+00   6.7135008341e+01    0.3551208    0.2119633  57.57  0.001147331    1.466    0.318
        24 -10.3173     62.0226      6.4929   5.6062195921e+00   6.7902395720e+01    0.2946895    0.2055031  56.98  0.001443965    1.253    0.202
        25 -10.3594      1.3179      7.5907   4.5073588943e+01   7.8656299224e+01    0.2802509    0.0895165 -50.42  0.001210746    2.851    0.649
        26  -9.6169     78.1893      7.3784   1.4917633757e+00   6.3977172351e+01    0.1885174    0.1152126  79.38 0.0008030224    1.653    0.395
        27 -10.7098    235.9935      5.1641   3.4486781979e+02   2.8701164070e+01    0.2685671   0.05532037 -50.51  0.001231568    2.842    0.648
        28  -9.8540    185.6928      6.6719   3.4772330323e+02   3.8361497745e+01    0.1063136   0.09102758  45.43 0.0005537614    1.656    0.396
        29  -9.1926    154.2696      6.6561   3.5003616608e+02   4.5415601142e+01    0.1361085   0.07492317 -59.24 0.0002370944    1.612    0.380
        30 -10.9941     40.7280      4.1909   1.2666716378e+01   7.2845794522e+01    0.3359662    0.2208245  32.72  0.001189379    1.549    0.354
        31 -10.0089    128.9075      4.8537   3.5196982704e+02   5.1677199493e+01    0.1788068    0.1546671  74.80            0    1.167    0.143
        32 -10.8894    168.6371      9.6025   3.4967936955e+02   4.1811484604e+01    0.3143148    0.1993836  65.33  0.001106808    1.661    0.398
        33 -10.0944    223.6704      2.6506   3.4485978835e+02   3.1185190108e+01    0.1943342    0.1411935 -47.43  0.000707113    1.178    0.151
        34 -10.7407    218.8120      2.8230   3.4510325351e+02   3.2077384415e+01    0.2094436     0.179942 -73.93   0.00163048    1.265    0.210
        35 -10.9501    134.0256      2.4074   3.5061265347e+02   5.0652970205e+01    0.3100077    0.2066963  68.20  0.001216043    1.416    0.294
        36 -11.0662    113.4629      2.1098   3.5286495616e+02   5.5735922490e+01    0.3266299    0.2057254  89.22 0.0007446259    1.443    0.307
        37 -10.7172    205.4292      1.7581   3.4548090130e+02   3.4781425618e+01    0.3317908    0.1117873 -78.10  0.001349929    3.266    0.694
        38  -9.8923    105.1799      1.6482   3.5382868802e+02   5.7833866445e+01     0.206579    0.1412777 -82.98 0.0005499075    1.377    0.274
        39 -11.8976      9.0798     19.5242   4.4436970827e+01   7.5635756615e+01    0.4203831    0.2508579  -5.08 0.0003646035    2.014    0.503
        40 -10.0688     11.8102      2.0749   3.0642288642e+01   7.8319977752e+01    0.2203208    0.1550595  29.33  0.001356441    1.283    0.220
        41 -10.2173      1.9349      1.8526   4.0476736610e+01   7.9604755611e+01    0.1904575    0.1397873 -10.94 0.0009193996    1.304    0.233
        42  -9.6064    152.7119      1.3764   3.4862518250e+02   4.6285359303e+01     0.164136     0.102594  74.70 0.0005939347    1.482    0.325
        43  -9.2684     33.6966      1.7111   1.4590389814e+01   7.4554452737e+01     0.127167   0.08560726  26.69 0.0003693416    1.566    0.362
        44 -10.0876     78.9782    114.5730   3.9904719411e+01   4.3204711687e+01     0.300368    0.2126789 -40.24 0.0009905841    1.567    0.362
        45 -12.5171     26.0733    106.8889   5.8931932989e+01   5.2678477524e+01    0.6970442    0.4993223 -69.51 0.0003857219    1.316    0.240
        46 -11.7196     22.8256    114.1724   6.1382797301e+01   5.0965214125e+01    0.6108381    0.3247961   3.38   0.00245071    2.449    0.592
        47 -11.6583     27.3745    112.5151   5.9260500138e+01   5.0993401199e+01    0.4919615    0.3094567  41.97  0.001705409    1.589    0.371
        48 -10.3823      7.5192    114.5144   6.7744666764e+01   5.2060676152e+01    0.2905609    0.2025106 -64.47 0.0008130459    1.339    0.253
        49 -12.0550      2.6913    111.4826   6.9460023148e+01   5.3191464244e+01    0.5296617    0.3884712  84.58  0.001904388    1.284    0.221
        50 -11.2640      3.9726    104.8698   6.8278698187e+01   5.4942786768e+01    0.4910166    0.3246627  47.14  0.001988516    1.544    0.352
        51  -9.4328     67.3230    114.6219   4.4011335738e+01   4.5154645938e+01    0.1695408    0.1158558  71.55 0.0007024758    1.828    0.453
        52 -10.1435     48.9975    111.5691   5.0308643258e+01   4.8705181190e+01    0.2276787    0.2048179 -77.08 0.0004944592    1.081    0.075
        53 -11.7193     79.3850    108.4551   3.8311107381e+01   4.4686300613e+01    0.6222074    0.4345628   6.43  0.002563214    2.157    0.536
        54 -11.1356     15.8080    108.1379   6.3525027708e+01   5.3236599351e+01    0.3616893    0.3408569  -4.63  0.001834396    1.164    0.141
        55 -10.6503    104.7842    108.0828   3.0127343615e+01   3.9923952805e+01     0.391852    0.2800835  17.14   0.00168499    1.987    0.497
        56  -9.3952    180.3483    106.2963   1.2771359152e+01   2.5076601110e+01    0.1308415    0.1058878  -0.42 0.0004308747    1.678    0.404
        57  -9.4480    139.9704    106.5153   2.0659578829e+01   3.3053139917e+01    0.2039232    0.1463411  47.30 4.647212e-05    1.471    0.320
        58 -10.4009     92.1559    102.2263   3.2474163690e+01   4.3814109928e+01    0.3029132    0.2410825 -72.29  0.001452205    1.345    0.257
        59 -10.0748     58.6138    109.8303   4.6202293349e+01   4.7786486830e+01     0.212838    0.1878305 -81.74 0.0006415984    1.132    0.116
        60  -9.9877     47.2372    102.0213   4.9032451923e+01   5.1517754862e+01     0.333062    0.1774072 -44.13  0.001318414    2.055    0.513
        61 -10.8703     50.9260     99.4496   4.6927801681e+01   5.1680434472e+01    0.5578795    0.2484214 -54.14  0.001579322    2.131    0.531
        62 -10.8163     35.4390    102.8023   5.4185723648e+01   5.2801590232e+01    0.3609179    0.2393083  -9.74 0.0005881232    2.004    0.501
        63 -11.4294     17.8949    101.1558   6.1634732586e+01   5.4996776510e+01    0.3702407    0.2775302  80.29  0.001004266    1.372    0.271
        64 -10.4247     10.4926    101.4619   6.5000429607e+01   5.5472418426e+01    0.2548872    0.1311696 -74.87   0.00109811    1.791    0.442
        65 -10.9007      8.3759     95.4618   6.5199291400e+01   5.7258229395e+01    0.3465366    0.2709153  24.87  0.001875716    1.353    0.261
        66  -9.3267    120.6732    100.6994   2.3825086004e+01   3.8314518670e+01    0.1486664    0.1232274  -0.65 0.0007029909    1.639    0.390
        67  -9.5659    156.5354     98.9831   1.5311492629e+01   3.1128044451e+01    0.2109006    0.1312761 -44.25 0.0003553618    1.482    0.325
        68  -9.5558    136.4760     99.4891   1.9665536886e+01   3.5225441130e+01    0.1479482     0.139458 -63.39 0.0008100025    1.022    0.021
        69  -9.5043    210.4705     98.0536   6.5382503075e+00   2.1025537877e+01    0.1851327    0.1040691 -40.46 0.0002954864    1.460    0.315
        70 -11.9847     68.3548     95.2822   3.8956220239e+01   4.9959451332e+01     0.475641    0.3647028  26.32   0.00070818    1.427    0.299
        71 -10.4734     81.2791     83.5340   3.0863449733e+01   5.0360597822e+01    0.5249972    0.3026499  28.52  0.002042406    2.276    0.561
        72 -11.5730     74.7944     78.9395   3.1806154530e+01   5.2694098859e+01    0.6245253    0.4110891  63.83  0.001418536    1.885    0.470
        73 -10.3666     76.1394     75.1267   3.0096556954e+01   5.3290002967e+01    0.3401932    0.2372088 -70.77  0.001089149    1.751    0.429
        74 -11.6067     78.2078     94.7044   3.5168145565e+01   4.8313117300e+01    0.7604003    0.5975603  19.17  0.003608888    1.531    0.347
        75 -10.3046     78.6353     89.2312   3.3480942014e+01   4.9547621102e+01    0.3642357    0.2124265 -38.24  0.001069002    2.035    0.509
        76 -11.5252     22.7913     94.7746   5.8361357015e+01   5.6311925796e+01    0.3999928    0.2890425 -23.00  0.001446932    1.594    0.373
        77 -10.2164     43.0329     94.6639   4.9182422352e+01   5.4044994920e+01    0.3426688    0.2776093 -56.84  0.001082188    1.200    0.167
        78  -9.7727     43.7949     90.7345   4.7925658044e+01   5.4976299159e+01    0.1985305    0.1900087  47.73 0.0004634449    1.058    0.055
        79 -11.4642     16.0494     94.4853   6.1461779907e+01   5.6973269446e+01    0.2905885    0.1925227  83.13  0.001375117    1.626    0.385
        80 -10.0314    125.7863     93.7756   2.0678518475e+01   3.8691658033e+01    0.2078849    0.1707067 -88.85 0.0004445127    1.342    0.255
        81 -10.8007     36.6277     92.1713   5.1475668597e+01   5.5523873866e+01    0.3883172    0.3129784 -32.37  0.001951924    1.346    0.257
        82 -10.9575     98.2812     90.6330   2.7360798199e+01   4.5262159469e+01    0.2813712    0.2580115  75.06 0.0004447586    1.082    0.076
        83 -11.0074     52.1770     87.4135   4.3415709639e+01   5.4614132460e+01    0.3437021    0.1895981 -51.04 0.0008078924    1.778    0.438
        84 -11.7399      6.4212     88.1167   6.5152849447e+01   5.9374136332e+01    0.6565694    0.3580423  20.55  0.003033269    1.912    0.477
        85 -10.7754      2.1573     79.9945   6.6196227854e+01   6.1785385939e+01    0.5782691    0.2670007  88.70  0.001674977    2.423    0.587
        86 -10.8738      2.0828     71.2469   6.4939834474e+01   6.4089006958e+01    0.4255605    0.2092208 -63.20  0.001942244    1.767    0.434
        87 -10.2021     66.6820     88.4828   3.7746569716e+01   5.1939942682e+01    0.3221939    0.2392009 -14.16 0.0007537608    1.888    0.470
        88 -11.2307     27.6899     85.0247   5.4114168833e+01   5.8439456015e+01    0.7160159    0.5325255  39.39  0.002200239    1.380    0.275
        89 -10.1388     36.9777     85.5319   4.9783799438e+01   5.7229058662e+01    0.2820939     0.149273  21.06  0.001148472    2.093    0.522
        90 -10.2026    104.4175     86.8198   2.4424355452e+01   4.4798788909e+01    0.2127588    0.1446729 -37.37 0.0006371365    1.630    0.386
        91 -10.6699     18.3797     86.1550   5.8919713691e+01   5.9031991164e+01    0.4053805    0.2707024   0.83  0.001947851    1.725    0.420
        92 -10.1647    118.6869     85.6721   2.0195830207e+01   4.1919001231e+01    0.2782829     0.184829 -36.43  0.001027573    1.656    0.396
        93 -10.0448     90.1601     85.3041   2.8376343594e+01   4.8151780312e+01    0.3285867    0.2326493 -81.17  0.001419673    1.872    0.466
        94 -11.4928     44.7657     84.0964   4.5819940763e+01   5.6556649573e+01    0.4535926    0.4080313 -89.98  0.002062421    1.160    0.138
        95 -10.0014    143.4817     84.0665   1.4052477222e+01   3.6739761860e+01    0.2086377    0.1918022 -89.85 0.0004441174    1.068    0.064
        96 -10.1733     72.2213     83.8760   3.4278905472e+01   5.2038355160e+01    0.2186605     0.199435  82.92  0.000394882    1.131    0.116
        97 -12.4225     61.0197     83.4281   3.8577422246e+01   5.4165234809e+01    0.2900169    0.2819823 -82.73 0.0003605726    1.015    0.015
        98 -10.3527    113.1967     82.9333   2.0835638860e+01   4.3698386703e+01     0.315012    0.2526622  66.47  0.001169542    1.279    0.218
        99 -10.4188     67.3731     81.1699   3.5343718151e+01   5.3579823678e+01    0.3342159    0.2540509  10.25  0.001542967    1.724    0.420
       100 -10.9766     89.1144     77.0957   2.6196924897e+01   5.0181965194e+01    0.5027806    0.2560844  49.31  0.001779073    1.962    0.490
       101 -10.4010     94.2046     75.5939   2.4084476369e+01   4.9409598900e+01    0.3102427    0.2695255  37.49   0.00092843    1.239    0.193
       102 -10.6119     58.3713     76.7781   3.7704582310e+01   5.6224833497e+01     0.469815    0.1695204 -52.90  0.001511121    2.711    0.631
       103 -11.1396     53.2010     76.1727   3.9774283416e+01   5.7237465205e+01     0.377234    0.3389935 -51.52  0.001552678    1.109    0.098
       104 -12.2326    247.5919     75.9562   3.5810372779e+02   1.8209866610e+01    0.3556228    0.2262077 -52.68  0.002385095    1.278    0.217
       105 -11.1413     14.1542     74.5313   5.8863611452e+01   6.2450332697e+01    0.3341127    0.2449119 -70.25  0.001756245    1.305    0.234
       106  -9.8675    103.0553     74.4627   2.1066192260e+01   4.7691918577e+01    0.2421344    0.2035454 -53.43 0.0009393801    1.181    0.153
       107 -11.6483     27.5436     73.1968   5.1402288620e+01   6.1522634883e+01    0.4075234    0.2874621   0.83 0.0003069104    1.646    0.392
       108 -10.6259     34.2360     71.2571   4.7406678629e+01   6.1211785131e+01    0.4804934    0.2221361  35.79  0.001957481    2.122    0.529
       109 -10.1309     40.7036     72.8488   4.4621536640e+01   5.9950897415e+01    0.2905213    0.2509443  -6.97 0.0006543635    1.269    0.212
       110 -10.4787     40.2660     68.6813   4.3588211264e+01   6.1027835738e+01    0.2821629     0.239952  44.18  0.001051036    1.206    0.171
       111  -9.3790    151.2992     73.3297   9.6147972167e+00   3.6948630946e+01    0.1345544    0.1149633   7.88  0.000461014    1.642    0.391
       112  -9.8628     81.0363     70.5333   2.6815299446e+01   5.3291138820e+01     0.234069    0.1457731  45.05 0.0005387452    1.585    0.369
       113 -11.9531    123.0755     68.4167   1.3989989747e+01   4.4280556019e+01    0.3843789     0.259397  52.12  0.001834428    1.509    0.337
       114 -10.7540    218.9860     67.5102   3.5902889184e+02   2.4126147189e+01    0.2070619    0.1139437  59.60  0.001159247    2.173    0.540
       115 -10.5746    101.9561     66.8755   1.8933121411e+01   4.9445261013e+01    0.2373469      0.21187 -56.12 0.0003799135    1.118    0.106
       116  -9.6572     11.7890     67.4067   5.8694522040e+01   6.4469618351e+01     0.195584     0.126794  -7.06 0.0005434525    1.739    0.425
       117  -9.5155     15.9289     66.7757   5.6179251816e+01   6.4296693209e+01    0.2418618    0.1872605   1.26 0.0007791136    1.373    0.272
       118 -13.3790      6.1013     60.9689   6.0688759923e+01   6.6492582680e+01    0.8098509    0.5070876 -22.11  0.001651047    1.715    0.417
       119 -10.6139    201.9592     64.2956   1.0084382817e-01   2.7756253661e+01    0.1770393    0.1499298 -65.80 0.0008973368    1.088    0.081
       120 -10.9030    105.5226     63.3569   1.6774893309e+01   4.9294704126e+01    0.3066775    0.2687518  58.65  0.001265867    1.126    0.112
       121 -11.4043     39.7495     56.6054   3.9838251279e+01   6.3920485710e+01    0.3589436    0.2328992  38.02 0.0008428151    1.527    0.345
       122 -11.5698     46.4554     59.4879   3.7447875835e+01   6.2221951802e+01    0.7132682    0.2631351  47.04   0.00239484    3.229    0.690
       123 -10.5309     92.5730     62.5564   2.0260340101e+01   5.2405986202e+01    0.3368499    0.2509414  79.72  0.001068977    1.589    0.371
       124  -9.7306    150.9017     60.8562   6.2179881924e+00   3.9133656185e+01    0.1948328    0.1922552  11.46 0.0005121519    1.260    0.206
       125  -9.8699    113.8126     60.5410   1.3703370462e+01   4.7870799229e+01    0.2440815    0.1744552 -50.02  0.001142877    1.386    0.279
       126 -12.1846    119.8417     37.3999   4.5586602339e+00   5.0116251451e+01    0.6333745    0.3410295 -56.42  0.001709646    2.041    0.510
       127 -11.4702    126.1003     52.7122   8.3923378708e+00   4.6276264796e+01    0.5557221    0.2906937 -21.97 0.0005506339    3.208    0.688
       128 -10.4185    112.5604     50.2532   1.0553710439e+01   4.9926062527e+01    0.2846598     0.263164  50.02 0.0008851376    1.188    0.158
       129 -11.0308    131.8525    240.8290   4.6522108288e+01   7.3163544219e+00    0.1865731    0.1436838   0.98 0.0008525568    1.214    0.177
       130 -10.8389     27.1884     59.6082   4.7764858796e+01   6.4916034712e+01    0.4894251    0.2283566  30.60  0.002075419    2.095    0.523
       131 -11.1387     24.4262     56.2235   4.8306180277e+01   6.6040732706e+01     0.487459    0.3373954   0.42  0.002443495    1.659    0.397
       132 -10.7359    106.4615     58.3393   1.4836477261e+01   4.9991950089e+01    0.2765015    0.2359196  86.14  0.000310177    1.173    0.148
       133 -12.0820     75.6915     54.3548   2.2956277143e+01   5.7702730796e+01    0.6994604    0.3146768 -46.86  0.002731929    2.317    0.568
       134 -10.7840     73.5248     49.4880   2.1857671412e+01   5.9084174519e+01    0.4274786    0.2882273  66.69 0.0007667751    1.736    0.424
       135 -10.4985     72.3203     45.7222   2.0783135912e+01   6.0028343641e+01    0.4201525    0.3008544 -78.38 0.0007023936    1.953    0.488
       136 -11.0751     87.9876     55.9469   1.9348689404e+01   5.4692120198e+01    0.5523003    0.1882813 -34.92  0.001642556    4.129    0.758
       137 -11.5378     43.4739     60.9708   3.9456409062e+01   6.2361278479e+01    0.4504927    0.2554429 -57.04 0.0009546342    1.814    0.449
       138 -10.4235    156.7516     53.5872   3.2372769782e+00   3.8934984865e+01    0.2975865    0.1991758 -62.25  0.001532525    1.445    0.308
       139 -10.5094    155.0160     49.6316   2.3847857488e+00   3.9927014154e+01    0.4516496    0.1999703 -24.04  0.001588267    3.707    0.730
       140 -10.0466      2.4375     54.8832   6.1699420664e+01   6.8223698474e+01     0.217337    0.1569349 -35.16 0.0003544637    1.320    0.243
       141  -9.4262    201.8138     52.7993   3.5746926760e+02   2.9419853871e+01    0.1891266    0.1333673  19.87 0.0009511812    2.859    0.650
       142 -11.7463     57.2418     49.9364   2.8691933226e+01   6.2325129474e+01    0.8833913    0.5190499  36.78  0.001205017    1.730    0.422
       143 -10.7475     32.1690     52.4443   4.2503854232e+01   6.5945335624e+01    0.4208898    0.2372593  13.78  0.001262899    2.276    0.561
       144 -10.1529     81.6933     49.6568   1.9040372102e+01   5.7256153785e+01    0.2279555    0.1829083 -21.91 0.0008460774    1.509    0.337
       145  -9.8662     83.3200     46.6988   1.7345762305e+01   5.7409416206e+01    0.2098669    0.1910568 -35.91   0.00075286    1.188    0.158
       146  -9.2388    146.3310     48.3307   3.3531257610e+00   4.2143516685e+01    0.1342463    0.1090319  29.05 0.0007051928    1.719    0.418
       147 -12.2815     41.6429     44.2569   3.3993010855e+01   6.6262890962e+01    0.9406542    0.3883314  34.92  0.003155935    2.444    0.591
       148 -10.4559     22.9357     37.1903   4.2218615769e+01   7.0471206221e+01     0.510134    0.1679396  40.68  0.001849033    3.288    0.696
       149 -11.4166     26.4352     42.7238   4.2238227298e+01   6.8848472864e+01    0.3313746    0.2723253  61.54 0.0008392391    1.491    0.329
       150 -10.5739     13.5633     46.3043   5.1993150871e+01   6.9475470823e+01    0.4896473    0.1959325 -34.64  0.001802892    3.162    0.684
       151 -11.2519     18.2958     40.3065   4.6640223469e+01   7.0352496868e+01    0.3262595    0.2194146 -33.03  0.001720298    1.516    0.340
       152  -9.6818      2.2284     48.5969   6.0407668633e+01   6.9768494450e+01    0.1782113    0.1177884  -9.53  0.000828839    1.575    0.365
       153 -10.6314     20.6416     45.4455   4.6997459851e+01   6.8952716595e+01    0.2902541     0.213147 -34.27 0.0009089987    1.356    0.262
       154  -9.9089    199.4129     44.6020   3.5579438520e+02   3.1010512056e+01    0.2380215     0.102811 -89.74 0.0009559191    3.504    0.715
       155 -10.9000    109.8191     39.8774   7.5355949603e+00   5.2208581704e+01    0.5143135    0.3040568 -13.09  0.001808756    3.006    0.667
       156  -9.7783    156.0294     41.9757   6.2368472038e-02   4.0793708993e+01    0.1970314    0.1674436  24.89  0.001124612    1.668    0.400
       157 -10.2839     56.9798     41.8952   2.5416674578e+01   6.3912427760e+01    0.2116683    0.1934814  48.48 0.0004312824    1.060    0.057
       158 -11.2132      3.6688     36.9635   5.6121920953e+01   7.2403005563e+01    0.4637344    0.3562598 -53.99  0.002777379    1.220    0.180
       159 -10.4412    249.7056     38.9186   3.5078907643e+02   2.2606479049e+01    0.1894192    0.1283911 -70.30 0.0006124792    1.363    0.266
       160 -11.5454     79.0079     35.3753   1.4100108498e+01   6.0251028973e+01    0.6191356    0.4401456 -47.62  0.003190586    1.498    0.333
       161 -10.1905     60.5030     36.9201   2.1657638946e+01   6.4077253957e+01    0.2589682     0.208503 -48.33 0.0005731247    1.333    0.250
       162 -10.5954     64.8167     32.9368   1.8071361350e+01   6.3815643314e+01    0.6567751    0.1762741  44.55  0.002007822    3.923    0.745
       163 -10.6980    153.2233     35.6331   3.5861420233e+02   4.2311272056e+01    0.2314041    0.2076518 -86.87 0.0006133006    1.108    0.098
       164 -10.2000    175.6803     34.4444   3.5564037159e+02   3.7349139590e+01    0.2734514       0.1455 -57.47 0.0008961543    1.709    0.415
       165 -11.7312    125.5972    240.6106   4.7822276676e+01   8.0713608505e+00     0.243164    0.1966322  31.84  0.001635038    1.188    0.158
       166 -11.4849    106.8601     31.7664   5.2088376648e+00   5.4086347010e+01     0.480546    0.3253801  27.05  0.001721916    2.195    0.544
       167 -12.2865    112.9035     25.0843   1.5041936679e+00   5.3460050259e+01    0.7350561    0.3102666  61.07   0.00310214    2.116    0.527
       168  -9.2764     15.3344    233.7001   7.2686290521e+01   2.1319525029e+01    0.1356364   0.06550837  50.24 0.0005157625    1.654    0.395
       169 -10.6692    240.4269     32.3997   3.5006596828e+02   2.4922913856e+01    0.2056422    0.1715738  -0.95  0.001461758    1.962    0.490
       170  -9.7246    217.1246     32.1472   3.5152110799e+02   2.9137815371e+01    0.1668279    0.1031291 -58.00  0.000260344    1.282    0.220
       171 -10.3053     46.8467     23.7147   2.1361925702e+01   6.8995746249e+01     0.445506    0.2975845   6.24  0.002099101    2.278    0.561
       172  -9.9597     46.8064     19.9988   1.9346708467e+01   6.9561081976e+01    0.2267325    0.1797297  60.64 0.0008437489    1.332    0.249
       173 -11.3674     47.4562     30.6577   2.4658886672e+01   6.7753335796e+01     0.736973    0.2933477  39.56  0.002609398    2.546    0.607
       174 -10.0589    233.6836    227.3208   2.6187189915e+01  -1.3780224104e+00   0.08576925   0.07836418 -23.08 0.0007041376    1.660    0.398
       175 -10.8110      9.5438     29.8356   4.8883181068e+01   7.3496185783e+01    0.4384322    0.2639587  15.56  0.002156667    1.657    0.396
       176 -10.6201    172.4380     30.3713   3.5490333049e+02   3.8584320513e+01    0.4418684    0.1507497  82.58  0.001530868    4.095    0.756
       177 -10.6680    177.4624     28.9659   3.5403464406e+02   3.7645011608e+01    0.2330205    0.1614917 -22.06  0.001103876    1.811    0.448
       178 -10.8004    157.2457     29.0051   3.5619673217e+02   4.2222821417e+01    0.2815287    0.1862612 -80.17 0.0007143976    1.446    0.308
       179 -12.6608    165.1240     27.3914   3.5486164188e+02   4.0604149929e+01    0.3652753    0.2587482  72.99  0.002127802    1.395    0.283
       180 -12.1298    127.0482     28.2266   1.3940222532e-01   4.9574401469e+01    0.6252837    0.3655598  85.96  0.002438411    1.798    0.444
       181 -11.7499     26.5306     27.8276   3.5395719610e+01   7.1837398766e+01    0.4629784    0.3086196 -54.54   0.00195387    1.695    0.410
       182 -11.0733    189.1246     27.6268   3.5264260798e+02   3.5292863519e+01    0.3278117    0.2695726  20.58  0.002030773    1.941    0.485
       183 -10.4527    229.9334     26.8202   3.4955810929e+02   2.7411278098e+01    0.1552851     0.121643  44.01  0.001063269    2.029    0.507
       184 -10.0841    200.5027     27.5155   3.5169894031e+02   3.2950617917e+01    0.1240111   0.09532844 -60.58 4.233007e-05    1.006    0.006
       185 -11.2526    183.2042     25.7218   3.5267753201e+02   3.6786839496e+01    0.3298701    0.1456285 -48.41  0.001623261    1.853    0.460
       186 -10.4738    151.7873     27.1839   3.5632063541e+02   4.3728695252e+01    0.1696758    0.1543635  53.74 0.0006151228    1.347    0.258
       187  -9.6916     96.8747     25.8420   5.1538814881e+00   5.7322395133e+01    0.1980459    0.1553104 -79.34  0.001076556    1.322    0.244
       188 -10.2576    206.1794     25.2044   3.5074819142e+02   3.2086554917e+01    0.1656539    0.1403982 -60.75 0.0004141441    1.148    0.129
       189 -10.1299    142.7879     25.3852   3.5691493837e+02   4.6094118537e+01    0.1901071    0.1106232  62.21 0.0007328313    1.686    0.407
       190 -10.2977    248.5134    224.0058   2.3554299853e+01  -2.2714027014e+00    0.1488834   0.06113842 -21.99 0.0008096945    2.505    0.601
       191 -10.1444    155.3134     24.3103   3.5506624427e+02   4.3246753193e+01    0.2226391    0.1159992 -63.66  0.001046123    1.924    0.480
       192 -10.5149    177.4286     21.7570   3.5216682862e+02   3.8513569441e+01    0.3158634    0.2090387  47.74  0.001455363    2.071    0.517
       193 -10.4818    181.9358     18.7563   3.5102018196e+02   3.7871532488e+01    0.2576776    0.1616008  76.12 0.0009614676    1.571    0.363
       194 -10.3517    169.2499     22.9422   3.5322994788e+02   4.0199867110e+01    0.2075811    0.1598371 -88.96 0.0003568402    1.185    0.156
       195 -11.4609    149.4332     22.5634   3.5522935646e+02   4.4841170895e+01    0.3685756    0.1903189  78.53  0.001160454    1.860    0.462
       196 -10.2752    243.5387     21.9625   3.4783766280e+02   2.5592583659e+01    0.1833086    0.1175244  36.59  0.001035408    3.476    0.712
       197 -10.4416    135.1159     21.9573   3.5685788065e+02   4.8360922104e+01    0.2307638    0.1867242 -34.45  0.001216791    1.355    0.262
       198 -10.5440     68.7286     20.4629   1.0665831998e+01   6.4737898518e+01    0.3705991    0.2320132 -50.53  0.001836475    1.857    0.462
       199  -9.8076     39.1780     21.3950   2.4106946131e+01   7.0828985925e+01    0.1958586     0.165231  30.40 0.0006424953    1.103    0.093
       200 -10.0106     32.1781     21.1260   2.8082253283e+01   7.2120510517e+01    0.2114328    0.1783083  37.15 0.0004261335    1.132    0.117
       201  -9.6557    171.5310    208.5350   3.4000960094e+01   7.9722182162e+00    0.1228766    0.1022923  -5.63 0.0001780535    1.023    0.022
       202 -10.7692      4.3052    204.3626   7.4279478884e+01   2.8731007919e+01    0.1799579    0.1211907 -65.25  0.001014676    1.665    0.399
       203  -9.6947    233.7628    196.0349   2.1431193762e+01   2.7501414905e+00    0.1451006   0.07356591 -36.72 0.0007659046    1.611    0.379
       204 -10.5280    246.2893    192.4733   1.9088751459e+01   1.9573719436e+00    0.1936535   0.07432827 -38.03 0.0009882137    2.058    0.514
       205 -11.6651      6.2705    186.0243   7.2996062735e+01   3.2994297603e+01    0.3647697    0.2249697  33.14  0.001935809    1.463    0.316
       206 -10.7210    248.4721     21.1083   3.4743107610e+02   2.4860990361e+01    0.2183885    0.1058963 -70.98  0.001343823    1.956    0.489
       207  -9.5203     53.4778     21.5266   1.7097913722e+01   6.7964551522e+01    0.1346292    0.1214867  38.09 0.0008093484    1.040    0.038
       208 -11.4815      2.8017    182.2849   7.3811419510e+01   3.4191558784e+01    0.4551929    0.2043461 -59.90  0.002013746    2.410    0.585
       209  -9.7072    216.5298     19.5350   3.4881357236e+02   3.0725586656e+01      0.11879   0.08643436 -58.36 5.974131e-05    1.018    0.018
       210 -10.6103    249.2207    176.0836   1.6049401186e+01   3.8738774736e+00    0.2339684    0.1544645 -56.84  0.001444882    2.491    0.599
       211  -9.4935     50.7367    170.3402   5.8614171818e+01   3.2625427538e+01    0.1523937   0.09979863  63.50 0.0002695854    1.592    0.372
       212 -11.9886      9.1136    166.7276   7.1158675108e+01   3.7704352629e+01    0.3315968     0.277738 -26.11  0.001744291    1.464    0.317
       213 -11.3272    236.3075     15.4843   3.4691086760e+02   2.7554535743e+01    0.1866877    0.1737275 -69.38  0.001321605    1.407    0.289
       214 -10.7825    228.5680     15.5261   3.4730098919e+02   2.8931166059e+01    0.2142689    0.1233377 -62.03 0.0004776607    1.362    0.266
       215 -12.4457     13.0493    160.2198   6.9506872914e+01   3.9115245207e+01     0.476966    0.3407172 -32.40  0.002442789    1.742    0.426
       216 -10.7696     18.1316    165.0891   6.8241646521e+01   3.7395964864e+01    0.2146282    0.1871535 -52.83  0.001168942    1.286    0.222
       217 -10.0338    157.0452    166.0088   2.9752080448e+01   1.7726565678e+01    0.1999766    0.1695099  87.37  0.000860493    1.631    0.387
       218 -10.1193    205.0054    163.1431   2.0277616145e+01   1.1169401323e+01    0.2175669    0.1541523 -35.94 0.0008080026    1.197    0.165
       219 -10.2782    243.6959     13.8392   3.4624750353e+02   2.6456071710e+01    0.1582322    0.1192491 -33.38  0.001183733    1.458    0.314
       220 -10.1049    214.8383    161.1762   1.8364676386e+01   1.0163498779e+01    0.1672434    0.1216319 -18.51 0.0006361085    1.312    0.238
       221 -10.3189     28.5409    160.4978   6.4547456604e+01   3.7655684565e+01    0.1454413    0.1291405  66.20 0.0002133804    1.020    0.019
       222 -10.3526    104.3658    154.4214   4.0362666861e+01   2.8881137121e+01    0.2829095    0.2421933 -49.33    0.0014897    1.184    0.156
       223 -12.2161     22.0574    149.6167   6.5683392797e+01   4.1210169919e+01    0.7689945    0.3984239 -30.56  0.001854952    2.841    0.648
       224  -9.6289    121.2933     11.5487   3.5524254194e+02   5.2901512881e+01    0.2677891    0.1196724  79.55  0.001151522    2.169    0.539
       225 -10.0900     16.4492    147.7228   6.7428903547e+01   4.2213022414e+01    0.2959428    0.1642768 -66.93  0.001189804    1.711    0.416
       226 -10.3372    240.5827    152.7607   1.3210104168e+01   8.1620286544e+00    0.1586127   0.08568596 -43.74 0.0006527777    1.595    0.373
       227 -10.6872      4.2698    153.3924   7.1917500503e+01   4.1599873454e+01    0.1998626    0.1136741  34.51 0.0009532845    1.648    0.393
       228 -10.5877     45.0660    149.6751   5.7902555286e+01   3.8785269473e+01    0.4306906    0.2859201 -65.30  0.002032719    1.479    0.324
       229 -10.5605     47.5063    145.2197   5.6478166742e+01   3.9699660912e+01    0.3317009    0.2415848  31.24  0.001180616    1.361    0.265
       230 -11.0762     32.9832    143.9318   6.1323900017e+01   4.1705129884e+01    0.3109025    0.2897968  74.24 0.0006699665    1.015    0.014
       231 -12.1775      4.1707    142.1832   7.1255492451e+01   4.4641236868e+01     0.626283     0.361321  34.73  0.002776998    1.659    0.397
       232 -10.8735     40.6923    138.4496   5.7910159801e+01   4.2365358032e+01    0.4754769    0.2852771 -73.07  0.001638666    1.633    0.388
       233  -9.9044    228.3283    140.0104   1.2526002774e+01   1.1659565478e+01    0.1950371   0.07491969 -52.82 0.0007046523    4.276    0.766
       234 -11.8527     24.1761    136.3227   6.3595821975e+01   4.4675991099e+01    0.6765742    0.3075193 -49.04  0.002638981    2.380    0.580
       235 -11.2946     30.0681    132.7983   6.1016208813e+01   4.5082659842e+01    0.4562068    0.3767437 -76.74  0.001612268    1.155    0.134
       236 -10.4579     20.4744    133.9911   6.4700939931e+01   4.5655925426e+01    0.2615232    0.2350388 -77.64  0.001131762    1.077    0.072
       237 -11.8663     11.7287    136.0679   6.8103638700e+01   4.5789253334e+01    0.5909469    0.2742287 -42.68  0.002326255    2.584    0.613
       238 -11.1020     10.7737    125.6890   6.7528812781e+01   4.8735357973e+01    0.6459706    0.2672961 -45.76  0.002426443    2.713    0.631
       239  -9.7312     39.8263    133.1972   5.7482976370e+01   4.3913741808e+01    0.2002841    0.1730477 -26.19 0.0003669939    1.330    0.248
       240  -9.5357     33.3044    125.6437   5.8836381443e+01   4.6733608454e+01    0.1635675     0.103062  62.96 0.0007040079    1.717    0.418
       241 -10.9298    104.2506    122.4992   3.3781966089e+01   3.6608021445e+01    0.3431488    0.2869218  44.34 0.0009667212    1.204    0.169
       242  -9.6311     59.5371    123.4432   4.8648638717e+01   4.4002224301e+01    0.1526885    0.1464185  80.17 4.221534e-05    1.005    0.005
       243 -10.5914     43.7572    117.2494   5.3440435346e+01   4.7840460757e+01    0.5278875    0.2206439 -77.45  0.001732681    3.013    0.668
       244  -9.9566    218.4720    116.4757   9.2964626059e+00   1.6786775242e+01    0.1245047   0.09987918 -42.75 3.920832e-05    1.032    0.031
