#   1 NUMBER                 Running object number                                     
#   2 MAG_AUTO               Kron-like elliptical aperture magnitude                    [mag]
#   3 X_IMAGE                Object position along x                                    [pixel]
#   4 Y_IMAGE                Object position along y                                    [pixel]
#   5 X_WORLD                Barycenter position along world x axis                     [deg]
#   6 Y_WORLD                Barycenter position along world y axis                     [deg]
#   7 A_WORLD                Profile RMS along major axis (world units)                 [deg]
#   8 B_WORLD                Profile RMS along minor axis (world units)                 [deg]
#   9 THETA_WORLD            Position angle (CCW/world-x)                               [deg]
#  10 FWHM_WORLD             FWHM assuming a gaussian core                              [deg]
#  11 ELONGATION             A_IMAGE/B_IMAGE                                           
#  12 ELLIPTICITY            1 - B_IMAGE/A_IMAGE                                       
         1 -11.7396    247.8119     32.0197   4.2975993664e+01   1.9662018091e+01    0.7763371    0.3540615 -36.54  0.003632595    1.914    0.478
         2 -11.5710    249.1254     23.2625   4.0854771123e+01   2.0459871573e+01    0.6615621    0.4454582 -18.65  0.003600418    1.858    0.462
         3 -13.1336    243.5344      7.3663   3.7714075278e+01   2.3543822947e+01     1.975378     1.147025  87.65   0.01072397    1.664    0.399
         4  -9.1802    156.5886    246.8309   1.0479945140e+02   2.7287177435e+00     0.233256    0.1918685 -25.96 0.0009335969    1.571    0.364
         5 -13.1644    201.1029    185.3544   8.6336168728e+01   4.6701989639e+00     10.12492     4.692658 -16.39   0.01968582   12.723    0.921
         6 -10.6338    225.0046    244.4266   9.2162370289e+01  -7.5848416474e+00     1.044746    0.4045194 -34.31  0.005276238    2.941    0.660
         7 -12.2314    191.7739    226.0364   9.5282003230e+01  -5.7939930295e-03     13.32823     2.484681 -35.77   0.02330996   20.021    0.950
         8 -13.6547    206.2004    204.9137   8.9001237378e+01   6.5762426419e-01     14.25255     3.169227 -32.60   0.02750409   13.766    0.927
         9 -13.1587    224.4382    177.8489   8.0409650413e+01   1.5995938665e+00     5.115795     1.491922 -27.75   0.01158515    8.567    0.883
        10 -11.5474    230.4270    235.2826   8.9775672138e+01  -7.3123651079e+00     1.142149    0.6200345 -47.79  0.005872147    3.143    0.682
        11 -11.5237    235.8325    228.2471   8.7678375707e+01  -7.2721481532e+00    0.4755228      0.41535   5.78  0.002482362    1.233    0.189
        12 -13.8728    228.0115    196.8450   8.3473348965e+01  -1.8794262768e+00     3.771762     1.390655 -26.23   0.01366149    3.812    0.738
        13 -12.7776    246.9441    240.8961   8.7867870763e+01  -1.0316022619e+01    0.9835342    0.7703089 -16.84  0.007248141    1.370    0.270
        14 -11.9462    238.3693    218.6337   8.5592919549e+01  -6.4694038769e+00     0.579586    0.3812675 -24.75  0.002131279    1.520    0.342
        15 -12.9699    243.5175    149.0547   7.0948401829e+01   2.6589233460e+00     2.574469     1.194372 -13.24  0.007150027    5.851    0.829
        16 -14.7495    248.3072    122.8878   6.4302335639e+01   5.9337540396e+00     8.178699     1.364506 -38.88    0.0221406    4.916    0.797
        17 -11.0558    209.9023    248.3582   9.5391877053e+01  -5.8046761311e+00    0.4138263    0.3285148   0.15  0.002531651    1.260    0.207
        18  -7.7929    209.6760    241.6955   9.4434999852e+01  -4.9585000706e+00    0.1580773    0.1064407  -5.58  0.000614968    1.700    0.412
        19  -8.7472    166.9011    250.5409   1.0339247998e+02   5.7171021091e-01    0.2767801   0.09392627  36.13  0.001189722    2.629    0.620
        20  -9.8144    140.2923    248.1924   1.0795301123e+02   5.1057442817e+00    0.3466042    0.2720194 -11.43  0.001976591    1.929    0.482
        21  -8.9703    124.4787    248.9324   1.1092107961e+02   7.4501446813e+00     0.253454    0.1172711 -57.02  0.001350085    2.683    0.627
        22  -9.0425    132.7672    246.0585   1.0908647590e+02   6.6129228741e+00    0.2186555    0.1611646 -44.75  0.001119244    1.778    0.438
        23  -8.9766    113.0653    245.7477   1.1266344766e+02   9.6994387302e+00    0.2213108    0.1671998 -59.25  0.001502951    1.630    0.386
        24  -9.9442    176.3864    245.2255   1.0096029352e+02  -1.9917810118e-01    0.3671558    0.2695887  -9.90  0.001858991    1.769    0.435
        25  -8.5461    151.4936    245.0545   1.0551381535e+02   3.8015815039e+00     0.148964    0.1215563 -48.43   0.00081579    1.541    0.351
        26  -8.9596    103.8810    242.8219   1.1404496804e+02   1.1562418744e+01     0.243802    0.1610609 -51.10  0.001519441    1.991    0.498
        27  -9.8783    201.8353    241.3338   9.5783018155e+01  -3.7004480182e+00     0.267021    0.2234135 -19.22  0.001223308    1.355    0.262
        28  -9.5329    169.5359    241.1382   1.0166136428e+02   1.4728302725e+00    0.2673553    0.2098458  -8.52  0.001218256    1.604    0.377
        29  -9.0428    125.2153    240.8376   1.0988963493e+02   8.6266954915e+00    0.2201169     0.199691 -40.19  0.001536196    1.458    0.314
        30  -9.9254    214.2266    240.1106   9.3384139902e+01  -5.4585566695e+00    0.2396178    0.1783817 -14.69 0.0008851719    1.427    0.299
        31  -8.4733    154.6740    241.2248   1.0443622874e+02   3.8630824975e+00    0.1457993    0.1114861 -34.34 0.0006007091    1.678    0.404
        32  -9.0788    134.8920    240.1552   1.0800154592e+02   7.2070933773e+00    0.2226356    0.1783076 -52.46  0.001241311    1.548    0.354
        33  -8.5876    117.6050    240.3379   1.1125172509e+02   9.8935331476e+00    0.2045364    0.1158266 -67.48  0.001142661    2.210    0.548
        34  -9.9242    183.5747    238.2302   9.8653852549e+01  -3.8577448896e-01    0.3315759    0.2334037 -31.72  0.001661939    1.703    0.413
        35  -9.9018    159.4824    237.3135   1.0301880165e+02   3.6706871185e+00    0.3834599    0.2683986 -45.43  0.002379726    1.758    0.431
        36  -9.1502    148.4670    238.8479   1.0529200593e+02   5.2298794536e+00    0.2441415    0.2191971 -24.59  0.001185811    1.406    0.289
        37  -8.7189     90.1660    237.4729   1.1604360865e+02   1.4493373991e+01    0.1918351    0.1324149 -41.95 0.0008695221    2.314    0.568
        38 -10.0916    176.8630    234.3006   9.9331678249e+01   1.2651069305e+00    0.4060883    0.2454907 -31.00   0.00181443    2.114    0.527
        39  -9.3608    139.2059    235.5581   1.0662473586e+02   7.2513724750e+00    0.2586619    0.2244455 -18.63  0.001367434    1.536    0.349
        40  -8.7800    129.1426    235.7870   1.0856264654e+02   8.8333629704e+00    0.2021732    0.1564435 -18.59 0.0008942707    2.043    0.511
        41  -9.1635    170.6748    233.6766   1.0040500239e+02   2.3758042748e+00      0.25175    0.1871552 -30.57  0.001052471    1.646    0.392
        42  -8.7550    152.8585    233.6159   1.0377495378e+02   5.3276876491e+00    0.1885511    0.1699784 -11.99  0.001005783    1.357    0.263
        43  -8.6042    165.4852    232.5213   1.0122254054e+02   3.4079841790e+00     0.200762    0.1491992  12.39 0.0006616748    1.608    0.378
        44  -9.5827    148.2717    221.7818   1.0303390225e+02   8.0203742024e+00    0.3404813    0.2984756 -17.50  0.001740291    1.419    0.295
        45  -9.4413    145.1814    231.4078   1.0494948785e+02   6.9459480650e+00    0.2861842    0.2448699  42.20  0.001504359    1.056    0.053
        46  -8.9078    143.8379    226.6734   1.0457798111e+02   7.9467985375e+00    0.2142316    0.1766434 -26.86  0.001085541    1.578    0.366
        47  -9.5971    123.4267    231.4415   1.0913438823e+02   1.0476432277e+01    0.3196018    0.2424361 -24.30  0.001888571    2.098    0.523
        48  -8.3717    185.5302    231.9101   9.7356316747e+01   1.8486496447e-01    0.1580745    0.1226165 -34.80 0.0005972891    1.520    0.342
        49  -9.2348    133.6173    231.1250   1.0713675372e+02   8.8873324873e+00    0.2794043    0.2022334 -27.85  0.001203598    2.089    0.521
        50  -8.9143     99.8961    231.3891   1.1362194683e+02   1.4138010405e+01    0.2204024    0.1545153 -44.97  0.001327974    2.014    0.504
        51  -9.1167    158.0371    230.1261   1.0230708378e+02   5.0172710935e+00    0.2339817    0.1841458 -27.45 0.0009329864    1.604    0.376
        52  -9.2656    113.6647    229.8354   1.1082228988e+02   1.2299133971e+01    0.2639232    0.2166284 -70.31  0.001572208    1.387    0.279
        53  -9.3257    174.2431    227.7607   9.8864244141e+01   2.6684748245e+00    0.2742741    0.2051514  -9.14  0.001275608    1.704    0.413
        54  -8.6403    169.4310    228.4810   9.9889398044e+01   3.3660238348e+00    0.1628259    0.1173095 -28.54 0.0006532199    1.723    0.420
        55  -8.8578    170.3919    224.2477   9.9076781414e+01   3.8575999658e+00    0.2934056    0.1767646 -31.18  0.001208703    2.156    0.536
        56  -8.8085    152.5759    228.2179   1.0309345202e+02   6.2336870690e+00    0.2126069    0.1972742   4.85  0.001122219    1.248    0.199
        57  -9.0902    155.3975    224.1964   1.0197963622e+02   6.4112575834e+00    0.3069436    0.2152784 -29.59  0.001424799    1.887    0.470
        58  -8.8740    138.6361    227.5913   1.0571234825e+02   8.6568852925e+00    0.2206159    0.1824644 -13.33  0.001118395    1.678    0.404
        59  -9.4106    162.7719    225.6388   1.0075493652e+02   4.9304423435e+00     0.389841    0.3513632  83.07  0.002596259    1.359    0.264
        60  -8.9415    165.6302    220.4583   9.9430239994e+01   5.2711301801e+00    0.2502929    0.1995177 -30.01 0.0007404775    1.492    0.330
        61  -8.6735    120.2653    225.3384   1.0901123070e+02   1.2044846942e+01    0.2061221    0.1523883 -45.42  0.001097424    1.727    0.421
        62  -9.7460    129.1897    224.2270   1.0712245140e+02   1.0790325386e+01    0.2477814    0.2102649  21.22  0.001276915    1.403    0.287
        63  -9.1455    135.3984    223.3193   1.0578235595e+02   9.9220436274e+00    0.2596653    0.1261215 -55.28  0.001188784    2.446    0.591
        64  -8.6509    135.8388    218.4241   1.0503498707e+02   1.0704027080e+01    0.2229213    0.1650115  -2.74  0.001175235    2.220    0.550
        65  -8.6477     84.6442    232.0388   1.1655514072e+02   1.6255044017e+01    0.1725501   0.07935715 -44.41 0.0007045435    4.464    0.776
        66  -9.1905    178.9054    202.8694   9.3957155463e+01   5.8220807221e+00    0.3170231     0.199616 -33.42  0.001133269    1.829    0.453
        67  -9.7431    177.1302    209.4574   9.5423299652e+01   5.0504089802e+00    0.4453438    0.2585302 -35.81  0.001756226    2.011    0.503
        68  -9.3430    180.3606    221.7619   9.6776285249e+01   2.5459994371e+00    0.3158131    0.2238972 -39.19  0.001306335    1.641    0.391
        69  -9.0886    174.6783    221.5861   9.7843524220e+01   3.5420418068e+00      0.29348    0.2389136  -8.81  0.001390909    1.432    0.302
        70  -9.1570    179.2688    216.1274   9.6092847326e+01   3.6064153742e+00    0.3314686    0.2602412   1.48  0.001255374    1.459    0.315
        71  -8.9575    140.4969    220.9705   1.0445752253e+02   9.4741110223e+00    0.2493135    0.1763519 -30.61  0.001122873    1.979    0.495
        72  -8.4647    114.6716    222.0165   1.0970706071e+02   1.3537080731e+01    0.1683477     0.154506  74.08  0.001144598    1.144    0.126
        73  -8.4161     97.4730    222.5031   1.1314042230e+02   1.6123710587e+01    0.1236114    0.1024459  60.26 0.0001491285    1.038    0.037
        74  -9.3666     51.5019    221.9917   1.2185221471e+02   2.2564532586e+01    0.1484778   0.08306623 -51.57 0.0006566001    2.596    0.615
        75  -9.3769    158.9407    218.0605   1.0038452917e+02   6.8160532470e+00     0.330853    0.2466956 -12.46  0.001662536    1.861    0.463
        76  -8.5180    154.1677    218.8299   1.0144345532e+02   7.5099185568e+00    0.1690864    0.1447563  10.74   0.00054903    1.338    0.253
        77  -8.8029    128.7548    219.0786   1.0653839904e+02   1.1772761001e+01    0.1882208    0.1478611 -17.11  0.001074588    1.933    0.483
        78  -9.9146    170.7836    215.4584   9.7646589224e+01   5.1879870303e+00    0.4536771    0.2489207 -30.64   0.00187855    2.492    0.599
        79  -8.4045    167.4244    207.7746   9.7082216660e+01   7.0560921549e+00      0.20067    0.1699678  -0.88 0.0009965333    1.345    0.257
        80  -8.9635    171.2352    206.7845   9.6154410973e+01   6.5430440973e+00    0.2271114     0.186453 -38.73 0.0007067108    1.377    0.274
        81  -8.9886    173.0141    202.6928   9.5109923014e+01   6.9168127179e+00    0.2415063    0.1880725 -17.29  0.000878108    1.528    0.346
        82  -8.6587    119.7079    217.6942   1.0816863045e+02   1.3513823778e+01    0.2101575    0.1520852 -47.26  0.001228607    1.701    0.412
        83  -9.0804    165.2588    215.3835   9.8725434587e+01   6.1632817126e+00    0.2194295    0.1782106 -39.08  0.001135784    1.427    0.299
        84  -9.3054    154.5900    212.8597   1.0046631479e+02   8.4532820476e+00    0.3061407    0.2253206   1.09  0.001276694    1.962    0.490
        85  -8.2559     83.3096    216.3260   1.1526272037e+02   1.9396451878e+01    0.1073046   0.09837994 -20.39 0.0007038982    1.657    0.396
        86  -8.9425     31.3584    215.9052   1.2511022849e+02   2.6103398876e+01    0.2129376    0.1179348 -64.84   0.00131388    1.920    0.479
        87  -9.2825    143.7775    214.6436   1.0290872150e+02   1.0019001740e+01    0.3351685    0.2099856  24.84  0.001669886    1.971    0.493
        88  -8.4956    124.7322    215.4432   1.0686492839e+02   1.3100015729e+01    0.1790973    0.1131993  33.90 0.0009439608    1.609    0.379
        89  -8.9695    138.3850    213.7755   1.0387335721e+02   1.1099224193e+01    0.1658497    0.1234007 -40.98  0.000946775    1.642    0.391
        90  -9.0744    132.0420    213.9728   1.0518631625e+02   1.2143340389e+01    0.1950513    0.1583071   5.72     0.001128    1.699    0.411
        91  -9.0939     63.7894    214.3861   1.1889214140e+02   2.2477897247e+01    0.1585819    0.1071656  35.13 0.0009249097    1.676    0.403
        92  -8.5437    117.4311    212.7054   1.0798586733e+02   1.4814483545e+01    0.2110682    0.1555502  23.00  0.001087223    1.737    0.424
        93  -7.9393    111.3394    213.3112   1.0930181829e+02   1.5689504310e+01    0.1190909    0.1013764   4.46 0.0004107188    1.692    0.409
        94  -8.8179     52.3384    213.3296   1.2100526249e+02   2.4154865799e+01    0.1034829   0.09071137 -43.84 0.0007051888    1.735    0.424
        95  -9.5265    161.1120    209.5994   9.8646387787e+01   7.8665193226e+00    0.3421839    0.2504689 -14.91  0.001449936    1.881    0.468
        96  -8.5944    125.0062    211.0143   1.0621314387e+02   1.3875213850e+01    0.1951333    0.1600752   6.18 0.0007725003    1.704    0.413
        97  -8.2569    131.3666    208.8439   1.0460387445e+02   1.3202575479e+01    0.1736442    0.1211673 -42.18 0.0009422494    1.764    0.433
        98  -8.8851    145.9238    208.0707   1.0149765976e+02   1.0818154801e+01    0.2992859    0.1970795  10.55   0.00136172    2.590    0.614
        99  -9.5405    149.9034    205.7409   1.0032171421e+02   1.0535488403e+01    0.3846207    0.2263104 -48.79   0.00194241    1.932    0.482
       100  -9.0594    183.1052    206.2578   9.3704504969e+01   4.5106912387e+00    0.2699291    0.1975174  -4.92 0.0009703962    1.697    0.411
       101  -9.6058    186.7316    202.0595   9.2261091304e+01   4.5457216191e+00    0.3211475     0.271817 -16.04  0.001032502    1.261    0.207
       102  -9.3496    156.4173    205.5851   9.8961038005e+01   9.4024737614e+00    0.2632454    0.2189671 -24.50 0.0009051473    1.438    0.304
       103  -8.4869    120.1967    206.8095   1.0662946314e+02   1.5478984436e+01    0.1690166    0.1564598   5.69 0.0006479096    1.374    0.272
       104  -8.4636    114.9429    207.0256   1.0774900280e+02   1.6309561086e+01    0.1911457    0.1627524  -1.65  0.001127166    1.691    0.409
       105  -9.3469    139.5924    203.9635   1.0218158399e+02   1.2685405025e+01    0.2841874    0.2458297 -23.08  0.001328838    1.444    0.308
       106  -8.6553     86.7662    205.4114   1.1338057463e+02   2.1054418315e+01    0.1725279    0.1157084  33.27 0.0009550338    1.682    0.405
       107  -9.5625    165.0123    200.9310   9.6438349899e+01   8.6747670160e+00    0.3924712    0.2672059   2.66  0.001849064    2.288    0.563
       108  -8.2573    126.6445    205.8588   1.0515643248e+02   1.4571837990e+01    0.1873919    0.1594333  38.08 0.0006778229    1.177    0.150
       109  -8.7183     57.0325    202.4824   1.1913577351e+02   2.5764626878e+01     0.180372    0.1069677  42.48  0.001037554    1.606    0.377
       110  -8.2011    162.2710    197.3889   9.6403509258e+01   9.8072728347e+00     0.211926     0.153648 -16.23 0.0007383136    1.876    0.467
       111  -8.4319    144.4760    200.9783   1.0070028376e+02   1.2376665311e+01    0.1855669    0.1347412 -48.23 0.0006914674    1.552    0.356
       112  -9.0641    131.5611    200.9824   1.0341440593e+02   1.4658021241e+01    0.2546733    0.1841389  27.09  0.001345467    1.578    0.366
       113  -8.3255    155.1804    200.2580   9.8353489929e+01   1.0581707829e+01    0.2159848    0.1435191   2.79 0.0009381214    2.683    0.627
       114  -8.2449     42.6785    199.6478   1.2175441806e+02   2.8104753267e+01    0.1090919   0.08685241 -49.74 0.0005476834    1.751    0.429
       115  -9.2482    176.3167    196.4085   9.3350278398e+01   7.3940073338e+00    0.2833908    0.2334276 -18.13 0.0008885811    1.357    0.263
       116  -9.4228    184.5305    194.9634   9.1432305804e+01   6.1276722231e+00    0.3973145    0.3362613  16.47   0.00234081    1.148    0.129
       117  -9.1772    185.1477    188.4800   9.0112148142e+01   7.1249786243e+00    0.4406814    0.3194131 -62.60  0.002087092    1.930    0.482
       118  -9.4301    184.0475    181.3764   8.8981944536e+01   8.5848663191e+00    0.3451131    0.2515066 -15.06  0.001327693    1.653    0.395
       119  -9.0445    170.3497    196.3073   9.4550958465e+01   8.5124693036e+00    0.2781862    0.2078868   8.22 0.0008787596    1.659    0.397
       120  -8.8962    149.4520    196.9805   9.9012687221e+01   1.2227072230e+01    0.2597079    0.1811563  28.73  0.000792501    1.527    0.345
       121  -8.8740    140.6992    195.9771   1.0070219131e+02   1.4001522745e+01    0.2468536     0.187573  16.73  0.001053601    1.670    0.401
       122  -8.4303    125.3353    196.3266   1.0403951501e+02   1.6652325717e+01    0.1309925    0.1077231  -0.22 0.0007051629    1.720    0.419
       123  -8.6207    132.9124    193.8594   1.0203175923e+02   1.5808253805e+01    0.2066821    0.1850859  23.43 0.0008028767    1.250    0.200
       124  -7.9668    113.3340    194.3190   1.0632969549e+02   1.9108765610e+01    0.1275407    0.1079681  -4.55 0.0005815701    1.698    0.411
       125  -8.9294    162.0720    190.8331   9.5308426990e+01   1.1041910713e+01    0.2773776    0.2003826 -36.47 0.0009992471    1.562    0.360
       126  -8.1394    157.4834    192.5020   9.6565890244e+01   1.1587533761e+01    0.1389074     0.125412  33.00 0.0001078389    1.058    0.054
       127  -8.0480    152.4763    192.4995   9.7624341303e+01   1.2515681799e+01    0.1385727    0.1255363  33.44 0.0001046907    1.074    0.069
       128  -8.6927    146.2481    191.8068   9.8834498813e+01   1.3795408538e+01    0.1866607    0.1623858   4.46  0.001060932    1.372    0.271
       129  -9.3131    193.2422    186.8860   8.8184180267e+01   5.8799039406e+00    0.3924841    0.2390408  13.28  0.001189318    2.403    0.584
       130  -7.7606    167.6852    191.7165   9.4291261210e+01   9.8294324200e+00    0.1369094    0.1044441  10.81 0.0006990792    1.579    0.367
       131  -9.0369    172.6316    189.4477   9.2855447095e+01   9.3106981883e+00    0.2629199    0.2250565   8.17 0.0008494398    1.247    0.198
       132  -9.1947    179.0279    188.4197   9.1347880139e+01   8.2880207172e+00     0.276285    0.2140687 -13.29  0.001151643    1.512    0.338
       133  -8.3322    190.3042    190.3675   8.9429043075e+01   5.8378387350e+00     0.196441    0.1305307 -31.78 0.0006645998    1.633    0.388
       134  -8.7280    157.1763    186.6276   9.5599694464e+01   1.2752499045e+01    0.2675181    0.1993765  13.13   0.00107901    1.709    0.415
       135  -8.8494    166.9098    184.4976   9.3143589124e+01   1.1304607167e+01    0.2600681    0.1949713 -20.93   0.00106228    1.631    0.387
       136  -8.0777    150.6909    185.6859   9.6826733343e+01   1.4155791193e+01    0.1382445    0.1100646   3.57 0.0004832946    1.629    0.386
       137  -7.8940    129.3167    185.3574   1.0144930819e+02   1.8162706498e+01    0.1374263    0.1112424  -7.14 0.0007044633    1.751    0.429
       138  -8.5794    189.9096    183.8379   8.8266469018e+01   7.0313953970e+00    0.2174015     0.171282  10.94 0.0006991428    1.354    0.261
       139  -8.3539    173.4991    184.0042   9.1667325726e+01   1.0134815173e+01     0.198769    0.1394774 -39.06 0.0007599279    1.538    0.350
       140  -8.0992    140.4842    183.4899   9.8669821928e+01   1.6498773317e+01     0.140222    0.1302499  43.70 0.0008098474    1.052    0.049
       141  -9.1687    197.3363    181.4330   8.6311781633e+01   6.0370562976e+00    0.2780743    0.2115581  -4.63 0.0008207003    1.474    0.321
       142  -8.2470     69.4809    181.5461   1.1428377460e+02   2.8603303249e+01    0.1308477    0.1096054  78.23 0.0008085518    1.007    0.007
       143  -8.9696    176.9623    179.5864   9.0101448233e+01   1.0278163195e+01    0.2656365    0.1970128 -19.32  0.001343126    1.602    0.376
       144  -9.3511    191.2266    177.5189   8.6760948416e+01   7.8856909318e+00    0.3092094    0.2427308 -13.57  0.001203542    1.394    0.283
       145  -7.8838    160.4678    179.5231   9.3593418885e+01   1.3488598075e+01    0.1434803    0.1312181  23.00 0.0002865169    1.099    0.090
       146  -8.0315    145.6673    178.6898   9.6676319103e+01   1.6492795090e+01    0.1421475    0.1128551   3.65 0.0007042811    1.673    0.402
       147  -8.3251    169.4474    176.7577   9.1139539589e+01   1.2272011573e+01     0.192837    0.1355961 -28.06 0.0009313191    1.664    0.399
       148  -9.4080    197.7946    175.2512   8.4986230986e+01   7.0142892086e+00    0.2867756    0.2252345   8.18 0.0008214681    1.362    0.266
       149  -8.9054    182.7149    174.1499   8.7832422250e+01   1.0153222859e+01    0.2751296     0.205275   0.78  0.001064935    1.669    0.401
       150  -8.4273    150.9823    175.5284   9.4918075250e+01   1.6111207040e+01    0.2002111    0.1240149  19.97 0.0008082688    2.422    0.587
       151  -8.2212    161.9919    173.5309   9.2119839490e+01   1.4359155233e+01    0.2035753    0.1228653  20.96 0.0007339258    2.430    0.588
       152  -8.9759    192.9871    171.5312   8.5194072736e+01   8.6065886317e+00    0.2676466    0.1917173 -17.79 0.0009538201    1.604    0.377
       153 -10.0741    216.3423    232.0978   9.1744879573e+01  -4.7813520129e+00     1.061943    0.9126784   9.96  0.007527818    1.135    0.119
       154  -9.5857    205.4641    167.5735   8.1887458857e+01   6.8582036447e+00    0.3235124    0.2435548   0.69 0.0009989586    1.496    0.332
       155  -8.6055    187.8087    170.9504   8.6131835687e+01   9.7330515423e+00    0.2256697    0.1838382   4.50  0.001033918    1.338    0.253
       156  -8.3811    197.3140    168.5484   8.3705398103e+01   8.2862648843e+00    0.2325631    0.1618733 -14.42 0.0005987308    1.719    0.418
       157  -8.5301    178.8669    167.2633   8.7238251097e+01   1.2204773660e+01    0.2752953    0.1864553 -12.46   0.00121063    2.074    0.518
       158  -9.1475    192.1556    163.4832   8.3683496249e+01   1.0229334246e+01    0.3344704    0.2336118  -6.40  0.001360401    1.882    0.469
       159  -8.9751    199.7632    163.2709   8.2102770777e+01   8.7404147337e+00    0.2824398    0.1901294 -23.62  0.001051058    1.631    0.387
       160  -8.7013    185.2364    163.7975   8.5177703208e+01   1.1570851397e+01    0.2667151    0.1789304  18.34 0.0009900104    1.892    0.472
       161  -9.3761    205.9468    159.4341   8.0056051294e+01   8.1859173849e+00    0.4555603    0.2941961   4.59  0.001942404    2.271    0.560
       162  -8.1308    177.4736    157.0316   8.5372841359e+01   1.4458643606e+01    0.2073373    0.1292256 -16.90 0.0008087431    2.440    0.590
       163  -9.0786    197.3448    155.3144   8.0862908369e+01   1.0670799734e+01    0.3126141    0.2253982  -0.15 0.0009314778    1.758    0.431
       164  -8.4871    187.7285    154.5161   8.2656120414e+01   1.2809236800e+01    0.3143624    0.1734067 -27.78   0.00125451    2.215    0.549
       165  -9.0462    206.1265    152.7773   7.8559200561e+01   9.3323612577e+00    0.2776714    0.1820278  -8.43  0.001031465    2.069    0.517
       166  -8.4469    202.5613    150.1365   7.8669410111e+01   1.0540966227e+01    0.2440264    0.1644969  -5.18 0.0009726439    2.028    0.507
       167  -9.2716    207.9967    143.9191   7.6195398191e+01   1.0537578336e+01    0.4902279    0.2903543 -11.35  0.001871131    2.681    0.627
       168  -8.5194    197.0201    148.5150   7.9410386242e+01   1.1993581112e+01    0.2847004    0.1971052 -18.84 0.0008562406    1.678    0.404
       169  -7.7359    191.2921    147.0160   8.0237646789e+01   1.3483561732e+01    0.2361566    0.1175955 -20.43  0.000699767    4.003    0.750
       170  -8.3053    200.3967    143.7970   7.7656951043e+01   1.2156855616e+01    0.2179435    0.1368173 -25.40 0.0006814502    1.772    0.436
       171  -9.0226    214.2000    141.1276   7.4372158354e+01   9.7461322793e+00    0.3045748    0.1876746 -24.50  0.001202751    1.754    0.430
       172  -8.0855    181.6988    140.6441   8.0779069485e+01   1.6778627557e+01     0.158264    0.1194049   0.79 0.0007037896    1.708    0.415
       173  -9.4864    218.7584    137.0721   7.2587881378e+01   9.5153015384e+00    0.3796366    0.2638931 -15.49  0.001516733    1.618    0.382
       174  -8.5519    198.5306    136.4885   7.6323491366e+01   1.3917540612e+01    0.3223751    0.1451457 -37.85  0.001213053    2.186    0.542
       175  -8.3186    192.6605    136.1229   7.7422731693e+01   1.5264434359e+01    0.2263636    0.1373707 -28.64 0.0009455454    1.807    0.446
       176  -8.2762    179.2437    132.0204   7.9253847692e+01   1.9030206121e+01    0.2055988    0.1294793 -39.78 0.0008604602    1.579    0.367
       177  -9.6892    205.6844    128.8690   7.3100433313e+01   1.3774449576e+01    0.6034057    0.2218659 -42.99   0.00206276    2.704    0.630
       178  -9.0657    199.9679    125.0629   7.3284466090e+01   1.5742920509e+01    0.3335117     0.203156 -20.87  0.001349412    2.059    0.514
       179 -10.1454    203.0472    120.4450   7.1546717306e+01   1.5913212895e+01    0.4263088    0.2105452 -34.38  0.001659237    2.011    0.503
       180  -7.9767    186.2180    128.0183   7.6797208143e+01   1.8259170785e+01    0.2063243     0.123675 -38.83 0.0006428669    1.645    0.392
       181  -8.7556    179.7992    123.4028   7.7010173916e+01   2.0622108500e+01    0.2593154    0.1889585 -32.90  0.001112002    1.395    0.283
       182  -8.6955    194.2818    120.0167   7.3158990474e+01   1.7976614796e+01    0.2243702    0.1984394 -30.51 0.0006891545    1.101    0.092
       183  -8.0773    174.3145    118.3141   7.6907001556e+01   2.2898316530e+01    0.1597221    0.1244409   6.69 0.0006397839    1.641    0.391
       184  -7.9480    199.6275    115.7029   7.1019722990e+01   1.7568916740e+01    0.1600339    0.1185003  14.17 0.0007028033    1.740    0.425
       185  -8.6650    192.4902    128.4646   7.5612667005e+01   1.6767798083e+01    0.2726358    0.1456726 -27.56  0.001024953    2.238    0.553
       186  -8.4104    185.8763    113.8877   7.3307760326e+01   2.1089544042e+01    0.2428196    0.2127133   0.23  0.001213171    1.260    0.206
       187  -8.4657    194.9832    112.4970   7.1111582372e+01   1.9238456340e+01    0.2296813    0.1525033  48.98 0.0007046678    1.548    0.354
       188  -8.5382    201.2218    108.2133   6.8805285346e+01   1.8588595040e+01    0.2510998     0.162226   9.25 0.0009332194    2.667    0.625
       189  -8.0747    190.4507    107.5038   7.0717076543e+01   2.1240391524e+01    0.1554743    0.1480983  -9.52 0.0001676475    1.065    0.061
       190  -7.8910    196.4501    106.5384   6.9285369475e+01   2.0011181620e+01     0.153215    0.1471865 -21.87  0.000206194    1.025    0.025
       191  -9.2901    205.6864    103.9950   6.6887995917e+01   1.8319963741e+01    0.2775924    0.2121794  21.44   0.00123074    1.597    0.374
       192  -8.5859    209.4849     98.9944   6.4914374490e+01   1.8328695684e+01    0.2274016    0.1440074 -34.23 0.0006312642    1.514    0.340
       193 -13.3464    245.9970    162.6508   7.3451197458e+01   1.0318570387e-01      2.33244    0.6920859 -36.46  0.008524543    3.103    0.678
       194  -8.1878    195.5142     95.5025   6.6550356948e+01   2.2262710824e+01    0.1534389    0.1484633 -23.07 0.0001615261    1.037    0.035
       195  -8.4719    220.1992     92.8575   6.1520689563e+01   1.6911327052e+01    0.2014056      0.17368   2.97 0.0007651539    1.328    0.247
       196  -9.1632    215.8479     93.1623   6.2316699916e+01   1.7863925077e+01    0.2004962    0.1754117   6.68 0.0004891503    1.299    0.230
       197  -7.9366    207.3078     93.3484   6.3828857221e+01   1.9833562566e+01     0.155549     0.119052   9.45 0.0007043599    1.706    0.414
       198  -8.3971    210.2058     89.8430   6.2408444266e+01   1.9757141615e+01    0.2063463    0.1785329   7.64  0.000758287    1.337    0.252
       199 -13.8849    244.4710    194.5000   8.0118703922e+01  -4.2518969252e+00      3.68119     1.166371 -25.43   0.01170237    5.057    0.802
       200  -9.2691    218.7527     82.8560   5.9187495590e+01   1.8922886010e+01    0.3398403    0.2167371  10.09  0.001296025    2.876    0.652
       201  -8.0830    206.4709     83.4499   6.1355210787e+01   2.1745044792e+01    0.1490088    0.1441016 -16.32 0.0001206095    1.079    0.073
       202  -8.2038    215.4111     78.7371   5.8643484303e+01   2.0391408549e+01    0.2005062    0.1401222 -22.01 0.0005787226    1.581    0.367
       203 -11.7430    250.0738    199.7637   8.0157384838e+01  -5.8377395365e+00    0.5382202    0.2198983 -31.23  0.001825441    2.373    0.579
       204  -7.8203    211.6952     74.6930   5.8165223225e+01   2.1943895733e+01    0.1466677    0.1166341  17.35  0.000701554    1.605    0.377
       205  -9.0049    111.0024     73.2949   7.9886225136e+01   4.6436474952e+01    0.2486708     0.208131 -36.73 0.0005318808    1.155    0.134
       206 -13.1131    236.8559    194.0487   8.1361436148e+01  -2.9525290330e+00     2.873498    0.4871779 -32.91  0.007070846    8.119    0.877
       207 -12.2092    241.2687    178.3388   7.7499427804e+01  -1.4268863073e+00    0.8389086    0.3560959 -34.48  0.002619451    2.251    0.556
       208 -12.8502    247.2380    225.9938   8.5343658029e+01  -8.6749558154e+00    0.9204496    0.4594472 -36.26  0.005101471    2.253    0.556
       209  -9.7400    249.1215     50.1845   4.7078377725e+01   1.6950304495e+01    0.2750075    0.2158954  -2.56  0.001446937    1.729    0.421
       210 -11.8443    249.0693     41.7044   4.5100721830e+01   1.8118251328e+01    0.7074807    0.5945923  78.55  0.004354109    1.244    0.196
       211 -12.8898    247.9358    215.2305   8.3348735160e+01  -7.4827553784e+00    0.8148053    0.3708733 -30.30  0.003964537    2.188    0.543
       212 -10.5619    191.4809    246.4019   9.8386465294e+01  -2.7366642541e+00    0.4080873    0.3210008  -9.86  0.002303645    1.444    0.307
       213  -9.2338    163.5763    246.0855   1.0342128102e+02   1.7224680603e+00    0.2577995    0.1705238 -48.98  0.001231284    1.926    0.481
