#   1 NUMBER                 Running object number                                     
#   2 MAG_AUTO               Kron-like elliptical aperture magnitude                    [mag]
#   3 X_IMAGE                Object position along x                                    [pixel]
#   4 Y_IMAGE                Object position along y                                    [pixel]
#   5 X_WORLD                Barycenter position along world x axis                     [deg]
#   6 Y_WORLD                Barycenter position along world y axis                     [deg]
#   7 A_WORLD                Profile RMS along major axis (world units)                 [deg]
#   8 B_WORLD                Profile RMS along minor axis (world units)                 [deg]
#   9 THETA_WORLD            Position angle (CCW/world-x)                               [deg]
#  10 FWHM_WORLD             FWHM assuming a gaussian core                              [deg]
#  11 ELONGATION             A_IMAGE/B_IMAGE                                           
#  12 ELLIPTICITY            1 - B_IMAGE/A_IMAGE                                       
         1 -12.1942     42.8965     20.4818   8.8386089797e+01   6.9099754072e+01    0.5640698    0.3386223  34.82  0.001685254    1.824    0.452
         2 -12.3271    216.0498     14.7946   4.5947682006e+01   2.8409981734e+01    0.6259224    0.4595119  -2.61  0.003377804    1.531    0.347
         3 -13.4092    187.2906      7.0909   4.6214350993e+01   3.6331316393e+01     1.002323    0.5112983 -66.62  0.004122873    2.337    0.572
         4 -12.1032     43.7626      8.9641   8.1484546724e+01   7.0985651302e+01     0.348151    0.3327239 -74.88  0.002121753    1.381    0.276
         5 -10.9127     47.4486      1.3578   7.4736038537e+01   7.1503214741e+01    0.4479672    0.1186255  47.81   0.00151352    3.881    0.742
         6 -11.9362     58.3771      8.3505   7.4130031629e+01   6.8492697272e+01    0.5068341    0.3647924  36.37  0.002345275    1.407    0.289
         7 -11.1488     55.4688      3.0761   7.2135096248e+01   6.9781711473e+01    0.3219169    0.2754032  78.02   0.00180577    1.621    0.383
         8 -10.2080    109.4801      8.5176   5.8193322614e+01   5.6855683326e+01    0.1416643    0.1383971  27.53 0.0001005372    1.030    0.030
         9 -11.6942      1.7827      2.0826   1.0583509518e+02   7.7108487624e+01    0.2155824    0.1779139 -21.23 0.0004941261    1.198    0.165
        10 -11.4916    165.6189      1.6996   4.6611153953e+01   4.2533732539e+01     0.477107    0.1710581  78.46  0.001648731    2.994    0.666
        11 -10.8955    239.6718    215.8046   8.7719245412e+01   3.9928695757e-01    0.2266377   0.07868095 -37.84   0.00109903    4.119    0.757
        12 -11.4915    223.8050    213.2963   8.9781182365e+01   2.7590714476e+00    0.2907183    0.1248539  23.95  0.001502222    2.435    0.589
        13 -10.4590    116.3808    210.2437   1.0845918479e+02   1.8714074686e+01    0.1408619    0.1072113 -83.70 0.0007509511    1.702    0.412
        14 -10.0951     56.3448    205.6835   1.1993174292e+02   2.7240725246e+01     0.121096    0.0611555  58.39 0.0007048391    1.718    0.418
        15 -10.3710     49.0233    202.0573   1.2115425961e+02   2.8703439636e+01    0.2544284    0.1125303  71.76  0.001317903    2.584    0.613
        16 -10.7682     41.7123    201.1050   1.2256689956e+02   2.9667541992e+01    0.2084119    0.1667956 -71.97 0.0009322939    1.482    0.325
        17 -10.3614      3.8913    200.3209   1.2999636301e+02   3.3393054603e+01    0.3004812   0.01525077  41.89  0.001347259    3.501    0.714
        18 -10.1856    112.3192    197.6504   1.0783765992e+02   2.1292649098e+01    0.1232037   0.07934018  62.88 0.0007048282    1.738    0.425
        19 -12.4506    160.4714    192.0775   9.7577209247e+01   1.4776345048e+01    0.5875719    0.4260143  62.10  0.003139447    1.830    0.453
        20 -10.1108    109.0139    185.8501   1.0709358862e+02   2.3772500517e+01    0.2153349     0.116887  58.04  0.001086282    2.062    0.515
        21 -10.6591    183.4349    183.2542   9.1896549436e+01   1.2312781512e+01    0.3635659    0.1180485 -40.32  0.001527738    3.528    0.717
        22 -10.6850    223.7550    183.1776   8.4945468482e+01   5.9549775776e+00    0.1665992    0.1432318 -27.27  0.001189508    1.474    0.322
        23  -9.7996    191.6693    178.3455   8.9576506728e+01   1.1625305089e+01    0.1125206   0.09783284  73.09 0.0007050158    1.757    0.431
        24  -9.4515    129.3050    177.6780   1.0168999075e+02   2.2035719657e+01    0.1251939   0.09096933  66.13 0.0006157539    1.637    0.389
        25  -9.7303    105.6674    175.3418   1.0645986491e+02   2.6151217403e+01    0.1324016   0.08619387  65.41 0.0007051132    1.752    0.429
        26 -11.1038     36.9047    174.4652   1.2185407777e+02   3.5199784588e+01    0.3828609   0.09634174  40.24  0.001708627    2.808    0.644
        27 -11.2682     55.3384    167.7145   1.1706912089e+02   3.4504327139e+01    0.3928052    0.2128033  78.73  0.002060376    2.065    0.516
        28  -9.7936     19.3283    166.6672   1.2534507359e+02   3.8471156260e+01    0.1256093   0.06145181  60.74 0.0005249719    1.718    0.418
        29 -10.3650     79.4937    163.9897   1.1097987007e+02   3.2146956541e+01     0.179836    0.0986299  82.22 0.0008106491    2.626    0.619
        30 -10.9844     22.7031    159.6632   1.2413747104e+02   3.9605199437e+01    0.2496279    0.1350419  53.01  0.001489905    1.541    0.351
        31 -11.3621    106.4208    158.4569   1.0388255435e+02   2.9221189419e+01    0.5139062    0.2251698  56.34  0.001995005    3.044    0.672
        32 -10.9249    167.7637    157.6951   9.0397845131e+01   1.8743446366e+01     0.337501    0.2152314  61.55  0.001625675    2.225    0.550
        33 -10.9709    118.8855    156.8923   1.0075332218e+02   2.7480932800e+01    0.3608571    0.2422748  44.80  0.001461933    1.339    0.253
        34 -10.6345    218.4345    156.2427   8.0876972050e+01   1.0018630154e+01    0.2925827    0.1109929 -34.24   0.00129971    2.651    0.623
        35 -10.3080     23.8599    153.6727   1.2345946409e+02   4.0758500036e+01    0.1646629    0.1238307  57.32 0.0006138434    1.138    0.122
        36 -10.2544    189.8552    150.7504   8.4799970536e+01   1.5793197795e+01    0.2321264    0.1767193 -63.91  0.001242583    2.081    0.520
        37 -10.5479    241.9888    150.6625   7.6077659473e+01   6.8004097706e+00     0.168615    0.1051947  68.47 0.0007051601    4.383    0.772
        38 -11.0410    108.0161    146.3290   1.0155125659e+02   3.1358319108e+01    0.4613294    0.2186817  61.43  0.001639345    3.602    0.722
        39 -10.2207    148.4971    145.0068   9.1977895795e+01   2.4404783180e+01     0.183024    0.1213199 -71.99 0.0008103408    2.537    0.606
        40 -10.2138     88.0183    144.5137   1.0621446757e+02   3.4921360567e+01    0.2004054    0.0922896  55.75   0.00081038    2.558    0.609
        41 -10.0292    182.0028    142.0066   8.4504538095e+01   1.8567805618e+01    0.2033216    0.1717183 -88.90  0.001132641    1.758    0.431
        42 -10.8306     83.8510    132.2414   1.0532785725e+02   3.8192439268e+01    0.3538915    0.2085821  77.29  0.001530612    2.488    0.598
        43  -9.8931    132.6315    132.3094   9.3007763166e+01   2.9739515841e+01    0.1450315    0.1084358  75.53 0.0007036184    1.762    0.432
        44 -11.8693     99.4505    128.8018   1.0057444213e+02   3.6431450568e+01    0.5866941    0.3321446  73.21  0.002209383    3.235    0.691
        45 -10.3463     60.3724    125.9406   1.1081500607e+02   4.2918745226e+01    0.4120978    0.1808743  70.50  0.001257767    5.128    0.805
        46 -11.2290     43.9033    123.9500   1.1526925917e+02   4.5350661405e+01    0.4959408    0.2316539  71.80  0.002038738    2.918    0.657
        47 -11.1991     27.3546    121.2073   1.1977400223e+02   4.7656415766e+01    0.5961701    0.2161507  75.10  0.001943859    4.845    0.794
        48 -11.9035    193.4420    118.5683   7.7177873202e+01   1.9922216333e+01    0.4788784    0.4069128 -74.84  0.001848811    1.638    0.389
        49 -10.7023    140.8170    118.1276   8.7974765035e+01   3.0857543793e+01    0.2941885    0.1688838 -62.97  0.001150121    2.678    0.627
        50 -10.7029     14.9319    120.9787   1.2336850134e+02   4.8759807896e+01    0.3008195    0.1621272  33.20  0.001695094    1.897    0.473
        51 -10.5010    108.1078    112.3054   9.4853036660e+01   3.8430818848e+01    0.4610435    0.1878047 -62.05   0.00144369    3.933    0.746
        52 -11.0433     78.6124    112.0555   1.0313313596e+02   4.3515398128e+01    0.4292988    0.2367667 -80.97  0.001722644    2.675    0.626
        53 -12.2487    160.2242    110.7302   8.1849511166e+01   2.8170578508e+01    0.6577316    0.4192452 -59.42  0.002861028    2.165    0.538
        54 -10.4861     91.8687    111.4060   9.9157235509e+01   4.1513476973e+01    0.4031534    0.1869351 -64.82  0.001529356    2.691    0.628
        55 -10.9842    174.4064    110.9693   7.8977879439e+01   2.5102016211e+01    0.3394303     0.264966 -43.43  0.001013708    1.351    0.260
        56 -11.5161     14.9614    110.2303   1.2241744427e+02   5.1248517939e+01    0.6221132    0.3089962  73.58   0.00312774    2.031    0.508
        57 -12.7645    141.4929    104.1532   8.4408959617e+01   3.3385178612e+01    0.6280134    0.4958844 -66.86  0.003137732    1.529    0.346
        58 -11.9667     44.8121    101.5265   1.1174606302e+02   5.0522153733e+01     0.608273    0.3252353  77.57  0.002626301    2.537    0.606
        59 -12.0368    127.6133    100.8347   8.6951260876e+01   3.6965052410e+01    0.5335771    0.2890037 -58.11    0.0020917    2.370    0.578
        60 -12.9906    111.8415    100.5571   9.1033980047e+01   4.0216737853e+01     1.348166    0.4893714  53.58  0.004125232    3.815    0.738
        61 -10.5990     82.3269    100.8139   9.9648537795e+01   4.5491761410e+01    0.2428557    0.1868642  53.85 0.0007895631    1.327    0.247
        62 -10.7313     63.0054     96.0104   1.0472604183e+02   4.9538950732e+01    0.2515469    0.1431601 -88.48  0.001019288    2.612    0.617
        63 -12.8691    170.3763     90.9131   7.4588624020e+01   2.9339197158e+01    0.4132744    0.3506143  69.04  0.001246375    1.338    0.253
        64 -11.7586     42.6757     87.6626   1.1001398836e+02   5.4083649802e+01    0.6462386    0.3731159  -5.16  0.002305026    3.463    0.711
        65 -10.4208     45.4467     81.9338   1.0785535706e+02   5.5141744463e+01    0.2892283    0.1770586 -71.27 0.0008152353    1.551    0.355
        66 -10.9998     86.9841     87.4950   9.4952344899e+01   4.7715868965e+01    0.3651882    0.2252946  72.28  0.001449227    2.647    0.622
        67 -10.7892    104.4841     83.8390   8.8622184443e+01   4.5217903469e+01    0.2914415    0.2372823  86.24  0.001029758    1.486    0.327
        68  -9.9477    140.3494     83.6526   7.9070642893e+01   3.7511355737e+01    0.1591035    0.1200283 -78.37 0.0007040206    1.816    0.449
        69 -10.5324     23.6985     79.8249   1.1561822954e+02   5.7821432181e+01    0.3276196     0.139945  87.53  0.001218577    3.418    0.707
        70 -10.2368      2.6599     77.3138   1.2331217383e+02   5.9844619674e+01    0.2063217    0.1542903 -61.26 0.0004545089    1.239    0.193
        71 -11.0043     82.7924     73.7722   9.2466081656e+01   5.1512583741e+01    0.4724219    0.2929796  89.09   0.00168669    3.441    0.709
        72 -10.1354     63.3040     75.6640   9.9811662423e+01   5.4265088260e+01    0.1426845    0.1060658  81.79 0.0003104481    1.667    0.400
        73 -11.5446    223.4223     71.0093   6.0515766619e+01   2.0268366668e+01    0.2972879    0.2345118 -36.02 0.0007577888    1.191    0.160
        74 -10.6550     62.4074     70.7563   9.8797937611e+01   5.5530892638e+01    0.2081066    0.1187817 -47.08 0.0009538411    1.672    0.402
        75 -10.4729     51.9005     70.8430   1.0280539887e+02   5.6976769982e+01    0.2555452    0.1973049 -76.75 0.0009616074    1.321    0.243
        76 -10.2011    196.8287     67.6040   6.3381348554e+01   2.6745246048e+01    0.3522822    0.1472389  62.82  0.001304469    2.735    0.634
        77 -11.3786     28.0392     52.4413   1.0803455813e+02   6.3984659608e+01    0.3492644    0.2253113 -37.56  0.001178058    1.625    0.384
        78 -11.6355     21.0269     51.3574   1.1104983332e+02   6.4852147409e+01    0.6916593     0.328948 -76.12   0.00314422    2.208    0.547
        79 -11.2286      8.7586     56.5387   1.1786074211e+02   6.4475456901e+01    0.5645653    0.3043219  61.27  0.002855112    2.274    0.560
        80 -11.7898     19.1529     59.2700   1.1369866323e+02   6.3124279017e+01    0.3502403    0.2766138 -42.73  0.001504247    1.284    0.221
        81 -13.5100     30.1104     59.7212   1.0895486857e+02   6.2074838840e+01     1.259335      0.64145  31.48  0.004225316    2.170    0.539
        82 -11.7101    237.8599     64.5611   5.7089559658e+01   1.7992520403e+01    0.2813521    0.1387561  76.97  0.001145521    3.238    0.691
        83 -10.2087     73.0374     59.0815   9.1223713694e+01   5.6432744189e+01    0.3768227    0.1846561 -67.58  0.001152174    4.324    0.769
        84 -10.3569    119.7463     56.7631   7.5599345866e+01   4.7241911108e+01    0.2383289    0.1285821  64.68 0.0008853268    2.418    0.586
        85 -10.8213     39.2659     53.3261   1.0316550577e+02   6.2605851322e+01    0.3828553    0.1874505 -45.97  0.001133297    1.909    0.476
        86 -10.4049    161.5100     53.4578   6.5094750328e+01   3.7475860723e+01    0.1493028    0.1463031  -1.55 0.0002641846    1.020    0.020
        87 -12.3722    149.2134     52.2812   6.7118868503e+01   4.0768971320e+01    0.3405408    0.2996782  50.21 0.0004206606    1.144    0.126
        88 -10.2007     92.0000     50.0188   8.1299257018e+01   5.4663041589e+01     0.249426   0.08126642 -41.00   0.00080448    2.957    0.662
        89 -10.6378    157.0967     44.9912   6.3091397523e+01   3.9841094879e+01    0.2474049    0.2157532  57.69 0.0004488981    1.157    0.136
        90 -11.5632     70.1785     42.3138   8.6071998360e+01   6.0413416022e+01    0.5028431    0.3215972  69.69   0.00209217    2.740    0.635
        91 -10.8901     10.0422     44.0000   1.1471348223e+02   6.7360851553e+01    0.2481558     0.158862  29.31  0.001272835    1.824    0.452
        92 -11.2571      6.0176     43.5178   1.1667047318e+02   6.7705721009e+01    0.3899358    0.2446472  77.78   0.00143517    1.846    0.458
        93 -12.1757     41.5182     37.9885   9.6894892050e+01   6.5752785679e+01    0.4230585    0.3460861  -5.29  0.001925064    1.386    0.278
        94 -11.8465    120.2553     34.3878   6.6975075089e+01   5.0807238169e+01    0.3245781    0.2903908  88.32 0.0008715669    1.241    0.194
        95 -10.1888     50.3006     34.5023   9.1294367184e+01   6.5261993569e+01    0.3356739    0.1365584  34.66  0.001354979    2.788    0.641
        96 -10.1929     73.2494     32.3790   8.0593880181e+01   6.1719096834e+01    0.2976828    0.1865894  73.02  0.001166665    3.095    0.677
        97 -11.1450    101.9629     29.6347   6.9792858539e+01   5.5967885082e+01    0.8039799    0.4159526  72.16  0.002842176    3.158    0.683
        98 -11.2582    220.4376    249.1050   9.5214710589e+01  -1.0944272465e-01    0.1988375    0.1081436  43.66   0.00134561    1.992    0.498
        99 -12.1398    202.8172     20.9028   4.8933266954e+01   3.1030213579e+01    0.4603894    0.2260033 -68.47  0.001779795    2.772    0.639
       100 -10.9683    239.7490     20.6926   4.5653759945e+01   2.2391531622e+01     0.239449    0.2131318 -75.16 0.0006650389    1.181    0.153
       101  -9.4039    187.9803    248.3273   1.0017243297e+02   4.0651651444e+00    0.1734048   0.06046426  25.80 0.0007037934    4.221    0.763
       102  -9.9876     46.6938     16.6468   8.4409159974e+01   6.9214997250e+01    0.2046893    0.1686154  -6.73 0.0008687718    1.214    0.177
       103  -9.9523     89.2371     18.3905   6.8329741021e+01   6.0565706188e+01    0.1978868    0.1396343  68.47 0.0009526277    1.687    0.407
       104 -12.0376     21.2919    238.4019   1.2805274403e+02   2.5534233545e+01    0.3600237    0.1429295  71.25   0.00226816    2.328    0.570
       105  -9.7557      2.6580    240.3151   1.3123263585e+02   2.6914126580e+01    0.1051481   0.03976114  55.29 0.0007047889    1.708    0.414
       106  -9.1794      4.3416     11.3177   1.0811074646e+02   7.5033818724e+01    0.1303302    0.0697676 -36.74 0.0007049066    1.713    0.416
       107 -10.1268     72.0000    229.9738   1.1862010258e+02   2.1446536588e+01     0.141255   0.05835032 -69.89 0.0008033802    2.949    0.661
       108 -10.9413     12.7911    227.5536   1.2918037473e+02   2.8014782557e+01    0.1874321    0.1050795  62.06 0.0005371444    1.299    0.230
       109 -10.2101    104.4444    225.4417   1.1225468074e+02   1.8063073959e+01    0.1642223    0.1019723 -84.14  0.001029372    2.331    0.571
       110 -10.5697     95.8188    225.2337   1.1384267389e+02   1.9218812566e+01     0.192777   0.08509482  59.68 0.0009579441    2.837    0.648
       111 -10.9176    226.4688    221.0317   9.0504231741e+01   1.6496440770e+00    0.1411453   0.09455332 -20.63  0.001030515    1.598    0.374
