#   1 NUMBER                 Running object number                                     
#   2 MAG_AUTO               Kron-like elliptical aperture magnitude                    [mag]
#   3 X_IMAGE                Object position along x                                    [pixel]
#   4 Y_IMAGE                Object position along y                                    [pixel]
#   5 X_WORLD                Barycenter position along world x axis                     [deg]
#   6 Y_WORLD                Barycenter position along world y axis                     [deg]
#   7 A_WORLD                Profile RMS along major axis (world units)                 [deg]
#   8 B_WORLD                Profile RMS along minor axis (world units)                 [deg]
#   9 THETA_WORLD            Position angle (CCW/world-x)                               [deg]
#  10 FWHM_WORLD             FWHM assuming a gaussian core                              [deg]
#  11 ELONGATION             A_IMAGE/B_IMAGE                                           
#  12 ELLIPTICITY            1 - B_IMAGE/A_IMAGE                                       
         1 -14.9554    161.1588     41.1033   8.2972734110e+01   3.9712604331e+01     1.544507     1.027435 -18.27  0.004001919    1.594    0.373
         2 -14.5048    173.8706      8.1451   6.9363208207e+01   4.0370237239e+01     1.084279     1.007043  22.06  0.003856674    1.085    0.079
         3 -12.3499    133.8011    247.1008   1.2854226307e+02   1.2541628204e+01    0.1527352    0.1292189  53.88 0.0005804734    1.212    0.175
         4 -19.9347     77.7487    188.4842   1.3243559832e+02   2.8500134255e+01     12.07016     5.448462 -69.91   0.06946226    2.366    0.577
         5 -12.0299    139.2765    248.8304   1.2788099861e+02   1.1593914402e+01    0.2986017    0.2201248 -81.50  0.002466943    1.870    0.465
         6 -10.2134     25.3765    185.5899   1.4158670003e+02   3.4964062547e+01    0.1204245   0.09885242 -84.71  0.001024701    1.373    0.272
         7 -11.3316     27.0926    180.2115   1.4096962286e+02   3.5734259379e+01    0.3145734    0.2017461 -53.66  0.002211494    2.286    0.563
         8  -7.2647     13.7987    239.8829   1.4574008824e+02   2.7583114237e+01    0.2145169   0.05583908 -80.29  0.001272665    3.709    0.730
         9 -10.1146    140.0912    241.0154   1.2704064073e+02   1.2375639554e+01    0.4046747    0.1141876  47.19  0.002048086    2.588    0.614
        10 -13.8021    138.8206    172.4907   1.1918530869e+02   2.2001485103e+01     0.576795    0.3896536  74.34  0.002701902    1.859    0.462
        11  -9.9339     25.5811    230.4135   1.4369883065e+02   2.7808475387e+01   0.09076635   0.06055357  64.79 6.481627e-05    1.031    0.030
        12 -12.9613    148.0285    173.0176   1.1755280255e+02   2.0354562390e+01    0.3311282    0.2231832  62.49  0.001284616    1.560    0.359
        13 -13.7056    144.2835    168.7710   1.1760466351e+02   2.1663962138e+01    0.4512131    0.3206629  48.20  0.002324748    1.216    0.177
        14 -13.8184    177.9916    171.6308   1.1191910996e+02   1.5291506959e+01    0.4751053    0.4146713  -3.03  0.003215589    1.303    0.233
        15 -11.6190     26.0986    173.6448   1.4074821729e+02   3.7000973804e+01    0.1948492    0.1508117  67.03 0.0003383377    1.141    0.124
        16 -10.7431     11.9830    173.9294   1.4334175840e+02   3.8257371220e+01    0.1392565    0.1062392  79.58  0.001171795    1.135    0.119
        17 -12.1171    123.4771    166.5881   1.2125060911e+02   2.5519949879e+01    0.3055348     0.175161  63.06  0.001128231    1.938    0.484
        18 -10.6563     25.2493    225.1198   1.4352941388e+02   2.8621273916e+01    0.1207778   0.08802868  77.98 0.0005770093    1.210    0.174
        19 -12.2822    168.4416    175.5551   1.1424517340e+02   1.6430946743e+01    0.2190503    0.1852752  41.77 0.0005629297    1.023    0.022
        20 -11.8334    202.0499    165.7192   1.0673994193e+02   1.1728508680e+01     0.247783    0.1776766 -52.87  0.001313603    1.929    0.482
        21 -10.6864    219.3805    224.2234   1.1309576739e+02   2.4596243926e+00    0.1134682   0.09869575 -30.37 0.0002898879    1.585    0.369
        22 -11.5313    223.8599    163.7619   1.0279415718e+02   8.0197086663e+00    0.2046483    0.1724033 -26.08 0.0004470878    1.343    0.255
        23 -10.5859    237.6655    159.3149   9.9791348411e+01   6.0635944556e+00    0.1080212   0.09911045 -83.72 0.0005131618    1.689    0.408
        24 -10.4292     14.0971    159.4889   1.4214780837e+02   4.0708799346e+01    0.1328538   0.08923735  45.07 0.0003956248    1.509    0.338
        25 -10.3708     22.5257    221.2631   1.4377959464e+02   2.9466605610e+01   0.09733089   0.07236626 -87.79 0.0004065745    1.413    0.293
        26 -11.9388     17.9554    156.2873   1.4119479820e+02   4.0969009618e+01     0.336612    0.1645265 -85.05   0.00215183    1.698    0.411
        27 -10.9735     22.9911    156.0813   1.4018345736e+02   4.0547497410e+01    0.1597521    0.1212219  79.34 0.0004812039    1.043    0.042
        28 -10.1497      6.5034    155.5643   1.4339473618e+02   4.2085683584e+01    0.1016374   0.07423069  79.45 6.092652e-05    1.039    0.038
        29 -14.2655    134.2767    145.8589   1.1582297567e+02   2.7271657408e+01     1.051761    0.3426696 -54.79   0.00381861    3.878    0.742
        30 -12.3270    125.1411    243.8464   1.2955828990e+02   1.4105687000e+01    0.2046397    0.1403391 -64.47 0.0005664658    1.933    0.483
        31 -12.1705    174.4218    148.4302   1.0845536391e+02   1.9349130163e+01    0.3028131    0.2566173 -71.11  0.001271916    1.476    0.322
        32 -14.4416    143.6250    143.5266   1.1351278152e+02   2.5980847974e+01     0.851077    0.4829189 -64.00  0.003940232    2.450    0.592
        33 -13.2808    152.5723    145.4381   1.1208044067e+02   2.3988226514e+01    0.3928271    0.2903796  46.47  0.002261385    1.234    0.189
        34 -13.1063     11.6424    205.9927   1.4484527171e+02   3.2867302338e+01    0.3593544    0.2264839  35.27  0.002882712    1.913    0.477
        35 -11.8162     27.3019    145.6642   1.3851831213e+02   4.2152878536e+01    0.1991419      0.15966 -86.62 0.0007578944    1.168    0.143
        36 -11.4443    175.9914    142.4781   1.0701266994e+02   1.9960816314e+01    0.2064293    0.1203795  47.90 0.0006729724    1.572    0.364
        37 -12.0264      8.4372    137.9652   1.4193663167e+02   4.5315646408e+01    0.2629139    0.1803449 -62.07  0.001392941    1.623    0.384
        38 -12.0688    133.9869    133.2612   1.1358863120e+02   2.9590981936e+01    0.2762761     0.186163  51.04 0.0007406693    1.399    0.285
        39 -14.1468    136.0099    125.8734   1.1170605491e+02   3.0569903253e+01     1.519776     0.302497 -49.53  0.004162682    5.774    0.827
        40 -11.0953    120.0533    205.6655   1.2671646213e+02   1.9886954433e+01    0.1589884    0.1474239  74.12 0.0002006658    1.242    0.195
        41  -9.6347     22.4170    205.4615   1.4310131534e+02   3.1940063205e+01   0.09334905   0.06821833  71.41 0.0004936077    1.104    0.094
        42 -12.5185    160.7631    128.2440   1.0706363777e+02   2.5298160652e+01    0.3240373    0.3085234  69.69  0.002000387    1.076    0.070
        43 -12.2952    168.0663    245.0847   1.2323986704e+02   7.9604019995e+00    0.1595333    0.1458258 -64.37 0.0007560821    1.547    0.354
        44 -12.0459    139.8425    199.5370   1.2262248274e+02   1.7761654681e+01      0.38048    0.1727152  49.82  0.002074001    1.827    0.453
        45 -11.1831    135.5279    196.4464   1.2299109487e+02   1.8881150258e+01     0.206529     0.155874  63.36 0.0006518576    1.243    0.195
        46 -14.0411    167.1106    191.1179   1.1681422003e+02   1.4505514794e+01    0.5363282    0.4186882  80.55  0.003529075    1.705    0.413
        47 -14.0547    174.7743    193.5600   1.1586126709e+02   1.2905135446e+01     0.508972    0.3774278 -57.29  0.002806046    1.809    0.447
        48 -13.3063    180.3082    192.7214   1.1480927685e+02   1.2087072025e+01    0.3656195    0.3148766 -82.19  0.001262104    1.596    0.373
        49 -10.7546    205.4037    110.1043   9.4586358178e+01   1.8735428031e+01    0.2466684    0.1803633  37.36 0.0006874498    1.328    0.247
        50 -13.9203    176.6159    188.2960   1.1477815950e+02   1.3279082821e+01    0.6207072    0.3584648 -60.84  0.003209206    2.979    0.664
        51 -12.9019    148.2498    132.8740   1.1054486649e+02   2.6965143232e+01    0.3640045    0.2766525 -33.23  0.001464732    1.520    0.342
        52 -11.2133    157.2119    106.0294   1.0278276691e+02   2.9887188993e+01    0.2444963    0.1997532  61.40  0.001310521    1.267    0.211
        53 -14.5029    207.0221    179.5743   1.0830886366e+02   9.1320531273e+00    0.7312704    0.6046037  30.86  0.004197055    1.012    0.012
        54 -13.6887    196.7579    172.4919   1.0882012866e+02   1.1815557976e+01    0.6053581    0.3611231 -43.65   0.00275485    2.053    0.513
        55 -11.7169    148.8896    188.8570   1.1966681913e+02   1.7840921956e+01    0.1747188    0.1419083  36.31 0.0003497233    1.211    0.174
        56 -11.0247    150.8338    245.5488   1.2585444818e+02   1.0352864547e+01    0.1376994    0.1160255  49.63 0.0002993626    1.190    0.160
        57 -14.2806    149.9524     56.0340   9.0223542284e+01   4.0201498397e+01    0.9223722    0.8153863   5.61 0.0009266938    1.211    0.174
        58 -11.2301     22.0740    244.7864   1.4474748837e+02   2.6114164741e+01    0.1358591   0.08197182  70.94  0.000684984    1.185    0.156
        59 -12.9263    164.8041     32.8116   7.9452953708e+01   3.9915711265e+01    0.4112064    0.3810731  -1.30 0.0008211053    1.078    0.072
        60 -11.3029     13.5163     59.9590   1.3194103615e+02   6.1374931950e+01    0.1872599     0.143645  64.90 0.0004634749    1.467    0.318
        61 -11.1902    147.0668     34.8352   8.3547318317e+01   4.4150664981e+01    0.2844653    0.2133717  83.76  0.000647278    1.649    0.394
