#   1 NUMBER                 Running object number                                     
#   2 MAG_AUTO               Kron-like elliptical aperture magnitude                    [mag]
#   3 X_IMAGE                Object position along x                                    [pixel]
#   4 Y_IMAGE                Object position along y                                    [pixel]
#   5 X_WORLD                Barycenter position along world x axis                     [deg]
#   6 Y_WORLD                Barycenter position along world y axis                     [deg]
#   7 A_WORLD                Profile RMS along major axis (world units)                 [deg]
#   8 B_WORLD                Profile RMS along minor axis (world units)                 [deg]
#   9 THETA_WORLD            Position angle (CCW/world-x)                               [deg]
#  10 FWHM_WORLD             FWHM assuming a gaussian core                              [deg]
#  11 ELONGATION             A_IMAGE/B_IMAGE                                           
#  12 ELLIPTICITY            1 - B_IMAGE/A_IMAGE                                       
         1 -10.6358    102.9315     29.9293   5.9486361636e+01   5.5735173009e+01    0.4582347    0.2971181  79.61  0.001980458    2.016    0.504
         2 -10.3912     46.4764     17.7303   7.5033360874e+01   6.9784891223e+01    0.3769213    0.1891566 -32.99  0.001710134    2.024    0.506
         3 -11.3720     42.1582     21.1351   7.9276518893e+01   6.9913273053e+01    0.4852076    0.3268173  52.61  0.001795719    1.899    0.473
         4 -12.3969    216.5255     13.6764   3.7122720187e+01   2.8662899775e+01    0.4233997    0.3761154 -75.68  0.001169183    1.103    0.093
         5 -12.4417    191.1013      9.4214   3.7957298483e+01   3.5143258864e+01    0.3810078    0.2776437  86.29  0.001731154    1.323    0.244
         6 -12.7048    184.7069      4.9769   3.7199736903e+01   3.7166974412e+01    0.6238534     0.345778 -65.45   0.00295255    1.817    0.450
         7 -10.9643     66.2695     11.1365   6.2122620940e+01   6.6879034503e+01    0.3948573     0.157529  51.55  0.001595379    2.344    0.573
         8 -12.0298     43.2809      8.5018   7.1179791726e+01   7.1796188002e+01    0.3859996    0.2450137  44.51   0.00111196    1.608    0.378
         9 -11.5843     57.5278      7.0909   6.3314630219e+01   6.9248475323e+01    0.3895115    0.3607703  33.27  0.001486725    1.098    0.089
        10 -10.4462    109.5050      8.4957   4.8415721445e+01   5.6676324682e+01    0.1417038    0.1334314  75.96 0.0008102872    1.043    0.041
        11 -11.2032    165.8148      1.5776   3.7829078569e+01   4.2328080642e+01    0.3402575     0.129188  65.75 0.0007856778    2.351    0.575
        12 -11.4271     96.0320    224.0983   1.0580167076e+02   1.7352734710e+01    0.3387069    0.2833147 -74.82  0.002418043    1.464    0.317
        13 -11.1009    231.7611    223.4210   8.0251345884e+01  -1.0919716417e+00     0.198155   0.08627982  37.16  0.001138943    2.131    0.531
        14 -10.3044    149.3377    223.6730   9.4938353784e+01   9.9836613049e+00    0.1167904   0.08209214  54.62 0.0007051702    1.727    0.421
        15 -10.0586    174.0000    222.9861   9.0141154680e+01   6.5884340960e+00    0.1608743   0.06588686 -42.16 0.0008011133    2.933    0.659
        16 -10.3928    211.7241    218.3790   8.2770629500e+01   2.0061247691e+00    0.1812957    0.1337673 -36.73  0.001263441    1.749    0.428
        17 -11.2801    239.7108    214.1619   7.7592853856e+01  -1.0940676461e+00    0.1997994    0.1162436 -19.14  0.001333449    1.578    0.366
        18 -10.7703    223.4566    214.2178   8.0185916853e+01   9.4722668773e-01    0.3227312    0.1528758  -2.57  0.001396655    3.822    0.738
        19 -10.6410    116.1623    209.4107   9.9961263538e+01   1.7030791132e+01    0.2963952   0.09979541 -61.85   0.00112554    4.565    0.781
        20 -10.2776     99.3917    206.1878   1.0323316815e+02   2.0008083048e+01    0.1610082    0.1158595 -87.81 0.0009515831    1.756    0.430
        21 -10.1434     56.3416    205.6816   1.1278234062e+02   2.5744877032e+01    0.1326837   0.06918702  56.82 0.0005420578    1.715    0.417
        22 -10.5762     48.8067    201.3177   1.1415404958e+02   2.7478514086e+01    0.2814493    0.1388164  79.62  0.001413479    2.358    0.576
        23 -10.3640    112.4817    197.9719   9.9349893160e+01   1.9588662696e+01    0.1699624    0.1077791  83.05 0.0008103224    2.604    0.616
        24  -9.9706    133.4960    196.0051   9.4469202287e+01   1.6714925378e+01    0.1629183    0.1130138  88.64 0.0008101722    2.515    0.602
        25 -12.2462    160.0736    192.0289   8.8281736985e+01   1.3168426249e+01    0.6118664    0.4622199  81.93  0.003276005    2.404    0.584
        26 -10.4012    183.2499    183.0851   8.2202060376e+01   1.0833012070e+01    0.2966538    0.1670868 -34.65  0.001562283    1.891    0.471
        27  -9.9164    223.6897    183.6755   7.5103600614e+01   4.5544525029e+00     0.123993   0.07766725   4.32 0.0005352987    1.655    0.396
        28 -10.0136     66.3209    194.6392   1.0957143922e+02   2.6690669236e+01    0.1376952   0.07658184  60.32 0.0007042818    1.772    0.436
        29  -9.5862     28.5527    176.5259   1.1724111834e+02   3.4823226010e+01    0.1211748    0.1019288  65.78 0.0002848279    1.056    0.053
        30 -10.2139     76.8086    175.6188   1.0502759062e+02   2.9229473330e+01    0.2024917   0.09958984  44.28  0.000947262    1.752    0.429
        31 -11.4617     34.6441    173.6467   1.1551496415e+02   3.4831692340e+01    0.2760774    0.1497668  65.27  0.001451814    1.725    0.420
        32 -11.6572     45.0530    170.6762   1.1261476357e+02   3.4351505466e+01    0.5049245    0.2516575  86.23  0.002368089    2.278    0.561
        33 -11.4997     55.4642    168.1530   1.0966930825e+02   3.3677670945e+01    0.4677769    0.2510913  79.13  0.002142571    2.222    0.550
        34 -10.3943     79.4633    163.9351   1.0287224569e+02   3.1387382373e+01    0.3767077    0.1755273  76.21  0.001043646    6.099    0.836
        35 -10.1988     94.5124    186.5198   1.0203625452e+02   2.4439783336e+01    0.2649068     0.120402 -82.67 0.0008105376    5.855    0.829
        36 -10.1959     52.1770    159.9883   1.0968819035e+02   3.5929541744e+01      0.21303    0.1520776  64.96  0.001026792    1.297    0.229
        37 -10.7648     22.3664    159.6947   1.1770403376e+02   3.9178778921e+01    0.2980491     0.150348  58.21  0.001531282    1.765    0.433
        38 -11.5465    118.7448    157.6524   9.1822135105e+01   2.6417062085e+01     0.361354    0.3464603  48.67  0.001339176    1.048    0.046
        39 -11.5982    106.0770    157.6809   9.5016092437e+01   2.8577105235e+01    0.5937532     0.385991  78.52   0.00265211    2.279    0.561
        40 -10.5666    218.5603    156.2871   7.0860838418e+01   8.9756735078e+00    0.2382057    0.1105144 -37.27  0.001142165    2.115    0.527
        41 -10.9291    167.3385    156.7007   8.0525231487e+01   1.7822104951e+01     0.282769     0.234979  82.42  0.001541506    1.749    0.428
        42  -9.7444     81.5002    154.9811   1.0107395523e+02   3.3087829882e+01    0.1963846    0.1139572  82.84 0.0008099924    2.521    0.603
        43  -9.7299     40.4896    153.0667   1.1219741203e+02   3.8890118557e+01    0.1849488    0.1194418 -78.21 0.0004140528    1.489    0.328
        44  -9.5173     23.4756    153.5408   1.1696520896e+02   4.0498116640e+01    0.1281297    0.1046956  68.91  7.41097e-05    1.021    0.021
        45 -10.2186     39.3117    147.6679   1.1199147100e+02   4.0294829574e+01    0.1436954   0.08359908  62.67 0.0004517848    1.676    0.403
        46 -10.3907    148.9293    145.4381   8.2279348749e+01   2.3311654444e+01     0.282186    0.1850761 -86.17  0.001042051    3.518    0.716
        47 -11.0045    107.0663    145.4704   9.2624778773e+01   3.1049268673e+01    0.4329353    0.2672288  72.30  0.001766155    2.518    0.603
        48 -10.5688     55.7633    145.7989   1.0702892119e+02   3.8804467456e+01    0.3168101    0.1534688  63.29  0.001286818    2.527    0.604
        49 -10.0914    181.9743    141.9586   7.4536736297e+01   1.7621100098e+01    0.2079803    0.1755634 -80.75  0.001130252    1.711    0.415
        50 -12.1241     98.9431    128.5908   9.1594818621e+01   3.6278600647e+01    0.9427021    0.5041502  65.62  0.003261016    3.241    0.691
        51 -11.4999     94.2693    121.9822   9.1583514834e+01   3.8641374051e+01    0.6499959    0.2317408  46.83 0.0003967304    2.928    0.659
        52 -11.4764     83.2883    131.4848   9.6711573717e+01   3.8261366175e+01    0.5017015    0.2975897 -86.27  0.002037969    2.446    0.591
        53 -10.3087    131.9733    131.2902   8.3320510921e+01   2.9433257832e+01    0.2982644     0.192134 -76.64  0.001172073    2.663    0.624
        54 -11.4592     43.5342    122.5955   1.0769637825e+02   4.5954307360e+01    0.8031465    0.3680927  78.06  0.002821916    3.481    0.713
        55  -9.8932    117.3309    125.6562   8.5869090388e+01   3.3507523107e+01    0.1562126    0.1167025  78.98  0.000656697    1.753    0.430
        56 -11.4222     27.6297    121.5813   1.1279204585e+02   4.7850839151e+01     0.754968    0.2828328  74.06  0.002342625    4.640    0.785
        57 -11.6141    193.3114    118.5994   6.7175491996e+01   1.9281575951e+01    0.4846736    0.3769656 -65.14  0.001787971    1.723    0.420
        58 -10.4409     71.5034    120.5148   9.8290838558e+01   4.2750006245e+01    0.3443925    0.1985039  68.54  0.001382631    2.405    0.584
        59 -10.3394     15.0328    118.5991   1.1664588853e+02   4.9653761326e+01    0.2094486    0.1582267 -65.59 0.0007543142    1.281    0.219
        60 -10.5515      2.0000    115.9782   1.2073783325e+02   5.1176370749e+01    0.2129674   0.06149878 -80.95 0.0008057416    2.965    0.663
        61 -10.7730    108.3496    113.1571   8.5485447344e+01   3.8039769489e+01    0.5518258    0.2804836 -66.38  0.001887092    3.068    0.674
        62 -11.5533    141.7250    115.0988   7.7149963927e+01   3.0747448543e+01    0.6905348    0.2964225 -44.09  0.002558294    2.373    0.579
        63 -11.1620     78.6144    112.2382   9.4351599323e+01   4.3643152696e+01    0.5139793    0.2634161 -82.48  0.001591283    4.067    0.754
        64 -11.9690    160.7544    112.4817   7.2143055530e+01   2.7167777449e+01    0.4904223    0.2999876  62.73  0.002063798    2.102    0.524
        65 -10.6825    122.0169    112.5341   8.1540663825e+01   3.5423803845e+01     0.330823    0.1947986 -66.24  0.001262685    2.447    0.591
        66 -10.5381     91.8815    111.1589   8.9919621251e+01   4.1609917747e+01    0.4729043    0.2016741 -65.77  0.001478566    3.572    0.720
        67 -11.7766     15.1007    109.6253   1.1576121052e+02   5.1888565851e+01    0.6923873    0.3772199  76.69  0.003388528    1.855    0.461
        68 -12.0835     44.8814    101.2070   1.0381337970e+02   5.1185192498e+01    0.8291368    0.4300446  77.50  0.003111898    3.007    0.667
        69 -11.8409    150.3429    103.2678   7.2108265729e+01   3.1200647863e+01    0.3921492    0.2510164 -72.89  0.001480649    2.732    0.634
        70 -12.0460    127.7084    101.1363   7.7097508307e+01   3.6638680643e+01    0.4971046    0.3214268 -52.99  0.002179021    1.648    0.393
        71 -10.9731    174.1066    110.7180   6.8927485600e+01   2.4612155133e+01    0.3725333    0.2272886 -45.13  0.001249078    1.682    0.405
        72 -11.9912    114.9845    102.3708   8.0891044710e+01   3.9094041397e+01    0.5544552    0.2140392  46.09  0.001896983    2.572    0.611
        73 -11.6356    107.7052     98.9807   8.2092775290e+01   4.1349750289e+01    0.7854421    0.4898151 -73.53  0.003013014    2.483    0.597
        74 -10.7131     94.4938     97.0171   8.5614553819e+01   4.4424999709e+01    0.2379289    0.1489539 -54.04  0.001035301    1.610    0.379
        75 -11.4422     63.2196     96.1580   9.6060592828e+01   5.0002402554e+01    0.4416444    0.2571998 -88.37  0.001703352    2.656    0.623
        76 -10.8803    170.4753     94.9515   6.5605901733e+01   2.8188200912e+01    0.2523796    0.2173059  60.50 0.0003668647    1.226    0.184
        77 -12.3181    169.8692     90.7080   6.4586528477e+01   2.9066877757e+01    0.3593386    0.3302365 -66.80 0.0004312648    1.158    0.137
        78 -10.8937     34.2289     88.2646   1.0552397431e+02   5.5635308761e+01    0.6360124    0.1832356 -68.46  0.002140928    3.257    0.693
        79 -12.0022    140.8969    103.7647   7.4465864108e+01   3.3201895202e+01    0.7209524    0.3969328 -55.05  0.002827354    2.190    0.543
        80 -11.4796     87.0747     87.2400   8.5377314017e+01   4.8099745466e+01    0.5170282    0.3011508  70.61  0.001773457    3.241    0.691
        81 -10.7639     45.4660     81.9009   9.9610777124e+01   5.5967101253e+01    0.2948565     0.240788  74.88 0.0009580448    1.331    0.249
        82 -11.1548    104.5956     83.4961   7.8640060343e+01   4.5405495932e+01    0.4325037    0.3115318 -77.54  0.001878089    1.891    0.471
        83 -10.7984     21.7683    101.3289   1.1240527359e+02   5.3462464080e+01    0.4742832    0.1623109  64.07  0.001312168    5.883    0.830
        84 -10.9716     48.6649     85.3299   9.9109669724e+01   5.4711286870e+01    0.3778177    0.2104235  53.88  0.001630472    2.147    0.534
        85 -10.9183     23.9962     80.1669   1.0829309262e+02   5.8635882177e+01    0.4022808    0.2067978  85.52  0.001691002    2.484    0.597
        86 -11.2846     62.6619     72.1584   8.9985586235e+01   5.5898417966e+01    0.7714083    0.1955549 -57.83  0.002081849    4.645    0.785
        87 -11.1976     82.4417     73.4625   8.2863393383e+01   5.2115389332e+01    0.5296535     0.327833  84.40  0.001757172    3.714    0.731
        88 -10.3718    115.8219     73.0021   7.2050117854e+01   4.5093539788e+01    0.2648235    0.1793271 -69.17  0.001085609    2.037    0.509
        89 -11.9531     42.3014     64.3714   9.6461458806e+01   6.0644201667e+01    0.7868221    0.2670226 -60.34  0.001296608    2.780    0.640
        90 -13.3768     29.6713     59.3566   1.0109021236e+02   6.3265351528e+01     1.318221    0.7842305  27.89  0.002485703    1.814    0.449
        91 -11.5623     21.1451     51.2427   1.0329946829e+02   6.5994151413e+01    0.6703172    0.2833875 -60.37   0.00298568    1.987    0.497
        92 -10.9113     51.6660     70.4971   9.4064583014e+01   5.7939878463e+01     0.407335    0.2517423 -81.46  0.001738094    2.258    0.557
        93 -10.1440    197.2851     67.5090   5.3595863864e+01   2.6430980631e+01    0.3090019    0.1130988  51.03  0.001010121    2.861    0.650
        94 -11.7024    238.7429     64.8202   4.7784349847e+01   1.7921833812e+01    0.3278061    0.2145268 -72.84   0.00173975    1.993    0.498
        95 -11.0658    144.8920     64.0525   6.1902763593e+01   3.9710842755e+01     0.235821    0.2141206  67.40 0.0002916983    1.104    0.094
        96 -12.1396    231.0345     59.0953   4.7230653180e+01   2.0204290640e+01     0.405654     0.217703 -38.36  0.002041393    1.572    0.364
        97 -10.0888    100.6657     61.3348   7.2596408991e+01   5.0863858786e+01    0.1583841    0.1215576 -83.06 0.0007052167    1.738    0.425
        98 -10.5197     73.0969     59.2376   8.1557018279e+01   5.7003213926e+01    0.2863835     0.197672 -75.57  0.001240284    2.121    0.529
        99 -11.3290      9.4558     56.9903   1.1080691191e+02   6.5432221163e+01    0.6274266    0.3579216  65.84  0.003069048    2.211    0.548
       100 -10.0404    119.3556     56.6931   6.5534883823e+01   4.7333269039e+01    0.1602551    0.1203753 -79.16 0.0007041765    1.722    0.419
       101 -10.4851     53.9632     53.8551   8.7712961720e+01   6.1452934486e+01    0.4157444    0.2024854 -64.76  0.001534354    2.906    0.656
       102 -10.0102    161.7842     53.3730   5.5174378440e+01   3.7161260838e+01    0.2125081    0.1330803  52.29 0.0008356765    1.614    0.380
       103 -10.5146    149.4792     53.0231   5.7365453750e+01   4.0353454517e+01    0.2285375    0.1479678 -33.30 0.0004482339    1.549    0.354
       104  -9.8349    154.0183     48.4940   5.5011846427e+01   3.9878327791e+01    0.2163215    0.1460692  63.43 0.0003423423    1.475    0.322
       105 -11.6651      7.5932     43.2126   1.0886548706e+02   6.8850562377e+01     0.566734    0.2993069  43.58  0.002833692    2.285    0.562
       106 -11.9012     71.4424     42.1859   7.5520763220e+01   6.0783383493e+01    0.6799694    0.3815235  61.05  0.002692559    2.608    0.617
       107 -10.9892     36.4431     38.9667   9.0821801652e+01   6.7186933402e+01      0.33712    0.2313398 -71.30  0.001704311    1.835    0.455
       108 -10.0466     42.2564     36.4175   8.6619949481e+01   6.6939425249e+01    0.1807697    0.1264923  43.24 0.0009433404    1.593    0.372
       109  -9.9790    119.7848     34.9551   5.7272321675e+01   5.0744277557e+01    0.2058943    0.2017566 -79.21 0.0008583031    1.032    0.031
       110 -10.3761    109.3318     31.8838   5.8609123937e+01   5.3852059410e+01    0.2567509    0.1999467  72.60 0.0005669887    1.357    0.263
       111 -10.5875     73.1204     32.2149   7.0377155035e+01   6.2243732716e+01    0.2729695    0.2076991  70.37  0.001358005    1.691    0.409
       112 -11.2924    223.8486    249.1328   8.5136571687e+01  -2.7310276896e+00    0.2619714   0.09299364  35.92  0.001467811    2.350    0.574
       113 -10.1360     32.9597    242.4655   1.1974438086e+02   2.1711517776e+01    0.1667376   0.07766032  36.85   0.00102936    1.597    0.374
       114 -11.1177    239.6596     20.6395   3.7228548731e+01   2.2903669381e+01    0.2330124    0.1903044 -70.46 0.0006217258    1.177    0.150
       115 -11.5309    203.4732     21.5030   4.0262068562e+01   3.0877198005e+01    0.2744569    0.1281403  73.74  0.001218741    2.192    0.544
       116 -10.1416      7.6939    240.6692   1.2443843197e+02   2.4437725804e+01   0.08234531   0.07868279 -37.32 0.0007038382    1.660    0.398
       117 -10.3428    222.9781     16.2943   3.7324022667e+01   2.6940709290e+01    0.2212106    0.1790189  87.58 0.0008112707    1.264    0.209
       118  -9.6671      2.6891    240.3321   1.2535418286e+02   2.4936973113e+01    0.1138099   0.04622381  54.91 0.0006163386    1.674    0.403
       119 -10.5010     19.9765    236.4805   1.2199741006e+02   2.4008394550e+01    0.1646519   0.08229032  34.16  0.001045317    1.632    0.387
       120 -10.1822    109.0500    232.7048   1.0397736603e+02   1.4219750019e+01    0.1729832     0.116731  36.72 0.0008230401    1.142    0.125
       121  -9.9383    158.3305    231.6655   9.4220618379e+01   7.6120520255e+00    0.1113954   0.08005279  52.98 0.0005361203    1.728    0.421
       122 -10.9064     12.8162    227.8307   1.2309766724e+02   2.6189562619e+01    0.2210624    0.1114894  70.73 0.0008566537    1.704    0.413
       123 -10.7493     72.0257    228.3569   1.1114572120e+02   1.9709279849e+01    0.1900744    0.1608302  80.53 0.0005665833    1.295    0.228
       124 -10.1365    104.4705    225.4345   1.0418485414e+02   1.5996332599e+01    0.1994019    0.1196453 -62.07  0.001193009    2.110    0.526
