#   1 NUMBER                 Running object number                                     
#   2 MAG_AUTO               Kron-like elliptical aperture magnitude                    [mag]
#   3 X_IMAGE                Object position along x                                    [pixel]
#   4 Y_IMAGE                Object position along y                                    [pixel]
#   5 X_WORLD                Barycenter position along world x axis                     [deg]
#   6 Y_WORLD                Barycenter position along world y axis                     [deg]
#   7 A_WORLD                Profile RMS along major axis (world units)                 [deg]
#   8 B_WORLD                Profile RMS along minor axis (world units)                 [deg]
#   9 THETA_WORLD            Position angle (CCW/world-x)                               [deg]
#  10 FWHM_WORLD             FWHM assuming a gaussian core                              [deg]
#  11 ELONGATION             A_IMAGE/B_IMAGE                                           
#  12 ELLIPTICITY            1 - B_IMAGE/A_IMAGE                                       
         1 -11.6054    199.4436     51.5414   6.0948865057e+01   2.8719831951e+01     1.160142    0.5249808 -35.84  0.004409564    2.112    0.527
         2 -10.8597    201.9828     36.5887   5.6086485242e+01   3.0144477315e+01     1.098032    0.6144638   0.12  0.003972202    2.964    0.663
         3 -10.5270    185.8826     36.8414   5.8728469975e+01   3.4355392638e+01      1.03643    0.3798381 -24.70  0.003432802    3.009    0.668
         4 -10.5075    200.0442     28.8440   5.4051906777e+01   3.1652239408e+01     1.092047    0.5851161  29.95  0.004084531    2.729    0.634
         5 -10.6220    248.6156     32.3088   4.8910447030e+01   1.8826034259e+01    0.7713847     0.384915 -52.55  0.003286658    2.117    0.528
         6 -10.7957    118.4188     25.2909   6.8642181669e+01   5.2565973580e+01    0.4904272    0.3312719 -50.84  0.002371664    1.871    0.466
         7 -10.3092    212.8479      8.1271   4.6345129406e+01   3.0654200178e+01    0.5699618    0.4502792 -20.63  0.002856451    1.367    0.268
         8 -10.6150    221.0363     14.8869   4.7320000315e+01   2.7803078321e+01    0.6198432    0.5150507  -8.53  0.002777756    1.370    0.270
         9  -9.6471    240.2669      2.2464   4.2055470659e+01   2.4304180703e+01    0.3890872    0.2122411  89.02  0.001261966    1.952    0.488
        10  -9.0698    231.7056      2.5441   4.2902652135e+01   2.6401447948e+01    0.3756275    0.2082511 -86.17  0.001247849    1.989    0.497
        11 -10.6301    242.4678     11.6486   4.4246530114e+01   2.2760191628e+01     1.291052    0.4732261 -59.43  0.004137937    4.090    0.755
        12 -11.1319    239.1710     17.5087   4.6081937060e+01   2.2914685708e+01     1.032075    0.5096189 -66.10  0.004110069    2.613    0.617
        13  -9.7935    234.3217     19.5241   4.7119160531e+01   2.3892573614e+01    0.3750287    0.2881537  36.09  0.001663631    1.538    0.350
        14  -8.4460    230.7448     15.1276   4.6327840613e+01   2.5296196459e+01    0.4337319    0.2620504 -27.15   0.00178465    1.669    0.401
        15  -9.3595    233.2906     10.3933   4.4810436950e+01   2.5177334777e+01    0.2687429    0.2216801  20.25 0.0007081548    1.491    0.329
        16 -10.0542    250.2601     18.3523   4.5201607235e+01   2.0108154319e+01    0.5188582    0.1812697 -27.68  0.001915148    2.721    0.632
        17  -9.4155    221.5564      7.0563   4.5107678255e+01   2.8514045501e+01    0.6739221     0.395015  56.14  0.003223348    1.684    0.406
        18 -10.5047    148.7901     18.2704   5.9192793098e+01   4.6275768522e+01    0.4669402    0.4188297  88.13  0.002606844    1.256    0.204
        19  -9.0007    140.9583     16.2731   6.0026740310e+01   4.8439674036e+01    0.4191245    0.1664855 -36.52   0.00159703    2.577    0.612
        20  -9.9525    198.2326     10.3842   4.8743401452e+01   3.4252949589e+01    0.7869354    0.4202696   7.56  0.002950876    3.092    0.677
        21  -9.4706    199.8954     15.0449   4.9926891139e+01   3.3312832739e+01    0.3429152    0.2817643  65.20  0.001310301    1.162    0.139
        22  -9.2288    201.6792     11.6804   4.8696229415e+01   3.3206762860e+01    0.2760738    0.2098992  36.37 0.0008298859    1.449    0.310
        23  -9.7559    112.3749     11.2025   6.4496417274e+01   5.5623749952e+01    0.3117886    0.1165946 -30.71  0.001240144    2.552    0.608
        24  -9.2555    111.2642      5.8750   6.2543337471e+01   5.6440429090e+01    0.3354945    0.1699232 -32.14  0.001557546    2.002    0.501
        25  -8.7611    167.9444     10.3082   5.3021110181e+01   4.2241173546e+01      0.23266    0.1810409  39.23 0.0009561265    1.273    0.214
        26  -9.5172    186.7972      9.4183   4.9951928683e+01   3.7375599925e+01    0.5519488     0.333637 -59.25  0.002454528    1.966    0.491
        27 -10.0495     67.4650     11.5769   7.8096584668e+01   6.4009059171e+01    0.2765183    0.2032525  -8.32  0.001708162    1.211    0.175
        28  -8.4154     58.5529     11.8251   8.1444611898e+01   6.5301340327e+01    0.1703135    0.1012041 -40.65 0.0009456435    1.710    0.415
        29 -10.1215    155.2825      9.5577   5.4869458930e+01   4.5583129986e+01    0.3881876     0.232526 -24.90  0.001262392    1.722    0.419
        30 -10.1758    116.5717      6.3363   6.1467441851e+01   5.5223335127e+01    0.4681734    0.2195642 -13.98  0.001620301    2.374    0.579
        31  -9.1695    249.6429      7.3171   4.2508879250e+01   2.1489445301e+01     0.264289    0.2419524  48.80  0.001149598    1.257    0.204
        32  -9.2731    249.0462      2.3100   4.1326158842e+01   2.2163492545e+01    0.3293548    0.1762381 -58.77  0.001559555    1.879    0.468
        33  -9.4230    103.1558      7.5911   6.5333609331e+01   5.7980732455e+01       0.2775    0.1964489 -47.95  0.001472131    1.833    0.455
        34  -9.0720     21.6185      7.8483   9.5011942931e+01   7.0112373082e+01    0.1507612   0.08744863 -48.79 0.0005075475    1.649    0.393
        35  -9.1296    206.2543      6.4786   4.6621461040e+01   3.2546026673e+01    0.2862464    0.2135881 -45.49  0.001505476    1.347    0.258
        36  -9.6012    171.1099      4.9244   5.0731102666e+01   4.1949843707e+01    0.3628359    0.2745256 -54.50  0.001883767    1.468    0.319
        37  -8.9605    175.8707      4.2482   4.9819338391e+01   4.0767494664e+01    0.2674158    0.1653223  25.00 0.0008909967    1.966    0.491
        38  -8.9851     74.3555      5.4566   7.2899167711e+01   6.3667969907e+01     0.219707      0.11111  41.13 0.0009128222    1.967    0.492
        39  -9.0203    164.6539      2.7986   5.0985350814e+01   4.3830311424e+01    0.3483225    0.1263655 -23.39  0.001296003    2.807    0.644
        40  -8.4115    143.4738      3.5245   5.4784424000e+01   4.9141047817e+01    0.1382359    0.1293221  41.28 0.0001220709    1.037    0.036
        41  -9.0466    194.7173      1.8468   4.6609174909e+01   3.6033282652e+01    0.2884401    0.1869811 -88.33  0.001285365    1.669    0.401
        42  -8.8307    190.1341      2.1006   4.7245875890e+01   3.7216369013e+01    0.2801673    0.1881245  56.24 0.0009812878    1.391    0.281
        43  -9.5929     63.9765      1.9198   7.4763429683e+01   6.5785258828e+01    0.1901735    0.1533151  -3.23 0.0009015675    1.013    0.013
        44  -9.2469      7.0035      2.2628   9.9499918914e+01   7.2123252114e+01    0.1194818   0.08454572   6.07 0.0005980357    1.572    0.364
        45  -8.8190     37.3295      7.3189   8.7839359519e+01   6.8642044393e+01    0.1210315   0.07324257 -13.03 0.0007047527    1.686    0.407
        46  -8.6067     84.2998     11.0020   7.2253629100e+01   6.1248229948e+01    0.1899604    0.1497355 -10.32 0.0009006691    1.117    0.104
        47  -8.2932     73.9519     16.9949   7.8279160642e+01   6.2229591238e+01    0.1557031    0.1321865  -0.81 0.0009970375    1.055    0.052
        48 -10.0635    170.9878    170.1886   9.6208935079e+01   1.4550113622e+01    0.2304403    0.1543709  71.66 0.0009574397    2.024    0.506
        49 -11.5595    147.7766    168.0092   1.0044447478e+02   1.9454423022e+01    0.4368011    0.3172319 -83.07  0.001186527    1.745    0.427
        50 -12.1551    193.4980    166.1574   9.1088092727e+01   1.0707727276e+01    0.6374708    0.4215934  60.50  0.003137172    1.741    0.425
        51 -11.2804    178.4365    167.2951   9.4211846869e+01   1.3562285761e+01    0.3870552    0.2695864 -84.83   0.00177673    2.405    0.584
        52  -9.2866     10.6695    167.8107   1.2764039033e+02   3.8604686792e+01     0.162737    0.1024524 -71.71  0.001179564    1.430    0.301
        53  -9.7275    185.0178    166.5197   9.2785367801e+01   1.2366276334e+01    0.2199972    0.1256227  46.22  0.000702815    1.592    0.372
        54  -8.6982    234.5210    164.8942   8.3361903156e+01   2.6972868936e+00    0.2048642    0.1869071  60.81 0.0008912135    1.371    0.270
        55  -9.8927    213.8370    164.7487   8.7012449714e+01   6.8125338573e+00    0.2595205    0.1903866  61.54  0.001355894    1.641    0.391
        56  -9.7270    123.6833    164.7748   1.0483621514e+02   2.4498455708e+01    0.2643319    0.1109815 -46.84 0.0006857838    2.751    0.637
        57 -10.9260    183.8749    159.4707   9.1622635845e+01   1.3796087221e+01    0.3471042    0.2297615 -20.89  0.001629873    2.026    0.507
        58 -10.9914    145.8728    157.6782   9.8981612210e+01   2.1774291607e+01    0.3047883    0.2363369 -38.23  0.001253491    1.500    0.333
        59  -9.2974    246.4076    158.6993   8.0049767686e+01   1.2572374118e+00    0.3038982    0.1877842  33.88   0.00122699    1.537    0.349
        60  -7.8308     51.6750    159.3087   1.1901271718e+02   3.6207702540e+01    0.1236086   0.07276024  73.56 0.0007037466    1.652    0.395
        61  -8.9214    226.1948    157.0485   8.3192443529e+01   5.4743038469e+00     0.221189    0.1728728  10.79  0.001216306    1.311    0.237
        62  -9.1915    156.4751    157.5109   9.6752393210e+01   1.9723422678e+01    0.1392926    0.1290308  57.47 0.0008100523    1.008    0.008
        63  -9.9942    118.7339    153.8692   1.0405963764e+02   2.7558411686e+01    0.3170392    0.1753438 -54.24  0.001209568    1.832    0.454
        64  -8.7423    243.3159    154.0164   7.9578216413e+01   2.5017032950e+00    0.1909584    0.1664422  -6.80  0.001147786    1.086    0.079
        65  -9.9697    221.8079    152.9401   8.3104729083e+01   6.9862565974e+00    0.3276607    0.2625012 -66.87  0.001726308    1.787    0.440
        66  -9.5225    230.4734    152.5629   8.1481042004e+01   5.2716872640e+00     0.467214    0.2403002  54.31  0.002032686    2.185    0.542
        67  -9.0041    250.3076    151.5520   7.7881217989e+01   1.4819866646e+00    0.2723495    0.1683016 -38.33  0.001382123    1.735    0.424
        68 -10.1954    244.4626    149.2579   7.8359813356e+01   2.9441066854e+00    0.3310378     0.219358  52.54  0.001598046    1.659    0.397
        69 -11.3754    197.3996    149.9097   8.7009408043e+01   1.2591192790e+01    0.6033601    0.3537161 -64.24  0.002267643    3.275    0.695
        70  -9.8118    182.1393    150.8606   9.0205526847e+01   1.5660436158e+01    0.2199125    0.1975522  75.36  0.001232911    1.229    0.187
        71 -10.1732    206.3510    148.6543   8.5031863422e+01   1.0898330261e+01     0.219532    0.1791511 -84.22  0.001124562    1.727    0.421
        72  -9.1863    235.1600    147.9142   7.9655202850e+01   5.0042337186e+00    0.2594982    0.1932581  29.54  0.001398311    1.287    0.223
        73  -9.6859    229.8861    148.1470   8.0627466453e+01   6.0482557163e+00    0.2035611    0.1962044 -84.23  0.001221258    1.303    0.232
        74 -11.6740    174.3559    145.9622   9.0746800949e+01   1.8189505507e+01     0.467376    0.3821571  67.31  0.002478767    1.330    0.248
        75  -9.1474    135.7797    147.9259   9.9294538093e+01   2.5637254220e+01    0.1817985    0.1127796 -50.32  0.000867818    1.665    0.399
        76  -9.0946    112.0700    147.6842   1.0444120357e+02   2.9994072549e+01    0.2285524    0.1773887 -77.37 0.0007183576    1.283    0.221
        77  -9.2237     16.9984    146.7087   1.2481615179e+02   4.2293600911e+01    0.1514724    0.1158596  83.54 0.0006276589    1.087    0.080
        78 -10.0232    186.8153    145.7880   8.8196378986e+01   1.5562186011e+01       0.1927    0.1711906  85.95 0.0004262315    1.318    0.241
        79 -10.2332    191.8774    148.6198   8.7806338922e+01   1.3986052659e+01    0.2769109    0.2167295 -48.86  0.001452134    1.414    0.293
        80 -10.2032    224.3705    146.1044   8.1159241086e+01   7.5018147277e+00    0.3344698     0.273083  -5.12   0.00146807    1.250    0.200
        81  -8.6004     88.8219    143.5712   1.0893219809e+02   3.4613348157e+01    0.1776912    0.1111534  56.80  0.000654474    1.616    0.381
        82  -9.8701    231.0011    141.6296   7.8989648280e+01   6.7994316789e+00    0.2823004    0.2578445  50.37  0.001131127    1.214    0.176
        83  -8.4770    250.3962    140.6170   7.5472868380e+01   2.9855996332e+00    0.1891213    0.1650018 -62.16 0.0009906932    1.553    0.356
        84 -10.3479    187.5144    140.4887   8.6897285096e+01   1.6349861535e+01    0.2581298    0.2054613 -86.79  0.001247761    1.695    0.410
        85  -9.3369      8.8619    141.1100   1.2599358119e+02   4.4103798857e+01    0.1797795    0.1115133  80.00   0.00124166    1.337    0.252
        86 -10.2813    219.2456    138.8508   8.0464607455e+01   9.7248490766e+00    0.4151902    0.2842996  74.23  0.001839768    2.290    0.563
        87 -10.4585    216.0278    135.3036   8.0244152025e+01   1.0992740300e+01    0.4931756    0.2435636  59.69  0.001878642    2.628    0.620
        88 -11.2809    148.3326    139.0039   9.4775566826e+01   2.4949241473e+01    0.4583707    0.2364973  55.69   0.00188529    2.103    0.524
        89 -10.6619    209.0392    137.7794   8.2110748035e+01   1.2111842721e+01      0.44098     0.231575  54.28  0.001843619    2.018    0.505
        90 -10.6085    199.5448    137.7553   8.3917403812e+01   1.4195578339e+01    0.2947676    0.2784491  31.95  0.001674834    1.019    0.019
        91  -9.8771    242.4025    134.0182   7.5309940849e+01   5.5632969942e+00    0.3695649     0.270721 -29.35  0.001393281    1.327    0.246
        92  -9.1462    237.8753    136.8425   7.6719755269e+01   6.0852453257e+00    0.2867913    0.1877997  55.49   0.00103247    1.711    0.416
        93 -10.9860    164.5499    135.7605   9.0582823134e+01   2.2196479085e+01    0.3430648    0.2815275  73.84  0.001423331    1.367    0.268
        94  -9.6757    249.2911    135.4819   7.4501124154e+01   3.9380945238e+00    0.3161929     0.245415 -43.92 0.0009588437    1.469    0.319
        95  -9.2720    249.4006    130.6587   7.3384066827e+01   4.6107618178e+00    0.2910013    0.2425392  59.97  0.001415168    1.439    0.305
        96  -8.6704    225.0610    136.0681   7.8781965933e+01   8.9153514890e+00     0.221256    0.1793832 -70.30  0.001128368    1.723    0.420
        97 -11.2985    180.0878    134.4885   8.7052893693e+01   1.9061032585e+01    0.4483817    0.2981363 -54.02  0.002061262    1.731    0.422
        98 -10.8954    140.6738    135.1059   9.5643683753e+01   2.7279316922e+01    0.3854867    0.2146225  46.46  0.001076953    1.760    0.432
        99 -10.5329    186.8642    129.0352   8.4414256319e+01   1.8551837637e+01    0.4121113    0.2556204  71.08  0.001505735    2.449    0.592
       100 -10.8620    196.8069    121.4904   8.0628859175e+01   1.7646371309e+01    0.7212708    0.3661055  29.53  0.002468876    3.064    0.674
       101 -10.7597    193.1511    127.7277   8.2847513849e+01   1.7372177273e+01    0.3675917    0.3281564  71.15  0.001312551    1.242    0.195
       102 -10.4248    189.2513    123.8133   8.2692204102e+01   1.8957874410e+01    0.4454373    0.3247627 -55.29  0.001993719    1.583    0.368
       103  -9.5176     86.6592    129.8721   1.0712636268e+02   3.7906687549e+01    0.3349001    0.1868435 -88.45  0.001385639    2.810    0.644
       104  -8.5700     62.0434    129.5028   1.1289706016e+02   4.1336357826e+01    0.1647878    0.1219887  42.37  0.000396509    1.523    0.343
       105  -8.6124     25.4690    129.5451   1.2133252960e+02   4.5159413847e+01    0.1145745   0.08766345 -79.60  0.000113741    1.052    0.049
       106  -9.3942    229.6403    125.8767   7.5600729959e+01   9.5225819496e+00    0.3932082    0.2295588 -32.79  0.001788038    1.682    0.405
       107 -10.5552    201.7243    127.0254   8.1003716258e+01   1.5559678122e+01    0.4449793    0.2915627  23.03  0.001927914    1.957    0.489
       108 -10.7311    206.1846    126.8354   8.0104534321e+01   1.4586066337e+01    0.5309194    0.3483366 -56.02  0.001844674    1.967    0.492
       109 -10.4464    212.1057    124.2872   7.8382160175e+01   1.3680641369e+01    0.5512466    0.3599297  22.53  0.002409278    1.938    0.484
       110  -8.7937     68.9725    128.4914   1.1109892437e+02   4.0681074304e+01    0.1751567    0.1218143  45.29 0.0006013727    1.551    0.355
       111 -10.1309    241.4554    124.4582   7.3251346693e+01   7.1882812058e+00    0.3878254    0.3369656  71.96   0.00208476    1.440    0.305
       112  -9.4511    161.4657    124.2292   8.8619376108e+01   2.5103434249e+01    0.2727677    0.2328441  72.12 0.0006530858    1.265    0.210
       113  -9.3105    221.5506    129.6359   7.7921779751e+01   1.0699195095e+01    0.2785152    0.1758356  53.35 0.0007860463    1.651    0.394
       114 -10.9129    169.7026    134.4480   8.9200875706e+01   2.1337410416e+01     0.362395     0.292198 -48.22 0.0005605516    1.292    0.226
       115  -9.2079    148.9923    125.4923   9.1670525117e+01   2.7526259904e+01    0.2096494    0.1270166  70.43 0.0007244227    2.473    0.596
       116  -9.1490    221.7611    121.0047   7.5828695154e+01   1.2046306811e+01    0.2598663    0.2117055  48.53  0.000808162    1.244    0.196
       117  -9.6089    235.4120    115.5288   7.2129198045e+01   9.8678979819e+00    0.5604677    0.2262672 -39.86  0.002102586    2.466    0.594
       118  -9.6998    230.6400    116.0753   7.3073900673e+01   1.0844304333e+01    0.5013561    0.2644517  57.72  0.001873604    2.150    0.535
       119  -9.8085    182.7866    116.0753   8.2113978787e+01   2.1856142096e+01    0.4410017    0.2657437  38.22  0.001639547    1.779    0.438
       120 -11.4485    218.9782    100.5026   7.1197302060e+01   1.6041889536e+01     1.263793    0.4641358  54.59  0.004329079    2.804    0.643
       121 -11.1395    241.7341    104.9725   6.8501577149e+01   1.0087305349e+01     1.166773    0.6608806 -51.13  0.004891188    2.218    0.549
       122  -9.4435    237.7155     83.5824   6.3713273892e+01   1.4277561672e+01    0.4645022    0.2750164 -52.08  0.001596568    1.978    0.494
       123  -9.8605    237.2004     89.7395   6.5382335948e+01   1.3457946171e+01    0.4251808    0.3571499  80.62  0.001476784    1.417    0.294
       124  -9.7425    232.2125     83.4547   6.4537015382e+01   1.5603065028e+01    0.8759605    0.3252253 -41.07  0.003063437    2.626    0.619
       125 -11.2990    245.3477     80.9131   6.1881642682e+01   1.2893911089e+01     1.242067    0.6409651 -50.58  0.004978564    2.303    0.566
       126 -10.2381    235.8696     74.2013   6.1540002421e+01   1.6132961413e+01    0.8719004    0.2926307 -40.13  0.002958321    2.791    0.642
       127 -10.7461    247.7369    111.6628   6.9177921038e+01   7.7585753128e+00    0.6232134    0.5553669   6.90  0.003412272    1.084    0.077
       128 -11.1828    248.7599    105.0372   6.7408036392e+01   8.5247851534e+00     1.171393    0.3927955 -35.59  0.004186831    2.697    0.629
       129 -10.7498    214.5822    115.2551   7.5721997994e+01   1.4625695386e+01    0.7169368    0.4202132  47.74  0.002551925    1.686    0.407
       130  -9.3412    220.7477    115.5893   7.4688938671e+01   1.3157302524e+01    0.2625636    0.2071405  33.96  0.001106163    1.280    0.219
       131  -8.6177    203.8770    116.0827   7.7929715271e+01   1.6960614936e+01      0.22477    0.2080182 -64.76 0.0008037623    1.208    0.172
       132  -8.7298     52.1105    113.6373   1.1282468569e+02   4.5992264275e+01    0.2184077    0.1427663 -74.86 0.0006661586    1.345    0.257
       133  -8.9253    194.2157    115.4535   7.9651137273e+01   1.9317172492e+01    0.2993728    0.2163005 -34.39  0.001416222    1.400    0.286
       134 -10.1050    104.5043    111.6140   9.9112825950e+01   3.9042604358e+01    0.2844398    0.2437691 -44.47 0.0005239717    1.202    0.168
       135  -9.9745     14.3727    111.7010   1.2188536978e+02   4.9864411168e+01    0.2905505     0.145684  48.30  0.001215602    2.233    0.552
       136  -9.7792    164.4265    110.4325   8.4598683069e+01   2.7141328330e+01    0.3517726    0.1488696 -39.86  0.001258914    2.398    0.583
       137 -10.4763    183.4320    109.0509   8.0204114249e+01   2.3002783843e+01    0.4501653    0.2429393 -42.22  0.001824603    1.870    0.465
       138  -9.6740    189.9865    109.0245   7.8866052939e+01   2.1463431247e+01    0.2365553    0.2343104  34.74 0.0007698135    1.028    0.027
       139  -8.4603    161.3160    109.6465   8.5085124188e+01   2.7999013740e+01    0.1584586    0.1204372 -79.72 0.0007046182    1.739    0.425
       140  -7.8965    123.5132    109.5032   9.3898487259e+01   3.6015589131e+01    0.1454105     0.136775 -75.27 0.0002998981    1.029    0.028
       141  -8.9451    235.8562    107.6926   7.0133086887e+01   1.0986935844e+01    0.2531674    0.1757418  45.33 0.0009532917    1.462    0.316
       142  -8.4696    197.6402    108.2743   7.7160676097e+01   1.9787033340e+01    0.1527524    0.1216975 -83.62 0.0003980863    1.656    0.396
       143  -8.2556     65.6480    108.6694   1.0848556585e+02   4.5488965726e+01    0.1299355   0.09233996 -34.94 8.874117e-05    1.775    0.437
       144 -11.5324    217.0574     89.7502   6.8713414730e+01   1.8261089022e+01    0.8355075    0.5113178 -40.71  0.003665036    1.613    0.380
       145  -8.7011    196.4375    103.3285   7.6113109379e+01   2.0945775375e+01    0.2646182    0.1419683  53.08 0.0009683465    1.879    0.468
       146  -9.3196    185.4813    102.9630   7.8199844860e+01   2.3633004531e+01     0.224933    0.1259416 -57.68 0.0008098141    2.533    0.605
       147  -8.4571    150.4886    102.9999   8.5820940663e+01   3.1738511235e+01    0.2190654    0.1282028 -63.69 0.0008099204    2.502    0.600
       148  -9.1611     13.5160    101.9683   1.2091466353e+02   5.2008249851e+01    0.1835002   0.08548143 -71.50  0.001039489    1.611    0.379
       149 -10.1261    243.2476     92.6678   6.5187325874e+01   1.1616265673e+01    0.5748655    0.4049763 -45.85  0.002497095    1.469    0.319
       150  -9.3778    167.3530    100.8889   8.1472614334e+01   2.8308548021e+01     0.271118    0.2184814  64.32  0.001033818    1.338    0.253
       151 -10.3011    215.1448    107.5865   7.3696227219e+01   1.5774049459e+01    0.5589067    0.3593563  75.25  0.002279812    2.338    0.572
       152  -9.5970    130.0937     98.2195   8.9443183115e+01   3.7070354651e+01    0.2603641    0.2088964 -45.44 0.0006925778    1.207    0.172
       153  -9.3685    195.9721     97.4316   7.4643579826e+01   2.2095357427e+01    0.3453585    0.2560209 -85.49  0.001510402    1.914    0.477
       154  -9.7023    177.4446     95.1043   7.7750196092e+01   2.7000535794e+01    0.3965634    0.2699661  -2.13   0.00159143    2.222    0.550
       155 -10.1541     51.2968     95.4700   1.0982159377e+02   5.0091380241e+01    0.2330615    0.1842621 -73.15 0.0002458554    1.118    0.106
       156 -10.5041    230.7516     94.1173   6.7545387998e+01   1.4287869734e+01    0.4436602    0.3596934  -6.13   0.00163601    1.314    0.239
       157  -8.8100    208.1598     94.9971   7.1696555135e+01   1.9553503368e+01    0.2676152    0.2036361  75.31  0.001244056    1.603    0.376
       158  -9.1180    195.4514     90.4303   7.2848981227e+01   2.3444228219e+01    0.5308365    0.3512118 -86.28  0.002026501    2.576    0.612
       159 -10.0649    198.0492     88.4987   7.1822870524e+01   2.3136600192e+01     0.326804    0.2014312  53.38   0.00090917    1.629    0.386
       160  -7.9784    150.6722     93.3309   8.3179756012e+01   3.3613704117e+01    0.1581648    0.1213361 -79.58 0.0007051389    1.712    0.416
       161  -8.5010     98.5987     90.2184   9.5532840754e+01   4.4679376839e+01    0.2131972    0.1213802 -41.51 0.0009625161    1.737    0.424
       162  -9.1371     19.1861     89.6643   1.1769285984e+02   5.4248746508e+01    0.2975999    0.1689304  81.16  0.001659543    2.160    0.537
       163  -9.1020    139.7520     87.4252   8.4123698156e+01   3.7210515956e+01    0.2880458    0.2058718 -41.33 0.0009551788    1.364    0.267
       164  -8.1865      1.2148     88.0369   1.2234807467e+02   5.5736737820e+01    0.1477479   0.06547667 -70.98 0.0004086226    1.617    0.382
       165 -10.2615    225.6174     86.2964   6.6349279829e+01   1.6742728623e+01    0.6361294    0.4335112  10.69  0.002750525    2.002    0.501
       166  -9.5619    171.6067     91.4623   7.7982166396e+01   2.9077607872e+01    0.3609233    0.2685758   5.32  0.001289475    1.809    0.447
       167  -9.0392    176.0666     87.0223   7.5792004021e+01   2.8812212399e+01    0.2597511    0.1926582 -72.33  0.001134983    1.789    0.441
       168  -8.6377    165.3072     87.6453   7.8275228695e+01   3.1297023598e+01    0.1615902    0.1218019 -71.95 0.0005291387    1.720    0.419
       169  -8.5278     10.4818     84.9952   1.1940016604e+02   5.5835509357e+01    0.1718144   0.08562791 -71.17 0.0004022884    1.522    0.343
       170  -9.3050    205.8576     83.7757   6.9078380743e+01   2.1997375798e+01    0.2185486    0.1841459 -67.79  0.001074495    1.360    0.265
       171  -8.8885    116.8259     84.6054   8.9130857900e+01   4.2532547505e+01    0.2006577    0.1386891  58.08 0.0005995434    1.676    0.403
       172  -8.1101    134.9857     83.4934   8.4167900326e+01   3.9024350583e+01      0.19591     0.134554  79.00 0.0004727092    2.232    0.552
       173  -8.6698    184.2459     82.4150   7.2808362666e+01   2.7617112033e+01     0.221665    0.1526366  67.53 0.0009545774    1.674    0.403
       174 -10.3750    214.6472     76.0078   6.5401888312e+01   2.1066936619e+01    0.4194804    0.3786476 -12.42  0.002038431    1.129    0.114
       175  -9.7920    195.5839     77.9755   6.9345894095e+01   2.5537438122e+01    0.5704744    0.2489878 -51.48  0.001807101    3.197    0.687
       176  -8.7667    179.5101     85.4761   7.4639852153e+01   2.8246812410e+01    0.2627368    0.1549263  66.37 0.0007928297    2.105    0.525
       177  -9.4590    175.6503     77.6155   7.3170982554e+01   3.0596271753e+01    0.3658196    0.2513254 -51.22  0.001149653    1.590    0.371
       178  -8.4003    131.4800     79.4929   8.3875253248e+01   4.0564429959e+01    0.1491111    0.1431197 -26.63 0.0008101822    1.025    0.025
       179  -9.1612    119.6213     79.0412   8.6797690054e+01   4.3108604340e+01    0.2457018    0.2100067  62.16 0.0008788651    1.302    0.232
       180  -8.8068    230.3823     71.7600   6.1720156563e+01   1.7830577430e+01    0.2481331    0.2004415   6.78  0.001017318    1.426    0.299
       181  -9.0169    224.6850     76.0029   6.3751354593e+01   1.8579599201e+01    0.3764475    0.1624113 -49.18  0.001274615    2.876    0.652
       182  -9.4761    227.3089     74.0656   6.2814193635e+01   1.8233225537e+01    0.3983532    0.3199672 -66.62  0.001605243    1.431    0.301
       183  -8.0879    126.4976     76.4641   8.4243069695e+01   4.2211353249e+01    0.1475444    0.1415167 -42.38 3.430321e-05    1.025    0.025
       184  -8.7990     96.0049     73.9880   9.1808547271e+01   4.8517695636e+01    0.2291776    0.1709075 -12.24   0.00115048    1.736    0.424
       185  -9.7924    202.4299     72.0944   6.6421367211e+01   2.4772443949e+01    0.4052018    0.2734428  79.71  0.001152841    1.931    0.482
       186  -9.0142    189.9504     77.2119   7.0197758240e+01   2.7085571677e+01    0.2858829    0.2309209 -30.79  0.001387261    1.234    0.189
       187  -9.2629    226.1935     60.0515   5.9176329233e+01   2.0607652768e+01    0.3471333    0.2253326 -32.97  0.001356411    1.471    0.320
       188  -9.6993    219.2249     68.8215   6.2665537127e+01   2.1042003937e+01    0.6676738    0.3922983 -82.71   0.00233326    3.193    0.687
       189 -10.0201    214.6613     57.7358   6.0287768966e+01   2.3869668709e+01    0.6623251    0.4771362  86.63  0.002679332    1.685    0.407
       190 -10.4317    229.3169     51.9382   5.6506367234e+01   2.0986870714e+01    0.6203216    0.5831891  88.89  0.002945862    1.088    0.081
       191 -10.4296    225.6582     66.4047   6.0994415825e+01   1.9800991017e+01    0.6661711    0.4686835  69.51  0.002581846    1.567    0.362
       192  -9.2655    221.2881     61.0339   6.0186011617e+01   2.1696694398e+01    0.3605896    0.2156293 -40.92 0.0009485242    1.620    0.383
       193  -8.0916    245.3099     59.4591   5.6340600698e+01   1.6008488336e+01    0.5541852    0.1520077 -31.97  0.001786322    3.168    0.684
       194  -9.0432    250.0468     70.3154   5.8505742219e+01   1.3349082251e+01    0.2485143    0.1964497  35.24 0.0007500164    1.405    0.289
       195 -10.0203    250.0932     65.4631   5.7257272602e+01   1.4030154985e+01    0.4414802    0.2477051 -34.91   0.00138303    1.618    0.382
       196  -9.1482    235.9967     60.0927   5.7775450656e+01   1.8172460798e+01     0.543299    0.2775287  74.00  0.002039182    2.567    0.610
       197  -9.1012    240.9796     68.8586   5.9390354779e+01   1.5697155495e+01    0.3978529    0.2067784  62.89  0.001511529    2.100    0.524
       198  -9.7338    238.3224     64.7580   5.8687955278e+01   1.6933100845e+01    0.4986714    0.3327297  13.42  0.002171072    2.124    0.529
       199  -8.2031    139.4636     67.5092   7.8228826694e+01   4.1076672245e+01    0.1500166    0.1453225 -33.75 0.0001167608    1.031    0.030
       200  -8.5810    210.4984     66.0396   6.3312786389e+01   2.3676425465e+01    0.2408511    0.1464793 -33.02  0.001031713    1.596    0.373
       201  -9.0125    198.0449     63.7317   6.4785610596e+01   2.7226830693e+01    0.3148789    0.2309166 -32.50 0.0008923592    1.346    0.257
       202  -9.6377    197.2461     58.3199   6.3333711868e+01   2.8273556429e+01    0.6898145    0.3655714  74.60  0.002494229    2.603    0.616
       203  -9.8195    235.4034    247.9216   9.7500385665e+01  -7.1323607877e+00    0.2857113    0.1483708  48.40  0.001727235    1.827    0.453
       204  -8.4743    183.5382    245.5180   1.0539297182e+02   1.3453752639e+00     0.113607   0.08533791  46.31 5.959288e-05    1.060    0.057
       205  -9.7799    205.6393     24.6887   5.2029082874e+01   3.0685687638e+01    0.4870484    0.3654204  59.13  0.002472095    1.295    0.228
       206 -10.4907    214.9227     30.3676   5.2433428745e+01   2.7555526355e+01    0.8478522    0.3954265  59.44  0.003444312    2.038    0.509
       207  -8.1728    182.6569     64.6880   6.7918758193e+01   3.1025306457e+01    0.1642105    0.1185677  22.86 0.0007046268    1.703    0.413
       208  -8.7260    202.5070     57.5095   6.2195458021e+01   2.7034288545e+01    0.2404812    0.1504286  59.99 0.0006711442    1.610    0.379
       209  -9.4474    207.0542     59.8842   6.2126417448e+01   2.5501061127e+01    0.4319513    0.1884426 -43.52  0.001557876    2.355    0.575
       210  -8.5166    158.3908     61.2559   7.1858091756e+01   3.7696266255e+01    0.2135565     0.139539 -43.38  0.000501546    1.560    0.359
       211  -9.0216     48.2673     61.0002   1.0286655615e+02   5.7797277306e+01    0.1863452    0.1397011 -50.04  0.001131067    1.083    0.077
       212  -9.7797    171.6297     58.7606   6.8280144151e+01   3.4800194433e+01    0.3574163    0.2902708  59.67  0.001083946    1.253    0.202
       213  -8.8789    126.7130     58.5794   7.8536392196e+01   4.5516585813e+01    0.2511784    0.1705779 -54.06 0.0006337132    1.712    0.416
       214  -8.3055     19.7841     57.0088   1.1140219390e+02   6.1106582627e+01    0.1609107   0.07288475 -61.10 0.0007487811    1.682    0.405
       215  -8.0886     99.6940     56.6758   8.5332922017e+01   5.1258674373e+01    0.1429353    0.1059333  -6.69 0.0002949249    1.645    0.392
       216  -9.0442    250.3916     53.8619   5.4240314576e+01   1.5575946482e+01    0.2887849    0.1779889 -34.49  0.001282678    1.481    0.325
       217  -9.0405    220.8498     53.3406   5.8108821647e+01   2.2928970712e+01    0.4282395    0.2733888  52.05  0.001951222    1.589    0.371
       218  -9.5560    131.5300     54.4782   7.5937121535e+01   4.5173357826e+01    0.3208136    0.1406845 -36.53  0.001214151    2.197    0.545
       219  -8.8512     41.6008     54.7548   1.0339793892e+02   5.9749235385e+01    0.1742449    0.1453634  72.02 0.0005621728    1.627    0.385
       220 -10.5300    244.4706     41.9377   5.1874166411e+01   1.8596812419e+01    0.4617953    0.3687151 -21.57  0.001723958    1.287    0.223
       221 -10.3907    244.8438     51.4410   5.4309984619e+01   1.7232357770e+01    0.4603862    0.3317481 -65.94  0.001707098    1.561    0.359
       222  -9.9128    249.7342     46.0787   5.2319376474e+01   1.6781488184e+01    0.6640496    0.2569983 -29.55  0.002540466    2.399    0.583
       223  -9.3342    163.1760     52.7644   6.8108191319e+01   3.7896621653e+01    0.3886784    0.2059633 -39.17  0.001336269    1.877    0.467
       224  -8.0529    153.3223     53.3350   7.0412706338e+01   4.0250220199e+01    0.1610571    0.1163861  17.73 0.0007050401    1.708    0.415
       225  -8.7218    190.4868     50.1611   6.2062083938e+01   3.1261862848e+01     0.376554    0.1870425 -48.46  0.001398185    2.306    0.566
       226  -8.2367      2.0249     54.2348   1.1680392213e+02   6.2722839802e+01    0.1086438   0.09194075  -0.53  0.000397973    1.559    0.359
       227  -8.3341    145.4781     48.5395   7.0575210554e+01   4.2919750976e+01    0.1493893    0.1437625   6.69 1.632413e-05    1.003    0.003
       228  -8.8186    112.9839     46.4972   7.8033691214e+01   5.0499991152e+01    0.2374707    0.1747281 -32.02 0.0005704982    1.285    0.222
       229  -8.6591    234.0130     42.7186   5.3374931916e+01   2.1072467893e+01    0.2375548    0.1545826  35.87 0.0006417573    1.883    0.469
       230 -10.2463    215.6894     42.3244   5.5746684419e+01   2.5793222969e+01    0.6104376    0.3825795  -6.44  0.002158786    2.122    0.529
       231  -8.8273    162.3617     45.7187   6.5971804519e+01   3.9189033709e+01    0.2469747    0.1754609 -63.36  0.001092315    1.798    0.444
       232  -8.8578    238.6788     44.6975   5.3312185353e+01   1.9649483732e+01    0.2432109    0.1653162  61.13 0.0007737756    1.509    0.337
       233 -10.1681    191.6514     32.7224   5.6505325109e+01   3.3377569137e+01    0.5613446    0.3179838  17.74  0.002036896    2.920    0.658
       234  -8.4280     35.7578    236.9811   1.2774799020e+02   2.3743991747e+01    0.1315874    0.1092019 -16.96 0.0009086198    3.595    0.722
       235 -10.6441    191.7124     40.3444   5.8846088389e+01   3.2342538864e+01     0.521369    0.2676666  52.44  0.002112342    1.879    0.468
       236  -8.5044    168.8234     45.1815   6.4502312933e+01   3.7622210765e+01    0.2170962    0.1763461  22.44 0.0006440762    1.347    0.258
       237  -8.4113    124.0238     46.0000   7.4914504916e+01   4.8250562137e+01    0.2422017   0.08264806  51.48 0.0008133137    3.018    0.669
       238  -8.3197     76.6302     43.7693   8.8010522107e+01   5.7487865680e+01    0.1804186     0.112285 -46.71 0.0005052059    1.538    0.350
       239  -9.9186    189.4901     44.0513   6.0360675978e+01   3.2408364794e+01    0.3484281    0.2789063 -28.78  0.001079834    1.260    0.207
       240 -10.0290    174.4230     40.4146   6.1888944591e+01   3.6863938105e+01    0.4947402    0.3410012 -83.17   0.00213215    1.982    0.496
       241  -8.9279    134.1850     42.7033   7.1206920233e+01   4.6493553211e+01    0.2237415     0.193804  84.36  0.001172357    1.413    0.292
       242  -9.8080    237.0430     53.6431   5.5909604754e+01   1.8828530172e+01    0.4064184    0.2874095 -89.56  0.001935417    1.714    0.416
       243  -8.5151    244.1750    236.4270   9.4445126220e+01  -7.3935656271e+00    0.1550774   0.08884688  48.15 0.0009414712    1.756    0.430
       244  -9.6239    209.1347     39.6152   5.5915186285e+01   2.7864506668e+01     0.273537     0.221787 -71.80 0.0006606584    1.336    0.251
       245  -9.4203    165.7516     39.8944   6.3365662289e+01   3.9177227583e+01     0.262193    0.2478389  -6.65 0.0008790799    1.065    0.061
       246  -8.5193    154.3163     40.6475   6.5940585948e+01   4.1961337603e+01     0.157143    0.1152449 -63.70 0.0007046597    1.738    0.424
       247  -8.4537     86.6808     40.3448   8.3534068160e+01   5.6467513637e+01    0.1304878    0.1058668 -67.59 0.0007049342    1.725    0.420
       248  -9.7280    238.5191     38.2393   5.1615381636e+01   2.0540491837e+01    0.2723265    0.2489562 -75.14 0.0009968763    1.079    0.073
       249  -8.5372    161.2904     38.9708   6.3938935790e+01   4.0447310721e+01    0.2165024    0.1952813 -16.08  0.001128891    1.121    0.108
       250  -8.4861    233.0216     38.0050   5.2227579176e+01   2.1942051862e+01    0.2191715    0.1844575 -70.28    0.0005313    1.210    0.174
       251 -10.5649    227.5364     33.0991   5.1575484986e+01   2.3960361095e+01    0.6442214    0.3391889 -39.79  0.002804581    1.791    0.442
       252 -10.1191    235.2486     31.5546   5.0223031008e+01   2.2207637138e+01    0.5919845    0.2911299  61.03  0.002542609    2.000    0.500
       253  -8.9433     61.1672     37.7159   9.1084915529e+01   6.0776541012e+01    0.2241926    0.1521423 -47.37  0.001158215    1.395    0.283
       254  -8.2172    211.3281    228.6654   9.8567596468e+01  -1.2756871156e+00    0.1093099   0.08592016  66.05 0.0007051856    1.722    0.419
       255  -8.9217    222.0055     42.5719   5.4929573016e+01   2.4132647841e+01    0.5445705    0.2554052 -53.82  0.001976685    2.676    0.626
       256  -9.4083    242.3041     33.7780   4.9994130242e+01   2.0178025853e+01    0.3980057     0.213078 -49.68   0.00157566    1.881    0.468
       257  -8.7863    163.9746     34.0950   6.1771376450e+01   4.0437687575e+01    0.3838163    0.1963496 -13.32  0.001410987    2.608    0.617
       258  -8.8210    104.8618     34.1553   7.5734620682e+01   5.4123772958e+01    0.2361004    0.1726552  56.45  0.001231148    1.611    0.379
       259 -10.1806    170.1544     30.8966   5.9550520686e+01   3.9264745452e+01    0.5150777    0.2888395  -7.95    0.0020081    2.408    0.585
       260  -8.7432    109.7767     31.9922   7.3529194173e+01   5.3456959410e+01    0.1918373    0.1088975 -30.38 0.0008791903    1.682    0.405
       261  -8.0807    153.6478     30.2791   6.2496517839e+01   4.3571056968e+01    0.1489444    0.1148201 -71.30 0.0003962907    1.649    0.394
       262  -8.8971    144.4503     30.0252   6.4325987574e+01   4.5883789337e+01     0.227777    0.1409561 -28.54  0.001032963    1.615    0.381
       263  -9.0889    173.8945     27.2945   5.7700364703e+01   3.8747876116e+01     0.585394   0.08212751 -39.65  0.001303959    6.685    0.850
       264  -9.0189    164.4296    228.4871   1.0639159573e+02   6.6705703377e+00    0.2523256   0.09306554  45.65  0.001199294    2.126    0.530
       265 -10.0743    144.1710     25.2125   6.2647223136e+01   4.6578939939e+01    0.4537714     0.236954  51.49   0.00194748    1.795    0.443
       266  -8.8141     99.3428    226.0309   1.1705325058e+02   1.7377755409e+01    0.1549208    0.1175453  72.83 0.0007615201    1.100    0.091
       267 -10.6126    224.7494     23.1395   4.9172868077e+01   2.5897691870e+01    0.5334533    0.3902093 -83.71   0.00215676    1.459    0.314
       268  -8.5173    240.5108    222.4948   9.2851195639e+01  -5.4166736650e+00    0.1171802   0.09093171  27.45 0.0008103263    1.035    0.034
       269  -8.8388    194.3191    220.6960   1.0024295779e+02   2.5919435017e+00    0.1142694   0.08648796  65.99 0.0003120191    1.629    0.386
       270  -8.8689     48.9233    219.4815   1.2469476401e+02   2.5131986287e+01    0.1582871    0.1089649  84.75  0.000580702    1.168    0.144
       271  -8.1825    237.5217    219.4723   9.2847015080e+01  -4.6069445495e+00    0.1191601   0.09196203  26.88 0.0002500285    1.001    0.001
       272  -9.3956    226.4966     17.4976   4.7427294811e+01   2.6107683032e+01    0.2839833    0.2431724 -25.39 0.0007467137    1.223    0.182
       273  -8.6664    212.7431    219.6084   9.6964072548e+01  -4.5177040672e-01    0.1700769   0.09589566  49.13 0.0009475569    1.619    0.382
       274  -8.5580    160.4789    218.5247   1.0576684375e+02   8.7519989338e+00    0.1216658   0.09761839  50.38 0.0001407635    1.001    0.001
       275  -8.7028     64.3484    217.6866   1.2208594869e+02   2.3553155799e+01    0.1172952   0.06014083  68.20 0.0007046624    1.720    0.419
       276  -8.4998    247.3204    215.8741   9.0669361398e+01  -5.8259743991e+00     0.309666      0.10743  44.52  0.001432809    2.464    0.594
       277  -9.6952    221.3063     31.0636   5.1798230287e+01   2.5813977070e+01    0.4657518    0.2884165 -21.11  0.002124479    1.738    0.425
       278  -8.7526    131.9721     22.4296   6.4283105713e+01   4.9857927718e+01    0.3456556    0.1631603 -32.41  0.001213806    2.082    0.520
       279  -8.0490    128.3022     24.6699   6.5983992874e+01   5.0425515163e+01    0.1412324    0.1103521 -60.25 0.0007033978    1.650    0.394
       280  -8.8934    199.5132     21.8612   5.2025266952e+01   3.2638381013e+01    0.3944313    0.1452467 -24.79  0.001387025    2.825    0.646
       281  -9.7815    214.9671    215.6842   9.5975188752e+01  -3.6194829061e-01    0.1794648    0.1302153  39.93 0.0009032196    1.132    0.117
       282  -9.5977    132.4332    214.2381   1.1012669596e+02   1.4139374042e+01    0.2280796    0.1719272  43.82  0.001312021    1.267    0.211
       283  -8.9439    176.3176     20.6768   5.5124241677e+01   3.8910390335e+01    0.2041968    0.1508283  87.85 0.0004581915    1.536    0.349
       284  -9.3105    172.4871     19.6635   5.5416492246e+01   4.0033232928e+01    0.4966359    0.1651625  44.08  0.001564712    3.389    0.705
       285  -9.5807    165.6199     19.4880   5.6520088907e+01   4.1843923220e+01    0.3461224    0.1989487 -44.25  0.001115123    1.909    0.476
       286  -9.5292    162.6406     15.1393   5.5546328800e+01   4.3104440762e+01    0.2939909    0.2134777 -72.29  0.001410871    1.722    0.419
       287  -9.3704    155.7775    216.0452   1.0625678823e+02   9.9258582752e+00    0.1390636    0.1007193 -54.48  0.000645127    1.680    0.405
       288  -8.9783    166.4734    205.4965   1.0287821568e+02   9.6436887393e+00    0.1261143    0.1046176  50.97 2.895908e-05    1.027    0.026
       289  -8.7591    188.2090    204.1809   9.8785814852e+01   5.9098835752e+00     0.194833    0.1385485  75.58 0.0009984199    2.098    0.523
       290  -9.7710    173.5260    203.2321   1.0126801449e+02   8.7161499238e+00    0.2114779    0.1252533 -51.55   0.00113858    2.083    0.520
       291  -8.7240     65.0053    203.0095   1.2076499641e+02   2.6058843918e+01     0.138049     0.103312  79.45   0.00100159    1.054    0.051
       292  -8.3283    187.4689     16.5154   5.2084218778e+01   3.6438638824e+01    0.1441555    0.1381099  73.74  8.51946e-05    1.009    0.009
       293  -9.2372    160.0671    202.5140   1.0359933925e+02   1.1251707276e+01    0.1922383    0.1059429  47.02 0.0005384014    1.522    0.343
       294  -9.0976     16.0741    201.6313   1.2879674449e+02   3.1779744425e+01    0.1394258   0.09829094  70.29 0.0007578909    1.122    0.109
       295  -8.6035    105.5835     14.7987   6.7750793279e+01   5.6645443896e+01    0.1902261    0.1167206 -35.68 0.0009346848    1.685    0.407
       296  -8.7512    207.4431     13.7336   4.8586512500e+01   3.1468937358e+01    0.1868452    0.1407273  -3.57 0.0009366285    1.574    0.364
       297  -8.2172    121.2818     14.3934   6.3632711257e+01   5.3287590970e+01    0.1505288   0.09656995  18.58 0.0004416172    1.754    0.430
       298  -8.0785    169.6807     13.3267   5.3759480442e+01   4.1471496917e+01    0.2129169     0.141008 -41.86 0.0006766979    1.606    0.377
       299  -8.5315    166.9651    201.4679   1.0218839053e+02   1.0173674285e+01    0.1799688   0.09623446  62.64 0.0005821725    2.447    0.591
       300  -8.2334    231.5150    194.5275   8.9581797179e+01  -6.7043519510e-01    0.1270725    0.1047588  25.11 0.0001020285    1.005    0.005
       301  -9.8306    238.5276    192.5357   8.8034410105e+01  -1.6738724205e+00    0.2930852    0.1952983  34.94 0.0009318496    1.277    0.217
       302  -8.7649     22.1644    190.1891   1.2711347608e+02   3.3274989534e+01    0.1493203   0.08727566  75.21 0.0005519539    1.316    0.240
       303  -8.2469    180.6329     11.7229   5.1554471302e+01   3.8764404412e+01    0.1559743   0.09864605  39.29 0.0004697392    1.678    0.404
       304  -9.9660    194.0248    188.2137   9.5077956966e+01   7.1573599962e+00    0.2471248    0.1695973  58.33  0.001233667    1.581    0.368
       305  -8.2955    225.0211    185.2166   8.8993572778e+01   1.7220955512e+00    0.1754495   0.09302036  43.67 0.0006966633    1.665    0.399
       306  -9.3257    105.3219    184.0209   1.1132380012e+02   2.3840521776e+01    0.2678897    0.1224233  62.22  0.001117038    2.651    0.623
       307 -12.2611    157.4414    178.6121   1.0033990204e+02   1.5707126635e+01    0.5766519    0.4298191 -54.88  0.002258905    1.502    0.334
       308  -8.1621     88.4755     19.5140   7.4671541540e+01   5.9375521792e+01    0.1336452    0.1141064  -2.85  0.000165029    1.015    0.015
       309  -9.5501    152.4802    178.4410   1.0127998884e+02   1.6672053700e+01    0.2491792    0.1537791  46.68 0.0006522406    1.447    0.309
       310  -8.9692    226.8878    179.2009   8.7530087155e+01   2.1848631863e+00     0.190845    0.1729791  44.87  0.001154575    1.235    0.190
       311  -8.0200     64.6726    179.3111   1.1857989137e+02   3.0581292964e+01    0.1241347   0.07154993  72.09 0.0003053769    1.663    0.399
       312  -8.5448    241.2504    178.6107   8.4947486127e+01  -4.1396325901e-01    0.1871884    0.1034282  34.95 0.0009422685    1.651    0.394
       313  -9.1304    218.0526    177.8471   8.8829728210e+01   4.0591135949e+00    0.4730106     0.216415  60.82  0.001579176    4.430    0.774
       314  -9.7819    171.4033    176.7779   9.7315211508e+01   1.3341451203e+01    0.1757616     0.129218 -29.27 0.0004236915    1.680    0.405
       315  -9.0962    234.1639    175.0312   8.5457535455e+01   1.3758151602e+00    0.2629924    0.2172367  63.67  0.001549171    1.599    0.375
       316  -8.3543     84.5420    174.5420   1.1418836302e+02   2.8826953988e+01    0.1249888   0.09888056  77.87 8.718546e-05    1.061    0.058
       317  -8.8070    225.4031    172.7847   8.6542720313e+01   3.3571853866e+00    0.1754485    0.1218285 -15.15 0.0005521916    1.593    0.372
       318 -10.0108    144.5105    172.5553   1.0187749369e+02   1.9227175342e+01    0.2706221    0.1323514 -51.77  0.001228739    2.235    0.553
       319  -9.0432    167.6537    172.3228   9.7249983189e+01   1.4836215089e+01     0.139287    0.1032368  78.54 0.0003871447    1.739    0.425
       320  -9.4976      9.3522    171.9577   1.2814899881e+02   3.7913648077e+01    0.1590496    0.1454902 -10.72  0.001332436    1.959    0.489
       321  -8.0858    237.6344    170.2882   8.3919132789e+01   1.3591380892e+00    0.1216416    0.1065532  83.08 0.0007023478    1.700    0.412
       322  -9.6077    212.4729    170.0535   8.8321047474e+01   6.2861752371e+00    0.2630981    0.1900912  49.61  0.001007998    1.356    0.263
