#   1 NUMBER                 Running object number                                     
#   2 MAG_AUTO               Kron-like elliptical aperture magnitude                    [mag]
#   3 X_IMAGE                Object position along x                                    [pixel]
#   4 Y_IMAGE                Object position along y                                    [pixel]
#   5 X_WORLD                Barycenter position along world x axis                     [deg]
#   6 Y_WORLD                Barycenter position along world y axis                     [deg]
#   7 A_WORLD                Profile RMS along major axis (world units)                 [deg]
#   8 B_WORLD                Profile RMS along minor axis (world units)                 [deg]
#   9 THETA_WORLD            Position angle (CCW/world-x)                               [deg]
#  10 FWHM_WORLD             FWHM assuming a gaussian core                              [deg]
#  11 ELONGATION             A_IMAGE/B_IMAGE                                           
#  12 ELLIPTICITY            1 - B_IMAGE/A_IMAGE                                       
         1  -7.6319    119.5144     11.0039   4.2689440052e+01   5.2968266618e+01    0.1851221   0.09119199 -50.77 0.0008099786    2.514    0.602
         2  -7.7874     83.3942     11.1260   5.0731756326e+01   6.1423674691e+01     0.170137    0.1163523 -38.44 0.0005920774    1.707    0.414
         3  -8.8298     90.9056      8.7717   4.7777147008e+01   5.9938492539e+01    0.2796531      0.15069 -43.84  0.001069321    2.292    0.564
         4  -8.6891     55.5501      9.9336   5.9446132508e+01   6.7389199498e+01    0.2147367    0.1937204  74.22 0.0007666596    1.500    0.333
         5  -7.8951     28.0134      9.9640   7.2850836916e+01   7.2083828511e+01    0.1488989    0.1185546  -8.16 0.0004424597    1.120    0.107
         6  -7.9738    101.4056      8.1658   4.5141954413e+01   5.7546765835e+01    0.1655069    0.1163721 -40.93 0.0003076828    1.632    0.387
         7  -8.1612    165.6877      6.9266   3.5175535851e+01   4.2257139911e+01    0.1711279    0.1474172 -65.89 0.0006404671    1.114    0.102
         8  -8.4465     33.3592      5.0995   6.7072875229e+01   7.1882537980e+01    0.2900299    0.1685969 -50.26  0.001386559    3.239    0.691
         9  -8.5249     79.1699      4.2241   4.8828989037e+01   6.2990711019e+01    0.2234482    0.1467662 -50.67 0.0008872427    2.044    0.511
        10  -7.6756     44.6911      3.3371   6.0500749644e+01   7.0126791966e+01    0.1082442   0.09918087 -73.79 0.0004710862    1.681    0.405
        11  -8.3545     62.6290      1.6067   5.2583708650e+01   6.6776814756e+01    0.2150781    0.1423286  78.27 0.0008362877    2.203    0.546
        12  -9.2127    120.4421    245.7610   9.8866228231e+01   7.5784548104e+00    0.3268769    0.2137321  65.37  0.001717539    2.330    0.571
        13  -8.5144    248.5996    249.6316   7.4723879846e+01  -8.4982161760e+00    0.2709632    0.1299856 -19.03  0.001630474    1.884    0.469
        14  -9.6151    246.5674    229.2606   7.1873847717e+01  -5.7891986187e+00    0.4558375    0.1612161 -34.57  0.002324522    2.456    0.593
        15  -9.3256    248.0096    234.6691   7.2502850671e+01  -6.6248856264e+00    0.2838506    0.1660911 -39.46  0.001342508    1.968    0.492
        16  -9.0644    211.4720    247.3820   8.0765912209e+01  -4.2699753136e+00    0.3304431    0.2421108 -62.31   0.00178169    3.383    0.704
        17  -8.5310     93.8498    249.4900   1.0501836537e+02   1.0381296989e+01    0.2224791    0.1517624  73.97  0.001067484    1.930    0.482
        18  -7.6734     86.2894    250.6417   1.0675470839e+02   1.1123919145e+01    0.1257349   0.07905007  57.33  0.000679594    1.686    0.407
        19  -7.8174     25.6988    250.6599   1.1942260119e+02   1.7953457794e+01   0.09987055   0.08540057 -34.10 0.0003400005    1.670    0.401
        20  -9.5296     78.0117    243.2438   1.0786041860e+02   1.3522326267e+01    0.3712415    0.1750419  60.60  0.001642821    2.862    0.651
        21  -8.2992     67.4168    244.7437   1.1029921821e+02   1.4523309489e+01    0.2029378    0.1182758 -78.82  0.001033304    2.062    0.515
        22  -8.3105     49.9858    243.8270   1.1397673095e+02   1.6709655573e+01    0.3232794    0.1252161  74.06  0.001107956    5.267    0.810
        23  -8.8732    202.0767    243.5276   8.1917485833e+01  -2.6465372576e+00    0.1896084    0.1561896 -38.77 0.0008408537    1.622    0.383
        24  -8.5168    169.0294    243.4540   8.8349630611e+01   1.5057480637e+00    0.1827046    0.1737413 -45.70 0.0005590212    1.482    0.325
        25  -7.8878    139.3870    244.6755   9.4673225105e+01   5.2340219742e+00    0.1278875   0.08668112  52.47 0.0007010595    1.860    0.462
        26  -7.5916     58.3760    244.7014   1.1224526831e+02   1.5590633048e+01    0.1334364   0.07044234  53.65  0.000702637    1.753    0.429
        27  -8.1774     34.5721    243.8251   1.1723084300e+02   1.8366427017e+01    0.1595896   0.09619424  78.19 0.0007522443    1.686    0.407
        28  -9.3203    159.9058    240.1360   8.9747599173e+01   3.2300397265e+00    0.2997829    0.2463002  88.56  0.001606575    2.172    0.540
        29  -7.8781    153.4699    241.9676   9.1343354678e+01   3.7945747947e+00    0.1481718    0.1138466  89.52 0.0008093663    2.501    0.600
        30  -8.5274    146.8616    240.3749   9.2516654865e+01   4.9447185267e+00     0.346783    0.2096543  60.14  0.001544319    3.218    0.689
        31  -8.2217     88.2154    242.2040   1.0551894893e+02   1.2437384676e+01    0.1654468    0.1282517  64.23 0.0006362564    1.387    0.279
        32  -8.3832    240.5690    240.2989   7.4610165198e+01  -6.5532189215e+00    0.1851713   0.09265458 -36.64 0.0008640906    1.979    0.495
        33  -9.1329    182.7508    239.9781   8.5098848109e+01   2.6163787970e-01     0.260532    0.2115351  51.01    0.0012385    1.856    0.461
        34  -9.2483    193.9788    239.5240   8.2845398396e+01  -1.0895738548e+00     0.174867    0.1384115  -8.40 0.0004260115    1.119    0.106
        35  -8.7112    136.2618    239.2357   9.4632149780e+01   6.5767967929e+00    0.2817672    0.1541582  52.57  0.001310115    2.566    0.610
        36  -8.4927    129.1424    238.8450   9.6125607437e+01   7.6151927171e+00    0.1923719    0.1536264  44.86 0.0007126398    1.299    0.230
        37  -7.8994     40.7009    239.3478   1.1565402826e+02   1.8601384174e+01     0.129297    0.0705761  58.37 0.0007036532    1.683    0.406
        38  -9.2668    230.6487    236.9161   7.5759814422e+01  -5.0524317275e+00      0.25291    0.2059616 -45.78  0.001226957    2.000    0.500
        39  -8.4074    209.1329    238.1647   7.9787722760e+01  -2.7452131598e+00     0.146712     0.129371  -1.55 0.0006450525    1.336    0.251
        40  -8.7246     25.1390    236.4745   1.1878732176e+02   2.0772250984e+01    0.2264898    0.1043379  70.88  0.001141016    2.279    0.561
        41  -9.7348    248.5273    242.2764   7.3609808162e+01  -7.6136756356e+00    0.3592712      0.18363 -35.31  0.001599177    1.892    0.472
        42 -10.0431    214.0514    232.4012   7.7982531938e+01  -2.5291761497e+00    0.4421645    0.3632436 -82.87  0.002455735    3.383    0.704
        43  -8.9545    203.2603    234.9580   8.0380020571e+01  -1.5805127818e+00     0.253124    0.1937286 -52.68  0.001042146    2.072    0.517
        44  -9.7818    175.6724    233.2349   8.5500632098e+01   2.2231338141e+00    0.4377167    0.2424362 -54.85  0.002159938    2.749    0.636
        45  -7.8997     57.9698    237.0000   1.1172674914e+02   1.7142603923e+01    0.2023784   0.06080419  29.65 0.0007976516    2.909    0.656
        46  -8.0853    170.1877    235.2851   8.6925128696e+01   2.6307290742e+00    0.1526777    0.1424378  31.37 0.0006114644    1.369    0.270
        47  -9.4122    108.6831    234.3483   1.0009769578e+02   1.1220188808e+01    0.3917969    0.2424303  53.44  0.001109331    1.815    0.449
        48  -8.4011     99.8128    234.4909   1.0211031032e+02   1.2386286696e+01    0.2344801    0.1644669  78.20 0.0009885405    1.944    0.485
        49  -8.8478     78.8095    234.5278   1.0685390576e+02   1.5107886717e+01    0.2374056    0.1537569  77.41 0.0009514093    1.951    0.487
        50  -8.1963    122.9438    234.0467   9.6873923123e+01   9.3238800516e+00    0.2013976    0.1420613  57.91 0.0008148036    1.768    0.434
        51  -8.5645     92.7436    232.2186   1.0345711348e+02   1.3762852865e+01    0.4329043    0.2054104  61.07  0.001680956    3.536    0.717
        52  -9.6627     68.5499    232.6833   1.0899394551e+02   1.6747275386e+01    0.4521248    0.1844709  57.25  0.001810007    3.178    0.685
        53  -8.8310    194.3053    232.7529   8.1739781180e+01  -1.3560471017e-01    0.1895358    0.1392661 -31.75 0.0006482393    1.405    0.288
        54  -7.9292    145.4751    233.4632   9.1858360208e+01   6.3051628174e+00    0.1923821    0.1417117  46.43  0.000740611    1.525    0.344
        55  -8.8275    140.3162    230.3656   9.2544555644e+01   7.5658849158e+00    0.3966836    0.1869066  48.37  0.001685468    2.755    0.637
        56  -8.5090    132.6034    232.8385   9.4578288952e+01   8.2033077604e+00    0.2121064     0.167064 -77.62 0.0008876966    1.833    0.454
        57  -9.4796    186.3491    230.5462   8.2949260233e+01   1.2290767928e+00    0.3054624    0.2373132 -66.70  0.001386531    2.382    0.580
        58  -7.9732    157.9566    231.9922   8.8982129351e+01   4.8293123373e+00    0.1825206    0.1498474  55.62 0.0006170899    1.666    0.400
        59  -9.0062    236.0043    230.4622   7.3819459665e+01  -4.7987058608e+00    0.2371981    0.1358483 -30.31 0.0005471251    1.542    0.352
        60  -8.9592      1.7255    230.8605   1.2339060446e+02   2.4042356184e+01    0.2203913    0.1161908  68.64 0.0009742993    1.636    0.389
        61 -10.0030    149.5102    225.9637   8.9904043245e+01   7.0458149676e+00    0.5433997    0.3649629 -85.59  0.002347308    3.697    0.729
        62  -8.2051    229.5987    228.8355   7.4652261002e+01  -3.8602348996e+00    0.1477223   0.09840465 -37.73 0.0005430261    1.667    0.400
        63  -8.6583    162.5139    228.0932   8.7440050694e+01   4.8521898325e+00    0.2861872    0.1608496  45.08  0.001381104    2.097    0.523
        64  -9.0100    127.8533    227.3262   9.4888573656e+01   9.8739262735e+00    0.3044784    0.2080396  57.41  0.001096357    1.891    0.471
        65  -8.4490    120.0016    227.9185   9.6738678624e+01   1.0869125408e+01    0.2079418    0.1451804  57.56  0.001117106    1.752    0.429
        66  -7.8215    223.3893    227.2084   7.5473604049e+01  -2.9156679518e+00    0.1511493    0.1008964 -38.99 0.0005863687    1.688    0.407
        67  -8.7061    206.0726    225.8861   7.8408377116e+01  -6.1106612427e-01    0.2787483    0.1631946 -37.13  0.001427343    1.711    0.415
        68  -8.0811    200.1964    226.2210   7.9572431071e+01   8.7361599014e-02    0.1498712    0.1383852  -2.20 0.0006266931    1.359    0.264
        69  -9.0484     94.2395    224.4770   1.0223583964e+02   1.5098506334e+01    0.4374552    0.2085233  55.78  0.001810794    2.792    0.642
        70  -8.0376     49.0000    225.9880   1.1285268862e+02   2.0415178701e+01    0.1849509   0.06873389 -71.78  0.000575244    2.886    0.653
        71  -9.0570    180.6630    224.2703   8.3096872212e+01   2.9797454231e+00    0.2566762    0.2200173  67.65 0.0009772065    1.962    0.490
        72  -8.9772    104.5944    223.6243   9.9723625948e+01   1.3851818285e+01    0.3270698    0.2251125  67.03  0.001680698    1.892    0.472
        73  -7.4441     72.2995    225.3739   1.0743972005e+02   1.7773652894e+01    0.1256779   0.09590493 -24.72 0.0007028395    1.749    0.428
        74  -8.0508     38.7189    225.1000   1.1511114554e+02   2.1724288031e+01    0.2315925   0.08744469  58.16  0.000956088    2.905    0.656
        75  -8.8362    216.3860    223.5754   7.6132386934e+01  -1.5589523119e+00    0.2104102    0.1939723 -27.95 0.0008603995    1.539    0.350
        76  -8.6655    173.0856    223.3501   8.4500092814e+01   4.1734917270e+00    0.2174813    0.1848322 -42.86 0.0005877207    1.430    0.301
        77  -7.9970    113.9365    223.9995   9.7610540131e+01   1.2472004184e+01    0.2016605     0.147189  59.98  0.000652192    1.642    0.391
        78  -7.2646    233.2999    223.6725   7.3175466585e+01  -3.5837265919e+00   0.09683335   0.09066253 -20.98 0.0006056536    1.639    0.390
        79  -9.3995    160.3785    221.3334   8.6856491794e+01   6.3075410201e+00    0.5746742    0.2712632  51.19  0.002130992    3.929    0.745
        80  -8.4642      8.2873    234.6528   1.2220248289e+02   2.2711647199e+01    0.1244546   0.06266604  59.29 0.0007022544    1.655    0.396
        81  -8.9251    238.9539    221.5538   7.1872605150e+01  -3.9410686569e+00    0.1960086    0.1439314 -36.29 0.0007768674    1.575    0.365
        82  -9.3187    225.5023    221.7177   7.4201624888e+01  -2.3992100333e+00    0.2111534    0.1887969   6.02    0.0010253    1.399    0.285
        83  -9.3179    120.5817    219.3151   9.5446290108e+01   1.2437608578e+01    0.4636655    0.2535593  58.98  0.001909461    2.976    0.664
        84  -8.9677     82.8038    220.3774   1.0445332621e+02   1.7463118016e+01    0.3301434    0.1929006  70.68  0.001245224    2.386    0.581
        85  -8.0921     73.1688    220.7643   1.0677069521e+02   1.8625293277e+01    0.2229738    0.1083538  61.11 0.0008161512    2.712    0.631
        86  -7.8305     27.5767    221.2510   1.1735461197e+02   2.3682659848e+01    0.1608886    0.1048143 -66.76  0.000951092    1.629    0.386
        87  -8.2652    210.0543    219.4247   7.6605292823e+01  -1.5787625041e-01    0.1856679    0.1379352 -24.40 0.0005477064    1.235    0.190
        88  -7.9689    202.7238    220.1643   7.8102161476e+01   6.7645928168e-01    0.1703957     0.146941 -34.63 0.0006870228    1.435    0.303
        89  -7.7064    131.3433    220.3181   9.3119353025e+01   1.0687890789e+01    0.1379516   0.09704883  -5.10 0.0007049115    1.718    0.418
        90  -8.7722    248.7945    218.1414   6.9696842871e+01  -4.5812604223e+00    0.2464595    0.1999277  58.51  0.001541448    2.895    0.655
        91  -9.3687    192.4070    221.4635   8.0305385368e+01   1.8388785964e+00     0.238337    0.2329074  84.43  0.001071363    1.618    0.382
        92  -9.3357    132.9838    216.3213   9.2162725794e+01   1.1209724759e+01    0.4844136    0.3006336  68.94  0.001979524    3.368    0.703
        93  -8.7913    179.4725    217.5143   8.2248093352e+01   4.2496500422e+00    0.2104975    0.1242262 -54.16   0.00103211    2.402    0.584
        94  -8.3131     61.8411    217.1081   1.0908907429e+02   2.0806363337e+01    0.3017381    0.1646925  66.94  0.001415792    2.211    0.548
        95  -8.8534     51.4924    217.1573   1.1154240262e+02   2.2013239824e+01    0.2532827    0.1608939  83.27 0.0008539399    1.722    0.419
        96  -8.7162    169.2921    216.0016   8.4114701335e+01   5.9525821672e+00    0.2726755    0.2191599 -79.95 0.0009748057    2.195    0.544
        97  -8.6899    142.9253    216.7192   8.9970369561e+01   9.6716990666e+00    0.2584201    0.2179533  79.61  0.001490425    1.711    0.416
        98  -8.4407    111.8648    217.2659   9.7199723839e+01   1.4096474736e+01    0.2266126    0.1271228  61.01 0.0009426709    2.778    0.640
        99  -9.9372    149.6749    214.4716   8.8116401631e+01   9.0924077080e+00     0.240099     0.233868 -24.11 0.0004629938    1.225    0.184
       100  -8.9441    147.7950    210.5469   8.7914767500e+01   1.0103122783e+01    0.2827909    0.2163834  60.51  0.001369356    1.809    0.447
       101  -8.6688     18.5267    216.0104   1.1906840503e+02   2.5675369600e+01    0.1782371    0.1079312 -84.83 0.0008219933    1.585    0.369
       102  -8.8009    232.1643    214.5493   7.1849201493e+01  -2.1847224968e+00    0.2408341    0.1656972 -42.15  0.000950482    1.754    0.430
       103  -8.3023    154.2265    215.1990   8.7226752564e+01   8.2881737424e+00    0.1713223    0.1542398  50.32 0.0004065926    1.368    0.269
       104  -9.0522     93.2738    214.1394   1.0122076590e+02   1.7359347884e+01    0.3954171    0.2123501  55.54  0.001359864    2.235    0.553
       105  -7.7431     41.7500    215.7703   1.1371556517e+02   2.3399040767e+01    0.2054518   0.06781454  39.44 0.0005139582    2.402    0.584
       106  -9.3376    213.8705    212.3615   7.4711867408e+01   4.1216341914e-01    0.2880546    0.2558625  50.64  0.001606781    1.795    0.443
       107  -8.2500    185.4976    214.1166   8.0463008436e+01   3.9670465816e+00    0.1809347    0.1195366 -37.87 0.0006322818    1.538    0.350
       108  -9.5032     72.8029    211.6543   1.0589166522e+02   2.0624245220e+01    0.6314659    0.2606196  57.12  0.002289407    3.456    0.711
       109  -8.8204    161.7413    212.3003   8.5124091647e+01   7.7036003699e+00    0.2402832    0.2158511 -59.34 0.0008562424    1.462    0.316
       110  -8.1061    106.4157    213.1551   9.7938549332e+01   1.5714182393e+01    0.1728946    0.1317808 -81.72 0.0009332969    1.666    0.400
       111  -8.0120    224.4943    212.2727   7.2791653862e+01  -9.2272939847e-01    0.1526763    0.1053611 -40.20 0.0009339461    1.621    0.383
       112  -9.4460      5.5032    207.5088   1.2154721770e+02   2.8671290576e+01    0.3194792    0.1100461  61.75  0.001356608    2.888    0.654
       113  -8.9111    204.1532    210.7567   7.6246057844e+01   1.9420345413e+00    0.2331756    0.1853763 -33.00 0.0006470465    1.332    0.249
       114  -8.3659    192.2864    210.5854   7.8512251843e+01   3.5968796102e+00    0.2064847    0.1487515 -46.55 0.0006692656    1.670    0.401
       115  -9.3612    175.2679    209.9567   8.1861089302e+01   6.1321118132e+00    0.3012521    0.2507176  76.83  0.001459565    2.080    0.519
       116  -8.9464    116.0603    209.9811   9.5192632044e+01   1.4963545216e+01    0.3366248    0.2506772  81.50  0.001071496    1.913    0.477
       117  -8.2385     32.9166    210.8130   1.1541229057e+02   2.5418281988e+01    0.2273467    0.1014185  51.30  0.001072077    2.040    0.510
       118  -9.1538    236.5730    208.4862   7.0070571275e+01  -1.8541521789e+00      0.28274    0.2226254 -53.76  0.001441844    2.129    0.530
       119  -8.3967     85.4829    209.4455   1.0253652837e+02   1.9429562400e+01    0.2906144    0.1672362  75.75  0.001225705    2.741    0.635
       120  -9.3483    246.4783    207.3251   6.8247015301e+01  -2.8580406951e+00    0.2547094     0.167381 -30.80 0.0006037319    1.334    0.250
       121  -8.6829    139.1485    208.1078   8.9492534932e+01   1.1874861613e+01    0.2767444    0.2036903  75.58 0.0009526447    2.251    0.556
       122  -9.3472     99.6713    206.6683   9.8697221199e+01   1.8045749348e+01     0.465923    0.2841832  77.91   0.00197465    2.772    0.639
       123  -8.1152     46.3906    209.2016   1.1206695216e+02   2.4340251552e+01    0.1811015    0.1117095  85.28 0.0009243138    1.751    0.429
       124  -7.8383    156.4333    208.1762   8.5607220667e+01   9.2454121212e+00    0.1698921     0.132209 -60.12 0.0006984385    1.686    0.407
       125  -8.4344    126.0965    207.9168   9.2505552172e+01   1.3886468607e+01    0.2550892    0.1756679  89.44  0.001165445    2.530    0.605
       126  -8.9716     56.3354    205.4690   1.0928869281e+02   2.4035174015e+01    0.2952859    0.1628642  58.17  0.000899644    1.900    0.474
       127  -8.9647    183.8146    203.8918   7.9057067370e+01   5.9295537405e+00    0.2773942    0.2337805  61.10  0.001049882    1.811    0.448
       128  -8.0677    176.0005    204.8435   8.0836376803e+01   6.9160967727e+00    0.2277474    0.1380021   6.69 0.0008448536    2.021    0.505
       129  -8.7710    131.1400    203.7942   9.0677476118e+01   1.3951176017e+01     0.286313    0.2205572  85.85  0.001029395    1.952    0.488
       130  -8.1215    109.0226    205.0551   9.6183824657e+01   1.7027780016e+01    0.2130338    0.1591895  65.66 0.0007043783    1.643    0.391
       131  -9.4479    194.8871    203.5504   7.6781466236e+01   4.3875115422e+00    0.4215293    0.2743873 -22.07  0.001565216    1.490    0.329
       132  -9.1286    192.3676    197.5361   7.6209621633e+01   5.7620823785e+00     0.303074     0.272326  84.73 0.0008293149    1.815    0.449
       133  -9.5995    163.6306    202.8724   8.3137921634e+01   9.1325901149e+00    0.3710405     0.274935  55.76  0.001098407    1.875    0.467
       134  -9.3153    250.1277    202.0723   6.6763746976e+01  -2.5534998542e+00    0.3360015    0.1415848 -36.23  0.001176584    2.013    0.503
       135  -9.9581    246.0186    194.0824   6.6016446776e+01  -9.3856886741e-01    0.3957876    0.2805097 -62.43   0.00206774    3.279    0.695
       136  -7.7814     41.6972    203.1849   1.1268791446e+02   2.6214451767e+01    0.2733815    0.1077571  60.12  0.001031535    3.184    0.686
       137  -9.1456    243.0468    200.7926   6.7672153285e+01  -1.5381158579e+00    0.2881919      0.14329 -37.32  0.001018869    1.793    0.442
       138  -8.9794    140.3009    200.9659   8.8073891305e+01   1.3101841099e+01    0.3169658    0.2368763  86.32  0.001127447    2.249    0.555
       139  -8.6089     80.0061    201.2366   1.0288985803e+02   2.1984802985e+01    0.3277693    0.1971243  71.34  0.001233497    2.258    0.557
       140  -8.2208     72.7713    201.9951   1.0480663066e+02   2.2773981546e+01    0.1719376    0.1114735 -67.17 0.0005072311    1.635    0.388
       141  -7.8097     10.2999    202.6436   1.2018874165e+02   2.9356916647e+01    0.1349137   0.07142799  61.03 0.0007036834    1.706    0.414
       142  -8.1861    221.7162    201.1592   7.1350879948e+01   1.0905851813e+00    0.1786453    0.1415314 -39.99 0.0005906964    1.484    0.326
       143  -9.1290    237.0279    198.4356   6.8244853509e+01  -4.6178565112e-01    0.3006025    0.1547518 -40.79  0.001058085    1.906    0.475
       144  -9.3803    149.4364    198.5480   8.5563125513e+01   1.2150049708e+01    0.4145373     0.302693  86.23  0.001306708    2.600    0.615
       145  -8.9146    123.9325    199.2557   9.1682690312e+01   1.5992626040e+01    0.3150349    0.2429395  87.96  0.001609221    1.850    0.460
       146  -9.3590    112.9395    198.4642   9.4248188495e+01   1.7846007879e+01     0.474385    0.2741659  60.78   0.00195231    2.607    0.616
       147  -9.2902     88.6628    198.5776   1.0035479398e+02   2.1387356277e+01    0.4145521    0.2670777  81.70  0.001431411    2.192    0.544
       148  -8.6653    176.9717    198.8812   7.9590526185e+01   7.8265217969e+00    0.2164047    0.1983269 -48.71 0.0005310792    1.374    0.272
       149  -8.3071    202.2780    198.0660   7.4375115376e+01   4.2402900477e+00    0.2110987    0.1705626  61.48  0.001053186    2.094    0.522
       150  -9.1491     61.4061    197.1217   1.0713916769e+02   2.5332119637e+01    0.4209937     0.223594  64.32  0.001474092    2.336    0.572
       151  -8.6456    215.9744    195.7956   7.1419790651e+01   2.6927726418e+00    0.2619597    0.1640484 -52.71  0.001119775    2.344    0.573
       152  -7.6566     29.3556    197.6792   1.1527863244e+02   2.8755059767e+01    0.1431058   0.07812384  58.20 0.0007045973    1.758    0.431
       153  -8.5751     12.3539    196.9402   1.1936982335e+02   3.0479877242e+01    0.2448572    0.1010669  88.74   0.00108023    2.502    0.600
       154  -8.2611    133.0000    195.8022   8.8941235817e+01   1.5291945799e+01    0.2365631    0.1864609 -72.90 0.0008910353    1.666    0.400
       155  -7.9262     53.2999    196.6358   1.0915978099e+02   2.6419450419e+01    0.1453246   0.08900342  63.03  0.000703432    1.725    0.420
       156  -8.3046     35.4048    196.2757   1.1365862516e+02   2.8473143675e+01    0.1796175    0.1133987  86.96 0.0009445838    1.601    0.375
       157  -8.6801    224.4025    193.8417   6.9570852599e+01   1.8574035338e+00    0.2627996     0.163178 -49.78 0.0009126386    2.155    0.536
       158  -8.8970    185.0981    194.8389   7.7185320842e+01   7.3122840686e+00    0.2310891    0.2114291 -54.65 0.0006376957    1.448    0.309
       159  -8.9050    161.1025    194.3731   8.2210552997e+01   1.1117113602e+01    0.2858719    0.2373096  88.81  0.001012692    1.896    0.473
       160  -7.8715    231.0000    194.4894   6.8553319731e+01   8.8995708043e-01     0.162046    0.1118912  26.57 0.0004328632    1.496    0.331
       161  -8.6319     77.0738    193.9445   1.0272057689e+02   2.4043701922e+01    0.2508112    0.2028238  65.12  0.000742214    1.270    0.213
       162  -8.8997     43.5869    193.3017   1.1131511535e+02   2.8301828034e+01    0.3879523    0.2017908  68.23  0.001730009    2.260    0.557
       163  -8.2659    211.1025    202.1880   7.3452339380e+01   2.3492618283e+00    0.2099962    0.1625786 -58.99 0.0007295571    2.106    0.525
       164  -8.3816    198.8518    192.0245   7.3936862754e+01   5.7435928243e+00    0.1860877    0.1728773 -38.31 0.0006257044    1.358    0.264
       165  -8.4820    178.9920    191.5550   7.7847690226e+01   8.8342391531e+00    0.2125679    0.1802937 -61.02 0.0006131946    1.600    0.375
       166  -8.2759    172.3469    191.9623   7.9327077067e+01   9.7975284631e+00    0.2283247    0.1910863  56.49   0.00128268    1.602    0.376
       167  -9.0465    139.4328    190.4714   8.6500507868e+01   1.5362241701e+01     0.361202    0.2765893  85.27  0.001221167    2.060    0.515
       168  -7.6690    205.2689    191.6503   7.2641956731e+01   4.8698720664e+00    0.1148804    0.1031272 -59.92 0.0003719176    1.622    0.384
       169 -10.4697     92.2496    188.8514   9.8069465101e+01   2.3082526609e+01     0.969393    0.2615719  43.26   0.00298935    3.735    0.732
       170  -8.7048     21.0434    191.0300   1.1684547064e+02   3.1092680101e+01     0.346056    0.1340924  57.35  0.001431637    2.706    0.631
       171  -8.6517    148.2883    189.3731   8.4226695070e+01   1.4150739433e+01    0.2161894     0.174451 -72.72 0.0007181209    1.700    0.412
       172  -8.8655    129.5506    188.8441   8.8601781294e+01   1.7298599867e+01     0.339551    0.2384768  64.93  0.001172922    2.033    0.508
       173  -9.7832    248.6131    186.2478   6.4212316261e+01  -1.2672002103e-01    0.3797865    0.2072036 -21.22  0.002086444    1.720    0.419
       174  -8.4368    237.2185    188.4962   6.6435867561e+01   9.8477032295e-01    0.2204827    0.1382296 -31.97 0.0005497357    1.349    0.259
       175  -8.8887    216.5905    187.9532   6.9876714102e+01   3.8570111917e+00    0.2648548    0.2004624 -47.40 0.0008596207    1.616    0.381
       176  -8.8366    191.6153    187.6467   7.4547481237e+01   7.5839034617e+00    0.2846758      0.22021 -62.55  0.001100896    1.943    0.485
       177  -9.2513    155.9811    187.7616   8.2169804608e+01   1.3220608832e+01    0.3240034    0.2259503 -59.42 0.0008840782    1.834    0.455
       178  -9.7559    120.7656    186.5186   9.0381949715e+01   1.9213403805e+01    0.5401368    0.3183083 -75.35  0.002116484    2.913    0.657
       179  -8.7814     34.0581    187.7510   1.1326101312e+02   3.0624080583e+01    0.3567076    0.1759708  76.74  0.001298891    2.440    0.590
       180  -8.2759     48.8426    202.6989   1.1087806112e+02   2.5534164631e+01    0.2688312     0.144805  68.54  0.001237739    2.159    0.537
       181  -9.1252     54.7574    186.9295   1.0773729998e+02   2.8541792105e+01    0.4614332    0.2375222  65.51  0.001661588    2.483    0.597
       182  -7.9887    230.4334    187.2740   6.7341857241e+01   2.0625492938e+00    0.1660556     0.104563 -41.92 0.0009230316    1.626    0.385
       183  -8.7297    164.7126    186.7888   8.0036530544e+01   1.1991481818e+01    0.2397878    0.2093734  83.49 0.0006341857    1.667    0.400
       184  -9.2420    109.5765    186.1377   9.3159092405e+01   2.1072109219e+01     0.380789    0.2609693  67.03  0.001044395    1.992    0.498
       185  -8.4727    210.2348    184.4494   7.0379436724e+01   5.3411512764e+00    0.2270193    0.1543287 -33.55 0.0005332875    1.332    0.249
       186  -8.4069    202.8099    184.6986   7.1815273905e+01   6.3978347101e+00    0.2118612    0.1690422 -62.75 0.0007136008    1.912    0.477
       187  -8.7725    182.9676    184.7902   7.5764671501e+01   9.4392280742e+00    0.2332411    0.1826179 -36.79 0.0006645785    1.268    0.211
       188  -9.1256     66.4106    184.4524   1.0432594656e+02   2.7690697670e+01    0.3730842    0.2256706  67.90  0.001150463    2.029    0.507
       189  -8.0962     11.8705    185.2439   1.1874696877e+02   3.3249680727e+01    0.2384892   0.08520445  57.12 0.0009515717    2.909    0.656
       190  -8.5132    224.0403    183.5764   6.7751877404e+01   3.5118863171e+00    0.2230792    0.1560264 -42.99 0.0005371544    1.533    0.348
       191  -8.9846    174.1713    183.5170   7.7370618745e+01   1.1081627961e+01    0.2599949    0.2196911 -59.51 0.0008263666    1.520    0.342
       192  -8.2135      1.7855    183.7707   1.2117588963e+02   3.4376938309e+01    0.1781215    0.1172475  58.65  0.001048427    1.357    0.263
       193  -8.3014    196.6846    183.3387   7.2737774351e+01   7.5599666227e+00    0.1802472    0.1617317 -82.18 0.0009023156    1.724    0.420
       194  -9.0173     44.3236    182.3346   1.1002510676e+02   3.0847245800e+01    0.3514599    0.2169445  67.48  0.001077237    1.741    0.426
       195  -9.2344    147.5503    180.7628   8.2829194084e+01   1.6025360280e+01    0.3356586    0.2687493  80.50  0.001130913    1.870    0.465
       196  -9.5218     25.8697    179.4092   1.1468040601e+02   3.3432359091e+01    0.6753168     0.260654  72.59  0.002285755    4.013    0.751
       197  -7.7618    240.4783    180.4725   6.4443078890e+01   1.7660580649e+00    0.1245853   0.09624404 -16.29 0.0004146328    1.040    0.039
       198  -8.6366    137.6871    179.3179   8.4922016883e+01   1.7984647259e+01    0.2976793    0.2286681  68.42  0.001082067    1.809    0.447
       199  -8.8873    205.0175    177.5267   7.0033249883e+01   7.2873796805e+00    0.3151513     0.163856 -44.50 0.0009061415    1.947    0.486
       200  -9.3590    191.3755    178.3030   7.2820496014e+01   9.2781341128e+00    0.2656499    0.2487951  53.39 0.0005424454    1.403    0.287
       201  -8.3376    169.3127    178.6492   7.7490538596e+01   1.2805354537e+01    0.2404088    0.2072573  79.65 0.0009183062    1.697    0.411
       202  -9.1114     36.1369    177.1555   1.1170925464e+02   3.2983122067e+01    0.5434558    0.2321088  75.10   0.00188293    3.699    0.730
       203  -9.5653    248.5104    176.6005   6.2476756175e+01   1.3000861169e+00    0.4157484    0.2222367 -43.69   0.00165264    1.897    0.473
       204  -8.5221    250.5089    172.8363   6.1482053174e+01   1.5995938199e+00    0.2045704    0.1193336 -34.61 0.0006491406    1.402    0.287
       205  -8.4977    129.3856    177.4716   8.6630989093e+01   1.9777371123e+01    0.3140368    0.2171097  73.80 0.0009222487    2.398    0.583
       206  -8.1002     97.2502    177.8106   9.5043930298e+01   2.4899858126e+01    0.2037984    0.1703637 -14.04  0.001064659    1.377    0.274
       207  -8.4831    231.0964    176.7622   6.5280936831e+01   3.6045583838e+00    0.2104411    0.1468634 -38.77 0.0005772036    1.374    0.272
       208  -8.2241    217.3184    177.0687   6.7702807123e+01   5.5221180938e+00    0.1846935    0.1423343 -32.12 0.0004834525    1.190    0.160
       209  -8.9417    183.1076    176.1454   7.4077448462e+01   1.1003562178e+01    0.2824061    0.2162178 -52.52 0.0006256756    1.551    0.355
       210  -8.5121     88.8148    176.7531   9.7156601279e+01   2.6425528153e+01    0.2676023    0.2002832 -84.24 0.0006008325    1.576    0.366
       211  -9.9993     57.3745    173.3369   1.0539194407e+02   3.1541973937e+01    0.8725566    0.4043764  75.72  0.002687098    4.519    0.779
       212  -9.2506     12.6844    176.1100   1.1790524945e+02   3.5375080519e+01    0.4346856    0.1806064  72.26  0.001768214    2.814    0.645
       213  -7.6702    211.6954    176.3685   6.8577719443e+01   6.4722382959e+00    0.1216707    0.1037688 -65.25 0.0007034578    1.749    0.428
       214  -9.1435    159.0446    175.2509   7.9119497890e+01   1.5203313969e+01    0.3635162    0.2723591  78.41  0.001237164    2.325    0.570
       215  -9.4216    104.4086    174.8939   9.2641231993e+01   2.4461947351e+01     0.542406    0.2879726  56.77  0.001891146    2.669    0.625
       216 -10.6506     76.0477    169.4678   9.9576861870e+01   3.0041519603e+01     1.473017    0.5684437 -69.12  0.004711142    3.259    0.693
       217  -9.5241     81.6980    154.7553   9.5523745990e+01   3.2877120691e+01    0.5208554     0.347152  80.70  0.001338551    2.108    0.526
       218  -8.2719    224.5002    174.1027   6.5887787260e+01   4.9606398441e+00    0.1927398    0.1094057 -37.33 0.0005820461    1.553    0.356
       219  -9.5440    175.7348    172.0885   7.4824198773e+01   1.2991411769e+01    0.4064555    0.2199242 -45.66  0.001370331    1.869    0.465
       220  -8.7877    143.1768    173.0448   8.2409353271e+01   1.8382658881e+01    0.2704613    0.1855797  60.09  0.000821379    2.023    0.506
       221  -7.8931    194.4544    172.4813   7.1075904865e+01   9.8294656561e+00    0.1382152    0.1181877 -11.59  0.000119282    1.035    0.033
       222  -8.7847    134.8037    171.5802   8.4178185339e+01   2.0141778067e+01    0.2694314    0.1994384 -71.90 0.0008737686    1.814    0.449
       223  -9.4853    121.3977    170.4727   8.7373010584e+01   2.2681923199e+01    0.3838518    0.2808276 -84.00  0.001070368    1.972    0.493
       224  -8.9935     45.1113    171.0944   1.0856935831e+02   3.3531125061e+01    0.3839217    0.2166087  78.69  0.001178723    2.172    0.540
       225  -8.4519    205.8243    170.4499   6.8505790580e+01   8.3804803825e+00    0.2541368    0.1631927 -51.78 0.0007786654    1.910    0.477
       226  -8.9744    230.5659    169.5618   6.4003046122e+01   4.8166312635e+00    0.2751214    0.1763429 -43.68  0.001548581    1.576    0.366
       227  -8.2828    198.5048    170.1831   6.9835833009e+01   9.5881456151e+00    0.1924413    0.1891605 -74.24 0.0006292247    1.347    0.258
       228  -8.5810    149.8279    169.5820   8.0144966420e+01   1.7956964158e+01    0.2641504    0.1986824 -70.24 0.0007112843    1.840    0.457
       229  -8.2752    244.2276    169.2255   6.1765347716e+01   2.9705950868e+00    0.1579202    0.1280171 -40.28 0.0005712528    1.349    0.259
       230  -8.2008    237.1004    169.3351   6.2901589853e+01   3.9302694326e+00    0.1676221     0.141393 -19.76  0.000648339    1.086    0.079
       231  -8.4222    218.8963    168.4048   6.5754538911e+01   6.7178779950e+00    0.2123117    0.1588284 -39.48 0.0006453919    1.304    0.233
       232  -9.1432    167.0898    168.6302   7.6008011845e+01   1.5142414056e+01    0.2887059     0.234486  67.75 0.0008428191    1.737    0.424
       233  -8.0963     88.7603    168.8337   9.5898888400e+01   2.8339813751e+01    0.2068026    0.1662921  67.69 0.0006071318    1.388    0.279
       234  -8.6616    111.5068    167.4689   8.9423145332e+01   2.5035652225e+01    0.3235561    0.2157167  72.31 0.0008955279    2.345    0.574
       235  -8.7503    191.9182    166.6720   7.0418327492e+01   1.1294833060e+01    0.2543423    0.1839988 -42.55 0.0005397002    1.373    0.272
       236  -8.6541    185.0854    166.6443   7.1784696929e+01   1.2443171046e+01    0.2378013    0.1773726 -46.40  0.000612061    1.410    0.291
       237 -10.0106     95.0802    162.9471   9.3115953541e+01   2.8788654278e+01    0.8758512    0.4677995  68.88  0.002649752    4.371    0.771
       238  -9.0713     20.2982    166.0955   1.1503585571e+02   3.7212200008e+01    0.3416381    0.1460395  59.28  0.001255661    2.664    0.625
       239  -8.3624    140.6410    166.3099   8.1708640328e+01   2.0267034194e+01    0.2668762    0.1693768  49.88 0.0008200729    1.798    0.444
       240  -9.6412    135.6603    163.9404   8.2471151984e+01   2.1664838231e+01    0.4181097    0.2851387  56.71 0.0008119277    1.845    0.458
       241  -8.2413    233.8156    165.0867   6.2615707588e+01   5.0613653025e+00    0.1873876    0.1466598 -39.19 0.0006181368    1.280    0.219
       242  -8.6959    159.6335    164.4646   7.6837980059e+01   1.7287311551e+01    0.2643794    0.2191788 -79.71 0.0008762705    1.691    0.409
       243  -9.8442     33.6183    163.4791   1.1099217834e+02   3.6648538980e+01    0.6205437    0.2149451  49.42  0.002227712    3.213    0.689
       244  -9.2764    246.0260    163.0402   6.0326728617e+01   3.6679303861e+00    0.4233754     0.320755 -77.78  0.002298906    2.849    0.649
       245  -8.8414    242.0238    154.5278   5.9299454308e+01   5.5417910038e+00    0.4110261    0.2728836  76.55  0.001740144    4.598    0.782
       246  -8.7290    245.2845    158.6780   5.9608677128e+01   4.4378583433e+00    0.1940965    0.1315539 -33.13 0.0005287289    1.205    0.170
       247  -9.7898    250.1506    157.7927   5.8723189104e+01   3.9004694603e+00    0.3102166    0.1514712 -38.03 0.0007467149    1.678    0.404
       248  -8.9440    246.5639    155.5278   5.8816381965e+01   4.7424367439e+00    0.1925916     0.157119 -24.97 0.0005667275    1.039    0.038
       249  -8.1919    240.0176    164.2886   6.1482594206e+01   4.3075617745e+00    0.1692308    0.1401524 -18.15 0.0004927188    1.047    0.045
       250  -8.3028    212.9734    163.5129   6.5832782267e+01   8.4505592764e+00    0.2410006    0.1640307 -46.95 0.0008787518    1.569    0.363
       251  -9.1178     60.3137    160.8223   1.0283732339e+02   3.4313913724e+01    0.3969345    0.3011358 -71.36  0.001912282    1.304    0.233
       252  -8.3991    204.8891    162.9010   6.7176975340e+01   9.8440667412e+00    0.2332012    0.1679823 -41.73 0.0005701414    1.353    0.261
       253  -9.2503      3.4730    162.4501   1.1940930235e+02   3.9401470692e+01    0.4081976    0.1738575  52.21  0.001611193    2.327    0.570
       254  -8.7795    151.5451    161.0149   7.8007769024e+01   1.9449397346e+01    0.3340088     0.252535 -77.40 0.0009738994    1.982    0.495
       255  -9.0275    177.5023    160.7093   7.2142250205e+01   1.4876248407e+01    0.2588542    0.2461221 -31.72  0.000759207    1.142    0.125
       256  -8.4419    227.2692    158.9481   6.2483451348e+01   7.0110759699e+00    0.2564059    0.1483496 -45.77 0.0009674018    1.755    0.430
       257  -8.4187    128.1349    159.2254   8.3439475926e+01   2.4054848735e+01    0.2719323    0.2016019 -85.27  0.000785312    2.004    0.501
       258  -8.3920    237.1721    159.1294   6.0934063600e+01   5.5195905659e+00    0.1691175    0.1350254 -44.77 0.0005398988    1.368    0.269
       259  -9.5645    105.8532    158.0346   8.9191167255e+01   2.8209337604e+01    0.4956852    0.3155902  65.10  0.001057114    2.299    0.565
       260  -8.2119    196.6478    158.0349   6.7737368707e+01   1.2074636927e+01    0.2084384    0.1940273  56.57 0.0008717767    1.354    0.261
       261  -8.1821    188.0663    158.0018   6.9410636212e+01   1.3548829985e+01    0.2036328    0.1740494 -76.41 0.0005438738    1.648    0.393
       262  -9.1588    167.6518    157.2500   7.3542073211e+01   1.7311277093e+01    0.3196838    0.2548219 -84.64  0.001079992    1.923    0.480
       263  -8.3090    217.9604    156.5130   6.3560172155e+01   8.8524298631e+00    0.2417922    0.1627842 -48.58 0.0007242314    1.615    0.381
       264  -8.9527    157.5275    156.1793   7.5599283822e+01   1.9371855261e+01    0.3160119    0.2372025 -71.97  0.001151564    1.911    0.477
       265  -9.3104    119.3969    155.1382   8.4913885602e+01   2.6546371167e+01    0.4421739    0.3016142 -77.30  0.001519588    2.151    0.535
       266  -9.1496     49.8146    155.2537   1.0518333060e+02   3.7011117869e+01    0.4296278    0.2280794  59.65  0.001462737    2.336    0.572
       267  -8.8622     34.3695    156.0943   1.0993914692e+02   3.8452874218e+01    0.3939673    0.1756955  31.76  0.001700417    2.186    0.543
       268  -7.6649    204.7128    155.3312   6.5668480118e+01   1.1205812093e+01    0.1276068    0.1058994 -64.63 0.0005363972    1.620    0.383
       269  -8.4376    144.5401    154.8494   7.8401652892e+01   2.2042086184e+01    0.2863871    0.1918245  56.10  0.001021427    1.876    0.467
       270  -9.4259     68.0212    153.9518   9.9476270077e+01   3.5042953835e+01    0.4462575    0.2591194  64.86  0.001315091    2.367    0.578
       271 -10.0759    133.0894    151.7264   8.0605764234e+01   2.4843003911e+01    0.7431085    0.3719591 -48.84  0.002038056    2.010    0.502
       272  -9.0238    151.6559    152.3091   7.6146845354e+01   2.1267025430e+01    0.3656982    0.1721495 -39.38  0.001408366    2.182    0.542
       273  -9.2757     20.0405    152.9547   1.1387397766e+02   4.0549086112e+01    0.2148351    0.1386232  62.84  0.000636166    1.591    0.372
       274  -8.7515     98.3051    150.8269   8.9929669319e+01   3.1214464344e+01    0.3390469    0.2421257  82.87 0.0009275595    1.986    0.497
       275  -9.5179     29.4230    150.8601   1.1082310128e+02   4.0267405851e+01    0.4801024    0.2392492  66.66  0.001925074    2.547    0.607
       276  -8.8692      2.9041    150.2709   1.1868242387e+02   4.2470169083e+01     0.497773    0.1765462 -88.96  0.001896811    2.975    0.664
       277  -9.0017    189.3729    150.0497   6.7477401136e+01   1.4805872540e+01    0.3156619    0.2155254 -61.58 0.0008455653    2.051    0.512
       278  -8.1533    182.2281    151.2320   6.9164472625e+01   1.5859637913e+01    0.1858536    0.1684731 -70.83 0.0006799179    1.377    0.274
       279  -8.3127    162.7827    150.7179   7.3231152222e+01   1.9525966717e+01    0.2632205    0.1931559 -70.97   0.00106144    1.993    0.498
       280  -9.4951    248.7823    149.3603   5.7309554045e+01   5.3746074093e+00    0.2573788    0.1603229 -33.84 0.0007024108    1.293    0.227
       281  -8.6948    243.1855    150.2036   5.8286796255e+01   6.0477641523e+00    0.1851845    0.1389319 -54.51 0.0008867077    1.653    0.395
       282  -8.7948    238.1908    150.0224   5.8999482735e+01   6.8099361884e+00    0.3241496    0.1498725  34.13  0.001528213    2.707    0.631
       283  -8.9509    233.7302    147.6075   5.9204492613e+01   7.8677467048e+00     0.249814    0.1578305 -39.36 0.0007106098    1.369    0.270
       284  -8.0735    212.8188    149.8008   6.3080776434e+01   1.0827926606e+01    0.1699595    0.1489425 -49.97  0.000309754    1.297    0.229
       285  -9.9905     39.8504    147.4470   1.0717821513e+02   4.0122255579e+01    0.6945243    0.3834331  85.13  0.002202453    2.289    0.563
       286  -8.6013    198.8580    149.0247   6.5438310205e+01   1.3328906297e+01    0.2049203    0.1776168 -56.74 0.0005542368    1.360    0.265
       287 -10.0460     89.0387    146.0954   9.1727156482e+01   3.3897049611e+01     0.706109    0.4237005  86.86  0.002466294    3.198    0.687
       288 -10.3535    106.7359    143.8753   8.6086225633e+01   3.1451435689e+01     0.850626    0.5790356 -75.90  0.002017126    2.002    0.501
       289 -10.5074     54.6446    144.5434   1.0209420886e+02   3.9193601373e+01    0.8843171    0.4461954  69.54  0.002772121    3.548    0.718
       290  -9.8135     56.2515    135.7509   1.0011135768e+02   4.1268560637e+01    0.5609645    0.2885708  -2.91   0.00175986    4.270    0.766
       291  -7.9190    223.3037    146.9238   6.0723178893e+01   9.6111048261e+00    0.1823994    0.1449019 -28.26 0.0003712742    1.070    0.066
       292 -10.3222    148.8365    144.6820   7.5151167090e+01   2.3422563578e+01    0.5891547    0.4080412 -73.17  0.001571158    2.248    0.555
       293 -10.7112    139.0529    143.3477   7.7261804942e+01   2.5584634895e+01    0.9682847    0.3132865 -47.40  0.002761455    3.072    0.674
       294  -8.8090     78.1657    147.1047   9.5207258127e+01   3.5329821802e+01    0.2874924    0.1795043  58.39 0.0006473934    1.975    0.494
       295  -9.6218     13.3752    146.1187   1.1521021527e+02   4.2809783990e+01    0.4325099    0.2395906  74.05   0.00191559    1.953    0.488
       296 -10.0108    241.5089    143.9164   5.7301571291e+01   7.2785188276e+00    0.4826529     0.284776 -10.00  0.002323897    2.478    0.596
       297  -7.7294    206.8046    146.5639   6.3467101407e+01   1.2401306800e+01    0.1569057    0.1332684  55.15 0.0005061046    1.468    0.319
       298  -8.1190    175.6569    146.3045   6.9463168365e+01   1.8015135786e+01    0.2092378    0.1724316 -81.42 0.0007404729    1.714    0.416
       299  -8.8272    165.8760    144.2756   7.1127345900e+01   2.0255486500e+01     0.323436    0.2367844  68.31  0.000969178    1.990    0.497
       300  -9.9956    124.5945    143.0525   8.0955265417e+01   2.8390435127e+01    0.5266256    0.4359992 -71.27  0.001577793    1.418    0.295
       301  -8.9846    246.9702    143.7161   5.6474179679e+01   6.5029678003e+00    0.2308082    0.1473823 -39.84 0.0006163611    1.330    0.248
       302  -8.0409    194.2242    144.1295   6.5268693361e+01   1.5038921261e+01    0.1852413    0.1605794 -57.57 0.0005735101    1.336    0.251
       303  -8.9252    182.2113    141.8383   6.7127693161e+01   1.7662592013e+01    0.2973503    0.2095525 -60.54  0.001007952    1.817    0.450
       304 -10.6529     69.7587    141.1662   9.6728800478e+01   3.8063809120e+01    0.9599348     0.539625  68.46  0.003472605    2.967    0.663
       305  -9.3500     69.7800    134.3930   9.5445840699e+01   3.9792404771e+01    0.3365434    0.1545861  18.55   0.00114252    3.082    0.676
       306  -9.3220      2.7673    141.8587   1.1805250845e+02   4.4598877008e+01    0.4432555    0.1966746  68.90  0.001867655    2.615    0.618
       307  -8.3251    250.4869    140.9800   5.5448980803e+01   6.4118704260e+00    0.1875476     0.098868 -36.93 0.0004635468    1.525    0.344
       308  -8.0275    238.5570    140.7655   5.7110474302e+01   8.2228269332e+00     0.179603    0.1015539 -44.52 0.0007515626    1.633    0.388
       309 -10.0501     23.2847    138.2010   1.1125542514e+02   4.4073390431e+01     0.559027    0.2660532  58.18  0.002117047    2.582    0.613
       310  -8.6481    172.3029    138.2576   6.8384780931e+01   2.0233267265e+01    0.2874201    0.2109872 -67.94   0.00076563    1.882    0.469
       311  -7.6907    218.5477    138.5395   5.9771402317e+01   1.1800611340e+01    0.1332757    0.1143499 -28.81  0.000147921    1.011    0.010
       312  -8.2119    207.3515    138.0262   6.1559935208e+01   1.3810582237e+01    0.1948919    0.1526473 -38.79 0.0005306426    1.160    0.138
       313  -8.7384    197.5236    137.4625   6.3203643166e+01   1.5664071919e+01    0.2572249    0.2060917 -58.67 0.0008026413    1.460    0.315
       314  -8.4348    162.3890    136.4895   7.0146397276e+01   2.2510726302e+01    0.2577162    0.2230386 -46.60 0.0007113916    1.164    0.141
       315 -10.4180     83.4304    133.2082   9.0839031563e+01   3.8016027678e+01     0.663361    0.4101178 -63.21  0.001496377    1.716    0.417
       316  -9.3633     39.2122    136.2014   1.0579399992e+02   4.3107914023e+01    0.2961391    0.2246785  72.22 0.0008393223    1.432    0.302
       317  -9.0289    248.4767    135.4127   5.4638338283e+01   7.5605991629e+00    0.2367169    0.1727664 -45.11 0.0007690572    1.300    0.231
       318  -8.0280    188.2077    135.9352   6.4630120945e+01   1.7662445752e+01    0.1945422    0.1061618 -41.26 0.0005536061    1.699    0.412
       319  -8.6026    151.2507    135.8561   7.2569551550e+01   2.4831353944e+01    0.2884821      0.19406  13.68  0.001154603    2.067    0.516
       320  -8.6905    179.7975    134.2691   6.5924719321e+01   1.9572816338e+01    0.2456627    0.1888002 -51.20 0.0007167789    1.359    0.264
       321  -7.9731    231.4962    133.9991   5.6794283301e+01   1.0420152297e+01    0.1958729    0.1085843 -38.79  0.000491882    1.521    0.343
       322  -8.9998    112.7250    133.2109   8.2022163665e+01   3.2901927088e+01    0.3519633    0.2654124  83.51 0.0009726344    1.889    0.471
       323  -8.3600    237.4012    133.2558   5.5770480609e+01   9.5967127945e+00    0.1852407   0.09998719 -44.97 0.0006607661    1.696    0.410
       324 -10.1890    132.3529    131.3876   7.6231346006e+01   2.9539816755e+01    0.5892084    0.4164739 -81.63  0.001003418    2.269    0.559
       325 -10.3721     98.0964    130.1672   8.5631895084e+01   3.6292702002e+01    0.7572606    0.3540065 -54.89  0.001859718    2.182    0.542
       326  -8.6759     98.7828    120.8213   8.3234724068e+01   3.8423004580e+01    0.3477668    0.2226557 -19.21  0.001341409    2.356    0.576
       327  -8.7985    250.7446    130.1483   5.3297626754e+01   8.0282842722e+00    0.3610938   0.09017948 -35.48  0.001281098    3.569    0.720
       328  -8.4395    246.9208    130.3902   5.3859182169e+01   8.5691367273e+00    0.2122154    0.1372325 -41.48 0.0006018604    1.309    0.236
       329 -10.0545     12.8418    128.9054   1.1359024946e+02   4.7265758058e+01    0.5904158    0.2971399  80.16  0.002477192    2.372    0.578
       330  -7.9250    204.6628    130.3744   6.0372277236e+01   1.5639791111e+01    0.1959985     0.154358 -66.47  0.001052312    1.618    0.382
       331  -8.0651    192.6825    130.2151   6.2499058434e+01   1.7884103044e+01    0.2172049    0.1633671 -51.01 0.0004982497    1.377    0.274
       332  -9.2387    168.4225    129.5738   6.7219732320e+01   2.2714581443e+01    0.3160351    0.2565314 -84.14 0.0007489902    1.678    0.404
       333  -9.4737    152.9485    128.6827   7.0483734529e+01   2.5999849605e+01    0.5073679    0.2442557 -50.10  0.001028596    2.204    0.546
       334  -9.8356     73.2062    129.2256   9.3296147181e+01   4.0605663955e+01    0.3954417    0.2956654  86.27  0.001087289    1.690    0.408
       335  -8.6669      1.6612    130.3194   1.1739552741e+02   4.7591850259e+01    0.2100414    0.1292233  61.67  0.001093821    1.719    0.418
       336  -9.4590    143.0945    131.6325   7.3558007273e+01   2.7352474100e+01    0.4154843    0.2885635 -59.36  0.001207383    1.676    0.403
       337  -8.1916    211.5249    129.0417   5.8912875126e+01   1.4640147170e+01     0.208102    0.1183949 -41.42 0.0009106796    1.564    0.361
       338  -8.1345    161.7522    129.6021   6.8687771260e+01   2.4039832442e+01    0.2048111    0.1429729  53.84 0.0006304777    1.620    0.383
       339 -10.7166     44.8352    123.7005   1.0185901948e+02   4.5752987285e+01     1.155795    0.6127127  75.68  0.004060136    3.393    0.705
       340 -10.4105     59.8498    124.9799   9.6908478280e+01   4.3580822205e+01    0.7084573    0.4227369  74.58  0.002410715    2.746    0.636
       341  -9.9596    117.7441    125.0891   7.8682950958e+01   3.3835706708e+01    0.5500507    0.3916177  80.13  0.001576149    2.226    0.551
       342  -8.1272    228.3926    125.2699   5.5451376449e+01   1.2352944911e+01    0.1872784    0.1046591 -44.59 0.0009424847    1.611    0.379
       343  -8.8581    179.2492    124.7400   6.3843461289e+01   2.1506832315e+01     0.279371    0.2265211 -79.34 0.0007457738    1.632    0.387
       344 -10.2860     28.3755    122.4072   1.0741921754e+02   4.7736620050e+01    0.7378535    0.3568653  69.21  0.002660381    3.373    0.704
       345  -7.7561    188.4915    123.9947   6.1874188926e+01   1.9833307014e+01    0.1962948    0.1163504 -59.84 0.0005889308    2.343    0.573
       346  -8.6466     84.0440    123.0016   8.8409618521e+01   4.0458575650e+01    0.2517976    0.1818701 -21.10  0.000738258    1.719    0.418
       347  -8.0238    194.9973    122.0217   6.0221346769e+01   1.8937668235e+01    0.2122695    0.1648033 -67.67 0.0004579042    1.616    0.381
       348  -8.5057    172.0761    121.6721   6.4581496252e+01   2.3534836599e+01     0.241453    0.1932282 -52.25 0.0005269157    1.286    0.222
       349  -8.9469    158.4737    121.4471   6.7469513663e+01   2.6361386231e+01    0.3284775    0.2416365 -62.37 0.0009586266    1.632    0.387
       350 -10.1038    141.6226    118.6995   7.0773240992e+01   3.0423359188e+01    0.4767885    0.3088209 -61.63  0.001317609    1.959    0.490
       351 -10.4081    130.4488    118.5439   7.3593838584e+01   3.2764220978e+01    0.5690682    0.4627427  88.23  0.002214214    1.614    0.380
       352 -10.4641    133.6347    109.1948   7.0352677722e+01   3.4114504211e+01    0.7301267    0.3513014 -46.46   0.00228502    2.081    0.519
       353  -7.7603    203.0267    121.9649   5.8794225559e+01   1.7425642942e+01    0.1650597    0.1463968 -33.99 0.0003684608    1.009    0.009
       354  -9.7220     71.1946    119.7462   9.1944418083e+01   4.3302829542e+01    0.4829659    0.3235134  82.35    0.0013691    2.280    0.561
       355  -9.7616      2.8058    117.1044   1.1570571384e+02   5.0896856811e+01    0.5616632    0.2443914  68.88  0.002196994    3.140    0.682
       356  -7.6053    231.5914    117.7842   5.3419082205e+01   1.3023204811e+01    0.1896651    0.1012051 -46.28 0.0008826948    1.718    0.418
       357  -8.6077    185.8195    116.1745   6.0558705734e+01   2.1804038604e+01    0.2141669      0.18575 -60.72 0.0005153257    1.238    0.192
       358  -9.8534    109.3100    114.3805   7.8447559651e+01   3.7944448375e+01    0.5036631    0.3599203 -85.68  0.001454201    2.191    0.544
       359  -8.8856     59.7696    115.1231   9.4906029971e+01   4.6107212657e+01    0.4199136    0.2403527   2.71  0.001586806    2.757    0.637
       360  -8.2624    192.9126    115.1702   5.9020974665e+01   2.0578041678e+01    0.2151197    0.1796333 -59.19  0.000584648    1.282    0.220
       361 -10.0531     92.7515    112.6434   8.3110284779e+01   4.1468977335e+01    0.4832128    0.3482718 -74.52  0.001215794    1.809    0.447
       362  -9.9223     79.0616    112.5587   8.7606609800e+01   4.3850582483e+01    0.5927057    0.4046417  87.17  0.001862994    2.343    0.573
       363  -8.7367     78.3285    105.3321   8.6057032073e+01   4.5724512525e+01    0.3428573    0.2350933 -14.42 0.0009531947    1.981    0.495
       364  -7.9504    167.4618    114.5110   6.3812813191e+01   2.5874318101e+01    0.1470956    0.1399998 -40.31 0.0001365065    1.024    0.023
       365  -8.7589     27.1017    113.6962   1.0651917768e+02   5.0101124277e+01    0.2445687    0.1761308  10.29  0.001028863    1.573    0.364
       366  -9.7198    121.9920    112.5747   7.4350089232e+01   3.5811247532e+01    0.3250625    0.2968955 -74.41  0.000692734    1.213    0.176
       367 -11.0852    248.8287    108.5406   4.9243046118e+01   1.1608538989e+01    0.7456393    0.2394766 -43.32  0.003147495    2.577    0.612
       368  -9.9073    249.3537    102.8099   4.8026299141e+01   1.2382271998e+01    0.3827478     0.175875 -29.21  0.001795255    2.269    0.559
       369  -8.6714    236.0000    112.0003   5.1601117731e+01   1.3194078038e+01    0.2186234   0.06165006 -37.81 0.0008041357    2.954    0.662
       370  -8.5168    174.7570    111.9275   6.1684583842e+01   2.4851435689e+01    0.2679965    0.1879002 -55.32 0.0006084255    1.547    0.354
       371  -8.4677    159.2118    111.6906   6.4888720565e+01   2.8160931637e+01    0.2602611    0.1928515 -51.16 0.0006203264    1.379    0.275
       372 -10.2743     66.4643    109.9728   9.1366811553e+01   4.6452365348e+01    0.6223335    0.3452826 -63.56  0.001866708    1.946    0.486
       373 -10.3154     13.6646    110.9734   1.1106125549e+02   5.1822524096e+01     0.459909     0.257472  59.34   0.00166857    2.207    0.547
       374  -9.1213     42.9735    109.4698   9.9856535723e+01   4.9622947913e+01    0.3617779    0.1462865  22.54  0.001356798    2.745    0.636
       375  -7.9679    189.3499    108.0962   5.7998019787e+01   2.2558695393e+01    0.2092372    0.1174979 -48.67 0.0005222356    1.774    0.436
       376  -8.9522    109.7637    107.3019   7.6461054221e+01   3.9462921230e+01    0.3855081    0.2395167  17.52   0.00146685    2.396    0.583
       377  -9.5501    139.8766    104.6124   6.7564861442e+01   3.3732346475e+01    0.4139237    0.2966852 -64.37  0.001292137    1.728    0.421
       378 -11.0721    108.6725     98.8354   7.4468182025e+01   4.1557923298e+01     1.337347    0.7421345  64.74  0.002529958    3.382    0.704
       379 -10.5825     45.5865    102.2389   9.7347388264e+01   5.1153901217e+01    0.8424765    0.4593318  66.26  0.002974396    3.528    0.717
       380 -10.6099     22.9751    102.7271   1.0624532787e+02   5.3251567990e+01    0.7951204    0.4282026  69.10  0.002541874    2.855    0.650
       381  -8.6279    166.6920    104.2087   6.1401984162e+01   2.8011739956e+01    0.3061139    0.2118929 -57.44 0.0007813168    1.619    0.382
       382  -9.6198    150.6430    103.1042   6.4605819802e+01   3.1698575587e+01     0.479895      0.30195 -63.38  0.001270609    2.180    0.541
       383  -8.7785     93.5598    104.7551   8.0801682329e+01   4.3174594205e+01    0.3659222    0.2167183  17.03  0.001322027    2.505    0.601
       384  -9.4050      6.4631    102.8793   1.1265852406e+02   5.4316298509e+01    0.2938209    0.1938325  71.68  0.001149927    1.749    0.428
       385  -7.6308    232.6561    103.3330   5.0228675784e+01   1.5128250612e+01    0.1322068   0.08919302 -62.77 0.0007050383    1.759    0.432
       386  -9.9832    128.6088    101.9068   6.9711880795e+01   3.6718942507e+01     0.415601    0.3151433 -67.40  0.001094234    1.625    0.385
       387  -7.7999    175.4285    102.1784   5.9147826298e+01   2.6522963419e+01    0.2082589    0.1284257 -50.06 0.0006417231    1.648    0.393
       388  -8.3933    159.7793    100.9434   6.2016722874e+01   3.0126459714e+01    0.2698331     0.193631 -58.20 0.0005491154    1.555    0.357
       389  -9.1221     82.1564    100.0759   8.3352724804e+01   4.6319624626e+01    0.3597615    0.2635344 -76.97  0.000957978    1.841    0.457
       390 -10.1299     63.7931     95.6626   8.8796177295e+01   5.0343632873e+01    0.6981189    0.3872208 -72.42  0.001893809    2.794    0.642
       391  -8.3843     63.9934     88.0066   8.6640025800e+01   5.2118105207e+01     0.427488     0.257538  -1.83  0.001639668    2.708    0.631
       392  -9.5405     94.9527     97.0438   7.8235111726e+01   4.4671457378e+01    0.3730955    0.2451944 -57.70 0.0005489197    1.702    0.412
       393  -8.6761    150.9625     95.2294   6.2436753012e+01   3.3157175538e+01     0.286571    0.2027205  -6.86  0.001216772    2.086    0.521
       394  -9.8322    247.1205     93.4352   4.6389220938e+01   1.4141400369e+01    0.2314524    0.1785799   8.10  0.001407087    1.885    0.469
       395  -8.2254    164.8055     94.0223   5.9166045780e+01   3.0317105253e+01    0.2404906    0.1562552 -61.61 0.0006043898    1.910    0.477
       396  -9.7057    139.1769     91.7845   6.4234331778e+01   3.6445960461e+01    0.5751044    0.3326341 -46.14  0.001751553    1.747    0.427
       397 -10.2574    123.6476     91.4419   6.8102881472e+01   3.9946093232e+01     0.623707    0.4489645  32.28  0.001556082    1.511    0.338
       398  -8.1506    176.4113     93.2772   5.6723510910e+01   2.7913624015e+01    0.2024177    0.1267656 -48.72 0.0006552329    1.578    0.366
       399  -9.2568     46.2721     92.5282   9.4826759833e+01   5.3474251099e+01    0.4666825    0.2431055  13.40  0.001897165    2.433    0.589
       400  -9.5274      4.8729     92.1572   1.1176706624e+02   5.7090147112e+01     0.354513     0.205047  59.41  0.001244712    2.217    0.549
       401  -7.9935    157.8469     91.7733   6.0009930169e+01   3.2273428246e+01    0.1997386    0.1712169 -76.14 0.0004279683    1.303    0.233
       402  -9.7054     34.8416     89.8380   9.8869614201e+01   5.5405380651e+01    0.5478586    0.3010271 -81.86  0.001800177    2.699    0.630
       403  -8.5830     35.7725     82.4304   9.6702711317e+01   5.7101851322e+01    0.2381412    0.1464571 -30.69 0.0009550886    1.710    0.415
       404  -9.0067    107.6203     92.6466   7.3017710942e+01   4.3106959054e+01    0.7322454    0.3429906  27.86  0.002281325    3.519    0.716
       405  -9.2837     23.1180     90.1559   1.0384334830e+02   5.6395755713e+01    0.3449806    0.2526399   1.08  0.001108716    1.505    0.335
       406  -8.0745    151.1338     89.2191   6.0764993467e+01   3.4250696105e+01    0.2080429    0.1715439 -68.17 0.0004627996    1.358    0.264
       407 -10.0264     86.3727     86.5557   7.8049006528e+01   4.8619623081e+01    0.5712171    0.4234317  88.44  0.001142838    2.154    0.536
       408  -9.0810     89.1979     80.0436   7.5087205338e+01   4.9470116017e+01    0.6390032    0.2397771  30.36  0.001778459    4.423    0.774
       409  -7.7537    188.4354     87.4462   5.3151441486e+01   2.6330927548e+01    0.1392377    0.1271484 -54.36 0.0001364057    1.025    0.024
       410  -9.7488     48.4431     84.0104   9.1751318559e+01   5.5245045465e+01    0.5884618    0.4017403 -86.08  0.002339046    2.246    0.555
       411  -7.7616    179.3089     85.6545   5.4263010736e+01   2.8603797651e+01    0.1490895    0.1055411 -68.23 0.0007044433    1.701    0.412
       412  -9.7926    104.7244     83.1507   7.1062605908e+01   4.5686656263e+01    0.4901197     0.332016 -66.57  0.001306159    2.083    0.520
       413  -8.5195    157.9735     84.0098   5.7886586781e+01   3.3651066745e+01    0.2246619    0.2073931 -64.50  0.000435472    1.086    0.079
       414  -9.1076    140.9204     82.7125   6.1250567074e+01   3.7769225328e+01    0.4029505     0.204269 -46.71 0.0009656053    2.043    0.510
       415  -7.9006    185.4481     82.4798   5.2412525781e+01   2.7798295757e+01    0.1399166     0.127954 -56.97 5.788774e-05    1.025    0.024
       416  -8.0277     63.8608     82.3758   8.5068712980e+01   5.3428128931e+01    0.1978791    0.1803868 -58.45 0.0005226366    1.187    0.158
       417  -9.6930     24.6561     80.4281   1.0109102298e+02   5.8642923514e+01    0.5028234    0.3002707  88.95   0.00159159    2.580    0.612
       418  -9.5470      9.9806     81.1324   1.0775181284e+02   5.9526849320e+01    0.3922296    0.2036981  52.31  0.001496837    2.700    0.630
       419  -8.5662    150.0948     80.5370   5.8579828387e+01   3.6064534833e+01     0.282826    0.1970508 -55.42 0.0006930822    1.562    0.360
       420  -8.7967    119.3728     80.3432   6.5979159801e+01   4.3077386847e+01    0.3377718    0.2461746 -59.88 0.0008478692    1.624    0.384
       421  -8.8066     74.5791     80.4874   8.0411789553e+01   5.2076022358e+01    0.3339826    0.2408565 -68.97  0.001217342    1.854    0.461
       422  -8.2935    166.9473     79.5067   5.4907209323e+01   3.2399612924e+01    0.2237198    0.1790264 -40.24 0.0004757449    1.218    0.179
       423  -8.0456    184.3442     78.2935   5.1540830115e+01   2.8723433554e+01    0.1995439    0.1176202 -44.95 0.0006233013    1.594    0.372
       424  -9.3952    128.0952     75.4992   6.2222739346e+01   4.2019140091e+01    0.3917746    0.2522009 -52.77  0.000804152    1.740    0.425
       425  -7.1091    189.3221     76.6917   5.0343987005e+01   2.7896463609e+01    0.1430159    0.1002177 -68.65 0.0004040529    1.645    0.392
       426  -8.8153    139.9411     74.9644   5.9225797544e+01   3.9389896304e+01    0.3502796    0.2527568 -88.71  0.001580787    1.915    0.478
       427  -9.7050     82.4775     72.8052   7.5091469074e+01   5.2252995830e+01    0.4300174      0.31666 -75.97  0.001079321    2.095    0.523
       428  -9.9439     63.1312     73.5305   8.2643912152e+01   5.5496997525e+01    0.4583337     0.289111 -62.17   0.00106058    2.008    0.502
       429  -8.1715    163.4058     73.2472   5.3879129958e+01   3.4254872054e+01    0.2062305    0.1266595 -47.79 0.0009437536    1.628    0.386
       430  -8.5990    115.8274     73.0801   6.4701439475e+01   4.5236090726e+01    0.2240326    0.2025328 -72.89 0.0005687873    1.241    0.194
       431  -8.2847     42.5259     72.9810   9.1183673040e+01   5.8533661593e+01    0.2099532     0.131166 -54.68 0.0004962372    1.552    0.356
       432  -7.7608    175.4720     72.5478   5.1539221020e+01   3.1621491019e+01    0.1400378      0.13018 -67.23  6.53503e-05    1.021    0.021
       433  -9.3699    105.7893     71.7633   6.7153497486e+01   4.7691811663e+01    0.2827155    0.2032325 -54.28 0.0006920123    1.586    0.369
       434  -9.1347     95.1728     71.2072   7.0262716729e+01   5.0046993705e+01     0.345358    0.2401064 -57.09 0.0009301472    1.739    0.425
       435  -9.5279     51.4782     69.6384   8.6250073220e+01   5.8095491174e+01     0.497321    0.3085017 -73.64  0.001575545    2.747    0.636
       436  -9.4763     29.4149     70.3671   9.6404439069e+01   6.0574610439e+01    0.5633807    0.2638995 -16.92  0.002016126    3.567    0.720
       437  -9.0800     16.5867     70.0282   1.0237022965e+02   6.1746388117e+01    0.2939191    0.2096732  77.54  0.001069365    1.962    0.490
       438  -8.7577    147.1073     68.1920   5.5674931580e+01   3.8876434367e+01    0.3026552    0.1973548 -44.72 0.0006279129    1.545    0.353
       439  -8.6039    138.9042     66.4609   5.6927398945e+01   4.1087180536e+01    0.2813567    0.1913454 -54.94  0.000759587    1.641    0.391
       440  -8.9431    121.5587     65.7241   6.0840473063e+01   4.5249354710e+01    0.2832101    0.2327088 -64.10 0.0007466926    1.396    0.284
       441  -8.5470     83.6018     65.2873   7.2160595182e+01   5.3518070768e+01    0.4444989    0.2335686  16.32  0.001284131    4.804    0.792
       442  -7.6933    163.6821     65.6707   5.1746285224e+01   3.5412026330e+01    0.1419615    0.1112412  20.46 0.0006961157    1.684    0.406
       443  -9.1615     37.1729     64.3088   9.1005606989e+01   6.1103792660e+01    0.2744249    0.2217297 -74.51  0.001052474    1.577    0.366
       444  -8.9315    110.1570     63.6302   6.3220184579e+01   4.8203393017e+01    0.2876371    0.2194174 -65.67 0.0007403823    1.664    0.399
       445  -9.4577     97.7876     60.7042   6.5878869933e+01   5.1436280751e+01    0.3309135    0.2892038  49.40  0.001100311    1.143    0.125
       446  -8.7060     64.3853     63.3386   7.8741011447e+01   5.7413097504e+01    0.3034215    0.1855227  -8.21 0.0007901668    2.596    0.615
       447  -7.8521    158.2184     61.9646   5.1702915481e+01   3.7265181830e+01    0.1806251    0.1132643 -37.35 0.0003089778    1.594    0.373
       448  -7.9447     51.4823     62.4853   8.3896468097e+01   5.9615767959e+01    0.1430624    0.1244129 -13.39 0.0008094359    1.063    0.060
       449  -9.6213     73.2580     59.5395   7.3910075761e+01   5.6583667175e+01     0.388964    0.2491276 -52.98  0.001049239    1.856    0.461
       450  -8.5803     89.0287     59.6238   6.8317921838e+01   5.3475056794e+01    0.2431761    0.1964668 -49.05 0.0005837267    1.370    0.270
       451  -7.8241    146.9817     59.2131   5.3056978935e+01   4.0343038654e+01    0.2085766    0.1444021 -57.09 0.0004308441    1.596    0.374
       452  -8.0434    130.7863     57.8031   5.6082409099e+01   4.4402562149e+01    0.1942976    0.1656776 -73.86 0.0004232796    1.305    0.234
       453  -9.7239     23.3937     56.2848   9.5271176415e+01   6.4290562506e+01    0.4278412    0.2908016  80.34  0.002016474    2.719    0.632
       454  -9.6399      7.3999     57.1970   1.0382186145e+02   6.5289164579e+01    0.2895289    0.2192618  85.10  0.001066472    1.753    0.430
       455  -8.5300    139.9229     56.1257   5.3565009488e+01   4.2495041710e+01    0.2214589    0.1850811 -72.35 0.0004793689    1.304    0.233
       456  -9.3388    119.1286     55.5259   5.8137514917e+01   4.7499791336e+01    0.3659658    0.2435908 -49.57  0.001390051    1.670    0.401
       457  -9.3969     62.7732     53.5659   7.5859803011e+01   5.9577958280e+01     0.627381    0.2144549 -46.74  0.001532073    3.143    0.682
       458  -8.6636     44.0292     55.4004   8.4813406747e+01   6.2118067196e+01     0.279248    0.1900325 -57.83 0.0009417743    1.726    0.421
       459  -8.7642    249.5017     55.5101   3.8478608280e+01   1.9009081516e+01    0.1193146    0.0922162 -54.08  0.000810375    1.034    0.033
       460  -9.1432     53.9123     53.6738   7.9683807780e+01   6.1014044399e+01    0.3976996    0.2533657 -66.59  0.001372836    2.696    0.629
       461  -8.6872    105.8343     53.3977   6.0949549039e+01   5.0891871362e+01    0.2703837    0.2191433 -68.76 0.0006681338    1.542    0.352
       462  -9.5979     92.3717     50.7590   6.4024181946e+01   5.4288404343e+01    0.3751029    0.2420017 -49.54 0.0009928482    1.828    0.453
       463  -8.3132     75.4956     51.0370   6.9916918886e+01   5.7699790257e+01    0.3186609     0.160465  29.07  0.001254111    2.448    0.592
       464  -7.9467    144.6536     48.8571   5.0401388774e+01   4.2435754217e+01    0.2051618    0.1197545 -44.99 0.0009404176    1.767    0.434
       465  -8.6015    129.8302     49.1383   5.3525565731e+01   4.5945864030e+01    0.2148149    0.1866618 -72.18  0.000486893    1.248    0.199
       466  -8.8632    120.8334     47.4742   5.5029473928e+01   4.8326614151e+01    0.2390965    0.1987803 -35.05 0.0005111436    1.272    0.214
       467  -8.6099    112.2902     46.8813   5.6934311547e+01   5.0417696712e+01    0.2566382    0.2045794 -64.41 0.0006610192    1.507    0.337
       468  -9.0010     81.9481     46.5556   6.5886886294e+01   5.7161698127e+01    0.2563219    0.2024766 -43.34 0.0006401507    1.398    0.285
       469  -8.4792     44.9813     44.5533   8.0269251958e+01   6.4084092803e+01    0.2280415    0.1859339 -55.21 0.0005536386    1.522    0.343
       470  -8.7947     16.6298     44.7795   9.5188206898e+01   6.7321072044e+01    0.2125799    0.1874633  79.24 0.0006570533    1.617    0.382
       471  -8.8911     58.1395     42.8743   7.3609742560e+01   6.2286602897e+01    0.2962038    0.1873833 -50.54  0.001000156    1.942    0.485
       472  -8.1195    132.9396     43.4921   5.1043821273e+01   4.6000361627e+01    0.2112792    0.1322959  62.52 0.0004618333    1.525    0.344
       473  -8.9526     92.8110     42.5235   6.0804308815e+01   5.5477160907e+01    0.2364578    0.1882723   9.51  0.001072587    1.401    0.286
       474  -9.4409     69.5629     41.3374   6.8328321678e+01   6.0460968181e+01    0.3546668    0.2498212 -54.66   0.00129173    1.908    0.476
       475  -9.6492      5.2016     42.0344   1.0085501847e+02   6.8716530474e+01    0.3129067    0.2145869 -83.77  0.001483893    2.082    0.520
       476  -8.8904    106.0962     41.4052   5.6603234983e+01   5.2644888196e+01    0.3148751    0.2124324 -51.41 0.0009491487    1.766    0.434
       477  -7.7304    140.4669     41.4641   4.8920679774e+01   4.4460785579e+01    0.1383946    0.1285883  78.68 0.0003940731    1.014    0.014
       478  -8.5169     36.8101     40.8616   8.2829231716e+01   6.5902798121e+01     0.216834    0.1856806 -64.07 0.0006967381    1.600    0.375
       479  -8.8202     95.4880     37.9473   5.8259086163e+01   5.5543559475e+01    0.2505105    0.2148975 -83.96 0.0007107612    1.459    0.314
       480  -8.7060     80.7574     36.8690   6.2455240910e+01   5.8893904945e+01    0.2400885    0.1850738 -52.68 0.0008159901    1.627    0.385
       481  -9.2647     26.2313     35.5838   8.6340306195e+01   6.8179570189e+01    0.2684089    0.2138068 -55.43  0.000944877    1.540    0.351
       482  -7.8195    133.4880     36.5076   4.8681724016e+01   4.6792113502e+01     0.138436    0.1270816  81.70 0.0001358419    1.053    0.051
       483  -8.2626    126.0214     35.7133   4.9920118722e+01   4.8694857432e+01      0.19356    0.1679273  62.60  0.000360616    1.064    0.061
       484  -8.1290    226.7776     34.8204   3.6159525601e+01   2.5884395204e+01    0.1700854    0.1119093 -62.58  0.000451148    1.342    0.255
       485  -8.5029    111.9323     34.6972   5.2709786663e+01   5.2187681713e+01    0.2366026    0.1833738 -61.88 0.0005316008    1.542    0.352
       486  -9.0786    119.6422     33.6519   5.0577929917e+01   5.0486926721e+01    0.3120883    0.1998216 -76.30  0.001228025    2.312    0.567
       487  -8.9446     48.5339     33.5016   7.3916382228e+01   6.5451796209e+01    0.2309763    0.2220515  46.10 0.0006552593    1.359    0.264
       488  -8.8766     60.7284     32.5947   6.8138943396e+01   6.3477395796e+01    0.2320266    0.2111427 -41.24 0.0005980203    1.328    0.247
       489  -9.0828     72.1361     30.6845   6.2883597941e+01   6.1545196788e+01    0.3579842    0.2058974 -40.35  0.001312058    1.952    0.488
       490  -7.8335    139.2921     31.6616   4.6061925954e+01   4.5985965781e+01    0.1407543   0.09818451 -67.32 0.0007025923    1.646    0.392
       491  -8.8722     12.9723     30.4504   9.2072818885e+01   7.0467987002e+01    0.2433601    0.1746519 -67.50 0.0009817216    1.940    0.485
       492  -8.6077    101.7846     29.5723   5.3332759253e+01   5.5207275107e+01    0.2566228     0.170282 -50.17  0.000830879    1.824    0.452
       493  -8.2071     41.7655     29.9869   7.5605703047e+01   6.7082853478e+01    0.1820661    0.1519133 -12.71 0.0004395166    1.098    0.089
       494  -8.8850     81.4561     27.3321   5.8274313377e+01   6.0042513307e+01    0.3099553    0.2025306 -50.48 0.0009705269    2.018    0.504
       495  -8.9896      3.6673     27.6579   9.6922584693e+01   7.1711281886e+01    0.2125604    0.1835997 -72.96 0.0008519103    1.566    0.361
       496  -7.9447    110.1942     27.2490   5.0417061977e+01   5.3514446292e+01      0.20118   0.09127659 -39.54  0.000631769    2.397    0.583
       497  -8.8928     91.8450     26.4417   5.4784763576e+01   5.7861919955e+01     0.271878    0.1891042 -40.36 0.0007965225    1.625    0.384
       498  -8.6753    104.1698     23.1456   5.0296740096e+01   5.5404881202e+01    0.1835001    0.1570779 -85.45 0.0004944164    1.334    0.250
       499  -7.8979     34.6445     23.2812   7.6126277940e+01   6.9196804223e+01    0.1137856    0.1004964  54.73 0.0004247827    1.661    0.398
       500  -7.9793    116.6782     22.6720   4.7352766255e+01   5.2484230002e+01    0.1422289   0.09374535  34.54 0.0004302629    1.690    0.408
       501  -9.0959     63.5327     20.8751   6.1681826575e+01   6.4554954215e+01    0.3111176    0.2121306 -50.24  0.001042423    2.049    0.512
       502  -8.7932     48.3925     21.7896   6.8510611579e+01   6.7236699041e+01    0.2072388    0.2003971  48.68 0.0007147911    1.386    0.279
       503  -8.0876    120.6027     20.8345   4.5923032369e+01   5.1736845694e+01    0.1846144    0.1161325 -43.55 0.0009353657    1.748    0.428
       504  -8.2463     19.7736     21.5902   8.3926914558e+01   7.1377225114e+01    0.1595753    0.1057826  31.47 0.0003711788    1.602    0.376
       505  -9.0397     74.3025     19.5268   5.7215006101e+01   6.2515942157e+01    0.2508349    0.2155258 -59.98 0.0008071373    1.530    0.347
       506  -8.1876     11.5212     20.4895   8.8705794643e+01   7.2410041764e+01    0.1206394   0.09956503 -13.36 0.0008092668    1.069    0.065
       507  -8.4764     87.9441     17.9281   5.2379083150e+01   5.9711267257e+01    0.1981116    0.1791366  45.40 0.0004166728    1.047    0.045
       508  -8.1986     38.7598     18.0043   7.1307348566e+01   6.9354792061e+01    0.2259701    0.1470489 -34.76  0.001288417    1.610    0.379
       509  -8.3202    112.6284     16.8258   4.6077174326e+01   5.4066751397e+01    0.1682426    0.1193235 -41.21 0.0002351494    1.568    0.362
       510  -8.0219     30.0197     16.0073   7.4991379972e+01   7.0949886213e+01    0.1661717    0.1577614  74.85 0.0007388995    1.714    0.416
       511  -8.1022     97.3580     15.2309   4.8846608048e+01   5.7833654905e+01    0.1717958    0.1181279 -38.10 0.0003921047    1.647    0.393
       512  -7.8152     17.4726     14.4549   8.1806058691e+01   7.2795257129e+01    0.1200382   0.09930048  -3.45 0.0001150048    1.085    0.078
       513  -9.2548    232.7663    247.5376   7.7039436454e+01  -6.6341532935e+00    0.2682981    0.1607428 -29.84  0.001137359    1.558    0.358
       514  -9.0115    175.5620    247.8493   8.7665408626e+01   4.9255995843e-03    0.2665059    0.2115649  58.93  0.001340427    2.138    0.532
       515  -8.7477    132.2658    247.9302   9.6596949421e+01   5.6394532609e+00    0.2488277    0.1785869  57.90 0.0008292339    1.840    0.457
       516  -8.3076    113.1192    248.6867   1.0078161320e+02   8.0359088651e+00    0.1935818    0.1664699  88.11  0.001250283    1.501    0.334
       517  -7.7810     47.6666     10.3317   6.2989654961e+01   6.8822367130e+01    0.1128424    0.1020643 -84.13 0.0007052197    1.728    0.421
       518  -9.2742    103.7672    246.7477   1.0258924721e+02   9.5988950194e+00    0.4217222    0.2452754 -83.97  0.002040823    2.993    0.666
       519  -9.0860    243.1187    246.1865   7.5096266763e+01  -7.5406577186e+00    0.3850411    0.1409698 -27.18   0.00196098    2.622    0.619
       520  -8.8591    218.7400    246.8931   7.9385647217e+01  -5.0280096580e+00    0.3457606    0.1282766 -36.28  0.001755839    2.611    0.617
       521  -8.6419    155.9461    248.1240   9.1667568486e+01   2.4869492452e+00    0.1808891    0.1483271  36.28  0.000597532    1.310    0.237
       522  -9.9750    223.9189    244.0105   7.8031691225e+01  -5.2302113332e+00    0.4520479    0.2145079 -43.30  0.002456411    2.617    0.618
       523  -8.8512    147.1003    246.0364   9.3224942656e+01   3.9832342103e+00    0.2667019     0.209209  71.13  0.001587225    2.078    0.519
