#   1 NUMBER                 Running object number                                     
#   2 MAG_AUTO               Kron-like elliptical aperture magnitude                    [mag]
#   3 X_IMAGE                Object position along x                                    [pixel]
#   4 Y_IMAGE                Object position along y                                    [pixel]
#   5 X_WORLD                Barycenter position along world x axis                     [deg]
#   6 Y_WORLD                Barycenter position along world y axis                     [deg]
#   7 A_WORLD                Profile RMS along major axis (world units)                 [deg]
#   8 B_WORLD                Profile RMS along minor axis (world units)                 [deg]
#   9 THETA_WORLD            Position angle (CCW/world-x)                               [deg]
#  10 FWHM_WORLD             FWHM assuming a gaussian core                              [deg]
#  11 ELONGATION             A_IMAGE/B_IMAGE                                           
#  12 ELLIPTICITY            1 - B_IMAGE/A_IMAGE                                       
         1  -8.3230     87.8676     17.4301   5.6609192192e+01   5.9566660054e+01    0.2061022    0.1696848 -30.05 0.0006235849    1.370    0.270
         2  -8.5318     96.8422     14.6115   5.3029538123e+01   5.7944057862e+01    0.2018204    0.1469178 -25.29  0.000605824    1.498    0.332
         3  -8.6774     55.6616      9.9641   6.4020453505e+01   6.6481735269e+01    0.1962669    0.1758342 -44.20 0.0007969969    1.618    0.382
         4  -7.8754     47.5462     10.0531   6.7340075347e+01   6.7806687766e+01     0.149152   0.09851544 -47.51 0.0008011333    2.450    0.592
         5  -8.1692     91.0084      9.0252   5.2284133923e+01   5.9727237760e+01    0.1850589    0.1521173 -63.58 0.0006481158    1.676    0.403
         6  -7.6241    101.4633      8.4017   4.9458803991e+01   5.7503406985e+01    0.1273105    0.1105432  48.41 6.346421e-05    1.058    0.055
         7  -8.5889     33.4372      5.1177   7.1167805377e+01   7.0467429037e+01     0.269624    0.1711046 -48.73  0.001454179    2.915    0.657
         8  -8.4192     79.1715      4.1418   5.3447600120e+01   6.2621122547e+01    0.2003443    0.1570223 -23.32  0.000864445    1.428    0.300
         9  -7.6206     44.6869      3.3189   6.5143862691e+01   6.8988533758e+01   0.09933325   0.09557986 -42.03 0.0003800877    1.649    0.393
        10  -7.7336     15.7742      3.0429   7.9297825235e+01   7.2900770675e+01    0.1422126   0.07786011 -32.37 0.0005484088    1.638    0.390
        11  -7.6222    115.3069      2.6362   4.4391125650e+01   5.4833922534e+01    0.1270799   0.09295416 -65.56 0.0007038373    1.742    0.426
        12  -8.3270     62.4743      1.4694   5.7437802096e+01   6.6096371553e+01    0.1841955    0.1124585  60.86 0.0005736193    2.030    0.507
        13  -7.5402     39.4279      1.4793   6.6464609874e+01   6.9995061392e+01    0.1171235   0.09182777   9.32  5.50336e-05    1.039    0.038
        14 -10.0760    248.5930    241.9727   7.8341975738e+01  -1.0933863062e+01    0.3532411    0.1733118 -33.16  0.001440242    1.967    0.492
        15  -9.0487    211.2766    247.2957   8.5892301296e+01  -6.7636309503e+00    0.3138042    0.2138853 -61.94  0.001597669    3.400    0.706
        16  -8.0095    191.2525    249.7912   9.0062798287e+01  -4.2881621391e+00    0.1696176    0.1255622  65.98 0.0009237019    2.580    0.612
        17  -8.0032    184.5395    250.4943   9.1460096154e+01  -3.4177975135e+00    0.1236573   0.09925368  18.36 7.994039e-05    1.018    0.018
        18  -8.5776     93.8723    249.6416   1.0937391167e+02   1.0171366644e+01    0.2309805    0.1348993  72.66  0.001056761    2.186    0.543
        19  -8.6531    201.8959    243.1471   8.7004070022e+01  -4.8692250981e+00    0.2357322    0.1679213 -46.89 0.0007647695    1.863    0.463
        20  -8.8019    169.0419    243.4941   9.3476037175e+01  -5.0833806817e-02    0.1969328    0.1782493 -78.03 0.0005328705    1.552    0.356
        21  -8.5203    139.3951    244.2199   9.9564432315e+01   4.3750622437e+00    0.1570849    0.1223886 -73.91 0.0007058965    1.705    0.414
        22  -9.6172     77.9680    242.7693   1.1186377635e+02   1.3655831359e+01    0.3952041    0.2046284 -73.94  0.001677537    2.207    0.547
        23  -7.5963     58.3434    244.6483   1.1587256349e+02   1.5866730251e+01    0.1317988   0.06925371  63.15 0.0007041244    1.811    0.448
        24  -7.9779     50.0000    244.0016   1.1741975227e+02   1.7021797266e+01    0.1750779    0.0611845 -71.76 0.0008039372    2.953    0.661
        25  -7.9697     34.6636    244.3276   1.2031575208e+02   1.8753766882e+01    0.1257877   0.06305638  62.76 0.0007051815    1.725    0.420
        26  -8.5958      9.4464    243.6942   1.2480685978e+02   2.1535693744e+01    0.2119134   0.08573961 -89.33  0.001146393    2.300    0.565
        27  -8.5037    214.1407    242.4599   8.4588816624e+01  -6.4988178583e+00    0.2192906    0.1667207 -32.66   0.00143931    1.477    0.323
        28  -8.9138    194.4518    240.8108   8.8065006456e+01  -3.4501963924e+00    0.3656259    0.2316913 -45.11  0.001412671    1.927    0.481
        29  -9.6067    160.2910    240.7680   9.4839248772e+01   1.7292884917e+00    0.3607399    0.2612093  82.41  0.001554279    2.563    0.610
        30  -8.8023     88.2244    242.4627   1.0977837533e+02   1.2294974361e+01     0.201013    0.1597232 -79.67 0.0005754282    1.360    0.264
        31  -9.3584    183.2220    240.2865   9.0178221643e+01  -1.7001371657e+00    0.3930458    0.2549146  56.32  0.002026604    2.351    0.575
        32  -8.2171    153.2042    242.1497   9.6473805756e+01   2.5965513280e+00    0.1696969    0.1425347  59.53  0.001067677    1.396    0.284
        33  -8.8128    146.5260    240.1835   9.7562703485e+01   3.9617257348e+00    0.3415341    0.2142439  70.00  0.001560818    2.942    0.660
        34  -8.2099    240.5143    240.0492   7.9423212514e+01  -9.6853731862e+00    0.1673292   0.09997059 -27.39 0.0009252452    1.566    0.362
        35  -9.1536    136.0145    239.2718   9.9601925731e+01   5.7521695599e+00    0.2519174    0.1674933  58.35  0.001365168    1.737    0.424
        36  -9.0811    231.0045    237.2198   8.0640094308e+01  -8.0788387879e+00    0.2668799    0.2297768 -64.12  0.001589115    2.259    0.557
        37  -8.4745    129.0413    238.8151   1.0098406885e+02   6.9123673446e+00    0.2133899    0.1257167  57.40 0.0009080931    1.989    0.497
        38  -8.4344    208.9928    238.3344   8.4885816953e+01  -5.1970593921e+00    0.1710519    0.1373374  13.95 0.0005049829    1.044    0.042
        39  -8.5082    170.5909    236.6146   9.2137978849e+01   8.1073845474e-01    0.2768622    0.2030831  88.73  0.001283884    2.774    0.640
        40  -9.9341    175.7739    233.5332   9.0615494401e+01   5.0488525694e-01    0.4683954    0.2673946 -57.66  0.002245493    2.697    0.629
        41  -9.7813    214.7836    233.1332   8.2936617069e+01  -5.2779024151e+00    0.4733769    0.3646185 -81.81  0.002330384    3.625    0.724
        42  -8.9963    203.1590    234.8022   8.5420127100e+01  -3.8404966389e+00    0.2580317    0.1945427 -59.29  0.001136074    2.193    0.544
        43  -9.3695    109.1750    234.5145   1.0458649129e+02   1.0744540967e+01     0.521206    0.2117096  51.60  0.001454717    2.660    0.624
        44  -7.6631     58.0346    237.0000   1.1531097023e+02   1.7393842328e+01    0.1917449   0.05991236  35.12    0.0007985    2.915    0.657
        45  -9.0766    247.9975    234.6690   7.7218485647e+01  -9.9384584463e+00    0.1850159    0.1400709 -22.69 0.0007092449    1.306    0.234
        46  -9.4614    246.5306    228.8321   7.6471599407e+01  -8.9908538150e+00    0.3544257    0.1722233 -33.90  0.001437712    1.941    0.485
        47  -9.2076     78.8097    234.5833   1.1090190844e+02   1.5128259224e+01    0.2797551     0.158712  67.12  0.001301933    1.946    0.486
        48  -8.9385      8.1475    235.1528   1.2462256011e+02   2.3315193147e+01    0.1636636   0.09613141  67.63  0.001077864    1.326    0.246
        49  -8.3115    122.9408    234.0282   1.0163578263e+02   8.7285858784e+00    0.2115054    0.1425552  64.85   0.00112389    1.785    0.440
        50  -9.4689     68.3846    232.1741   1.1280370465e+02   1.7017687086e+01    0.5348302    0.2759294  73.89  0.002548137    2.432    0.589
        51  -8.5122    194.6396    233.0144   8.6779772577e+01  -2.3053909772e+00    0.1731565    0.1580839 -51.42  0.001139243    1.508    0.337
        52  -8.3434    144.6260    233.2198   9.6977393168e+01   5.4698970728e+00    0.2648491    0.1524712  54.99  0.001266202    2.112    0.527
        53  -8.6340    139.8846    230.1550   9.7535921618e+01   6.7734580050e+00    0.3005698    0.1877311  60.27  0.001030565    2.088    0.521
        54  -8.7733    132.6056    232.6762   9.9422627053e+01   7.4672232440e+00    0.2372517    0.1634111 -65.13  0.001000292    1.809    0.447
        55  -9.4714    186.3892    230.6252   8.8021316814e+01  -6.7429550426e-01    0.2924417     0.233201 -73.38  0.001278714    2.134    0.531
        56  -8.2615     92.5892    231.6831   1.0773658781e+02   1.3750799017e+01    0.2751366    0.1500265  63.03  0.001319926    2.142    0.533
        57  -8.9185    236.1017    230.5218   7.8593436123e+01  -7.8540117005e+00    0.2847709    0.1660623 -34.86 0.0005500005    1.724    0.420
        58  -8.7904      1.7572    230.9005   1.2556320316e+02   2.4755612129e+01    0.2122959    0.1082185  73.97  0.001040025    1.601    0.375
        59  -9.0091    151.3194    228.9841   9.4956824344e+01   5.1534597461e+00    0.2845733     0.196494  82.60  0.001066619    2.705    0.630
        60  -9.5987    148.4923    224.5876   9.4892250026e+01   6.4013974297e+00    0.4208446    0.2971837  83.20  0.001382329    2.428    0.588
        61  -8.1077    229.8957    228.9383   7.9436336356e+01  -6.7974814861e+00    0.1609108    0.1546424  54.85  0.001116794    1.717    0.418
        62  -8.9763    162.0749    227.7523   9.2521053997e+01   3.6417364926e+00    0.2429649    0.2133475  72.78 0.0009942302    1.485    0.327
        63  -9.0890    127.9931    227.4285   9.9681254271e+01   9.1723545444e+00    0.2975775    0.2066172  67.59  0.001157581    1.822    0.451
        64  -8.0786    120.0006    227.9443   1.0146137059e+02   1.0334418721e+01    0.2116727    0.1455144  65.73 0.0008026049    1.720    0.419
        65  -9.3603      7.6713    227.1713   1.2430539830e+02   2.4950775018e+01    0.2262136   0.08297436 -89.33  0.001092534    2.614    0.617
        66  -7.8763    223.4626    227.0047   8.0279565463e+01  -5.6287806464e+00    0.1762502    0.1108857 -31.73 0.0005160166    1.559    0.359
        67  -9.2593    205.7053    226.3500   8.3518109116e+01  -2.9481369755e+00    0.2436488    0.1997493 -25.19 0.0008862729    1.261    0.207
        68  -8.1536     49.4246    226.9131   1.1619716654e+02   2.0499027438e+01    0.1734155   0.08373551  76.91  0.000804737    2.455    0.593
        69  -7.9068    200.2065    226.4603   8.4603511119e+01  -2.1364697395e+00    0.1624245    0.1112747  40.96 0.0004558029    1.536    0.349
        70  -8.9013    180.5412    224.4519   8.8188971991e+01   1.2469120513e+00    0.2688097    0.2100067  59.53  0.001025934    1.763    0.433
        71  -8.9658    104.7766    223.6096   1.0417973989e+02   1.3542663371e+01    0.3294103    0.2106874  87.51  0.001624946    2.152    0.535
        72  -8.9889     94.1669    224.3384   1.0656002535e+02   1.4989300730e+01    0.3728965    0.1994752  63.62  0.001695404    2.327    0.570
        73  -9.0604    216.3257    223.6305   8.1025676357e+01  -4.1093295638e+00    0.2208341    0.1867684 -34.18 0.0008666712    1.401    0.286
        74  -8.7567    173.1266    223.0693   8.9481944639e+01   2.6687894584e+00    0.2398758    0.1756324 -63.40 0.0006809685    1.977    0.494
        75  -8.0218    113.9326    224.1510   1.0226616748e+02   1.2021074337e+01    0.1850693    0.1396362  75.56 0.0007409051    1.540    0.350
        76  -8.1792     59.7426    224.1392   1.1383896138e+02   1.9788569898e+01    0.2215872   0.09777082  64.58 0.0009402525    2.772    0.639
        77  -7.6918     38.0056    224.7071   1.1831898605e+02   2.2298551509e+01    0.1406956   0.09415174  43.86 0.0004386751    1.385    0.278
        78  -8.3325     99.7874    234.6244   1.0656255345e+02   1.2124378323e+01    0.2391336    0.1486479  75.43  0.001016039    2.089    0.521
        79  -9.4279    192.4139    221.2416   8.5254928907e+01  -1.0310682054e-01    0.3187695    0.2526532 -58.76  0.001075745    1.806    0.446
        80  -9.2440    160.1429    221.1389   9.1883471267e+01   5.1218751195e+00    0.5064873    0.2476705  54.60  0.001959707    3.173    0.685
        81  -8.5991    140.4840    222.9637   9.6360740455e+01   8.0047098325e+00    0.1830799    0.1347666 -56.63  0.001014223    1.571    0.364
        82  -9.0129    238.9200    221.5249   7.6526063502e+01  -6.9913211187e+00    0.1986131    0.1573548 -34.70 0.0006238089    1.483    0.326
        83  -9.1484    120.3892    219.3158   1.0020173894e+02   1.1959204846e+01     0.437534     0.240297  63.20  0.001628193    2.689    0.628
        84  -8.4259     82.5902    220.5801   1.0862568427e+02   1.7442783044e+01    0.2629794    0.1514347  67.33 0.0008650023    2.004    0.501
        85  -8.3292     73.0489    220.5538   1.1067703292e+02   1.8779061534e+01    0.2688852    0.1443723  86.22  0.001231576    2.459    0.593
        86  -8.1634     27.6250    221.1993   1.2013094343e+02   2.4174438468e+01    0.1608169   0.09303434 -68.27 0.0009462162    1.700    0.412
        87  -8.2973    202.5447    220.0228   8.3042560839e+01  -1.4847497205e+00    0.1811623     0.121378 -36.12 0.0005888397    1.544    0.352
        88  -8.3102    210.0291    219.0409   8.1420458076e+01  -2.4738911186e+00    0.1934092    0.1643392   0.84 0.0004580915    1.048    0.045
        89  -8.2356    248.5873    218.1567   7.4241197147e+01  -7.8146849565e+00     0.242432    0.1366778  47.86  0.001224243    2.867    0.651
        90  -9.4189    132.9040    216.1366   9.6988443759e+01   1.0556406149e+01    0.5144155    0.3210801  76.25   0.00213822    2.955    0.662
        91  -8.4954     62.1787    217.6079   1.1270470732e+02   2.0852255651e+01    0.3400615    0.1618725  58.97  0.001586254    2.177    0.541
        92  -8.9128     51.3743    217.4040   1.1497731820e+02   2.2259561118e+01    0.2911623    0.1780032  81.66   0.00112024    1.630    0.387
        93  -8.8395    169.3360    216.2504   8.9142868317e+01   4.4813111588e+00    0.2700224     0.227896  88.06 0.0008499443    1.734    0.423
        94  -8.7271    143.1145    216.6509   9.4830948256e+01   8.7684298115e+00    0.2673236    0.2042215  77.99 0.0008932399    1.813    0.448
        95  -8.1264    111.7304    217.1654   1.0181321296e+02   1.3767958728e+01     0.227975    0.1281963  67.76 0.0009439118    2.719    0.632
        96  -8.2513     18.5345    216.0273   1.2158582302e+02   2.6201220303e+01    0.1785834   0.09721361 -81.01  0.001037891    1.612    0.380
        97  -8.6468    232.2125    214.6994   7.6506644576e+01  -5.0792140047e+00    0.2232643    0.1897593 -50.64  0.001038479    1.747    0.428
        98  -8.2680    185.6627    214.5096   8.5456932652e+01   2.1011035755e+00    0.1962984    0.1680072 -69.68   0.00079315    1.691    0.409
        99  -8.2965    154.1969    215.1766   9.2192818808e+01   7.1999873746e+00    0.1803402    0.1581128  66.09 0.0006510289    1.355    0.262
       100  -8.9146     92.9384    214.0418   1.0557909409e+02   1.7308978634e+01    0.3329023    0.1830344  62.17  0.001211584    2.161    0.537
       101  -7.5978     41.2782    215.2801   1.1690870832e+02   2.3916657082e+01     0.193576   0.08991423  89.16 0.0008913387    2.415    0.586
       102  -9.5270     73.3016    212.1642   1.0971724888e+02   2.0536300427e+01    0.6566086    0.2420794  58.08   0.00222884    4.010    0.751
       103  -8.0959    224.8110    212.7543   7.7507810360e+01  -3.7166203333e+00    0.1572407    0.1456479 -22.13 0.0006761235    1.352    0.260
       104  -9.3079    213.8638    212.2262   7.9469307598e+01  -1.9908216079e+00    0.3164868    0.2549964  53.17  0.001758423    1.764    0.433
       105  -8.5441    161.6451    212.4479   9.0139176471e+01   6.4578321754e+00    0.2427333    0.2026848  82.68 0.0007156818    1.675    0.403
       106  -8.1817    106.3889    213.1341   1.0245476815e+02   1.5440009022e+01    0.1824224    0.1259178 -79.76 0.0009361904    1.735    0.424
       107  -9.0281    204.1381    210.8779   8.1107861388e+01  -2.6056314165e-01     0.247272    0.2024221 -49.55 0.0006182051    1.564    0.361
       108  -9.4082    175.4668    210.0033   8.6783107983e+01   4.5783226269e+00    0.4209036    0.2946856  73.22  0.001412028    2.781    0.640
       109  -8.7070    192.3232    210.6364   8.3418490155e+01   1.6769815614e+00    0.2252325    0.1596585 -50.34 0.0008115628    1.733    0.423
       110  -8.7935    148.1018    210.6748   9.2786959889e+01   9.0831250801e+00    0.3070926    0.2162017  62.57  0.001378607    1.836    0.455
       111  -9.1842    116.4066    210.6467   9.9853620735e+01   1.4362867435e+01    0.3424179    0.2034694  60.22  0.001168629    2.037    0.509
       112  -8.4740     32.6580    210.6931   1.1833656513e+02   2.5875967256e+01    0.2479067    0.1149766  77.89 0.0008586961    2.396    0.583
       113  -9.1191      5.5964    207.8233   1.2364431658e+02   2.9170753294e+01    0.2290848    0.1203084  77.19  0.001322579    1.636    0.389
       114  -9.0136    236.6022    208.4597   7.4580529582e+01  -4.7816935984e+00    0.2805901    0.2424459 -70.12  0.001440789    2.112    0.527
       115  -8.4678     85.6589    209.4506   1.0664017894e+02   1.9371254091e+01    0.3601447    0.1990576  71.18  0.001566543    2.465    0.594
       116  -8.3507    126.4789    208.5243   9.7264829002e+01   1.3148874447e+01    0.2155698    0.1360592 -70.53 0.0005996258    2.075    0.518
       117  -9.4660    225.2702    220.7236   7.8849908015e+01  -4.9736465361e+00    0.3318957    0.2182907 -45.67  0.001634058    1.941    0.485
       118  -9.3397    246.4377    207.2610   7.2635086473e+01  -5.9851792753e+00    0.2601482    0.1849634 -28.05 0.0006389433    1.276    0.216
       119  -9.4580    250.0997    201.9120   7.1016705381e+01  -5.7117231165e+00    0.4728299    0.1991389 -40.59  0.002226189    2.361    0.576
       120  -9.0622    245.4862    193.4405   7.0203457577e+01  -3.7958650817e+00    0.2551433    0.2205864 -59.81  0.001368478    1.814    0.449
       121  -8.2054    139.0267    208.0313   9.4368884846e+01   1.1141550609e+01    0.2167355    0.1641553  72.63 0.0006682503    1.725    0.420
       122 -10.5580    162.5196    204.2899   8.8550738187e+01   7.8436363214e+00    0.4761578    0.3857447  -0.81  0.001220339    1.342    0.255
       123  -9.2597     99.2752    205.9515   1.0308828205e+02   1.8079531503e+01    0.3884861     0.247999  87.07  0.001252859    2.103    0.525
       124  -8.6639     11.5283    207.0023   1.2241106803e+02   2.8808081416e+01    0.1784821   0.09578476 -81.75  0.001029449    1.584    0.369
       125  -8.8899    183.8355    204.0067   8.3962229206e+01   4.2445601698e+00    0.3022614    0.2493453  74.51 0.0009468074    1.838    0.456
       126  -8.3350    108.9566    205.2057   1.0076137457e+02   1.6712563833e+01    0.2147832    0.1719515  66.83 0.0007203718    1.291    0.226
       127  -8.2464     56.0683    205.0761   1.1278354656e+02   2.4372718484e+01    0.2124315    0.1293477  70.45 0.0006717567    1.671    0.402
       128  -9.3131    194.7452    203.5290   8.1636303664e+01   2.5003462234e+00    0.3327033    0.2466993 -29.73  0.001005902    1.334    0.250
       129  -9.2146    192.5049    197.5994   8.0984440848e+01   3.9202102242e+00    0.3328534    0.2791485 -67.79  0.001217089    1.701    0.412
       130  -8.6524    131.0803    203.7587   9.5474377728e+01   1.3359098306e+01    0.2899058    0.2065719  78.66  0.001078205    1.991    0.498
       131  -8.4588    211.0913    202.1833   7.8150930356e+01   6.5302031114e-02    0.2212507    0.1739834 -63.20 0.0006284335    2.010    0.502
       132  -7.9071     34.3585    203.6686   1.1740715642e+02   2.7237718735e+01    0.1382076   0.07407022  64.70 0.0007042256    1.796    0.443
       133  -9.1317    243.1536    201.1281   7.2063276389e+01  -4.6222437784e+00    0.2760996    0.1899705 -43.33 0.0009776549    1.701    0.412
       134  -9.0655    140.5445    201.0721   9.2881797089e+01   1.2289997709e+01    0.3873533    0.2606935  74.70  0.001273285    2.403    0.584
       135  -8.6564     80.1618    201.3697   1.0689025970e+02   2.1954150437e+01    0.3950158    0.2079179  68.60  0.001636735    2.619    0.618
       136  -8.3015     48.2059    202.0501   1.1423032459e+02   2.6016919397e+01    0.2229778    0.1204493  74.44 0.0009852702    2.039    0.510
       137  -8.6951      9.8883    202.6789   1.2247087863e+02   2.9898836589e+01    0.1979586    0.1121162  19.67  0.001096923    2.492    0.599
       138  -7.9597    221.9827    201.4918   7.5950619160e+01  -1.5331689823e+00    0.1511886    0.1158504  60.94 0.0004146026    2.181    0.541
       139  -9.2937    237.0322    198.7970   7.2699085202e+01  -3.3817700403e+00     0.265678    0.1718424 -42.51  0.001075944    1.699    0.412
       140  -9.5738    149.5780    198.5454   9.0407224367e+01   1.1227944319e+01    0.4534029    0.3198645 -82.82   0.00134767    2.303    0.566
       141  -8.9474    124.0072    199.2493   9.6376059746e+01   1.5505957814e+01    0.3339502    0.2273511 -81.70   0.00142619    2.044    0.511
       142  -9.5719    112.8561    198.5490   9.8864628555e+01   1.7519821456e+01    0.4773855    0.2798286  69.56  0.001607795    2.653    0.623
       143  -9.2307     88.6609    198.6116   1.0455133015e+02   2.1324379370e+01    0.3880082    0.2354224  86.41  0.001553147    2.212    0.548
       144  -8.5706    177.2009    199.1253   8.4461943486e+01   6.2736361729e+00    0.2356276    0.1783892  63.76 0.0006537445    1.867    0.464
       145  -8.2702    202.3196    197.9731   7.9075828191e+01   2.2052164386e+00    0.2185257    0.1907509  61.20 0.0008088443    1.585    0.369
       146  -9.1705     61.5045    197.0059   1.1068534376e+02   2.5503740211e+01    0.4201061    0.2162102  72.00  0.001548314    2.521    0.603
       147  -8.8786     12.7858    197.5334   1.2153177318e+02   3.0769813037e+01     0.238611    0.1080971  67.57  0.001035108    2.160    0.537
       148  -8.1375     53.7919    196.5606   1.1241159982e+02   2.6585076461e+01    0.2632039    0.1362368  69.12  0.001183881    2.268    0.559
       149  -7.8907     36.4719    196.9964   1.1636528899e+02   2.8508927969e+01    0.1844341   0.08769625  78.03 0.0008085525    2.467    0.595
       150  -7.6982     29.3617    197.6710   1.1798979672e+02   2.9117134960e+01    0.1380285   0.07390721  64.78 0.0007040448    1.798    0.444
       151  -8.2158    132.9985    196.0104   9.3757773871e+01   1.4652784194e+01    0.2177999    0.1687621  75.71 0.0005339975    1.629    0.386
       152  -8.6672    224.5891    194.1378   7.4063581566e+01  -7.5213434377e-01    0.2897594    0.1799558 -51.54  0.001146349    2.204    0.546
       153  -7.5797    209.3082    195.6657   7.7260090030e+01   1.4473705562e+00    0.1226383      0.11114 -83.92 0.0005238277    1.673    0.402
       154  -8.8452    185.2334    194.8207   8.1962229604e+01   5.6752365331e+00    0.2534656    0.2252357 -65.13 0.0007217246    1.458    0.314
       155  -7.8514    184.3103    190.6432   8.1356091956e+01   6.6134207635e+00    0.1984192    0.1487952 -58.07  0.001004351    1.702    0.412
       156  -9.0913    160.8945    194.2188   8.7100553459e+01   1.0090609756e+01    0.3266761    0.2642998  87.77 0.0009685165    1.767    0.434
       157  -8.9700     43.6367    193.3506   1.1440595931e+02   2.8538407951e+01    0.4075433    0.1993712  74.38  0.001787407    2.496    0.599
       158  -8.0212    230.7780    194.5654   7.3012788185e+01  -1.7802204572e+00    0.1631381    0.1215561  43.60 0.0005397986    1.636    0.389
       159  -8.6486     76.9302    193.9912   1.0670675695e+02   2.4094786681e+01    0.2108451    0.1804157  71.31 0.0005653658    1.073    0.068
       160  -7.6892    241.6472    192.2913   7.0645950253e+01  -3.0580542274e+00    0.1112829    0.1043597 -71.69 0.0007028569    1.677    0.404
       161  -8.0195    205.1932    192.1182   7.7382006990e+01   2.7417761513e+00    0.1723777    0.1622115 -46.99 0.0004264627    1.327    0.246
       162  -8.3962    198.8838    192.0214   7.8621514708e+01   3.8276639077e+00    0.1944549    0.1889882 -56.13 0.0006421072    1.311    0.237
       163  -8.3998    179.1006    191.6573   8.2654680091e+01   7.3446018923e+00    0.2299942    0.1911774 -50.73 0.0005919085    1.367    0.269
       164  -8.5894    172.3379    191.8110   8.4138733765e+01   8.5192500785e+00    0.2560993    0.2210398 -87.94  0.001332069    1.591    0.371
       165  -9.0045    139.4998    190.5698   9.1304614691e+01   1.4663343276e+01      0.35096     0.263958  85.34  0.001066626    1.878    0.467
       166 -10.5674     92.0283    188.7608   1.0235726072e+02   2.3059030826e+01      1.01166    0.3079452  48.02  0.003218512    3.695    0.729
       167  -8.6959     90.7703    181.4487   1.0156521012e+02   2.4962653009e+01    0.3237944     0.219944  11.70  0.001355641    2.158    0.537
       168  -8.2303     20.8423    191.2163   1.1933337652e+02   3.1437867674e+01    0.2317865   0.08939171  63.08 0.0009608823    2.957    0.662
       169  -8.7195    215.8596    195.8219   7.6027741619e+01   3.5716608466e-01     0.272651    0.1798705 -49.71 0.0008460661    1.895    0.472
       170  -8.6856    148.7501    189.6476   8.9001697219e+01   1.3199510533e+01    0.2653731    0.1937204 -84.19 0.0009956348    2.092    0.522
       171  -8.4656    237.1367    188.6411   7.0728983011e+01  -1.8089164307e+00    0.2167045    0.1563631 -37.43 0.0004116574    1.377    0.274
       172  -8.6956    216.6195    188.2046   7.4401824457e+01   1.5156288219e+00    0.2151789    0.1947949 -35.63 0.0006019469    1.268    0.212
       173  -7.5469    210.2912    189.6628   7.5904313794e+01   2.3143868635e+00    0.1242569    0.1111483 -74.50 0.0003540345    1.641    0.391
       174  -9.3097    155.9492    187.5209   8.6964818849e+01   1.2335227833e+01    0.3958133    0.2329047 -58.63 0.0009594192    2.119    0.528
       175  -8.8574    129.2669    188.5328   9.3348946398e+01   1.6914172385e+01    0.2923557    0.2317297  79.63 0.0009084757    1.556    0.357
       176  -9.7718    120.9012    186.6696   9.5025558009e+01   1.8786236030e+01    0.5702264    0.3157131 -74.92  0.002125968    2.994    0.666
       177  -8.7568     34.2387    187.9696   1.1603864979e+02   3.0829283222e+01    0.3753916    0.1727471  78.10  0.001513886    2.698    0.629
       178  -8.7390    191.4411    187.5546   7.9267414638e+01   5.9298399151e+00    0.2692591    0.2375307 -76.55  0.001144627    1.574    0.365
       179  -9.2797     54.6561    186.8975   1.1114142498e+02   2.8725721804e+01     0.428433    0.2245698  73.43  0.001710699    2.406    0.584
       180  -8.2930    230.4373    187.3458   7.1671498028e+01  -5.6405106450e-01    0.1914472    0.1657081  58.04 0.0007461676    1.679    0.404
       181  -8.7586    164.6679    186.8527   8.4878895929e+01   1.0882177918e+01    0.2557696    0.2172283 -89.50 0.0007577898    1.584    0.369
       182  -9.4762    109.5406    185.8855   9.7645490018e+01   2.0898017047e+01    0.4553466    0.3038016 -79.15  0.001516736    1.892    0.471
       183  -9.0369    248.6712    185.5818   6.8146315746e+01  -3.0533755957e+00    0.2578914    0.2122439  28.67  0.001657213    1.360    0.265
       184  -8.9720    182.8458    185.3363   8.0630087583e+01   7.8791168558e+00    0.2539875    0.1973554 -39.74 0.0007157135    1.304    0.233
       185  -8.7392    210.1339    184.4302   7.4899814291e+01   3.2527214027e+00    0.2438579    0.1857482 -40.67 0.0005474458    1.353    0.261
       186  -8.5072    202.8360    184.7445   7.6398517226e+01   4.4497182829e+00    0.2346644    0.1819299 -66.86 0.0006765088    1.964    0.491
       187  -9.1633     66.5357    184.5951   1.0799431254e+02   2.7733408332e+01    0.3489514     0.207267  69.03  0.001249867    1.951    0.487
       188  -8.0275     12.3559    185.6662   1.2077719687e+02   3.3488910413e+01    0.1345356   0.07086863  65.43 0.0007043314    1.795    0.443
       189  -8.3695    224.1236    183.7014   7.2103965096e+01   1.0490211940e+00    0.2207074    0.1661674 -39.74 0.0005851234    1.361    0.265
       190  -9.1737    174.2899    183.2041   8.2049133113e+01   9.8490095537e+00    0.4008624     0.249357 -46.83  0.001139142    1.680    0.405
       191  -8.1976      1.8151    183.8269   1.2295169108e+02   3.4788941685e+01    0.1709841    0.1091597  64.99  0.001061481    1.381    0.276
       192  -9.0742     44.4992    182.4977   1.1307705244e+02   3.0981291130e+01    0.3596567    0.2016872  66.21  0.001074597    1.910    0.476
       193  -8.3399    235.4500    181.9457   6.9709529056e+01  -4.7107510832e-01    0.1744633    0.1085181 -54.99 0.0008076954    2.471    0.595
       194  -9.3317    147.5753    180.7255   8.7602037055e+01   1.5297378173e+01    0.3841103    0.2891228 -87.69  0.001142954    1.941    0.485
       195  -9.5311     25.6769    178.9602   1.1718658057e+02   3.3816347789e+01    0.6560952    0.2552815  77.95  0.002278862    4.118    0.757
       196  -8.1864    240.4733    180.0706   6.8460033516e+01  -9.4978186147e-01    0.2017012    0.1133978 -35.07  0.001026091    1.574    0.365
       197  -8.5907    137.7485    179.4226   8.9676138717e+01   1.7389017289e+01    0.2766725    0.2246567  83.64  0.000808968    1.551    0.355
       198  -8.6654    205.0018    177.9024   7.4587993799e+01   5.3074519604e+00    0.2884688     0.169189 -46.69 0.0008961363    1.826    0.452
       199  -9.3025    191.4872    178.3712   7.7420039784e+01   7.6410187666e+00    0.2842577    0.2627313  87.55 0.0005938843    1.423    0.297
       200  -9.0214     36.0025    176.9070   1.1452501527e+02   3.3253689157e+01    0.5116595    0.2126739  81.08  0.001760195    3.995    0.750
       201  -9.4987    248.2389    176.3585   6.6405683267e+01  -1.5450142550e+00    0.4058484    0.2514886 -45.12  0.002165689    1.744    0.426
       202  -8.7939    250.5340    172.9145   6.5340969372e+01  -1.3464830777e+00    0.2426945    0.1553372 -36.32 0.0006413168    1.381    0.276
       203  -8.6621    231.1717    177.0999   6.9499374858e+01   1.0106866610e+00    0.2628583    0.1577324 -48.55  0.000704466    1.959    0.489
       204  -8.4252    217.7362    177.4228   7.2031438416e+01   3.1871326877e+00    0.2575538    0.1696018 -51.63 0.0008581438    1.874    0.466
       205  -7.9552    169.2964    178.6589   8.2242883138e+01   1.1682088450e+01    0.1424925    0.1188885  87.34 0.0007032385    1.662    0.398
       206  -8.7565    129.0990    177.3033   9.1365861464e+01   1.9435839497e+01    0.3346418    0.2334252 -89.73 0.0009754691    2.156    0.536
       207  -9.1034    183.0800    176.4006   7.8784922872e+01   9.5639953696e+00    0.2664403    0.2353679 -45.99 0.0004770882    1.221    0.181
       208  -9.3111    158.8981    175.0721   8.3868435846e+01   1.4378577151e+01    0.4295577    0.3130316 -89.21  0.001387063    2.273    0.560
       209  -9.3764    104.5203    175.0257   9.7064795375e+01   2.4259168154e+01     0.553691    0.3158672  69.81  0.001949365    2.934    0.659
       210  -8.2409     97.2982    177.5872   9.9317191472e+01   2.4841616765e+01    0.1920326    0.1398672  25.10 0.0007923731    1.565    0.361
       211  -8.7262     89.0500    177.0227   1.0130826144e+02   2.6280438619e+01    0.2962135    0.1969332  68.56 0.0009980042    1.781    0.439
       212  -9.9754     57.3763    173.3472   1.0881276274e+02   3.1632846154e+01     0.844387    0.3894751  80.36  0.002694561    4.397    0.773
       213  -8.9272     12.8394    176.7193   1.1997561421e+02   3.5517780876e+01    0.2534395    0.1226487  73.77  0.001175985    2.131    0.531
       214  -7.9806    211.6384    176.2000   7.2944050511e+01   4.4515416724e+00    0.1952862    0.1200639 -30.04 0.0009374549    1.570    0.363
       215 -10.9846     75.8829    169.4330   1.0350438228e+02   3.0087567706e+01     1.434661    0.5357903 -69.72  0.004414449    3.331    0.700
       216  -8.4424    224.3189    174.4573   7.0202894768e+01   2.5891115959e+00    0.2267582    0.1531654 -51.31 0.0007523831    1.811    0.448
       217  -9.3751    175.8286    172.2766   7.9501338612e+01   1.1742895513e+01    0.3585982    0.2907651 -54.76 0.0009685586    1.386    0.279
       218  -8.2549    143.0301    172.7867   8.7130797471e+01   1.7868969856e+01    0.2617552    0.1947558 -68.42  0.000624912    1.639    0.390
       219  -8.0715    194.4801    172.5236   7.5598129932e+01   8.2038256965e+00     0.145401    0.1310018  -6.51 9.031427e-05    1.026    0.026
       220  -8.6607    134.7782    171.9001   8.8950593706e+01   1.9609910687e+01    0.2693987    0.2100897 -78.36 0.0007641244    1.593    0.372
       221  -9.6020    121.4253    170.5865   9.2001511950e+01   2.2356178175e+01    0.4305567    0.3023566 -81.00  0.001110563    1.904    0.475
       222  -9.2163     45.1256    171.2057   1.1163679896e+02   3.3625474042e+01     0.374107    0.2046761  85.66  0.001148553    2.114    0.527
       223  -8.3638    205.8471    170.4944   7.2890371422e+01   6.5118235649e+00    0.2663415    0.1777151 -54.60 0.0008916646    1.883    0.469
       224  -8.2796    198.6077    170.4553   7.4325269410e+01   7.8365069960e+00    0.2564868    0.2007396  80.15 0.0008365246    2.095    0.523
       225  -9.5399     81.6871    155.1171   9.9592409776e+01   3.2761896038e+01    0.4954377    0.3099032  68.57  0.001576813    2.124    0.529
       226  -8.7475    244.6598    169.3213   6.5591500258e+01   1.3851461452e-01    0.2361871    0.1407496 -43.18 0.0006344764    1.659    0.397
       227  -8.4699    237.0294    169.5274   6.6930919682e+01   1.3247831567e+00     0.242832    0.1693229 -45.67  0.000661846    1.537    0.349
       228  -8.7587    230.4475    170.1311   6.8209086092e+01   2.3051762902e+00    0.2000192    0.1881284 -32.63 0.0006690148    1.240    0.193
       229  -9.1268    167.4076    168.8273   8.0651830805e+01   1.4059744420e+01     0.365562    0.2707097  79.10  0.001127095    2.150    0.535
       230  -8.6560    149.8218    169.5499   8.4863846237e+01   1.7289376689e+01    0.2874889    0.2026549 -69.28 0.0009405261    1.883    0.469
       231  -8.4598    218.8357    168.3371   6.9952052596e+01   4.5964174599e+00    0.2317987    0.1729572 -42.78 0.0005881655    1.357    0.263
       232  -8.6478    111.8705    167.7667   9.3892915027e+01   2.4715143153e+01    0.4107142    0.2402953  70.11  0.001468389    2.953    0.661
       233  -8.2967     88.4534    168.6741   1.0011111120e+02   2.8384820071e+01    0.2589341    0.1941565 -89.46 0.0007328159    1.483    0.326
       234  -7.9320    211.3698    168.1325   7.1321926117e+01   5.9522493776e+00    0.2012664    0.1231177 -48.29 0.0005365311    1.786    0.440
       235  -8.8682    191.9282    166.6367   7.4885107237e+01   9.8098219243e+00    0.2721645    0.2014944 -46.56 0.0004924657    1.400    0.286
       236  -8.6693    185.0175    166.5377   7.6313384889e+01   1.1140906992e+01    0.2675598    0.2012233 -56.86 0.0005754846    1.574    0.365
       237 -10.0564     94.9296    162.5123   9.7344515308e+01   2.8850888861e+01     0.933699    0.5580836  85.98  0.003159531    2.846    0.649
       238  -9.3236     20.5221    166.1928   1.1722094217e+02   3.7341960674e+01    0.3622492    0.1752373  65.98  0.001462683    2.318    0.569
       239  -8.0341     13.2902    167.6644   1.1911151438e+02   3.7614702507e+01    0.1310864   0.07754948  70.73 0.0003984741    1.636    0.389
       240  -8.1413    140.6527    166.3233   8.6405848613e+01   1.9755548560e+01    0.2407695    0.1848951  56.19 0.0008977994    1.429    0.300
       241  -9.5319    135.7087    164.0436   8.7152879237e+01   2.1212063181e+01    0.4315842    0.2842452  58.04 0.0008854405    1.824    0.452
       242  -8.2916    234.0041    165.0303   6.6530315853e+01   2.5799725065e+00    0.1968884    0.1586976 -57.51 0.0006075796    1.617    0.381
       243  -8.6075    159.4983    164.4683   8.1540521754e+01   1.6515375975e+01    0.2766415    0.2384972  86.12 0.0008216194    1.459    0.315
       244  -8.6736     56.9653    164.0955   1.0766939747e+02   3.3954546590e+01     0.363479    0.2295916  -5.66   0.00154283    2.946    0.661
       245  -9.7659     33.5386    163.4662   1.1367173857e+02   3.6763065916e+01    0.5632154    0.2416301  58.37  0.002296319    2.869    0.651
       246  -8.7616    246.0433    163.1252   6.4100648269e+01   9.3226300804e-01     0.227662    0.1638983 -32.06  0.000463548    1.189    0.159
       247  -8.3315    240.0445    164.0963   6.5300703019e+01   1.7401751913e+00    0.1922129    0.1616661 -65.23  0.000666382    1.684    0.406
       248  -8.4178    213.0571    163.6387   7.0049935107e+01   6.4667180185e+00     0.241721    0.1719562 -43.38 0.0006012538    1.399    0.285
       249  -8.2802    204.8407    163.0623   7.1515101660e+01   8.0758460892e+00    0.2086856    0.1870633 -48.96 0.0003724741    1.246    0.198
       250  -9.5498      3.3236    162.4021   1.2106011336e+02   3.9641028210e+01    0.3771492    0.1722516  55.84  0.001890968    2.245    0.554
       251  -9.1685    177.4487    160.9445   7.6740776091e+01   1.3732125909e+01     0.340962    0.2631471 -59.02 0.0009963997    1.522    0.343
       252  -8.9154    151.4883    160.9783   8.2679571719e+01   1.8842742217e+01    0.3446325     0.257325 -79.19  0.000971387    1.896    0.473
       253  -8.7512     60.6630    160.2903   1.0614017238e+02   3.4427623668e+01    0.3656369    0.2149544  74.12   0.00155862    2.214    0.548
       254  -8.4860    242.2275    160.0108   6.4090719785e+01   2.0650094319e+00    0.2327191    0.1597355   7.98  0.000622093    1.776    0.437
       255  -9.8510    250.1714    157.8690   6.2354455058e+01   1.1342337492e+00     0.377267    0.2186605 -37.11 0.0008687662    1.476    0.322
       256  -8.8445    246.7232    155.6692   6.2454566753e+01   2.0519414205e+00    0.4106744    0.1958753 -20.78   0.00157864    3.061    0.673
       257  -8.5848    227.4774    159.1812   6.6452593198e+01   4.7025328247e+00    0.3065757    0.2006454 -55.26  0.001174106    1.985    0.496
       258  -8.4924    237.1035    158.8835   6.4717629687e+01   3.1054722266e+00     0.201463    0.1716598 -41.35 0.0006642937    1.232    0.188
       259  -8.4110    128.2424    159.1441   8.8016210386e+01   2.3755002946e+01    0.2895852    0.1939578  65.98 0.0008188799    2.025    0.506
       260  -9.7266    105.5604    157.6737   9.3618722439e+01   2.8233886632e+01    0.5159525    0.3746147 -85.73  0.001200654    1.732    0.422
       261  -8.3863    196.7458    158.0000   7.2034410567e+01   1.0565814393e+01    0.2173667    0.1922358 -59.13 0.0007292842    1.317    0.241
       262  -8.4106    188.2388    157.8513   7.3754657153e+01   1.2242331333e+01    0.2680159    0.1735866 -44.36 0.0007476812    1.523    0.343
       263  -9.0985    167.6384    157.3102   7.8128661317e+01   1.6429974770e+01    0.3405668    0.2673955 -78.27  0.001076806    1.762    0.433
       264  -8.3267    218.1050    156.8741   6.7656659231e+01   6.7812533656e+00    0.2114729    0.1800089 -54.60 0.0006451608    1.371    0.271
       265  -8.9598    157.6790    156.2849   8.0199501713e+01   1.8641007087e+01    0.3262117    0.2503898 -74.48 0.0009611772    1.736    0.424
       266  -9.3218    119.5618    155.2386   8.9442471280e+01   2.6298814591e+01      0.43074    0.2950336 -78.26  0.001257874    1.986    0.497
       267  -9.3693     49.8897    155.6160   1.0836524073e+02   3.6920311160e+01    0.4688506    0.2448825  66.93  0.001569391    2.610    0.617
       268  -8.3100    242.5578    155.0556   6.3005757779e+01   2.8401042241e+00    0.1957801    0.1477184 -29.56 0.0003906194    1.132    0.117
       269  -8.9252    239.7697    153.0329   6.3042189479e+01   3.6495354108e+00    0.2028223    0.1682277 -44.96 0.0004752552    1.269    0.212
       270  -7.8133    204.5703    155.5130   6.9932538740e+01   9.5475922515e+00    0.1446599    0.1321509 -24.15  0.000124324    1.036    0.035
       271  -8.5621    144.4987    155.0386   8.3086501809e+01   2.1543186900e+01    0.2874406    0.2144951  60.10 0.0008158765    1.568    0.362
       272  -9.5390    132.8880    153.0353   8.5546212665e+01   2.4280992331e+01    0.4656351    0.3487272  80.01  0.001328783    1.843    0.457
       273  -9.2527    133.5844    148.2258   8.4315592262e+01   2.5257451890e+01    0.3730061     0.244422 -43.60   0.00122917    1.528    0.346
       274  -9.7254     68.0855    153.9139   1.0312620342e+02   3.5030065491e+01    0.4591982    0.2926569  74.53  0.001224945    2.001    0.500
       275  -8.1670    232.9587    153.9389   6.4383335230e+01   4.6620786290e+00    0.2050353    0.1623357 -62.43 0.0006395589    1.683    0.406
       276  -8.8069     60.1416    153.1624   1.0519658477e+02   3.6274355636e+01    0.2007744    0.1540835  83.02 0.0006196085    1.356    0.262
       277  -9.3994     19.7837    152.5970   1.1602565994e+02   4.0705288606e+01    0.2190366    0.1342502  78.14 0.0007650872    1.654    0.395
       278  -8.8133     98.3777    150.8623   9.4219861931e+01   3.1129106114e+01    0.3372982     0.243987  88.50  0.001140363    1.773    0.436
       279  -9.7092     29.3099    150.7012   1.1328116987e+02   4.0318870923e+01    0.5127171     0.235901  71.18  0.001979566    3.217    0.689
       280  -9.4752    248.8859    149.4901   6.0825468648e+01   2.7214069748e+00    0.3315917    0.1819654 -39.40 0.0008512544    1.571    0.364
       281  -9.0099    247.0032    143.9627   5.9962665534e+01   3.9560180299e+00     0.278551    0.1612417 -39.50 0.0005747742    1.489    0.328
       282  -9.8336    242.7185    150.0749   6.1935002678e+01   3.6517332828e+00    0.2838389    0.2749293 -73.37  0.001621974    1.317    0.241
       283  -8.7455    189.2981    150.2415   7.1840557225e+01   1.3547173658e+01    0.2645364    0.2297817 -70.42  0.000716397    1.407    0.289
       284  -8.2255    182.2675    151.2333   7.3547841605e+01   1.4755804780e+01     0.199858    0.1767995 -72.50 0.0005616397    1.362    0.266
       285  -8.2845    162.7098    150.4914   7.7736297874e+01   1.8878194829e+01    0.3150941    0.1823885 -56.68  0.001148933    2.072    0.517
       286  -8.4758    212.9920    149.8056   6.7066309619e+01   9.0220479045e+00    0.2471716    0.1904486 -35.66 0.0003916168    1.189    0.159
       287  -8.7688      2.7761    150.1760   1.2017150875e+02   4.2589740124e+01    0.2151154   0.09170125  64.65  0.000942368    2.777    0.640
       288  -8.4630    198.8800    149.0892   6.9631182127e+01   1.1876160910e+01    0.2175154    0.1971874 -65.83 0.0005240186    1.296    0.228
       289 -10.0708     89.1957    146.3953   9.5883924320e+01   3.3753344194e+01    0.6720353    0.3831369 -85.80  0.002341141    3.173    0.685
       290 -10.3794     39.5934    146.8121   1.0995871912e+02   4.0264177130e+01    0.7128124    0.3912475 -76.16  0.002440396    1.724    0.420
       291  -9.4213    233.2229    147.5195   6.2966065141e+01   5.7312644093e+00    0.3165901    0.1770314 -31.67 0.0009443055    1.649    0.394
       292 -10.4483    106.6073    144.0713   9.0565885771e+01   3.1352120628e+01     0.819931    0.5268776 -84.57  0.002165559    2.477    0.596
       293  -9.1387     78.1000    146.8582   9.9097803439e+01   3.5362545970e+01    0.3478507    0.2205377 -89.43  0.001060509    2.153    0.536
       294 -10.4076     54.8683    144.8488   1.0535623608e+02   3.9024454241e+01    0.8242504    0.4201791  71.97  0.002718674    3.497    0.714
       295 -10.0593     55.5213    136.1849   1.0371663752e+02   4.1127073631e+01    0.5176367    0.2661863   3.95  0.001725845    4.415    0.773
       296  -8.3979    223.5904    147.0326   6.4528043766e+01   7.5541928082e+00    0.2087841    0.2021972  89.48 0.0006847522    1.267    0.211
       297  -8.0071    206.7732    146.7433   6.7562926677e+01   1.0784702255e+01    0.1895669    0.1704514 -67.86 0.0007587917    1.334    0.250
       298 -10.2727    148.8739    144.9009   7.9746075165e+01   2.2935435941e+01    0.5923693     0.408843 -87.41  0.001591635    2.530    0.605
       299 -10.1178    139.1694    145.0181   8.2178036261e+01   2.4881947221e+01    0.6489562    0.3801664 -69.53  0.001304501    2.820    0.645
       300  -9.4617    140.1183    137.0916   8.0095521870e+01   2.6496486927e+01     0.347449    0.2473524 -10.77  0.001180169    2.023    0.506
       301  -9.5940     13.1075    146.3188   1.1711973615e+02   4.2777274427e+01    0.3369292    0.1869732  59.79  0.001231633    1.961    0.490
       302 -10.0206    241.3773    137.8069   5.9539041918e+01   5.9673434279e+00    0.4092004    0.2544679 -48.58  0.002062572    1.630    0.387
       303  -9.4480    240.2118    145.2356   6.1317277498e+01   4.9019412783e+00    0.2613601    0.1728608 -40.80 0.0005922588    1.355    0.262
       304  -8.3964    175.4754    146.1927   7.3874673636e+01   1.7173085770e+01    0.2331662    0.2115227  86.82 0.0006276493    1.318    0.241
       305  -9.8191    125.1131    142.8216   8.5303205292e+01   2.8180678387e+01    0.5540986    0.3734967 -82.27   0.00161425    2.341    0.573
       306  -9.8006     73.2869    129.2880   9.7077254866e+01   4.0473289705e+01    0.4818928    0.2996483 -84.29  0.001187187    2.275    0.560
       307  -9.8448     71.3438    119.8513   9.5664971592e+01   4.3100111060e+01     0.596348    0.3137627 -71.00  0.001752304    2.460    0.593
       308  -8.8051    165.4326    144.0905   7.5642856960e+01   1.9691556040e+01     0.270681    0.2255037  54.07 0.0005746796    1.300    0.230
       309  -7.9374    194.2958    143.6783   6.9324604451e+01   1.3844345281e+01    0.1456092    0.1185552 -73.92 0.0002956816    1.617    0.382
       310 -10.0529      2.6528    141.3132   1.1939297778e+02   4.4728052047e+01    0.5311043    0.2284746  89.09  0.002205563    2.396    0.583
       311  -8.3418    181.9253    141.6711   7.1430500848e+01   1.6774418755e+01    0.3012574    0.1943228 -58.10  0.000917077    1.904    0.475
       312  -8.1658    250.3351    141.0310   5.8829408921e+01   3.8841363506e+00    0.1935602    0.1452493 -34.29 0.0005488083    1.121    0.108
       313  -9.6348    242.6750    143.3047   6.0508631852e+01   4.8051814340e+00     0.341529    0.1865253 -28.87  0.001566955    1.761    0.432
       314 -10.0091     23.4564    138.1651   1.1333814149e+02   4.3949141363e+01    0.5282335    0.2657004  67.99  0.002097263    2.636    0.621
       315  -7.8718    218.6448    138.8505   6.3596065540e+01   9.9646783606e+00    0.2068417    0.1201741 -46.39 0.0004236381    1.687    0.407
       316  -8.5581    172.4693    138.3469   7.2707620930e+01   1.9435974640e+01    0.3226678    0.2358483 -74.59 0.0009025506    1.980    0.495
       317  -8.3981    207.7284    137.9640   6.5395194315e+01   1.2257763815e+01    0.2706742    0.1871423 -55.16 0.0009919907    1.649    0.394
       318  -8.6754    197.5946    137.5672   6.7256597759e+01   1.4372066284e+01    0.2891496     0.205556 -53.27 0.0007217364    1.526    0.344
       319  -8.3737    188.3088    136.5793   6.8899193118e+01   1.6479014449e+01    0.2791697    0.1690253 -50.33 0.0007514135    1.738    0.425
       320  -8.2681    162.6674    136.4016   7.4466077244e+01   2.1920381271e+01    0.2761447    0.1839713 -53.65 0.0006341022    1.609    0.379
       321  -8.9931    150.6866    136.1025   7.7237485824e+01   2.4517238061e+01    0.3886991    0.2621219  19.81  0.001597348    1.992    0.498
       322 -10.5290     83.2416    132.8241   9.4839096822e+01   3.8079499451e+01    0.7207758    0.3678987 -62.24   0.00205806    2.019    0.505
       323  -8.7065     85.1619    122.6005   9.2014036890e+01   4.0297191132e+01    0.5069405    0.2963956   7.02  0.001768812    3.335    0.700
       324  -9.2746     38.9987    135.9644   1.0855128621e+02   4.3043557361e+01    0.3494335    0.2014227 -87.06 0.0009046321    1.974    0.493
       325  -9.0853    250.7273    130.0910   5.6457047077e+01   5.6361013791e+00    0.4534911    0.1093576 -37.98  0.001492048    3.491    0.714
       326  -9.1450    248.3830    135.3473   5.7925462202e+01   5.1634744392e+00     0.299134    0.1836186 -39.97 0.0007307441    1.394    0.283
       327  -8.6390    247.0104    130.4650   5.7091039002e+01   6.2208944970e+00    0.2527543    0.1609369 -47.51 0.0006256167    1.507    0.336
       328  -9.5421    134.1329    124.7195   7.8612819609e+01   3.0552754474e+01     0.513337    0.2978923  20.70  0.001771583    2.876    0.652
       329  -8.6983    132.4715    136.0222   8.1803527151e+01   2.8304828386e+01    0.2319478    0.2157366  38.78 0.0004495584    1.093    0.085
       330 -10.0392    132.0734    131.3825   8.0795816954e+01   2.9456122829e+01    0.4958978    0.3446324 -74.77 0.0009755915    2.041    0.510
       331 -11.0383     69.3739    139.9493   1.0032389521e+02   3.8358515658e+01     1.043603    0.4135633 -58.91  0.003805359    2.280    0.561
       332  -8.4880    179.6728    134.2483   7.0160913879e+01   1.8763544751e+01      0.25916     0.229783 -72.08 0.0008184889    1.298    0.230
       333  -8.1840    237.4779    133.6771   5.9265902165e+01   7.3733634426e+00    0.2611622    0.1160565 -42.29 0.0009854977    1.993    0.498
       334  -8.0931    231.5062    134.0616   6.0321032574e+01   8.4002371342e+00    0.2097111    0.1229931 -37.80 0.0003781206    1.496    0.332
       335  -9.1689    112.7796    133.3782   8.6477514437e+01   3.2796547413e+01    0.3377531    0.2516504  78.48 0.0009709115    1.823    0.451
       336 -10.5034     97.9700    130.0975   8.9925039666e+01   3.6295120513e+01      1.24793     0.307681 -49.71  0.001950974    3.722    0.731
       337  -8.3920    101.5209    131.9922   8.9333043348e+01   3.5204385688e+01    0.2467727    0.2113717  -6.64 0.0006803307    1.370    0.270
       338  -9.3031    142.9602    131.4642   7.8024092782e+01   2.7177227105e+01    0.3992198    0.2558166 -61.74 0.0009730154    1.916    0.478
       339  -9.3154    153.0112    129.0620   7.4960118674e+01   2.5573110156e+01      0.47539    0.2568366 -56.59 0.0009372999    2.257    0.557
       340  -8.7681    153.7152    122.9123   7.3251593039e+01   2.6757303066e+01    0.2951275    0.2217702 -28.12  0.001112483    1.442    0.306
       341 -10.2324     12.7701    128.9183   1.1524473673e+02   4.7060707625e+01    0.5499758    0.2743813  86.52  0.002075037    2.305    0.566
       342  -7.7573    220.6484    130.2869   6.1312463161e+01   1.1137959681e+01     0.139704    0.1106854 -73.19 0.0007022904    1.664    0.399
       343  -8.0200    211.9101    129.4285   6.2661798588e+01   1.3023690842e+01    0.2866021    0.1675928 -66.83  0.001019986    3.335    0.700
       344  -8.2955    204.6808    130.3850   6.4217382091e+01   1.4307991207e+01    0.2176132    0.1722325 -72.20  0.000753211    1.633    0.388
       345  -8.3145    192.7146    130.1941   6.6493043900e+01   1.6824884200e+01    0.2371782    0.1792785 -54.69 0.0005867808    1.419    0.295
       346  -9.1902    168.3897    129.5506   7.1499564775e+01   2.2152530005e+01    0.3149796    0.2532052 -72.21  0.001040704    1.535    0.348
       347  -8.5860     25.4327    129.9098   1.1166165889e+02   4.5828930109e+01    0.2531402     0.170618 -17.21  0.001337584    2.017    0.504
       348  -8.3013    186.4895    129.5161   6.7593730800e+01   1.8274791620e+01    0.1517704    0.1439668 -40.40 0.0003062075    1.040    0.039
       349 -10.5832     60.0944    125.3619   1.0032554794e+02   4.3270526920e+01    0.7613844    0.4536612  79.75  0.002445735    2.782    0.641
       350  -8.9951     59.0283    115.6977   9.8684745357e+01   4.5810395872e+01    0.4795433    0.2852513 -15.16  0.001920884    2.802    0.643
       351 -10.7809     44.9113    123.6562   1.0472962914e+02   4.5503784418e+01     1.111424    0.5814599  77.00  0.003916532    3.763    0.734
       352 -10.0935    118.1501    125.5351   8.3113338457e+01   3.3618512975e+01    0.6210843    0.4107643  78.68  0.001465523    2.673    0.626
       353  -8.0796    228.4947    125.4748   5.8904025441e+01   1.0483247112e+01    0.1416603    0.1244404 -41.35 1.493975e-05    1.063    0.060
       354  -8.8639    179.0656    124.4958   6.7923364846e+01   2.0882588120e+01    0.2820338     0.215529 -50.05 0.0005939459    1.316    0.240
       355 -10.2602     28.3815    122.4740   1.0967019735e+02   4.7419722978e+01    0.6928853    0.3496371  74.63  0.002696659    3.286    0.696
       356  -8.1981    188.5014    123.9976   6.5847685388e+01   1.8941908631e+01    0.2327036    0.1430513 -41.78 0.0004907749    1.539    0.350
       357  -9.0566    158.5288    121.6424   7.1789066588e+01   2.5975671700e+01    0.3561507    0.2742585 -77.23  0.001231004    1.721    0.419
       358  -7.9666    194.9969    122.0243   6.4081545435e+01   1.7936021970e+01    0.2330741    0.1782089 -69.75 0.0005595649    1.653    0.395
       359  -8.6441    171.9380    121.6766   6.8759479055e+01   2.3017413434e+01    0.2907869    0.2175706 -49.62 0.0005553723    1.341    0.254
       360  -7.6226    203.2669    121.7038   6.2432826033e+01   1.6247095746e+01    0.1429086     0.112378 -66.42 0.0001906795    1.514    0.340
       361 -10.0546    141.6037    117.9489   7.4961270020e+01   3.0474293643e+01    0.7247941    0.3300005 -47.13  0.001872823    2.186    0.542
       362  -9.7640    130.6897    118.5087   7.7936105296e+01   3.2679521986e+01    0.4865141    0.3203363 -69.50  0.001161083    2.163    0.538
       363  -9.1411    120.8825    118.8011   8.0666891495e+01   3.4637585734e+01    0.3240153    0.1908285  20.61   0.00115576    2.660    0.624
       364  -9.7282      2.9638    117.4263   1.1674846271e+02   5.0481294828e+01    0.4671398    0.2302545  72.28  0.002140849    2.668    0.625
       365  -7.7044    231.5093    117.5493   5.6636509853e+01   1.1293541166e+01    0.1406022    0.1225331 -44.84 0.0001380315    1.068    0.064
       366 -10.1072    109.3619    114.2595   8.2753487208e+01   3.7972772887e+01    0.5839966    0.3784765 -70.05  0.001390975    2.153    0.536
       367  -8.9370    110.2906    107.0127   8.0563253725e+01   3.9454964887e+01    0.3904325    0.2090374  25.94   0.00131597    2.655    0.623
       368  -7.5977    219.3043    116.6302   5.8405616583e+01   1.3873533522e+01    0.1495389    0.1058758 -64.42 0.0003040171    1.751    0.429
       369  -8.1526    185.5594    116.0404   6.4480805845e+01   2.1149820224e+01    0.2307403    0.1424181 -42.93 0.0004518507    1.541    0.351
       370 -11.1679    248.3753    107.8053   5.2000770569e+01   9.7516583776e+00    0.6856761    0.2863337 -46.30  0.002918073    2.182    0.542
       371 -10.4131     92.8370    111.1353   8.6883407035e+01   4.1763006576e+01     1.014278    0.3882697 -49.81  0.002535352    2.457    0.593
       372 -10.0360     79.0018    112.5418   9.1559382038e+01   4.3730343237e+01    0.6421919    0.4184997 -85.92  0.002098998    2.494    0.599
       373  -8.7925     78.2905    105.4148   9.0020741191e+01   4.5547760133e+01    0.3489518    0.2555569  -2.70  0.001638111    1.775    0.437
       374  -8.4345     26.7870    113.7138   1.0876385982e+02   4.9719545158e+01    0.2027559    0.1543703 -32.93  0.001010602    1.413    0.292
       375 -10.3373    133.6754    109.4159   7.4743996983e+01   3.4060996953e+01    0.6925744    0.3315831 -50.40  0.001939802    2.205    0.547
       376  -9.9438    121.8737    112.3736   7.8715912117e+01   3.5900347825e+01    0.3892673    0.3085195 -64.76 0.0007469322    1.423    0.297
       377  -9.8912     14.0689    111.1276   1.1244950911e+02   5.1316942688e+01    0.4615407    0.2532151  87.16   0.00168644    2.196    0.545
       378  -8.5324    174.8766    112.0609   6.5685322755e+01   2.4314981190e+01    0.2423768    0.2035666 -69.99 0.0006605022    1.353    0.261
       379  -8.5702    159.1846    111.7373   6.9077430976e+01   2.7912844805e+01    0.2729784     0.203738 -52.84 0.0006475323    1.388    0.279
       380 -10.1325     66.2905    110.7254   9.5222999889e+01   4.6056571088e+01    0.4557182    0.3323932 -90.00  0.001475666    1.824    0.452
       381  -8.8599     42.7744    109.3430   1.0270539645e+02   4.9278150284e+01     0.313493    0.1361122  10.79  0.001087577    4.088    0.755
       382  -8.1944    189.1478    108.1116   6.1781595063e+01   2.1890213200e+01    0.2106794    0.1703262 -59.92  0.000449782    1.315    0.239
       383 -10.2503    119.3095    106.0236   7.7716337248e+01   3.7852036671e+01    0.4696537    0.3466735 -48.85  0.002183569    1.343    0.256
       384 -10.6716    108.8785     98.8325   7.8710628959e+01   4.1563645650e+01     0.877113    0.5195547  69.07  0.001118797    3.446    0.710
       385  -9.3299    107.4596     92.7233   7.7370964417e+01   4.3175025525e+01    0.6532953    0.2948053  29.29  0.002081994    3.375    0.704
       386  -9.4811    139.7796    104.3002   7.1774040438e+01   3.3821270645e+01    0.4792727    0.2896094 -52.01  0.001377232    1.770    0.435
       387 -10.6762     45.6665    102.3895   1.0026468552e+02   5.0656385404e+01    0.8050623    0.4793377  77.97  0.003200487    3.149    0.682
       388  -9.4183     46.0652     92.5725   9.7864509090e+01   5.2946692586e+01    0.4426371    0.2324129  10.45  0.001873719    2.699    0.630
       389 -10.6572     22.7958    102.5476   1.0815996774e+02   5.2761786668e+01    0.7303665    0.3963804  79.20  0.002801367    3.038    0.671
       390  -8.6325    166.5378    104.1212   6.5408704843e+01   2.7790955475e+01     0.313212    0.2011868 -52.68 0.0006397142    1.664    0.399
       391  -9.5984    150.6811    103.3330   6.8824028271e+01   3.1572248871e+01    0.4485193    0.2983328 -65.72  0.001320735    2.041    0.510
       392  -7.9517    153.3031    115.6822   7.1492160061e+01   2.8398068674e+01    0.1580365    0.1257905 -81.61 0.0004358166    1.624    0.384
       393  -9.8281    128.3609    102.2934   7.4198408747e+01   3.6752661871e+01    0.3370086    0.2819076 -59.41 0.0008452588    1.284    0.221
       394  -8.9759      6.9862    103.0582   1.1356011607e+02   5.3704752147e+01    0.2432126    0.1719118  72.40  0.001045616    1.652    0.395
       395  -7.9069    175.4408    102.2007   6.3006340617e+01   2.6127403430e+01     0.217058    0.1393697 -50.46  0.000526904    1.599    0.375
       396  -9.4122     82.2140    100.1009   8.7355865900e+01   4.6158478996e+01    0.4244955    0.2915053 -78.66 0.0009183859    2.184    0.542
       397  -8.4467    159.7277    100.9072   6.6059942135e+01   2.9994930062e+01    0.2860339    0.2043484 -55.93 0.0004978004    1.525    0.344
       398 -10.3880     63.7833     95.9990   9.2463851623e+01   4.9919086951e+01    0.7436728    0.3787099 -67.40  0.001953517    2.711    0.631
       399  -8.8097     64.4791     88.0263   9.0084480369e+01   5.1651532022e+01    0.3451475    0.1939413   4.12  0.001285214    3.177    0.685
       400  -8.2865    192.9777    115.1916   6.2804341956e+01   1.9689762072e+01    0.2286268    0.1947158 -68.96 0.0005926148    1.316    0.240
       401  -9.3438     94.9216     97.0621   8.2454556841e+01   4.4633410861e+01    0.3665898     0.255256 -57.89 0.0005730004    1.559    0.358
       402  -8.1274    151.3433     95.3436   6.6457935017e+01   3.3035485352e+01    0.1633369    0.1238153   7.56 -0.000371004    1.787    0.440
       403  -8.1988    164.9724     94.0402   6.3029297770e+01   3.0123067506e+01    0.2384255    0.1833537 -73.59  0.000497135    1.609    0.379
       404  -9.2990    139.1950     92.4008   6.8570717955e+01   3.6406944066e+01    0.4510209    0.3174572 -77.36 0.0007937133    2.170    0.539
       405  -8.9017    127.4564     83.8286   6.9071607029e+01   4.0753046535e+01     0.415513    0.2498758  13.71  0.001379019    3.403    0.706
       406  -9.4917    120.3575     93.3126   7.3824818020e+01   4.0378507444e+01    0.2887305    0.2565904 -23.79  0.001480721    1.142    0.124
       407  -9.9271    124.5397     90.9233   7.1971833891e+01   3.9972453995e+01     0.448232     0.356624 -68.19 0.0009053219    1.532    0.347
       408  -8.2348    176.4725     93.1096   6.0388452497e+01   2.7616712027e+01    0.2317428     0.144598 -41.17 0.0005832325    1.544    0.352
       409  -9.5691      5.0550     92.2496   1.1254542837e+02   5.6370209654e+01    0.3236512    0.1924247  69.47  0.001190834    2.318    0.569
       410  -8.3351    167.0485    114.4768   6.8008361787e+01   2.5582277749e+01    0.2504857    0.2020603 -41.33 0.0007470832    1.201    0.167
       411  -8.1561    157.6451     91.8113   6.4023756216e+01   3.2262674663e+01    0.2165799    0.1385179 -48.35 0.0003070227    1.597    0.374
       412  -9.7225     34.8406     89.7626   1.0128835807e+02   5.4767464602e+01    0.4797579    0.2767334 -82.61   0.00175317    2.604    0.616
       413  -8.6639    193.0844     90.5241   5.6569685077e+01   2.4250533276e+01    0.2470666    0.1965306  -9.84  0.001132363    1.565    0.361
       414  -9.1429     97.1657     88.7796   7.9350106160e+01   4.6030529988e+01    0.3181054    0.2251238 -38.01  0.001506704    1.378    0.274
       415  -8.1635    150.8404     89.0631   6.4800473535e+01   3.4380617581e+01    0.2515444    0.1686147 -63.33 0.0005747892    1.927    0.481
       416 -10.4460     86.8586     85.5859   8.1705763769e+01   4.8607734796e+01    0.8261319    0.5063639 -41.40  0.001545187    1.559    0.359
       417  -8.6123    248.9955     87.3363   4.7473870574e+01   1.2936204979e+01    0.1991206    0.0913956  37.39 0.0007052129    4.404    0.773
       418  -9.9629     48.3839     83.6340   9.4744252499e+01   5.4738349919e+01    0.5880124    0.3599672 -69.19  0.002258297    2.027    0.507
       419  -9.9692    104.8172     83.2212   7.5308731888e+01   4.5697474359e+01    0.4479448    0.3246018 -69.70 0.0009109084    1.955    0.489
       420  -7.5703    170.3385     83.6791   5.9061868729e+01   3.0788030953e+01    0.1584614     0.116879 -74.95 0.0007050207    1.713    0.416
       421  -9.2224    140.8740     82.7550   6.5336529895e+01   3.7904850522e+01    0.2924889    0.2168517 -50.25 0.0005290037    1.412    0.292
       422  -8.6868     63.7036     82.1884   8.8704944585e+01   5.3062486289e+01    0.2150156    0.1722959 -65.80 0.0009422236    1.449    0.310
       423  -9.1665     23.0631     90.2031   1.0570304811e+02   5.5679805129e+01    0.3366339    0.2508796 -19.04   0.00120474    1.468    0.319
       424  -9.7753     24.6578     80.5406   1.0300401905e+02   5.7788797875e+01    0.4449718    0.2723727 -88.86  0.001517665    2.541    0.606
       425  -9.5560      9.7596     80.9777   1.0881293699e+02   5.8720396665e+01    0.3149605    0.1984373  61.50  0.001416337    2.311    0.567
       426  -8.5321    249.6786     81.3196   4.6088384175e+01   1.3744078606e+01    0.1368898    0.0872953 -62.50   0.00027634    1.669    0.401
       427  -8.4372    150.0844     80.5644   6.2520357452e+01   3.6158169347e+01    0.3082635    0.2022234 -53.66 0.0009053266    1.699    0.411
       428  -8.7596    119.2988     80.4352   7.0248465833e+01   4.3214754711e+01    0.3056742    0.2365476 -87.09 0.0008270676    1.863    0.463
       429  -8.9247     74.6428     80.5392   8.4323766636e+01   5.1755987656e+01    0.3138278    0.2114168 -59.99 0.0009412865    1.746    0.427
       430  -8.3248    166.8385     79.6811   5.8658744426e+01   3.2335202212e+01    0.2494018    0.1981007 -28.18 0.0005055266    1.333    0.250
       431  -8.2015    184.1984     78.2644   5.4953592247e+01   2.8458227696e+01    0.2369705   0.09818843 -45.16 0.0006672862    2.385    0.581
       432  -9.3329    128.1760     75.5201   6.6336738097e+01   4.2175528792e+01    0.3883515    0.2532899 -53.96 0.0006966511    1.787    0.440
       433  -8.3189    157.8862     84.0906   6.1793612955e+01   3.3663881026e+01      0.23222    0.2016901 -68.35  0.000433301    1.244    0.196
       434  -8.2524    157.0008     76.5055   5.9808595140e+01   3.5247293972e+01    0.1996113    0.1337654  86.50 0.0004231922    2.226    0.551
       435  -8.4688    140.5296     75.3669   6.3206453570e+01   3.9353640261e+01    0.2666718    0.2062042 -58.39 0.0006867914    1.458    0.314
       436 -10.1123     63.2022     73.6088   8.6308217411e+01   5.4977874248e+01    0.4967239    0.2754695 -58.24  0.001206356    2.146    0.534
       437  -9.7161     82.4075     72.7698   7.9193922993e+01   5.2056114397e+01    0.4291649    0.3140896 -73.28  0.001119315    2.152    0.535
       438  -8.1383    163.4059     73.2415   5.7532898429e+01   3.4280872272e+01    0.2136139    0.1343299 -47.90 0.0009392029    1.634    0.388
       439  -7.7111    151.5110     73.4970   6.0122766796e+01   3.7087972971e+01    0.1485049    0.1465142  84.04 1.716571e-05    1.008    0.008
       440  -8.8107    115.7167     72.9955   6.8906892008e+01   4.5413444448e+01    0.2676809     0.203001 -54.89 0.0007329603    1.506    0.336
       441  -9.4302    106.1047     71.9508   7.1349480779e+01   4.7652519846e+01    0.3149019    0.2368739 -59.73 0.0008726292    1.644    0.392
       442  -9.4375     95.1956     71.1551   7.4448263823e+01   5.0000089675e+01    0.4896993    0.2426182 -52.37  0.001055538    2.522    0.603
       443  -9.6972     97.2950     61.3898   7.0490920729e+01   5.1387945438e+01    0.5547124    0.3395531 -24.41   0.00203346    1.853    0.460
       444  -8.5698     42.3435     72.9660   9.4116547336e+01   5.7790608910e+01    0.1948439    0.1542594 -45.04 0.0004923009    1.116    0.104
       445  -9.1814     28.7366     70.8338   9.8980262198e+01   5.9611477706e+01    0.4729855    0.2057488 -22.36  0.001724638    3.857    0.741
       446  -7.8320    175.4855     72.5303   5.4989406356e+01   3.1500983740e+01    0.1454322    0.1419107 -77.26 0.0001221879    1.026    0.025
       447  -9.5812     51.3686     69.5618   8.9557260411e+01   5.7441778007e+01    0.4591099    0.2565373 -65.34  0.001428935    2.632    0.620
       448  -9.0918     16.6600     70.1819   1.0374175496e+02   6.0707472518e+01     0.256199    0.1926592 -88.73  0.001043177    1.743    0.426
       449  -8.1014    157.3566     70.1838   5.7893511677e+01   3.6257510064e+01    0.2161613    0.1315026 -46.58 0.0004456856    1.694    0.410
       450  -8.8171    147.0164     68.3145   5.9570247403e+01   3.9055678222e+01    0.3143648    0.1946233 -45.60 0.0006875755    1.675    0.403
       451  -8.5401    138.6631     66.2604   6.0854432144e+01   4.1388678621e+01    0.2671798    0.2115726 -65.09 0.0007486054    1.494    0.331
       452  -8.9758    121.6064     66.0142   6.5043489817e+01   4.5371051996e+01    0.3316799    0.2408938 -57.33 0.0008017463    1.668    0.401
       453  -8.9095     84.4685     64.5287   7.5741849139e+01   5.3284516870e+01    0.3799919     0.226168  -0.72   0.00140873    3.106    0.678
       454  -8.7018     37.4946     64.3303   9.3534580912e+01   6.0151876954e+01    0.2514028    0.2011227  87.65  0.000894226    1.934    0.483
       455  -8.8241    110.1661     63.7329   6.7445373412e+01   4.8290411614e+01    0.2783304    0.2188395 -64.44 0.0007209714    1.645    0.392
       456  -7.9881    158.1848     62.1205   5.5356018414e+01   3.7384774301e+01    0.2002604    0.1669733 -71.24 0.0002398733    1.314    0.239
       457  -9.6421     73.3174     59.6365   7.7943201939e+01   5.6155829878e+01    0.3849024    0.2360654 -51.26  0.001057353    1.889    0.471
       458  -8.7216     64.1229     63.8540   8.2799967622e+01   5.6822116055e+01    0.4526481    0.2419556 -14.35  0.001605689    3.572    0.720
       459  -8.1645    146.7314     58.9920   5.6788563164e+01   4.0652692212e+01    0.2018213    0.1878928 -36.62 0.0004132371    1.107    0.096
       460  -9.9488     23.4482     56.5424   9.7183181444e+01   6.3093819779e+01    0.4119328    0.2836141 -87.94  0.001912909    2.634    0.620
       461  -9.6516      7.5462     57.3497   1.0443691164e+02   6.4046422872e+01    0.2960015    0.2171929  89.34  0.001159124    1.928    0.481
       462  -8.2346    130.8309     58.0682   6.0121473168e+01   4.4581732861e+01    0.2212257     0.195401 -74.68 0.0005032537    1.303    0.233
       463  -9.2111    119.0610     55.2289   6.2141859501e+01   4.7746809707e+01    0.4569092    0.2080086 -45.38  0.001573332    2.509    0.601
       464  -7.6050    193.7062     56.3913   4.7616867686e+01   2.9699851292e+01    0.1537681    0.0972799 -63.72 0.0007009116    1.781    0.438
       465  -8.3152    139.9106     56.1295   5.7390631137e+01   4.2738576796e+01     0.223168    0.1930993 -71.45  0.000519526    1.301    0.231
       466  -9.4334     62.8258     54.5564   8.0045497099e+01   5.8783164375e+01    0.3904694    0.2091502 -51.27 0.0008894393    2.199    0.545
       467  -8.6348     44.1980     55.6405   8.7937255285e+01   6.1145304583e+01    0.2399312    0.1994024 -71.23 0.0008177334    1.701    0.412
       468  -9.0977     53.9517     53.8192   8.3281878130e+01   6.0221418654e+01    0.3622115     0.225538 -59.11  0.001360809    2.260    0.557
       469  -8.5159    105.6383     53.0736   6.5083939293e+01   5.1053297294e+01    0.2265368    0.2015987  63.78 0.0006571847    1.277    0.217
       470  -9.4791     92.4013     50.7435   6.8244966995e+01   5.4174488997e+01    0.3622343    0.2352016 -47.60  0.001034352    1.803    0.445
       471  -8.4438     74.5066     51.8067   7.4684195929e+01   5.7352559797e+01    0.3345753    0.1747692  23.00  0.001365029    2.546    0.607
       472  -8.1129    144.5752     49.0673   5.4161578789e+01   4.2675276436e+01    0.2132159    0.1406019 -33.62  0.000493683    1.582    0.368
       473  -8.2259    129.9639     49.4838   5.7518823565e+01   4.6107690122e+01     0.215504    0.1370591  56.00 0.0003793238    1.515    0.340
       474  -8.6524    120.8642     47.5079   5.9055932821e+01   4.8517235276e+01    0.2396622    0.1955358 -27.81 0.0005037531    1.279    0.218
       475  -8.3969    112.1984     46.9068   6.1088235459e+01   5.0569063020e+01     0.206756     0.191985 -64.63 0.0006489051    1.258    0.205
       476  -9.0784     82.0383     46.6902   7.0132134885e+01   5.6837403997e+01    0.2580216    0.2159269 -49.39 0.0006310343    1.450    0.310
       477  -8.4353     45.0151     44.7852   8.3679763804e+01   6.3065108207e+01    0.2228328    0.1635526 -35.67 0.0005760399    1.243    0.196
       478  -9.1982     16.4288     44.6032   9.6658488706e+01   6.6036868128e+01    0.2395598    0.1926232 -71.12 0.0009021648    1.672    0.402
       479  -8.7101    132.7812     43.4852   5.4896306814e+01   4.6298488684e+01    0.2603315    0.2112397 -70.89 0.0006472565    1.479    0.324
       480  -8.9561     92.8261     42.8709   6.5189620868e+01   5.5310146265e+01    0.2846393    0.1882814 -13.42  0.001391911    1.739    0.425
       481  -9.2656     69.6277     41.6743   7.2584976291e+01   5.9870094981e+01    0.3358794    0.2498519 -55.90   0.00109275    1.919    0.479
       482  -8.9506     57.9050     42.2543   7.7331176958e+01   6.1683368474e+01    0.3013951    0.2005541 -56.37  0.001504408    2.251    0.556
       483  -9.7105      5.1027     41.8780   1.0126239481e+02   6.7328797432e+01    0.3505043    0.2007154 -72.18  0.001756572    2.414    0.586
       484  -7.7391    140.2893     41.6526   5.2696257329e+01   4.4747528817e+01    0.1442694    0.1068455 -67.63 0.0004259098    1.660    0.398
       485  -8.7462    105.9176     41.2443   6.0763818974e+01   5.2775166427e+01    0.2001505    0.1894879  80.33 0.0005604124    1.240    0.193
       486  -8.5219     36.6595     40.8083   8.5854077322e+01   6.4793231743e+01    0.2051836    0.1890859 -69.52 0.0006429013    1.615    0.381
       487  -8.6063     95.5848     37.8546   6.2453787111e+01   5.5460460242e+01    0.2450529    0.1577587 -43.28 0.0006617775    1.792    0.442
       488  -8.2367     80.9107     36.9312   6.6723770102e+01   5.8531346781e+01    0.1902314    0.1688845 -74.77 0.0005576811    1.630    0.386
       489  -9.5073     26.1711     35.5173   8.8720743130e+01   6.6858664643e+01    0.2975922    0.2150525 -55.58 0.0008118613    1.734    0.423
       490  -8.0357    133.4986     36.4594   5.2419891043e+01   4.7062012004e+01    0.1394233    0.1293404  54.63  0.000228694    1.012    0.012
       491  -8.4374    126.0066     35.5416   5.3740756775e+01   4.8958504472e+01    0.2011181    0.1836304 -21.15 0.0003282295    1.170    0.145
       492  -7.9022    158.2215     35.6345   4.7475861231e+01   4.1158204862e+01    0.1941831    0.1151737  53.46 0.0002087032    1.585    0.369
       493  -8.5984    111.8323     34.3936   5.6710641562e+01   5.2379711558e+01    0.2949845    0.1702827 -38.15  0.001398736    1.876    0.467
       494  -8.0016     88.8213     34.7844   6.3320949622e+01   5.7273675405e+01    0.1703135    0.1631334 -73.93 0.0005452771    1.343    0.255
       495  -8.8080     48.6147     33.5021   7.7619190859e+01   6.4466170525e+01    0.2202092    0.1980264 -15.14 0.0007040389    1.219    0.180
       496  -8.2082    119.2493     33.2314   5.4489258089e+01   5.0828646496e+01    0.1832753    0.1591153 -64.86 0.0006472861    1.368    0.269
       497  -9.0627     60.6188     32.5878   7.2306114587e+01   6.2766616584e+01    0.2597086    0.1822925 -42.76 0.0004451449    1.666    0.400
       498  -8.6401     72.1188     31.1255   6.7394726780e+01   6.0987073107e+01    0.2580008    0.1692726 -52.83  0.001171936    2.345    0.574
       499  -7.7849    139.4241     31.5050   4.9601042244e+01   4.6249990200e+01    0.1361932    0.1273641  65.42 0.0001860895    1.029    0.028
       500  -8.9475     12.9549     30.3239   9.3341008937e+01   6.8952525125e+01    0.2620929    0.1564095 -58.66  0.001253518    2.053    0.513
       501  -8.1022    125.5201     29.8021   5.1881234752e+01   4.9778505399e+01    0.3336723     0.199952 -78.15  0.001312343    3.138    0.681
       502  -8.3185     41.9988     29.9817   7.9028155257e+01   6.5927898368e+01    0.1530584    0.1238911  -6.81 0.0004959966    1.002    0.002
       503  -8.3490    101.2635     29.2356   5.7556433124e+01   5.5370456254e+01    0.1740379    0.1581464 -60.79 0.0007440593    1.361    0.265
       504  -8.8100     81.4623     27.5585   6.2747352064e+01   5.9688762931e+01    0.2483272     0.204958 -78.41 0.0007769915    1.939    0.484
       505  -8.7914      3.8415     27.6590   9.7160311393e+01   7.0069607739e+01    0.2059317    0.1462162 -51.19  0.000793519    1.399    0.285
       506  -8.0856    109.7779     27.0057   5.4521583643e+01   5.3746128808e+01    0.1692377      0.11103 -25.05 0.0006909026    1.641    0.390
       507  -9.1324     91.7277     26.3144   5.9094094719e+01   5.7759663667e+01    0.2855627     0.195667 -43.24  0.001082057    1.763    0.433
       508  -8.4058    231.6431     22.7860   3.5237350410e+01   2.5564461655e+01    0.1685861   0.09481685 -46.03 0.0002937945    1.545    0.353
       509  -8.3974    104.1826     23.1091   5.4459124167e+01   5.5441856434e+01    0.1715053    0.1600957 -82.11 0.0007151324    1.297    0.229
       510  -8.0420     34.4833     23.0052   7.9431553039e+01   6.7958553972e+01    0.1719772    0.1053769 -34.88 0.0004223302    1.517    0.341
       511  -8.9382     63.6908     21.1293   6.6150669898e+01   6.3799301154e+01    0.2715192     0.191312 -49.11 0.0009950167    2.083    0.520
       512  -8.6767     48.4506     21.7919   7.2547429435e+01   6.6202763629e+01    0.1968623    0.1876902  14.11 0.0006495896    1.413    0.292
       513  -7.8536    120.7016     21.3375   4.9970052078e+01   5.1860737459e+01    0.1324875    0.1015135 -68.15 0.0006466604    1.658    0.397
       514  -8.1644     19.4146     21.2842   8.6229682568e+01   6.9901595995e+01    0.1534338    0.1017229 -46.08 0.0009473606    1.656    0.396
       515  -9.0174     74.0651     19.3212   6.1691626354e+01   6.2113887891e+01    0.2765333     0.182334 -42.22  0.000773368    1.916    0.478
       516  -7.9057     12.2885     20.6686   8.9783893625e+01   7.0648147305e+01   0.09505609   0.09173995 -48.46 0.0002708526    1.623    0.384
       517  -8.6450    232.5977    247.5993   8.2058703541e+01  -9.6379077157e+00    0.2074133    0.1875561 -34.44  0.000927638    1.686    0.407
       518  -8.0420    112.8030     16.8164   5.0061712751e+01   5.4155576002e+01    0.1698542    0.1519982 -78.39 0.0004657265    1.325    0.245
       519  -7.9537    120.3884     16.1854   4.8217986621e+01   5.2459440055e+01    0.1760344    0.1169894 -39.92 0.0006665092    1.704    0.413
       520  -7.9852     30.2000     16.1702   7.8328375340e+01   6.9475524833e+01     0.147284    0.1312406 -14.35  0.000609854    1.359    0.264
       521  -9.1329    175.7242    247.9701   9.2807305266e+01  -1.7466810330e+00    0.3036964    0.2380549  73.85   0.00130887    2.177    0.541
       522  -7.8045      7.6780     15.3908   9.0043430640e+01   7.1873454722e+01   0.09521575   0.09133444  88.43 0.0007005982    1.864    0.464
       523  -7.8728     17.2451     14.3905   8.4229088539e+01   7.1172152038e+01     0.141425    0.0977373  26.32 0.0003049657    1.585    0.369
       524  -8.2492     38.5384     18.1051   7.5247843351e+01   6.8127447503e+01    0.1761952    0.1051662 -30.52 0.0008959614    1.561    0.359
       525  -7.5125     76.6739     10.3831   5.6937798657e+01   6.2553670949e+01    0.1194657   0.09819409 -64.01 0.0007015774    1.853    0.460
       526  -8.9260    132.4245    248.0162   1.0146432430e+02   4.7911460091e+00    0.2957497    0.1870329  63.57  0.000724769    2.095    0.523
       527  -8.2737    113.1694    248.7345   1.0542834166e+02   7.5455324151e+00    0.2138204    0.1372242 -81.61 0.0009011524    2.170    0.539
       528  -9.2739    103.8285    246.8347   1.0709467871e+02   9.2526364938e+00    0.4172584    0.2331242 -85.74  0.001988656    2.875    0.652
       529  -8.9792    242.9045    247.0476   8.0157691749e+01  -1.0863103438e+01    0.2789844    0.1377815 -25.73  0.001379585    1.934    0.483
       530  -8.2531    218.5171    247.6255   8.4606798161e+01  -7.7931045406e+00    0.2157814    0.1094803 -36.82  0.001139676    2.110    0.526
       531  -8.5246    155.9758    248.1427   9.6746661378e+01   1.1970286880e+00    0.1848934    0.1507883  49.30 0.0005960169    1.298    0.229
       532 -10.0298    223.8661    244.2751   8.3092486411e+01  -8.0665342340e+00    0.4387881    0.2304138 -44.36  0.002352018    2.507    0.601
       533  -9.1623    147.1177    246.1981   9.8261964678e+01   2.8612314515e+00    0.2880289    0.1959893  68.91  0.001520412    2.261    0.558
       534  -9.1899    120.2670    245.5745   1.0362704353e+02   7.0467654243e+00    0.3231336    0.2074588  70.61  0.001498993    2.131    0.531
       535  -8.9348     67.5061    244.5789   1.1409007079e+02   1.4705376949e+01    0.2150858    0.1122312 -71.91  0.001050263    2.060    0.515
