#   1 NUMBER                 Running object number                                     
#   2 MAG_AUTO               Kron-like elliptical aperture magnitude                    [mag]
#   3 X_IMAGE                Object position along x                                    [pixel]
#   4 Y_IMAGE                Object position along y                                    [pixel]
#   5 X_WORLD                Barycenter position along world x axis                     [deg]
#   6 Y_WORLD                Barycenter position along world y axis                     [deg]
#   7 A_WORLD                Profile RMS along major axis (world units)                 [deg]
#   8 B_WORLD                Profile RMS along minor axis (world units)                 [deg]
#   9 THETA_WORLD            Position angle (CCW/world-x)                               [deg]
#  10 FWHM_WORLD             FWHM assuming a gaussian core                              [deg]
#  11 ELONGATION             A_IMAGE/B_IMAGE                                           
#  12 ELLIPTICITY            1 - B_IMAGE/A_IMAGE                                       
         1 -10.7070     66.0718     20.5731   6.7408421995e+01   6.5591309036e+01    0.6630873    0.4504166 -75.84  0.002820207    2.861    0.650
         2 -11.5577     51.0539     10.2263   6.8240499717e+01   7.0112784846e+01    0.6585317    0.5858489 -21.62  0.002384227    1.129    0.114
         3 -11.4502     92.9324      9.6781   5.2801596377e+01   6.0795781305e+01     1.015273    0.3797381 -20.92  0.003688947    3.040    0.671
         4 -11.7487     90.8055     23.5501   6.0116885426e+01   5.9599240010e+01     1.389298    0.5121129 -31.71  0.004854504    2.734    0.634
         5 -11.8613     87.0868     41.0081   6.9166417670e+01   5.7704569851e+01     1.222144    0.5636892 -31.25   0.00460381    2.465    0.594
         6 -11.6029     51.0037     24.7379   7.6501469064e+01   6.7796404454e+01    0.9996303    0.7035434  18.74  0.005200447    1.612    0.379
         7 -11.5384     60.5933     27.5222   7.3363732641e+01   6.5555842825e+01    0.7526557    0.4487431  18.69  0.003162963    2.500    0.600
         8 -13.0726     70.5322     31.3569   7.1001839561e+01   6.2926251324e+01     1.345735    0.7504906  43.91  0.003858747    1.779    0.438
         9 -11.4704     17.4270     38.2279   1.0157783952e+02   6.9338931133e+01    0.7533473    0.3582461 -56.22  0.003125362    1.759    0.431
        10 -11.7663     30.4937     24.6525   8.7993042055e+01   7.0913560075e+01    0.8343439    0.3783273 -44.51  0.003550979    1.997    0.499
        11 -11.5219      3.8356     27.1023   1.0689580449e+02   7.2772341311e+01    0.5697629    0.2862892 -34.60  0.002897799    1.923    0.480
        12 -11.3950      7.1559     19.6478   1.0185700478e+02   7.4216498000e+01    0.6191978    0.4554382  25.24  0.002464408    1.531    0.347
        13 -12.3018     18.8516     15.4779   9.1185094161e+01   7.4075002238e+01    0.8447123    0.6236289 -63.03  0.005009608    1.576    0.366
        14 -11.6723     25.4217      8.4345   8.2332060172e+01   7.4597001063e+01    0.5667371    0.2704187 -49.86  0.000968527    2.268    0.559
        15 -13.0162     13.4482      4.7272   8.9197280818e+01   7.6679204154e+01     1.188837    0.6842483  28.33  0.006708292    1.826    0.452
        16 -13.1899      4.7745      9.1932   9.9132343407e+01   7.6563464578e+01    0.6491753    0.5895377  87.23  0.002119713    1.429    0.300
        17 -12.2004      2.7147      2.8437   9.7620086698e+01   7.7973045283e+01     0.345147    0.2655546  50.66  0.002212503    1.824    0.452
        18 -10.6002    214.8543     23.9813   3.9928017273e+01   2.7949089550e+01    0.6255017    0.4383456  12.31  0.003256283    2.056    0.514
        19 -10.4680    204.7972     23.3816   4.0654286665e+01   3.0355947312e+01    0.4634159    0.1848314 -28.24  0.001327358    2.301    0.565
        20 -10.8812    122.9188     22.2599   5.1520701410e+01   5.1620363453e+01     1.120077    0.5614021  -3.53  0.003779448    3.590    0.721
        21 -10.8438    100.4290      5.7147   4.9066846544e+01   5.9302806460e+01    0.4875594    0.3770007  10.27  0.001873892    1.449    0.310
        22 -12.2340    105.4652      7.9572   4.9017036884e+01   5.7782157219e+01     1.217042    0.7033174  30.88  0.005344107    2.065    0.516
        23 -11.4423    123.2044      8.9525   4.6035872306e+01   5.3010227516e+01    0.8130716    0.4355898  52.23  0.003605391    1.760    0.432
        24 -11.6952    110.8674     15.1753   5.1086821052e+01   5.5610227418e+01      0.59814    0.3354854 -24.17  0.002497369    1.893    0.472
        25 -10.6276    157.5958      5.8274   4.0083520404e+01   4.4107942294e+01    0.7881135    0.3489603 -20.13  0.003222153    2.460    0.594
        26 -11.2729    177.2917     20.9807   4.2762243246e+01   3.7415339180e+01    0.9419062    0.4043539 -27.98  0.003861607    2.247    0.555
        27 -10.3770    181.5884     16.0668   4.0801985152e+01   3.6851576260e+01    0.5418262    0.2537149  47.79  0.002231746    2.524    0.604
        28 -11.3290    170.1543     14.3299   4.1481962187e+01   3.9972011235e+01    0.7464551    0.6929732  70.87  0.003574964    1.116    0.104
        29  -9.6524    162.9768      9.9953   4.0877794495e+01   4.2288357328e+01    0.2585314    0.2221236  53.50  0.001146217    1.234    0.190
        30 -10.8237    163.0433      4.7447   3.9138319857e+01   4.2770003311e+01    0.6637496    0.3794182  82.42  0.002735137    1.693    0.409
        31 -11.2565    160.6851     18.5010   4.3979435477e+01   4.2008848863e+01    0.7435704    0.4215097  46.13  0.003301985    1.963    0.491
        32 -11.0213    154.2570     17.4252   4.4467941693e+01   4.3828002563e+01    0.5576708    0.3566718  29.67 0.0007630884    2.043    0.511
        33 -11.5789    149.9208     15.5660   4.4416525691e+01   4.5182327941e+01    0.7355701    0.4846173 -24.66  0.002417862    1.598    0.374
        34 -11.9213    116.6212     14.8674   4.9744119880e+01   5.4138369990e+01    0.6658912    0.4876241 -19.97  0.003375626    1.477    0.323
        35 -10.7878     84.6402     19.0309   5.9853777390e+01   6.1681052818e+01    0.6026461    0.4154451  30.25  0.002954478    1.580    0.367
        36  -9.8158    231.9028     18.7964   3.7314548179e+01   2.4731623994e+01    0.3515226    0.2660917  31.65  0.002085127    1.804    0.446
        37  -9.8477     80.1922     18.6178   6.1106443754e+01   6.2773091119e+01    0.3832119     0.285289 -41.85  0.001998859    1.442    0.306
        38 -11.3949    131.8050     19.8405   4.8865829131e+01   4.9550652302e+01    0.7737411    0.7116732 -82.21  0.003668897    1.072    0.067
        39 -10.0312    221.0196     13.8445   3.6844920724e+01   2.7630347576e+01    0.2672466    0.2261345  76.55 0.0008841928    1.274    0.215
        40 -10.2190    213.1412     11.8942   3.6906084498e+01   2.9620064440e+01    0.4963559    0.2746875 -86.22  0.002116498    1.908    0.476
        41 -10.1459     41.6969      3.6672   6.8841837475e+01   7.2768693883e+01    0.3348057    0.2362019 -14.53  0.001033242    1.430    0.301
        42  -9.7835     36.2838      6.1178   7.3649432655e+01   7.3349838907e+01    0.2544054    0.2051496  27.33 0.0002965204    1.203    0.169
        43 -10.3125     38.9502      9.2403   7.4107920598e+01   7.2429039075e+01    0.3289843    0.2124049  30.99  0.001173326    1.556    0.358
        44 -10.3877     31.2877     11.8936   8.0511385554e+01   7.3185330915e+01    0.2600621    0.2209512 -32.66 0.0006736604    1.145    0.126
        45  -9.0271    233.5889     10.7463   3.5261765944e+01   2.5195315728e+01    0.2387431    0.1067006 -46.38 0.0006576435    1.814    0.449
        46  -8.9682    233.8315      7.1479   3.4386603521e+01   2.5498328396e+01    0.1500763    0.1446467  18.90 0.0003894691    1.327    0.246
        47 -10.8143    200.3627      6.0015   3.6262882270e+01   3.3213977306e+01    0.6721587    0.2640346 -33.42  0.002948628    2.160    0.537
        48 -10.2293     77.6500      9.0261   5.6895574089e+01   6.4568975728e+01    0.2826453    0.2419705  -9.83  0.000262228    1.197    0.165
        49  -9.6678     77.7704      4.3661   5.4291596305e+01   6.5051894982e+01    0.2950039    0.1778736  35.79  0.001056418    1.694    0.410
        50  -9.7438    226.2872      8.1510   3.5076707214e+01   2.7032316070e+01    0.2664099    0.2046392   2.62  0.001331139    1.716    0.417
        51 -10.9686    139.5191      4.7375   4.1894992734e+01   4.9035304360e+01     0.596248    0.3178992 -13.35  0.002225847    2.215    0.548
        52  -9.6211    250.5265      7.0516   3.3471009328e+01   2.2072957349e+01    0.2391168   0.08523528 -32.79 0.0008350543    2.112    0.526
        53  -9.7215    248.8812      2.0161   3.2424173716e+01   2.2881972174e+01    0.2882691    0.1469897 -22.47 0.0007224757    1.947    0.487
        54 -10.4527    185.8662      5.2406   3.7180860493e+01   3.6850990220e+01    0.3406912    0.2726955  38.44   0.00117957    1.510    0.338
        55 -10.0326    181.7150      4.3753   3.7273004866e+01   3.7978461514e+01    0.3075402    0.2561736 -43.43  0.000960249    1.153    0.132
        56  -9.5029     67.6154      6.2159   5.8757039502e+01   6.7186999433e+01    0.2847908    0.1951566 -14.41 0.0008319991    1.543    0.352
        57 -10.6132     71.5876      3.6526   5.5864851545e+01   6.6571777498e+01     0.444735    0.3394909 -53.52  0.002420047    1.607    0.378
        58  -9.8674    217.0284      3.8448   3.4567771015e+01   2.9517456766e+01     0.459043    0.2572168 -49.63   0.00245347    1.517    0.341
        59 -10.5706    132.5555      4.4675   4.2756991597e+01   5.0929055827e+01    0.4339761    0.3969761   2.76  0.002524564    1.225    0.184
        60  -9.2626     61.2895      6.0187   6.1077639799e+01   6.8591528212e+01    0.2676836    0.1583532  52.67  0.001314556    1.635    0.388
        61  -9.8263    244.0135      3.9265   3.3090682911e+01   2.3684555808e+01    0.2758897    0.1323019 -34.98 0.0009429627    1.654    0.395
        62 -10.4584    208.8782      3.3689   3.4961852758e+01   3.1442423082e+01     0.435553    0.2821486  69.25  0.002346942    1.592    0.372
        63  -9.4346     84.2002      3.9289   5.2185629064e+01   6.3548757035e+01    0.2623469    0.1839492  13.67  0.001332619    1.615    0.381
        64 -10.3622     56.8794      2.1199   6.0452313509e+01   6.9986521867e+01    0.3719003    0.2207778  47.45  0.001486355    1.565    0.361
        65  -9.2891    123.5974      2.1120   4.3148490387e+01   5.3536939675e+01    0.2395694    0.1823577 -89.11 0.0005866557    1.314    0.239
        66  -8.6214    104.5062    115.5132   8.7147394641e+01   3.8249522638e+01    0.1500807    0.1440012  68.72 0.0008104833    1.013    0.013
        67  -9.5232     98.3146    114.7906   8.8800808527e+01   3.9582061160e+01    0.4085821    0.2867587 -34.46  0.001732147    1.715    0.417
        68  -9.5305     84.9452    113.3138   9.2566650831e+01   4.2320848401e+01    0.1994229    0.1792436  41.29 0.0002366271    1.124    0.110
        69 -10.4838     90.9660    121.5648   9.2480119687e+01   3.9319859337e+01    0.4587218    0.3510203 -51.10  0.001269486    1.347    0.257
        70  -9.4549     62.1601    109.2390   9.9205104698e+01   4.6909765056e+01    0.4421877     0.207671  21.81  0.001628811    2.958    0.662
        71  -9.3529    113.2802    107.3798   8.2662668484e+01   3.8343988567e+01    0.2628934     0.237775  -7.43 0.0006859116    1.267    0.211
        72  -9.0632    110.7544    104.3948   8.2622683065e+01   3.9521200034e+01    0.3126569    0.1505624  42.21   0.00119103    2.059    0.514
        73 -10.5566     48.4965    100.5558   1.0236346714e+02   5.0911911943e+01    0.7087681    0.5865674 -63.58  0.003970481    1.143    0.125
        74  -9.8946     53.8559    101.2146   1.0053759034e+02   5.0058911744e+01    0.3396786    0.2391721 -48.24 0.0006082725    1.460    0.315
        75  -9.6188     55.2968     96.4643   9.9029353509e+01   5.1055368470e+01    0.3038218    0.2464772 -30.21 0.0007166654    1.440    0.305
        76 -11.8135    144.1677    100.9023   7.2921264284e+01   3.3041133501e+01    0.8951859    0.4325593  31.27  0.002908685    3.316    0.698
        77  -9.8419     36.6908    103.4159   1.0719832837e+02   5.1539037711e+01    0.3631541    0.2353605   2.75  0.001742316    2.141    0.533
        78  -9.5256    133.5166    102.0261   7.5836237157e+01   3.5182133969e+01    0.2721994    0.2371223 -84.37 0.0007084415    1.312    0.238
        79  -9.5523    132.4223     98.2281   7.5090788675e+01   3.6201342649e+01    0.3647894    0.2353745 -44.39  0.001107192    1.564    0.361
        80 -10.2228     75.9142    101.8943   9.2937641196e+01   4.6598873518e+01    0.3972061     0.308964  33.19  0.001593075    1.348    0.258
        81 -11.1254     75.1189     95.1698   9.1592895552e+01   4.8359451870e+01    0.7301255    0.4154986 -44.09  0.003114266    1.875    0.467
        82  -9.7494     77.9711     89.9887   8.9264321036e+01   4.9112852094e+01    0.3040301    0.2643882 -88.52 0.0006375904    1.229    0.186
        83  -9.5975     63.2010    102.3020   9.7423777816e+01   4.8483422107e+01    0.3372432    0.2691861  -2.23  0.001538581    1.632    0.387
        84 -11.4392      3.3339     89.9520   1.1815370880e+02   5.7565295558e+01    0.9436277    0.2335487 -76.63  0.002823472    3.286    0.696
        85 -10.5717      7.0266     85.9426   1.1625226314e+02   5.8369973778e+01    0.3679193    0.2467648 -57.55  0.001561161    1.375    0.273
        86  -9.4912     33.3442     99.2859   1.0777933981e+02   5.2929984781e+01    0.2817792    0.2451365 -31.37  0.001664598    1.320    0.243
        87 -11.4296     24.2179     96.4090   1.1081028736e+02   5.4505184802e+01     0.580337    0.4753369  53.06  0.002407835    1.248    0.199
        88  -9.7364     19.7713     90.6050   1.1171625877e+02   5.6339032939e+01    0.2724389    0.2234939  43.18 0.0009645775    1.294    0.227
        89 -10.4898     15.8437     88.8425   1.1304407683e+02   5.7077009768e+01    0.6461836    0.3113161  72.98  0.002747786    2.551    0.608
        90 -10.2698     87.9383     96.6808   8.7641055917e+01   4.5739475277e+01    0.3971736    0.3716307 -88.76  0.001949795    1.073    0.068
        91 -10.0889    244.4976     97.4798   5.4605053822e+01   1.2593098702e+01    0.1268733    0.1064726 -28.90  0.000131828    1.041    0.040
        92  -9.9751    156.1894     96.5982   6.9021823088e+01   3.1144114976e+01    0.3361972    0.2318308 -32.29            0    1.500    0.334
        93  -8.5477    126.8338     97.1252   7.6239900898e+01   3.7666830124e+01    0.1967533    0.1761668  11.63 -0.0006383859    1.256    0.204
        94  -9.7184     39.0190     96.4937   1.0515621074e+02   5.3045228729e+01    0.3176122    0.2419922  -9.50  0.001397263    1.696    0.411
        95  -9.8014     39.5603     92.3348   1.0417862063e+02   5.4038528225e+01    0.2723714    0.1907178 -77.44 0.0005960398    1.382    0.277
        96 -10.9920     34.3112     91.6315   1.0610831680e+02   5.4774626823e+01     1.043817    0.5100576   1.92  0.003793205    3.827    0.739
        97 -10.3322    116.9477     94.2708   7.8142250427e+01   4.0430156096e+01    0.5165481    0.3384216  30.28  0.002097344    1.831    0.454
        98 -10.0060    124.4804     92.0102   7.5436515707e+01   3.9251240544e+01    0.7275558    0.3151271  49.94  0.002604345    2.344    0.573
        99  -8.4988    228.2696     95.6295   5.6278647145e+01   1.5845833939e+01    0.1349777   0.09083325 -52.02 0.0004299477    1.670    0.401
       100  -8.7330    189.4389     93.7290   6.1768664359e+01   2.4152968139e+01    0.2012489    0.1345458 -21.28 0.0009422169    1.625    0.385
       101 -10.0664     51.7434     92.1820   9.9440897027e+01   5.2601459900e+01    0.3868896    0.2836064 -51.83  0.001646372    1.328    0.247
       102  -9.0058    104.4563     92.0194   8.1159095426e+01   4.3566572928e+01    0.3267809    0.1916162  14.64 0.0009838163    4.163    0.760
       103  -8.5614     68.3308     92.6876   9.3388488431e+01   5.0068931447e+01    0.2695202    0.1797872  84.14  0.001154974    2.095    0.523
       104  -9.0624     66.8289     87.9431   9.2748174719e+01   5.1461008473e+01    0.2834025    0.1832978 -44.87  0.001306617    1.589    0.371
       105 -10.2120      4.0573    100.1348   1.1881664361e+02   5.4981507171e+01    0.4950976    0.2236093 -72.94  0.002383148    1.847    0.459
       106  -9.7344     83.1094     89.8988   8.7460729196e+01   4.8217316228e+01     0.257411    0.2180094 -79.57 0.0002968538    1.273    0.215
       107  -9.6903     82.5265     86.2697   8.6660143675e+01   4.9172623302e+01    0.3118688    0.2224556 -43.41 0.0007824638    1.435    0.303
       108  -9.0175    112.4691     88.0424   7.7642271430e+01   4.2733480713e+01    0.2403158    0.1515201 -42.60  0.001029339    1.611    0.379
       109 -10.3698     90.4379     87.3063   8.4271365154e+01   4.7440437744e+01    0.5057195    0.3872607  50.66   0.00152494    1.331    0.249
       110  -9.6822     51.8158     86.1833   9.8058658645e+01   5.4086742413e+01    0.5543192    0.3077591 -14.24  0.001827336    4.253    0.765
       111  -9.2171     53.3185     81.9993   9.6449743906e+01   5.4916612983e+01    0.2859918    0.1873466 -67.39 0.0008839566    1.524    0.344
       112 -10.2586    146.4026     84.5885   6.7845055059e+01   3.5659538886e+01    0.5457226    0.3312563 -31.15  0.001457561    1.787    0.441
       113  -9.3403    132.9625     85.9894   7.1486092820e+01   3.8540130567e+01    0.4276762    0.2789465   5.05  0.001522136    3.027    0.670
       114 -10.0563    119.4879     86.3015   7.5141862037e+01   4.1551510914e+01    0.4210885      0.24535  46.15  0.001555336    1.707    0.414
       115  -9.6271     57.3335     85.6464   9.5772331070e+01   5.3455414326e+01    0.3946771    0.2548689  -4.56   0.00163703    2.580    0.612
       116 -12.2831     32.6187     58.9567   9.9527826943e+01   6.3057630964e+01    0.5737206    0.4286898  16.48  0.001657826    1.499    0.333
       117  -9.7085     10.5618     64.3165   1.1160266918e+02   6.3567309455e+01    0.4098016    0.1955158 -25.18  0.001791722    2.776    0.640
       118 -10.4983     25.3904     84.5923   1.0848154627e+02   5.7399532963e+01    0.7135281    0.2110436  38.92  0.002629183    3.320    0.699
       119 -10.3944     20.4407     80.8496   1.0993347584e+02   5.8753254572e+01    0.5803448    0.3286243 -24.06  0.002690888    2.392    0.582
       120 -10.5471     20.4043     73.0222   1.0856868939e+02   6.0721768384e+01    0.6029738    0.3238599 -41.58  0.002547623    1.958    0.489
       121 -10.5218     25.0423     65.9867   1.0496802126e+02   6.2083379980e+01     1.035784     0.167194 -65.84  0.002876502    4.966    0.799
       122 -11.5642     19.9432     60.9106   1.0630519186e+02   6.3756383389e+01    0.6859809    0.5287243 -30.02  0.004011721    1.375    0.273
       123  -9.4138    248.9991     86.0000   5.1520937877e+01   1.3279087646e+01    0.1800212   0.07270215  58.46   0.00073997    2.970    0.663
       124 -11.8089    161.0993     82.0223   6.3926471584e+01   3.2634858184e+01    0.4559571    0.3038354  49.52  0.002095598    1.518    0.341
       125  -9.4746     93.7441     75.3801   7.9582505204e+01   4.9442132677e+01    0.5022929     0.366638  16.30  0.002239184    1.852    0.460
       126 -10.6392     98.9341     76.6201   7.8288786723e+01   4.8090008263e+01    0.6954619    0.5130067 -63.74  0.002260105    1.544    0.352
       127 -10.3909    101.8880     82.1222   7.9061082206e+01   4.6277297479e+01    0.5110463    0.3356752  24.16  0.002113739    2.064    0.516
       128 -10.8917    106.2937     77.8752   7.6395276442e+01   4.6238797178e+01    0.4380208    0.3739449  58.88  0.001112006    1.201    0.168
       129  -9.3624     74.3271     84.1200   8.8971820060e+01   5.1137426522e+01    0.4763692    0.1885232  31.99  0.001613945    3.033    0.670
       130  -9.5697     41.4570     78.4711   1.0048116614e+02   5.7301941086e+01    0.2621147    0.2444759 -14.81 0.0008584748    1.181    0.153
       131  -9.5704     40.4789     82.4821   1.0179715741e+02   5.6415165964e+01    0.2508401    0.2243896 -75.58 0.0007466649    1.049    0.047
       132  -9.7919     36.7505     78.9008   1.0257725461e+02   5.7725299723e+01    0.3800539    0.2550894  61.43  0.001367077    1.743    0.426
       133 -11.3342    177.0956     78.4804   5.9867963964e+01   2.9444542161e+01    0.2774221     0.231452 -26.82  0.001456845    1.201    0.167
       134 -10.8803     39.5593     67.0013   9.8444950054e+01   6.0341678055e+01    0.6485013    0.4190587  29.30  0.003279484    1.662    0.398
       135 -10.5052     29.2955     75.7157   1.0512735126e+02   5.9278388746e+01    0.4356975    0.2638461 -88.07  0.001603136    1.889    0.471
       136 -11.2035     30.9770     71.3805   1.0343462923e+02   6.0194726289e+01    0.4686548    0.3043514 -33.76  0.002357613    1.738    0.425
       137  -9.9862    189.5701     77.2402   5.7404059565e+01   2.6740906110e+01     0.603557    0.2246341  41.73  0.001951314    3.733    0.732
       138  -9.9534    146.6972     74.8468   6.4878657561e+01   3.7374477875e+01    0.4123231    0.1982013  44.01 0.0002632581    2.239    0.553
       139  -9.3415    144.3266     78.3029   6.6460332603e+01   3.7319713868e+01    0.2722228    0.2171114 -63.52 0.0008363152    1.399    0.285
       140  -9.8000    139.4622     75.9411   6.6872806206e+01   3.8926677555e+01      0.39283    0.2328597  65.41  0.001573573    2.017    0.504
       141 -10.4062      9.8775     76.6682   1.1386445191e+02   6.0531991795e+01    0.2283487    0.1716696 -79.42 0.0003594118    1.167    0.143
       142 -10.6807      5.1917     77.1587   1.1597516221e+02   6.0669618426e+01     0.300165    0.2173678  56.38 0.0007026782    1.457    0.314
       143 -10.1519      3.5785     72.8152   1.1614089817e+02   6.1833061864e+01    0.2955308    0.1524407 -60.53  0.001025652    1.632    0.387
       144  -9.9284    248.4661     77.4912   4.9671109288e+01   1.4460575023e+01    0.1264129    0.1048554 -32.65 8.122569e-05    1.011    0.011
       145  -9.2871     70.0256     76.3275   8.8340293170e+01   5.3707574699e+01    0.2812222    0.2474286 -28.20  0.001171539    1.222    0.182
       146  -9.1351    203.4339     76.0591   5.4961918537e+01   2.3793292416e+01    0.3034117    0.1564693  28.05  0.001049228    3.764    0.734
       147  -9.9104    102.3135     68.4315   7.4543175834e+01   4.9073754234e+01    0.4263907    0.3508363  31.70  0.001552959    1.307    0.235
       148  -9.5643    126.8578     69.9706   6.8091293340e+01   4.3078772792e+01    0.3981473    0.2906592 -73.50  0.001647616    1.793    0.442
       149 -10.1874    122.2319     66.7497   6.8238290602e+01   4.4795274832e+01    0.6450459    0.2662965 -42.93  0.002273335    2.426    0.588
       150 -11.4199    115.7633     71.2788   7.1505209017e+01   4.5448763207e+01    0.9075781    0.5884997 -35.34  0.002164208    1.621    0.383
       151 -10.5753    108.6484     68.3234   7.2579658440e+01   4.7671959255e+01    0.5428671    0.3455174  53.61  0.002043351    1.605    0.377
       152  -9.5127    167.3893     73.7256   6.0299561127e+01   3.2540382971e+01    0.2115571    0.1428589 -22.21 0.0009455014    1.666    0.400
       153 -10.9419     76.8189     61.1082   8.0788181749e+01   5.5898280492e+01    0.7117237     0.609498   3.96  0.002674124    1.343    0.256
       154 -10.9255     67.6864     70.0100   8.7320935742e+01   5.5570228416e+01     1.085294    0.4411162  32.46  0.003857245    2.873    0.652
       155 -11.1467     76.1569     42.9696   7.3991903892e+01   5.9686913597e+01     0.685487     0.366171 -29.12  0.001996158    2.275    0.561
       156  -8.8683    235.6560    249.3282   8.3323457568e+01  -4.0786875995e+00   0.08654481   0.07173067  29.64 0.0007050806    1.747    0.427
       157  -9.1985    147.8041    247.4035   9.8039492041e+01   6.9561957449e+00    0.1558275    0.0827513  27.49  0.000417868    1.553    0.356
       158 -11.8418    101.6985     54.1823   6.9658379329e+01   5.1998693929e+01     1.366999      0.86126  25.30  0.005495488    2.264    0.558
       159  -8.9158      3.3923    246.7934   1.2536785329e+02   2.3804998125e+01    0.1202683   0.08264384 -79.50 0.0009434436    1.729    0.422
       160  -9.0349    190.3709    235.7106   8.8916099427e+01   2.7952020098e+00    0.1036654   0.07668741  45.58 0.0007022699    1.716    0.417
       161  -8.8727     21.0479    232.5236   1.2164948157e+02   2.4588517816e+01    0.1564355   0.08203126  36.27  0.000695838    1.516    0.340
       162 -11.4401     31.3741     41.7389   9.4680222687e+01   6.7187459285e+01    0.5741509    0.2973798  33.79  0.002359247    2.054    0.513
       163 -11.0280     40.7204     40.5125   8.9138731934e+01   6.6290984383e+01    0.7204911    0.4449244 -14.93  0.003222186    2.354    0.575
       164  -9.5621     12.1964    231.7187   1.2333848025e+02   2.5561988380e+01    0.1875478   0.08822761  48.76  0.001204737    1.461    0.316
       165 -10.5510     54.9036     17.9091   7.0899943349e+01   6.8225898800e+01    0.3306062    0.2880904   7.14  0.001122177    1.100    0.091
       166 -11.3499     55.1191     70.1363   9.2494479822e+01   5.7531254184e+01    0.7477524    0.3956388  17.16  0.002540642    2.867    0.651
       167 -11.7133     55.8666     63.3167   9.0080561771e+01   5.9017600860e+01    0.7721604    0.5593123 -62.50  0.003913611    1.410    0.291
       168 -11.8434     87.8770     57.5932   7.5475113277e+01   5.4398874002e+01    0.6341742    0.4072513  35.63  0.002825902    1.692    0.409
       169 -10.9912     86.6756     51.9254   7.3747356927e+01   5.5774158792e+01    0.5087642    0.3507513  49.06  0.001056466    1.465    0.318
       170  -8.6483    202.1695    228.8534   8.5926979927e+01   2.0511044758e+00     0.150007    0.1009185  11.90 0.0002977112    1.260    0.206
       171  -8.7387     40.7303    221.6617   1.1719152577e+02   2.4514738588e+01   0.09421734    0.0864239 -32.84 0.0002593843    1.600    0.375
       172 -11.5854     80.0166     33.4519   6.8342673212e+01   6.0560545559e+01     0.373687    0.3224181  53.72 0.0003191532    1.190    0.160
       173 -12.2009     56.6524     37.5600   7.9929265978e+01   6.4424538053e+01    0.5773108    0.4204656 -10.72  0.001993072    1.693    0.409
       174 -11.7012     49.2523     39.6368   8.4402334008e+01   6.5228115385e+01    0.5124894    0.4126212  -0.52 0.0006722033    1.381    0.276
       175 -10.1550    142.0292     69.0000   6.4113601242e+01   3.9559855860e+01    0.6741738    0.2235594  56.84   0.00209015    3.184    0.686
       176  -9.3460    138.5082     67.9928   6.4601613032e+01   4.0605730913e+01    0.5160914    0.2870326  30.00  0.001821129    2.832    0.647
       177  -8.6995    169.8139     70.4213   5.8888809756e+01   3.2494170480e+01    0.2167805    0.1333262  45.64 0.0009478081    1.731    0.422
       178  -9.4536    165.3530     68.6950   5.9205944479e+01   3.3862485765e+01    0.2550577    0.2378124  73.03  0.001186264    1.091    0.084
       179 -10.6836    149.4889     65.8276   6.1482556806e+01   3.8262909926e+01     1.499471    0.7776855 -47.18  0.005919991    2.026    0.506
       180 -10.1807    136.1933     42.0577   5.6300435116e+01   4.5454454503e+01    0.9963484    0.3212466 -48.97   0.00271273    4.522    0.779
       181 -11.1505    144.1001     43.4985   5.5210960851e+01   4.3185469577e+01     0.968065    0.4726501  45.79  0.002288831    2.222    0.550
       182  -9.7694    143.8446     58.1656   6.0216101935e+01   4.0961999718e+01     0.303042    0.2176461  46.27 0.0004443428    1.432    0.302
       183 -12.4843    147.2948     53.7926   5.8055847256e+01   4.0791012924e+01    0.4938985    0.3474067  46.34 0.0002722474    1.474    0.322
       184 -11.8830    145.8391     48.3545   5.6528962080e+01   4.2008753291e+01    0.4554543    0.3271678  38.53 0.0001763288    1.561    0.359
       185  -8.5519    174.4214     67.4967   5.7219588910e+01   3.1842308741e+01    0.1477392    0.1380355 -53.47 5.292334e-05    1.038    0.037
       186  -8.6519    131.8228     67.3606   6.5994011528e+01   4.2359358051e+01     0.211139    0.1397757  45.20 0.0006798094    1.541    0.351
       187  -9.0788     87.5581     64.9572   7.8224993204e+01   5.2947644500e+01    0.2336328    0.1458056 -43.76   0.00102361    1.592    0.372
       188 -10.5393    106.9549     59.5386   7.0030943194e+01   4.9772806451e+01    0.3635794    0.2901402 -21.75 0.0006859138    1.411    0.291
       189  -9.4571    207.1180     61.3286   5.0602617967e+01   2.5069117302e+01    0.2636935    0.1822516 -39.67 0.0007825719    1.304    0.233
       190  -8.7651     43.0232     62.0169   9.5441256134e+01   6.1114560707e+01    0.2087632    0.1645302  72.24 0.0007913424    1.545    0.353
       191  -8.7665    166.4884     61.5254   5.6849259331e+01   3.4727001220e+01     0.147477    0.1431942 -61.30  7.72948e-05    1.009    0.008
       192  -9.8092    127.3962     59.7743   6.4550179794e+01   4.4809329582e+01    0.4268164    0.2853573  63.30  0.001891077    1.582    0.368
       193  -9.1304    200.4680     59.3639   5.0954242841e+01   2.6857740382e+01    0.2618428    0.1565676  42.29  0.001201121    1.998    0.500
       194 -10.6730    192.9250     54.6665   5.0688318277e+01   2.9280650491e+01    0.5005922    0.3555356   4.01  0.001505385    1.934    0.483
       195 -10.7771    184.8527     56.0650   5.2238931946e+01   3.1024505225e+01    0.3293806    0.2598707 -31.45 0.0004245343    1.234    0.189
       196 -10.7558    183.9928     51.7111   5.1107623735e+01   3.1850715689e+01    0.6237108    0.3814616 -85.17  0.002353572    2.205    0.546
       197  -9.6691    174.0267     57.2757   5.4281980827e+01   3.3503843013e+01    0.3820263    0.2197444 -13.88 0.0009102008    2.418    0.586
       198 -10.3937      3.0041     56.2408   1.1401165451e+02   6.5946680758e+01    0.4516786    0.2951089  47.69  0.002561576    1.746    0.427
       199  -9.4315      3.8225     51.3991   1.1272867086e+02   6.7084594353e+01    0.2239701    0.1666261 -58.70  0.001370674    1.138    0.121
       200  -9.7069    234.9886     56.2952   4.6143993172e+01   1.9748036881e+01    0.1780056     0.161629 -47.45 0.0006512561    1.070    0.065
       201 -10.6104    153.0777     43.7853   5.3627035282e+01   4.0809709665e+01    0.8597423    0.4885695 -42.58  0.003713874    1.733    0.423
       202 -10.3684    166.1231     53.9530   5.4598427404e+01   3.5976115427e+01    0.4517785    0.2880516 -49.45  0.001773239    1.598    0.374
       203 -10.3046    161.6861     51.7260   5.4672827858e+01   3.7432996559e+01    0.4438026    0.3416811 -35.56  0.001669405    1.279    0.218
       204 -10.0803    158.8060     43.8556   5.2648248664e+01   3.9315577773e+01    0.3965571    0.2720053 -31.19 0.0009735896    1.464    0.317
       205  -9.0870    157.4929     40.4543   5.1756687185e+01   4.0130970025e+01      0.28031    0.2255895 -43.69 0.0008789242    1.218    0.179
       206 -10.2479    133.4579     54.1613   6.1166404787e+01   4.4253745693e+01    0.5587269    0.3547699   0.07  0.002087812    2.751    0.636
       207 -10.7545    121.2703     53.7358   6.3978997003e+01   4.7380033879e+01    0.4817796    0.4529256 -20.99  0.001166474    1.114    0.102
       208  -9.9006    116.7304     50.2275   6.3881581217e+01   4.9104535717e+01    0.4511537    0.3084069 -27.65   0.00204574    1.587    0.370
       209  -9.7511     44.7204     50.0005   9.0700002310e+01   6.3663750173e+01    0.2638541    0.2202976  13.97 0.0006710377    1.292    0.226
       210 -10.8714     41.7077     53.8921   9.3517353794e+01   6.3181503521e+01     0.347081    0.2317075  45.53 0.0003003884    1.691    0.409
       211  -9.8051     48.1603     54.0973   9.0487954149e+01   6.2260291662e+01    0.3238961    0.2385689  -1.72 0.0003326238    1.708    0.415
       212  -9.1812     51.3189     52.6872   8.8510676737e+01   6.2114915144e+01    0.2605496     0.191148 -51.24 0.0005886793    1.293    0.227
       213  -8.8819     11.8939     56.3020   1.0940467988e+02   6.5452779559e+01    0.1663393    0.1596668 -21.07  0.001110061    1.154    0.133
       214  -8.3696    198.3760     54.2778   4.9847716631e+01   2.8046033127e+01    0.1417099    0.1047255  30.18 0.0007007068    1.701    0.412
       215 -10.1585     69.8320     51.9195   8.0135258326e+01   5.9155823061e+01    0.3523137    0.2897226  68.11  0.001172349    1.471    0.320
       216 -11.5153     58.1289     48.8057   8.3936889938e+01   6.1879187469e+01    0.7363749    0.6736065  77.76  0.003169221    1.278    0.217
       217 -10.5010     65.5948     44.1719   7.8789863215e+01   6.1516269321e+01    0.5868123    0.4663282 -24.84  0.003100227    1.321    0.243
       218 -10.3580     29.5479     49.2705   9.8225627133e+01   6.5667794837e+01    0.4124433    0.2542438 -59.55  0.001602158    1.479    0.324
       219  -8.6211    227.8629     49.6215   4.5236946219e+01   2.2058850349e+01    0.1700926    0.1197441 -86.81 0.0009322021    1.655    0.396
       220  -8.4794     21.4732     49.3933   1.0261265011e+02   6.6405116237e+01    0.1271873    0.1176017 -58.24 8.545853e-05    1.058    0.055
       221  -8.5580     17.5121     48.4596   1.0453357784e+02   6.6948351951e+01    0.1314783    0.1126488 -49.96 3.464175e-05    1.036    0.035
       222  -9.5337    173.2750     46.9827   5.1296756765e+01   3.5177402017e+01    0.2594058     0.213736  72.51   0.00137157    1.227    0.185
       223  -9.4392    207.0657     46.0626   4.6553279729e+01   2.7110740517e+01     0.425301    0.1428472  62.05  0.001614738    2.975    0.664
       224  -9.5519    105.8134     42.4806   6.3896618139e+01   5.3081100427e+01     1.518854     0.422263  45.95  0.004379899    3.829    0.739
       225 -10.9427    105.7566     34.0495   6.0463286567e+01   5.4426590538e+01    0.3674001    0.2429552  38.15 0.0002121833    1.628    0.386
       226 -10.4983    107.9424     29.4597   5.7950761594e+01   5.4548634047e+01    0.6727805      0.40432  82.86  0.002686439    2.389    0.581
       227 -10.2501     98.5056     41.5141   6.5665118346e+01   5.4994113784e+01    0.3879337    0.3217827  11.48  0.001550332    1.391    0.281
       228  -9.9335    100.3016     38.0175   6.3675100844e+01   5.5141671458e+01    0.6843919    0.3029802  51.18  0.002623977    2.158    0.537
       229  -8.6627     23.7869     46.3100   1.0043484926e+02   6.6922820419e+01    0.1750112    0.1195674   5.39 0.0009336633    1.701    0.412
       230  -9.5088    248.1508     44.8371   4.2237722858e+01   1.8504104215e+01    0.1635774    0.1428987   2.00  0.001081975    1.370    0.270
       231  -8.7775    223.3162     45.3369   4.4624218898e+01   2.3563014989e+01    0.1291341   0.09992869  19.00    0.0007048    1.698    0.411
       232 -10.1736    118.4611     42.9077   6.0678826400e+01   4.9876028487e+01    0.5380119    0.2580357 -36.41  0.002105399    2.079    0.519
       233 -10.6163     10.8920     41.6927   1.0652849498e+02   6.9010797549e+01     0.538677    0.3923748 -18.11  0.002241235    1.478    0.324
       234  -8.7277    175.6564    204.3328   8.7120911845e+01   8.9057412257e+00    0.1150808   0.09233717  58.57 0.0007050539    1.758    0.431
       235 -12.3864     15.5359     30.8698   1.0024906940e+02   7.1148574908e+01    0.3997369    0.2943838 -27.76 0.0003969192    1.322    0.244
       236  -9.0477    219.3860     42.8755   4.4394226495e+01   2.4726168795e+01    0.1884336    0.1509099 -32.37 0.0008393774    1.157    0.136
       237  -8.7727    212.9989     43.4983   4.5218056427e+01   2.6078652714e+01    0.1854811   0.09945702  42.36 0.0008095288    2.453    0.592
       238  -8.6077    197.2732     41.9637   4.6577763126e+01   2.9935225400e+01    0.1669678    0.1140483 -33.87  0.000320064    1.361    0.265
       239  -9.2552    166.9378     42.0330   5.0739171167e+01   3.7473697842e+01    0.2389446    0.1753017  27.64  0.001133542    1.724    0.420
       240  -9.5651     23.0661     41.0094   9.9147250289e+01   6.8210981917e+01    0.2739126    0.1788236 -44.33   0.00130049    1.376    0.273
       241  -9.3920    173.9217     39.2737   4.8836998676e+01   3.6058378893e+01    0.4035079    0.2274564  41.60  0.001707308    2.167    0.538
       242  -9.3403     37.2415     51.1642   9.4838722641e+01   6.4365424499e+01    0.2898432    0.1594565 -46.39  0.001262238    1.678    0.404
       243  -9.7206    215.3002     38.7147   4.3730277319e+01   2.6145012609e+01    0.2475947    0.1610141 -88.53  0.001275313    1.747    0.428
       244  -9.5951    192.3123     36.3096   4.5569057988e+01   3.1845894246e+01    0.4582732    0.2180988 -19.64  0.001836771    2.482    0.597
       245 -10.2431    193.4284     32.4259   4.4331160365e+01   3.2047777146e+01    0.3578525    0.2696319 -55.22  0.001389802    1.248    0.198
       246  -9.1599    182.2197     37.8566   4.7274119192e+01   3.4147290512e+01    0.2246068    0.1794589 -65.65 0.0005865789    1.240    0.194
       247 -10.6158    147.2201     34.9287   5.1654357969e+01   4.3571933010e+01    0.9118046    0.2803295  64.56  0.002903485    3.193    0.687
       248 -10.3735    219.6691     32.6305   4.1742586685e+01   2.5883627262e+01    0.3834901    0.2090571  -9.02  0.001667764    2.643    0.622
       249  -9.6114    221.3333     36.3274   4.2533985343e+01   2.5082342194e+01    0.2725947    0.1491739  56.08 0.0007648928    2.032    0.508
       250  -9.7168    223.6465     33.6838   4.1654036995e+01   2.4881497272e+01     0.230763    0.1680622 -18.05 0.0008512864    1.471    0.320
       251  -9.2205    124.5160     35.9951   5.6586114386e+01   4.9372944846e+01    0.3252291    0.1856976  60.82  0.001103042    1.697    0.411
       252  -8.8648    120.0701     35.5653   5.7444567239e+01   5.0582324876e+01    0.2163374    0.1874247 -78.93  0.001120948    1.247    0.198
       253 -10.6523    244.8607     33.6306   3.9903703298e+01   2.0431996668e+01     0.365746    0.2298495  84.39  0.002013867    1.824    0.452
       254 -10.6955    235.5667     32.8441   4.0441147918e+01   2.2423326696e+01     0.419864    0.2939896   1.29    0.0014348    1.949    0.487
       255 -10.3037    238.0085     26.0977   3.8637994237e+01   2.2661997775e+01    0.3257745    0.2741789  54.65  0.001371271    1.438    0.305
       256  -9.6020    242.5488     25.4931   3.8172009903e+01   2.1792538624e+01    0.2413425    0.1561516 -59.10 0.0005667968    1.430    0.301
       257  -9.6118    182.9077     33.6022   4.5917996864e+01   3.4509435890e+01    0.4307986    0.2407174  66.91  0.001971022    1.786    0.440
       258  -9.5163    156.4437     32.7383   4.9361258720e+01   4.1433083264e+01    0.3686095      0.23823  59.89  0.001730002    1.503    0.335
       259  -9.0488    138.5744     31.7399   5.2093092635e+01   4.6277599902e+01    0.2431891    0.1836292  86.08 0.0005607547    1.413    0.292
       260  -9.2797    113.7196     31.5930   5.7383005820e+01   5.2780539249e+01     0.265491    0.1821928 -12.71   0.00115837    1.759    0.432
       261 -11.0667     23.4328     27.9593   9.3976282633e+01   7.1047860079e+01    0.5374225     0.430753 -38.69  0.002732408    1.099    0.090
       262  -8.9887    233.6989    200.3076   7.6315873981e+01   1.1837888694e+00   0.09270337   0.08795583   4.22 0.0003913844    1.599    0.375
       263 -10.7729     36.4882     27.1110   8.5581193417e+01   6.9632506566e+01    0.2643653    0.2391224 -26.58 0.0003626544    1.032    0.031
       264 -10.4200    227.4492     27.9722   3.9902415649e+01   2.4699668125e+01     0.402721    0.2592214 -28.85  0.001549541    1.430    0.301
       265  -9.5658    172.9971     30.6367   4.6284706385e+01   3.7391174016e+01    0.3181831    0.2164384  21.17  0.001455912    2.059    0.514
       266  -8.9513    168.5145    199.1348   8.7705148925e+01   1.0749393656e+01    0.1603293    0.1215212 -35.74 0.0005149254    1.495    0.331
       267 -11.0012     12.7302     24.9006   9.9889926861e+01   7.2680269045e+01    0.3438304    0.2274926 -26.06 0.0006629385    1.514    0.339
       268  -9.1882     27.7932    193.4213   1.1844627827e+02   3.1329164215e+01    0.1541842    0.1080895  19.56 0.0009522319    1.713    0.416
       269  -9.6703     11.3425    192.5904   1.2215145256e+02   3.3042781225e+01    0.2295299   0.07989742  34.21  0.001152152    2.256    0.557
       270 -10.0764     10.5233    185.1842   1.2203487520e+02   3.4643426002e+01    0.2788446    0.1688172  13.23  0.001611865    2.209    0.547
       271  -9.9322      2.8644    177.6615   1.2353687908e+02   3.6862124316e+01    0.2638859    0.2119008 -10.02   0.00179475    1.843    0.457
       272 -11.8596     32.7319    166.1943   1.1544161130e+02   3.6691099000e+01    0.3099051    0.2351434 -62.15 0.0003717838    1.473    0.321
       273  -9.4557      2.1837    160.8200   1.2304939007e+02   4.0593363439e+01    0.1521829    0.1326993 -71.16  0.001073971    1.326    0.246
       274 -11.2611    167.4086     29.1482   4.6566179612e+01   3.9016562817e+01    0.2972308    0.2636558 -22.56 0.0004694969    1.208    0.172
       275  -9.6268    150.7890     29.2169   4.9065013586e+01   4.3370328519e+01    0.3290452    0.2483379  25.64  0.001016804    1.628    0.386
       276  -9.8646    153.3623     24.6292   4.7079276384e+01   4.3247943489e+01    0.3756927      0.28153 -13.74  0.001276293    1.526    0.345
       277  -9.8034     39.2693    159.2446   1.1311745971e+02   3.7586102966e+01    0.2731739    0.1886106  49.69 0.0009587709    1.273    0.214
       278  -9.1463    145.5966     28.7820   4.9772799432e+01   4.4800127576e+01     0.283065    0.1641349  52.60 0.0008278093    1.701    0.412
       279 -10.8829     15.5269    160.0000   1.1953722973e+02   3.9716797744e+01    0.2650364    0.1539368  18.43  0.001441906    2.052    0.513
       280 -11.8810     13.4214    152.2052   1.1963432905e+02   4.1684490217e+01    0.3964413    0.3800985 -83.67  0.001409314    1.249    0.200
       281  -9.4796      8.0007    151.7061   1.2108261442e+02   4.2229442191e+01    0.2059858    0.1506903  87.87 0.0005709761    1.187    0.158
       282 -10.4335     31.8360    151.2719   1.1445625719e+02   4.0223343914e+01    0.3548361    0.2319962  16.61  0.001220057    1.878    0.467
       283 -11.1190    116.2335     23.0328   5.3259621550e+01   5.3276728609e+01    0.6446872    0.3392445  70.43  0.002639513    2.022    0.505
       284 -10.0127     45.6372    150.4067   1.1047315572e+02   3.8936837591e+01    0.2356864    0.2144236 -38.62 0.0005702762    1.364    0.267
       285 -10.1692      5.0019    147.1915   1.2166630629e+02   4.3499173541e+01     0.208844    0.1710832  50.55 0.0004865035    1.173    0.148
       286  -9.6180     94.9561     24.7385   5.9432700265e+01   5.8431225272e+01    0.4425665    0.2716667  13.59  0.001785553    2.506    0.601
       287 -10.5287     40.7216    146.6134   1.1147643330e+02   4.0391981057e+01    0.3601832    0.2610507   8.41  0.001611418    1.830    0.454
       288 -10.0515     35.7892    145.8089   1.1282077941e+02   4.1113651040e+01    0.2135581    0.1734098  86.26 0.0003546742    1.112    0.101
       289  -9.8284     38.0420    143.2167   1.1190090684e+02   4.1496754463e+01    0.2852117    0.1704052  39.07 0.0007566108    1.564    0.361
       290 -12.3822     22.2102    146.0778   1.1675264436e+02   4.2368799365e+01     1.421316    0.3630108 -80.82  0.004807645    4.083    0.755
       291 -12.0187     15.9711    143.5818   1.1835476016e+02   4.3499332284e+01    0.6428408    0.2953736  89.99   0.00283978    2.059    0.514
       292 -11.6766     13.4573    132.8472   1.1831886902e+02   4.6276708866e+01    0.6174848     0.340171  35.73  0.001992982    1.748    0.428
       293 -13.3585     11.9910    126.0099   1.1825135769e+02   4.8053273144e+01    0.6881981    0.3911346  83.59 0.0006272415    1.607    0.378
       294 -12.1965     15.4757    106.5064   1.1530477134e+02   5.2644179854e+01      1.30456     0.727502 -14.14  0.006018961    2.756    0.637
       295 -11.9516     14.2604    101.4751   1.1520036984e+02   5.3998573452e+01     1.738369    0.7685962 -44.76  0.007557586    2.607    0.616
       296  -9.6387    198.5943     23.4388   4.1253230835e+01   3.1833746918e+01    0.2258223    0.1981612 -49.76 0.0001738457    1.048    0.046
       297  -9.5537    147.7518     23.9573   4.7707863278e+01   4.4817329814e+01    0.2472609    0.2016379  66.99 0.0007167635    1.177    0.150
       298  -8.6448    185.3494     23.2664   4.2558845951e+01   3.5116850305e+01    0.1873192    0.1174194 -37.54 0.0007745483    1.477    0.323
       299 -11.0033     29.7100    142.3250   1.1425979030e+02   4.2563472952e+01    0.3387517    0.2554935 -73.77 0.0009033435    1.275    0.216
       300  -9.0559     38.5511     21.3821   8.1465115461e+01   7.0426133039e+01    0.2469421    0.1094106 -35.24  0.001027684    2.396    0.583
       301  -9.3339     10.8827    144.7662   1.1988383830e+02   4.3626586324e+01    0.1766111    0.1583998 -65.43 0.0005571826    1.283    0.221
       302 -10.3731      6.3727    142.4452   1.2102582368e+02   4.4511453586e+01    0.2529146    0.1798646  75.76 0.0005909315    1.177    0.150
       303 -10.2813    247.2743     18.8800   3.6330595213e+01   2.1535782898e+01    0.3452631    0.1866572  88.00  0.001375123    2.087    0.521
       304  -8.7332    188.7625     19.4332   4.1075627600e+01   3.4687475635e+01    0.1797631    0.1208111  59.75 0.0003628144    1.543    0.352
       305  -9.0093     74.9320     18.7375   6.3009954238e+01   6.3949389455e+01    0.1949471    0.1714264  45.20  0.000501324    1.107    0.097
       306  -8.4882     79.4386    140.5435   9.9407653486e+01   3.6729850696e+01    0.1431839    0.1280389  66.98 0.0003339485    1.045    0.043
       307  -9.5422    211.3306     16.9506   3.8371825951e+01   2.9517964073e+01    0.2623159    0.1513939  53.55  0.001312904    1.988    0.497
       308  -8.7172     47.3736    139.1927   1.0867300981e+02   4.1419927983e+01    0.1940735    0.1188923 -87.24 0.0009494468    1.677    0.404
       309  -9.6521    198.3915     16.6461   3.9373714087e+01   3.2619604777e+01    0.2277986    0.2163092  76.97 0.0005501832    1.159    0.137
       310  -9.7942     70.1434     17.0162   6.3885890509e+01   6.5245348354e+01    0.3218792    0.1781307  39.12  0.001455858    1.840    0.457
       311  -9.1584    239.6095     14.9652   3.5895221417e+01   2.3502603319e+01    0.1830528    0.1623852  72.16 0.0005612436    1.317    0.241
       312  -9.8704     27.4438    136.7494   1.1441242788e+02   4.4129087419e+01    0.1841209    0.1073375 -64.64 0.0009474205    1.651    0.394
       313 -10.0247      3.2881    136.5557   1.2158599419e+02   4.6120494204e+01    0.3187628    0.1561761  11.66  0.001568111    2.647    0.622
       314  -8.7859    193.9405     14.7761   3.9242348723e+01   3.3901061604e+01    0.2287778    0.1266749 -67.84   0.00103219    1.910    0.476
       315  -8.5500     77.5125    135.5265   9.9130840918e+01   3.8210518266e+01    0.1468186    0.1277802  67.79 2.706278e-05    1.096    0.088
       316 -10.7567     66.3553    134.4673   1.0228783044e+02   4.0108167897e+01    0.3354803    0.2428897  70.29  0.001725007    1.444    0.308
       317  -9.1748     37.3160     12.6966   7.7237432166e+01   7.2138043216e+01    0.1889738    0.1745317 -27.64 0.0007763454    1.164    0.141
       318  -9.4906     55.1690    133.1181   1.0549584358e+02   4.1942000521e+01    0.2833261    0.1854718  27.48  0.001419176    1.645    0.392
       319  -9.7892     54.3386    112.9611   1.0256746037e+02   4.7048110940e+01    0.2608404    0.2061942  63.24 0.0004000878    1.268    0.211
       320 -10.2228     47.6213    112.5943   1.0480588976e+02   4.7983634984e+01    0.5945751    0.3288532   4.75  0.002316497    3.190    0.687
       321  -9.9465     55.8948    126.0861   1.0422096456e+02   4.3577322755e+01    0.3383307    0.2566918  79.53 0.0007038594    1.332    0.249
       322  -8.4453     85.2926     11.3554   5.5768759503e+01   6.2483462638e+01    0.1492793    0.1002653  25.33  0.000702999    1.686    0.407
       323 -10.1368     53.9066    121.1071   1.0407788715e+02   4.5069136948e+01    0.3446554    0.2951069 -20.97  0.001827303    1.461    0.316
       324  -9.7539     51.0811    117.6367   1.0445374165e+02   4.6293059812e+01    0.3674022    0.2104798 -59.43  0.001368101    1.665    0.399
       325 -10.4699     39.7210    114.9364   1.0788009658e+02   4.8300983943e+01     0.521587    0.3703486 -58.34  0.002806325    1.381    0.276
       326 -10.3722     37.1544    109.6390   1.0799211622e+02   4.9913715351e+01    0.5170443    0.3306717 -41.11   0.00255827    1.838    0.456
       327 -10.9608     33.0363    109.4632   1.0942141558e+02   5.0379915192e+01    0.5975342    0.4575846 -69.76  0.003393339    1.201    0.167
       328 -11.9762     41.5804    121.3057   1.0815865071e+02   4.6496880541e+01     1.040479    0.7433228 -12.91  0.005273773    2.016    0.504
       329 -11.5196     46.1756    124.2312   1.0706701631e+02   4.5240742660e+01    0.8509711    0.4530497 -58.93  0.003977073    1.807    0.447
       330 -10.8880     28.1945    119.6817   1.1238898897e+02   4.8272988380e+01    0.5032638    0.2806565  61.59  0.001976854    1.848    0.459
       331 -10.8201     33.9757    119.5058   1.1044207315e+02   4.7755661756e+01     0.347239    0.3231578 -46.01 0.0009119464    1.233    0.189
       332 -10.1312     34.6392    129.5098   1.1143492879e+02   4.5197375402e+01    0.3238543    0.2083769  33.34  0.001601982    1.567    0.362
       333 -10.1789     29.3263    129.3644   1.1309329972e+02   4.5759409160e+01    0.2991007    0.1977336  58.31 0.0008703647    1.431    0.301
       334  -8.5578     73.3873    129.5023   9.9330882914e+01   4.0281241511e+01    0.1430017    0.1295214  78.98 0.0001193407    1.046    0.044
       335 -10.0733     41.9738    129.0047   1.0905635824e+02   4.4537167906e+01    0.2867691    0.2370522  86.56            0    1.106    0.096
       336 -11.6083     61.4239    120.3832   1.0150715385e+02   4.4245868204e+01     0.925329    0.4123898 -63.82  0.002952313    2.171    0.539
       337 -11.5092     68.4155    120.2524   9.9227906133e+01   4.3276805548e+01    0.8744691    0.2573282 -50.42  0.002798936    3.567    0.720
       338 -11.4862     75.5292    120.0171   9.6920475673e+01   4.2249907530e+01    0.2561124    0.2264546  47.31  0.001413687    1.114    0.102
       339  -9.3241    160.8580     25.0116   4.6123421015e+01   4.1223942677e+01    0.3092794    0.2242181 -88.46  0.001539945    1.426    0.299
       340  -9.4383     65.1437     12.4043   6.3291931938e+01   6.6954562855e+01    0.3874226    0.1340881  56.08  0.001388015    3.095    0.677
       341 -10.1312     20.2539    117.9460   1.1484728804e+02   4.9403826236e+01    0.3231867    0.2395927  77.26  0.001346134    1.230    0.187
       342 -10.1328    116.1778    116.5360   8.4093253337e+01   3.5737327450e+01    0.2612029    0.2563205 -40.75 0.0002714792    1.061    0.058
