#   1 NUMBER                 Running object number                                     
#   2 MAG_AUTO               Kron-like elliptical aperture magnitude                    [mag]
#   3 X_IMAGE                Object position along x                                    [pixel]
#   4 Y_IMAGE                Object position along y                                    [pixel]
#   5 X_WORLD                Barycenter position along world x axis                     [deg]
#   6 Y_WORLD                Barycenter position along world y axis                     [deg]
#   7 A_WORLD                Profile RMS along major axis (world units)                 [deg]
#   8 B_WORLD                Profile RMS along minor axis (world units)                 [deg]
#   9 THETA_WORLD            Position angle (CCW/world-x)                               [deg]
#  10 FWHM_WORLD             FWHM assuming a gaussian core                              [deg]
#  11 ELONGATION             A_IMAGE/B_IMAGE                                           
#  12 ELLIPTICITY            1 - B_IMAGE/A_IMAGE                                       
         1 -13.3531    170.2425     55.3505   6.1383862477e+01   3.5451725847e+01     1.872842     1.273066  26.54  0.005522344    1.913    0.477
         2 -13.5649    184.9616     40.7021   5.4348065786e+01   3.3755261932e+01     1.064337     1.016695  29.78    0.0035564    1.141    0.124
         3 -12.8182    189.8956     34.4825   5.1760778580e+01   3.3295749006e+01    0.6391877    0.5669891 -50.10  0.001322078    1.118    0.106
         4 -14.0055    207.2917     10.2458   4.2831483080e+01   3.1661213631e+01     1.328631     1.129942  23.75  0.005653975    1.484    0.326
         5 -11.9467    191.1432     14.9390   4.5909697656e+01   3.5286625835e+01    0.5900491    0.3592942  59.26  0.002884162    1.551    0.355
         6 -12.0001    240.0957      2.4546   3.8079071350e+01   2.4543485601e+01    0.9581629    0.2801177  75.37  0.003656513    3.304    0.697
         7 -11.9268     58.5153    215.0495   1.2101175518e+02   2.3469959546e+01    0.2542209    0.1639771  65.04  0.001343408    1.261    0.207
         8 -13.5954    247.5376    245.8171   9.0297663079e+01  -1.0704125127e+01     1.740993    0.8503388 -30.82   0.01044615    2.266    0.559
         9  -9.9458     80.7826    194.8478   1.1459082652e+02   2.4466057626e+01    0.4458425    0.2318485  56.88   0.00224318    1.811    0.448
        10 -11.5933     65.6163    194.8423   1.1772387088e+02   2.6601197928e+01    0.3357703    0.2199901 -50.14  0.001336174    1.995    0.499
        11 -10.0643    156.4546    189.9252   9.7887410875e+01   1.2513040484e+01    0.2516949    0.1850347  37.90 0.0003688903    1.269    0.212
        12 -11.5808    150.1837    188.3938   9.8938032669e+01   1.3980293577e+01    0.3817138     0.306406  74.66  0.002057096    1.429    0.300
        13  -9.3970     65.5765    187.1970   1.1691543934e+02   2.8221799440e+01    0.1437892    0.1081601 -65.96 0.0002370325    1.377    0.274
        14  -7.0547     15.5874    187.4859   1.2708811604e+02   3.3892382707e+01    0.1123315   0.08443915  86.37 0.0001635382    1.078    0.073
        15 -19.2006     25.9238    101.3049   1.1539536142e+02   5.2439938840e+01     17.66188     1.392899 -66.87   0.03469605   11.212    0.911
        16 -11.0132    151.9857    181.5254   9.7353680151e+01   1.4952750404e+01    0.4635721      0.28398 -79.95  0.001789513    3.220    0.689
        17 -11.6180     71.0801    207.4747   1.1790800983e+02   2.3279437641e+01    0.4663973    0.3084056  23.64  0.002555844    2.355    0.575
        18 -10.8062    188.9177    176.8976   8.8794391109e+01   8.5814129085e+00    0.6935049    0.3915938 -57.34  0.002475543    2.651    0.623
        19 -10.8913    192.9709    194.9300   9.1418896604e+01   4.7777143581e+00     0.889892    0.4897077 -64.99  0.002885108    5.535    0.819
        20 -10.7223     90.7500    174.4400   1.0977734647e+02   2.7320861224e+01      0.44701     0.221525 -83.80  0.001672905    3.293    0.696
        21  -8.3786    208.2860    172.6408   8.4132811060e+01   5.5174955990e+00    0.1321394     0.112792 -76.93 0.0007021984    1.680    0.405
        22  -8.8522     64.3018    170.5693   1.1525423878e+02   3.2038787464e+01    0.1605545    0.1258258  30.35 0.0009480579    1.598    0.374
        23  -9.9565    240.5009    169.4767   7.7610899945e+01  -1.5079529739e-02    0.1341911    0.1163665   0.01 7.755078e-06    1.014    0.014
        24 -13.1204     11.4535    206.5166   1.2900337218e+02   3.0450640925e+01    0.3422646     0.227969  45.28  0.002429265    1.538    0.350
        25 -13.0899     75.2704    248.9303   1.2076620212e+02   1.5132592783e+01    0.3112541    0.1671114 -62.83  0.001953083    2.186    0.543
        26  -9.7693      1.7802    162.9089   1.2820098905e+02   4.0303677652e+01     0.157475    0.1184668 -80.35 0.0004926618    1.178    0.151
        27 -10.8813     71.7409    244.0843   1.2099287371e+02   1.6425019390e+01    0.2261547    0.1370268 -86.85  0.001476067    1.680    0.405
        28 -11.1072     93.9891    157.2982   1.0635722101e+02   3.0653065159e+01    0.2546965    0.2419008 -85.72 0.0003047691    1.119    0.107
        29  -8.9463    149.4528    156.2632   9.3047944456e+01   2.0543134221e+01    0.2070893    0.1423053 -62.62 0.0009418838    1.697    0.411
        30 -12.0484     99.4307    150.7829   1.0389497127e+02   3.1242633813e+01    0.6115047    0.4788204 -34.09  0.003180118    1.624    0.384
        31 -17.5121     43.4005    241.8945   1.2561438590e+02   2.0403453677e+01     6.958994     4.826474  33.90    0.0489348    1.898    0.473
        32 -11.0852      6.5184    206.4893   1.2986816315e+02   3.0923519349e+01    0.1639031   0.09227304 -82.79 0.0005641241    1.449    0.310
        33 -10.7393    134.3826    148.5904   9.4956783423e+01   2.5238097303e+01    0.6891357    0.2744636 -57.39  0.002281913    3.139    0.681
        34 -10.6351    133.6131    143.4239   9.4045125320e+01   2.6528449166e+01    0.8360575    0.2753412 -57.05  0.002302521    4.444    0.775
        35  -9.9073    113.4541    151.3219   1.0055245791e+02   2.8644319925e+01    0.3136081    0.2155105  85.09  0.001154731    1.897    0.473
        36  -9.6773    174.8507    149.1412   8.5885461380e+01   1.6647470755e+01    0.2277779    0.2089471 -88.86 0.0005172007    1.240    0.193
        37 -11.6535     61.4379    204.8041   1.1954162688e+02   2.5114750898e+01    0.2992746    0.2032107 -53.15  0.001644364    1.910    0.476
        38 -10.0307     92.0999    146.8381   1.0501283274e+02   3.3378397410e+01    0.2229771    0.1831713  78.61  0.000896078    1.207    0.172
        39  -9.6918    114.4801    143.1277   9.8682221428e+01   3.0318148181e+01    0.3383341    0.1946545  86.31  0.001072447    3.979    0.749
        40 -11.4422    109.5715    137.6960   9.8804417475e+01   3.2474313610e+01    0.6207551    0.3485557 -40.13  0.002575486    2.117    0.528
        41  -9.1480    127.9998    139.4931   9.4561641631e+01   2.8529640794e+01    0.2318377    0.1469239  43.99 0.0009705173    1.575    0.365
        42 -11.8511     98.2372    136.8448   1.0155113547e+02   3.4687030252e+01    0.2996935     0.287703 -54.13 0.0005573683    1.137    0.120
        43 -11.0947    105.9267    130.8530   9.8299513580e+01   3.4727256567e+01    0.4070861     0.328833 -71.78  0.001150961    1.247    0.198
        44 -10.2456    135.8689    128.3011   9.0066598683e+01   2.9409083204e+01    0.4892739    0.1019508 -48.96  0.001183974    5.061    0.802
        45 -10.2736    116.3001    128.5831   9.5091778789e+01   3.3306025868e+01    0.2928132    0.2597454 -16.83 0.0006538955    1.350    0.259
        46 -10.5797    104.1708    124.3865   9.7342059694e+01   3.6552800301e+01    0.3022519    0.2581482 -22.89 0.0007470038    1.417    0.294
        47  -9.7929    120.5035    123.4153   9.2800427650e+01   3.3661175597e+01    0.2705432    0.1380284 -39.36  0.001018878    2.228    0.551
        48  -9.8780    161.4672    128.4822   8.4020261118e+01   2.3778787414e+01    0.4043559    0.2631963  73.86   0.00156272    2.366    0.577
        49  -9.3751    152.8087    119.6489   8.3824928735e+01   2.7582193756e+01    0.2689374    0.2121529 -31.93 0.0004959637    1.347    0.257
        50  -9.5096    111.0465    118.0516   9.4019214392e+01   3.6737399008e+01    0.2183702    0.2134047 -56.76 0.0003536906    1.056    0.053
        51  -9.8189    231.2948    113.7273   6.6586809762e+01   1.0735529051e+01     0.259473    0.2354565  -1.03 0.0007162204    1.121    0.108
        52  -9.6986    167.4306    112.5400   7.8614658530e+01   2.5680466895e+01    0.3477595    0.2529975 -86.91  0.001445334    2.016    0.504
        53 -10.4631    134.4454    105.7200   8.4678310389e+01   3.4669752199e+01    0.5740592     0.155982 -43.68  0.001609052    3.627    0.724
        54 -11.1938    119.3975    110.6219   8.9921745777e+01   3.6778259075e+01    0.5768893    0.3750122  63.09  0.002438397    1.938    0.484
        55  -9.6375    205.4082    110.3554   7.0279289848e+01   1.7143042752e+01    0.3048811     0.237903  48.23 0.0008916958    1.324    0.245
        56 -10.1162     73.1790    103.1006   1.0128513486e+02   4.6651787768e+01    0.2179047    0.1786241 -37.93 0.0006523853    1.264    0.209
        57  -8.6668    200.5021    100.5023   6.8630423493e+01   2.0080172576e+01    0.1534652    0.1480344 -37.84 0.0008106809    1.007    0.007
        58 -10.0740    188.3234     87.9274   6.7523359867e+01   2.5321883360e+01    0.4269332    0.3414875  87.27  0.002017122    1.490    0.329
        59  -9.0257     73.6940     73.5532   9.3205678746e+01   5.3219530393e+01     0.169925    0.1355993  48.71 0.0004806925    1.462    0.316
        60  -8.7500    167.7739    229.5871   1.0187761280e+02   3.8468522446e+00    0.1598758    0.0999665  47.83 0.0002959748    1.398    0.285
        61 -10.3022    160.7213    205.0440   9.9530926168e+01   9.0251150484e+00    0.1790208    0.1693698  33.21 0.0006377273    1.097    0.088
        62 -11.1433     62.1458    220.0369   1.2075750615e+02   2.2039502846e+01    0.2003705    0.1478412  78.05 0.0007859866    1.118    0.105
        63  -8.7280     96.4812     63.4852   8.2510777107e+01   5.1313154602e+01    0.1451193    0.1352976 -21.27 4.055703e-05    1.011    0.011
        64  -9.5370     87.6055    202.7513   1.1410149608e+02   2.1840372189e+01    0.2052073    0.1892033  22.08  0.001039713    1.493    0.330
        65 -10.2648     15.7189    201.2693   1.2793671244e+02   3.1072307785e+01    0.1166468   0.08628755  48.56 0.0003805637    1.426    0.299
