#   1 NUMBER                 Running object number                                     
#   2 MAG_AUTO               Kron-like elliptical aperture magnitude                    [mag]
#   3 X_IMAGE                Object position along x                                    [pixel]
#   4 Y_IMAGE                Object position along y                                    [pixel]
#   5 X_WORLD                Barycenter position along world x axis                     [deg]
#   6 Y_WORLD                Barycenter position along world y axis                     [deg]
#   7 A_WORLD                Profile RMS along major axis (world units)                 [deg]
#   8 B_WORLD                Profile RMS along minor axis (world units)                 [deg]
#   9 THETA_WORLD            Position angle (CCW/world-x)                               [deg]
#  10 FWHM_WORLD             FWHM assuming a gaussian core                              [deg]
#  11 ELONGATION             A_IMAGE/B_IMAGE                                           
#  12 ELLIPTICITY            1 - B_IMAGE/A_IMAGE                                       
         1 -11.9123     90.1883     59.2629   1.0208377663e+02   5.3730364445e+01     1.098619    0.7874535 -59.62  0.005421224    1.737    0.424
         2 -12.3377     60.4955     45.7948   1.0773023478e+02   6.1144655714e+01     1.084124     0.480087 -44.15  0.004892327    2.061    0.515
         3 -12.4151    124.6098     27.8016   8.0590384938e+01   5.1203908233e+01     1.569529     1.028741  24.59  0.007396075    1.794    0.443
         4 -12.3249    130.9816     13.7876   7.3956346114e+01   5.1223233218e+01     1.834211    0.6928002  65.74  0.006905068    2.611    0.617
         5 -11.9858    120.3779     57.6476   9.2529749640e+01   4.7747742901e+01     1.947668     1.339732 -80.43  0.008023465    2.491    0.599
         6 -12.9292    112.8705     24.7106   8.2236412742e+01   5.4350460921e+01     1.068027    0.6682325  62.21  0.005172237    1.679    0.404
         7 -12.9572    120.2257     38.8985   8.5821347051e+01   5.0755267039e+01    0.8363987    0.5804636 -72.90 0.0009715147    2.243    0.554
         8 -11.8342    145.4972     48.0136   8.3088724051e+01   4.3257667036e+01     1.159568    0.5118883 -24.85  0.004127919    2.757    0.637
         9 -10.6079    139.5813     32.7943   7.9104817122e+01   4.6884073780e+01    0.7100103    0.3424624 -22.60   0.00282548    2.387    0.581
        10 -11.4117    178.2912     21.1116   6.8576667956e+01   3.8260512156e+01     0.559216    0.3438776  33.09  0.002080334    2.103    0.525
        11 -11.5543    163.3960     27.8415   7.2955735737e+01   4.1377467333e+01    0.5922685    0.3154649  53.63  0.001861391    1.746    0.427
        12 -10.0895     60.5843     24.5602   9.8927987878e+01   6.4649911098e+01    0.6087003    0.2381534 -35.24  0.002114068    2.394    0.582
        13 -11.5537     26.1736     27.6295   1.1545377957e+02   6.8490360890e+01     0.463616    0.4434548  25.96  0.002691508    1.423    0.297
        14 -10.7121     22.6564     11.1322   1.0991609362e+02   7.1547764082e+01     1.289724    0.5359549  11.95  0.005150275    4.584    0.782
        15 -11.1809     14.0754      9.3236   1.1366975033e+02   7.2619224241e+01    0.3686622    0.2458198  12.79  0.002556604    1.546    0.353
        16 -11.6234     19.8382     22.9289   1.1665894717e+02   6.9879528688e+01    0.5215698    0.3126874 -45.43  0.003266251    1.403    0.287
        17 -11.3037     14.7962     23.3623   1.1938391391e+02   7.0210766322e+01    0.4274884    0.3793295 -67.88  0.002076933    1.547    0.353
        18 -12.0023     16.8543     13.7259   1.1421998164e+02   7.1678868714e+01    0.5426018     0.265235 -23.83  0.001923795    2.129    0.530
        19 -11.4521    154.4817     24.5863   7.3407481575e+01   4.4083540699e+01    0.7202474    0.5188012  26.84  0.003563735    1.631    0.387
        20 -11.0535    140.5288     20.4825   7.4541541945e+01   4.8124913647e+01    0.8873008    0.2688614  49.99  0.003052483    2.920    0.658
        21  -9.7307    149.5190     14.9745   7.1002870147e+01   4.6416861440e+01    0.2527696    0.1979701  21.18  0.001120889    1.451    0.311
        22  -9.0656     87.2136      7.2167   8.1706844386e+01   6.1895812087e+01    0.6244908    0.3254873  53.01  0.003059692    1.793    0.442
        23 -11.5280     90.7430     20.2527   8.6496073867e+01   5.9725265814e+01    0.5607321    0.4169101 -14.95  0.002300726    1.337    0.252
        24 -11.5799     86.0837     14.3447   8.5294163971e+01   6.1370488198e+01    0.5476142    0.3103552  -9.16  0.001992465    2.045    0.511
        25  -9.4287     32.1616     12.1769   1.0559730794e+02   7.0364051735e+01    0.3088467     0.199805  55.67  0.001572849    3.483    0.713
        26 -10.9426     46.8375     18.5463   1.0187080914e+02   6.7563701443e+01    0.3946245    0.3176498  35.03  0.002615213    1.444    0.308
        27 -12.2092     49.1888     12.9815   9.8142368799e+01   6.8010445985e+01    0.6267217    0.3248277  41.73  0.003363117    2.072    0.517
        28 -11.5652     35.5045     18.9734   1.0724398891e+02   6.8945197954e+01    0.4279726    0.1882208 -35.85  0.001699902    1.977    0.494
        29 -10.3275    206.5553     19.9534   6.4740029854e+01   3.1083152770e+01    0.5494445    0.2562611 -29.41  0.002138883    2.187    0.543
        30 -10.7973     66.3365     10.5855   9.0130961385e+01   6.5541315212e+01    0.6027662    0.2550189  38.13  0.002691654    2.289    0.563
        31 -10.3236     62.8605      6.4785   8.9364439029e+01   6.6616787564e+01    0.3000006    0.1909815   1.17  0.001140352    1.627    0.385
        32 -11.9971     68.2368     17.5905   9.2794856007e+01   6.4345221526e+01    0.7386555    0.4434358  51.97  0.003892235    1.963    0.490
        33 -12.2723    239.2708     15.8138   6.0554710950e+01   2.3576329306e+01    0.8177553    0.4969353  62.55  0.003330269    1.706    0.414
        34 -12.0413    244.7488      6.9151   5.8072697012e+01   2.3304604564e+01    0.7782474     0.399161 -61.25  0.003236804    1.819    0.450
        35 -11.2973    239.2151      7.3995   5.8595199713e+01   2.4524210687e+01    0.4441993    0.1840521 -65.55  0.001384381    2.738    0.635
        36 -11.1384    165.3323     17.2314   6.9240671328e+01   4.2077591594e+01    0.4271328    0.2552676  42.91 0.0007513445    1.788    0.441
        37 -11.1544     41.4583     14.3546   1.0225838512e+02   6.8895065447e+01    0.5191921    0.1876908  40.27  0.002361581    3.065    0.674
        38 -10.3606    198.7222      5.5945   6.1682760228e+01   3.4607803314e+01    0.2825276    0.1229646  74.27 0.0007633166    2.106    0.525
        39 -10.5302    186.2297     15.3053   6.5811110805e+01   3.6826404252e+01    0.3133476    0.2494476  54.52 0.0007316159    1.269    0.212
        40 -11.4487    192.1234      7.8480   6.2995276405e+01   3.6072399544e+01     0.578096    0.3789713  16.83    0.0019565    2.258    0.557
        41 -10.0608    194.0036      1.4515   6.1021170809e+01   3.6208560735e+01    0.2033485    0.1194738  76.23 0.0004018594    1.526    0.345
        42 -12.3729    104.9353     12.8790   7.9409829177e+01   5.7492841167e+01    0.5081386    0.4512293 -15.18  0.002012494    1.181    0.153
        43 -11.5930    211.2687     10.0919   6.1645595626e+01   3.0981685276e+01    0.4571677    0.3426687  31.00  0.001677572    1.779    0.438
        44 -10.4625    169.1252      9.9246   6.6395048570e+01   4.1834849603e+01    0.3607855    0.2086429  47.01  0.001693542    1.765    0.433
        45  99.0000      4.2172      9.6642   1.1939914063e+02   7.3305255679e+01    0.4669723    0.1361468 -40.17  0.001973603    2.554    0.608
        46  -9.5192    162.8360     10.1757   6.7346015900e+01   4.3447666177e+01     0.227859    0.1748896  47.17 0.0007468852    1.299    0.230
        47  -9.6993    158.3508      2.4731   6.5483675693e+01   4.5316943297e+01    0.4069893    0.2177709  58.55  0.001926937    1.626    0.385
        48 -10.1380    162.9507      5.5539   6.5850285311e+01   4.3853245524e+01    0.3656753    0.2521218  -2.77  0.001776366    1.818    0.450
        49  -9.3187    162.6954      1.3063   6.4531365730e+01   4.4295203258e+01    0.2069706    0.1280416  78.46 0.0002046393    1.514    0.340
        50 -10.3957    151.3613      7.4837   6.8157466756e+01   4.6671562288e+01    0.4600524    0.2204316  62.05  0.001094416    1.794    0.443
        51 -10.1493      1.2966      7.2784   1.2003697091e+02   7.3885205658e+01     0.176096   0.07388791 -48.19 0.0002349704    1.843    0.457
        52 -10.2507     71.6290      3.3556   8.4702098605e+01   6.5357728477e+01    0.4157743    0.3317438  33.27  0.002471357    1.136    0.119
        53 -10.6723     77.0148      6.5126   8.4485589524e+01   6.4010573707e+01    0.2598324     0.216657  71.37  0.001226069    1.625    0.384
        54 -11.1222     77.2085      2.9837   8.2716560327e+01   6.4321997920e+01    0.4667132    0.2204722  37.95   0.00226735    1.955    0.488
        55  -9.4004    185.4308      7.9360   6.3768361463e+01   3.7790438063e+01    0.3150517    0.1682351 -61.67  0.001384201    2.123    0.529
        56 -11.0740     38.6920     20.2082   1.0632247827e+02   6.8371695248e+01    0.5249462    0.1697155 -41.31  0.001616945    2.744    0.636
        57 -10.3232     42.8184      3.3716   9.5951565857e+01   7.0155588247e+01    0.4212841    0.2379469   3.43  0.002242359    2.118    0.528
        58 -10.8317    218.6075      3.2020   5.9232853605e+01   2.9878631118e+01    0.2987002    0.2617104 -78.62   0.00100773    1.045    0.043
        59 -11.4890    224.7403      2.2843   5.8507073213e+01   2.8483251024e+01    0.7122446     0.306146 -85.82  0.002936767    2.658    0.624
        60 -10.6900    173.8531      4.3092   6.4063352232e+01   4.1137573351e+01     0.583029     0.234501  76.63  0.002271627    2.464    0.594
        61 -10.4411    141.6470      3.7354   6.8393193255e+01   4.9484468729e+01     0.467847    0.2191866  63.42  0.001578164    1.834    0.455
        62 -12.0425    133.7183      2.7170   6.9350493561e+01   5.1562824794e+01    0.4109125    0.2724679  63.25 0.0007635852    1.337    0.252
        63  -9.5691    122.2938      1.4010   7.0925516440e+01   5.4479045601e+01    0.4292111    0.1144401  64.28  0.001473865    3.245    0.692
        64 -11.0936    105.8523      1.6830   7.4462437339e+01   5.8330077803e+01    0.6665782    0.3002933  68.73  0.002554451    2.494    0.599
        65 -10.3873    117.4618      2.5254   7.2318538215e+01   5.5547455591e+01    0.3095984    0.1872816  -9.80  0.001004657    1.866    0.464
        66 -10.3437    113.3247      1.8799   7.2912224014e+01   5.6580708752e+01    0.4053017    0.2116444  70.25  0.001038523    2.032    0.508
        67 -10.4818     23.0872      2.8740   1.0542858599e+02   7.2704587227e+01    0.2683975    0.1806628 -12.50   0.00129009    1.255    0.203
        68 -10.5890    205.7691      2.3889   6.0150536439e+01   3.3141113001e+01    0.4286563    0.2210748  88.08  0.001960662    1.931    0.482
        69 -10.9079      2.6452      1.8715   1.1667373484e+02   7.4662464942e+01    0.3214097     0.167511   3.39  0.001996923    2.121    0.528
        70 -12.1245     23.3967    136.3065   1.4012805709e+02   4.5020877796e+01    0.8369647    0.4871511  49.89   0.00484064    1.774    0.436
        71 -11.6304     29.8601    132.8784   1.3805079715e+02   4.5230898704e+01    0.4819823    0.2910795 -82.93 0.0004481889    1.456    0.313
        72 -11.6336     81.4011    135.3321   1.2461307587e+02   3.8303712053e+01    0.8289091    0.4781545  17.16  0.003272001    3.167    0.684
        73 -10.7043     47.8036    134.5692   1.3351555093e+02   4.2974895374e+01    0.3301637    0.1887779 -57.18  0.001183679    1.610    0.379
        74 -10.9906     72.5376    133.8396   1.2673248113e+02   3.9972790746e+01    0.5064918    0.3473037 -19.65  0.002078917    2.529    0.605
        75 -10.0914     14.3088    133.2285   1.4211937534e+02   4.6480622837e+01    0.2630211    0.1557536  74.24  0.001523467    1.647    0.393
        76  -9.9160     62.2403    132.0178   1.2921788095e+02   4.1815801800e+01    0.3042811    0.1596558 -53.75  0.001431781    1.803    0.445
        77 -11.0374     92.8628    129.1368   1.2031067455e+02   3.7920924333e+01    0.3760707     0.310947 -88.00  0.001420774    1.238    0.192
        78  -9.7644     78.6795    128.4270   1.2405710226e+02   4.0354075468e+01    0.2712819    0.1875614 -40.73   0.00057015    1.673    0.402
        79  -9.6290     80.9549    124.9148   1.2273698024e+02   4.0839322974e+01    0.4590546     0.235816  43.01  0.002024422    2.016    0.504
        80 -10.7958     45.7143    120.5584   1.3194409996e+02   4.6526373816e+01    0.4113153    0.2539377  73.97  0.001694545    1.944    0.486
        81 -11.1885     56.2542    123.1442   1.2937605206e+02   4.4686200865e+01    0.5123349    0.3864885  15.58  0.002002805    1.769    0.435
        82 -10.8694      2.9542    123.3331   1.4406994211e+02   4.9537955934e+01    0.4141134    0.2711284 -62.11  0.001281668    1.357    0.263
        83  -9.5887     18.6686    124.0407   1.3996827054e+02   4.8253121978e+01    0.2607798    0.1092129 -65.46  0.001297978    1.862    0.463
        84 -10.3285    239.4222    124.1718   8.6662406846e+01   7.7697845211e+00    0.2227563    0.1794127  56.56  0.001035522    1.407    0.289
        85 -11.6997    104.9179    121.0538   1.1526501480e+02   3.7681030335e+01    0.5535467    0.5035177 -74.78  0.002225709    1.063    0.059
        86  -9.4162    221.4710    120.5154   8.8802562730e+01   1.2168722662e+01    0.1452208    0.1372437 -23.74 1.480137e-05    1.009    0.009
        87  -9.2759    148.4167    119.7848   1.0372893518e+02   2.8986036020e+01    0.2200934    0.1489837 -32.87 0.0006119754    1.665    0.399
        88  -9.2572     72.0889    120.0039   1.2426941432e+02   4.3325019126e+01    0.2175341    0.1627643 -30.08 0.0008470042    1.710    0.415
        89 -11.3295     33.9566    119.5687   1.3514099084e+02   4.7964510353e+01    0.4051935    0.2964582 -49.77 3.588257e-05    1.403    0.287
        90 -11.3632     50.1658    100.4871   1.2693463363e+02   5.0765342562e+01     1.402365    0.8981321 -28.06  0.004016812    2.093    0.522
        91 -11.3240     44.4952     85.3584   1.2551692178e+02   5.4880778275e+01    0.7253686     0.454333  64.13  0.003576299    2.324    0.570
        92 -12.0939     33.7519     93.6922   1.3086797662e+02   5.4033353725e+01     1.405136    0.9959695 -43.71  0.008395324    1.385    0.278
        93 -11.7059     37.7106     85.9841   1.2797725593e+02   5.5428550024e+01     1.205301    0.6470634  40.61  0.005730646    2.174    0.540
        94 -12.0948     10.1659     97.8556   1.3906907731e+02   5.4887945913e+01     1.056477    0.6329491  55.93  0.006199618    1.969    0.492
        95 -12.1981      7.3851     88.8710   1.3865607037e+02   5.7093102156e+01    0.5270897    0.4210875 -77.40  0.001054963    1.095    0.087
        96 -11.5423     28.5302    113.0021   1.3573633592e+02   5.0002072882e+01    0.4598552    0.3247297   6.19  0.002581564    1.997    0.499
        97 -12.6870     25.5902    107.4763   1.3577873569e+02   5.1543247574e+01     1.318917    0.6669153 -31.10   0.00599484    3.101    0.678
        98 -12.0953     18.7930    106.2182   1.3762747558e+02   5.2372032027e+01    0.2889419    0.1941544 -57.71 0.0002496745    1.290    0.225
        99 -12.1311     20.8097     95.1942   1.3532185105e+02   5.4763340973e+01     0.569626    0.4547838 -12.23  0.003759894    1.600    0.375
       100 -12.2564     18.4296     90.5594   1.3532230188e+02   5.5998082392e+01    0.5920781    0.3171201 -46.52 0.0006472502    1.745    0.427
       101  -9.3843     81.4625    117.7224   1.2110767301e+02   4.2461976454e+01    0.1929907    0.1257488 -48.92 0.0004090577    1.494    0.331
       102 -10.2956    113.9397    115.9837   1.1160912242e+02   3.7124509924e+01    0.2371579    0.2173737  47.31 0.0003739252    1.121    0.108
       103  -9.3785     87.9960    114.6675   1.1855858796e+02   4.2131332249e+01    0.2090949    0.1797783  54.97  0.001143495    1.212    0.175
       104 -10.6146     67.1537    112.2312   1.2413937319e+02   4.5860992532e+01    0.5241429     0.300191 -69.44  0.002429065    1.786    0.440
       105 -11.7487      3.3578    104.9098   1.4200994160e+02   5.3694171255e+01    0.3372363    0.3106922 -43.10  0.001078937    1.323    0.244
       106 -11.5931      2.5232    112.3093   1.4307284774e+02   5.2064011519e+01    0.4401285    0.2759424  56.41  0.001865783    1.733    0.423
       107 -10.8844      5.5186    108.9351   1.4185498692e+02   5.2650192739e+01    0.2709785    0.1812329 -64.77  0.000708011    1.218    0.179
       108 -10.4462    107.9263    112.7744   1.1247102064e+02   3.9019263166e+01     0.476329    0.3297995 -83.27  0.001686757    2.007    0.502
       109 -11.0292    103.5795    108.9228   1.1273508066e+02   4.0718396595e+01    0.6828598    0.5205352  19.12  0.003288967    1.680    0.405
       110  -9.8408     48.8457    112.3213   1.2961909631e+02   4.8129668479e+01    0.2500204    0.1976132 -64.46  0.001226738    1.093    0.085
       111 -11.3420    171.6825    109.6242   9.5762392064e+01   2.5679151540e+01    0.7616606    0.4577922  34.53  0.002999907    2.007    0.502
       112  -9.2726     81.8853    103.0968   1.1765997303e+02   4.5818300060e+01    0.2702486    0.1829688 -39.90 0.0007206654    1.552    0.356
       113 -11.1483     79.5394    108.6389   1.1966696646e+02   4.4896909952e+01     0.646211    0.4146656  54.37  0.002791965    1.785    0.440
       114 -11.1468     86.3061    105.2108   1.1684338002e+02   4.4612638474e+01     0.433943    0.3761904   8.79  0.001366854    1.394    0.283
       115  -9.4032     60.7918    110.8050   1.2575151778e+02   4.7045389177e+01    0.1800327    0.1467898  79.11 0.0002429039    1.312    0.238
       116  -9.8539    119.9809    109.0303   1.0822666622e+02   3.7472192640e+01    0.1903198     0.174286 -54.66 0.0005192235    1.069    0.064
       117  -9.5839    248.6544    108.6738   8.1653165181e+01   8.3453597280e+00    0.1424402    0.1047191   9.36 0.0007050326    1.746    0.427
       118  -9.5643    130.5049    107.9856   1.0516592411e+02   3.5479073666e+01    0.2480394    0.1512834 -46.84 0.0008450849    1.624    0.384
       119 -10.5251    157.6613    105.6878   9.7863835523e+01   2.9790698941e+01    0.3432378    0.2936336 -15.57 0.0009491957    1.334    0.250
       120 -10.2071    143.4919    105.7309   1.0126872960e+02   3.3071938654e+01    0.3705715    0.3191232 -40.59   0.00153264    1.171    0.146
       121 -11.3528    145.6347    100.8633   9.9410911885e+01   3.3592735873e+01    0.5276014    0.4208412  22.88  0.002471497    1.498    0.332
       122 -11.2653     67.5332     97.1403   1.2067986164e+02   4.9341442990e+01    0.6260579    0.3667495 -50.79  0.001682239    1.534    0.348
       123 -10.4945     57.6205     97.4839   1.2391837206e+02   5.0573309176e+01    0.4008325    0.2403635 -65.39  0.001599081    1.581    0.367
       124 -10.2862    210.8641     98.0732   8.5077783430e+01   1.8449291527e+01    0.3584819    0.3354142   1.22  0.001326121    1.141    0.123
       125 -10.3764    143.4252    249.0459   1.2748722217e+02   5.4469847719e+00    0.2411293    0.1425383  32.78  0.001394941    1.654    0.396
       126  -9.8868     77.9983     97.0233   1.1735917292e+02   4.7827211175e+01    0.2081133    0.1881782 -52.39   0.00119729    1.028    0.027
       127 -11.2979     81.4808     93.0409   1.1524747573e+02   4.8182841436e+01    0.6486372    0.4252337  54.88  0.002058826    1.827    0.453
       128 -11.2208     89.9563     89.2055   1.1156388755e+02   4.7617184392e+01    0.7022977    0.4178539 -30.70  0.002974802    2.126    0.530
       129 -10.6984     94.0608     75.8666   1.0633838502e+02   4.9732245864e+01    0.5097343    0.4298138   6.64  0.001089593    1.346    0.257
       130 -12.3671     74.5129     50.1734   1.0415205042e+02   5.8171409729e+01     1.020593    0.6812974 -51.77  0.004244526    1.669    0.401
       131 -11.7370     85.4075     73.5121   1.0837107452e+02   5.1770431671e+01    0.6979092    0.6311345  51.68  0.003608611    1.227    0.185
       132 -11.5336     78.9015     67.2294   1.0853564310e+02   5.4159629844e+01    0.6937369    0.5542488  89.82  0.003613914    1.805    0.446
       133 -11.2640     80.2469     82.9455   1.1287457191e+02   5.0625252251e+01    0.7282027    0.5612292 -81.62  0.003243638    1.680    0.405
       134 -11.3299     65.8671     81.8702   1.1734313748e+02   5.3033034307e+01    0.4371099    0.3606859  29.73   0.00228941    1.349    0.259
       135 -11.9419     71.6530     79.7178   1.1479315950e+02   5.2668479954e+01    0.7615836    0.4711148 -25.88   0.00302151    2.126    0.530
       136 -10.5228    120.3509     85.1415   1.0144531094e+02   4.2526003098e+01    0.5580315    0.2487094  51.45  0.001925456    2.424    0.587
       137 -10.9254    125.1825     93.6075   1.0261405868e+02   3.9715699199e+01    0.6062067    0.3582891  39.47  0.001643829    1.810    0.447
       138 -10.2272    117.2892     93.0259   1.0460654648e+02   4.1524124511e+01    0.3625128     0.250242  35.49   0.00120679    1.583    0.368
       139 -10.8189    121.8604     89.3132   1.0226947962e+02   4.1336224282e+01    0.4407022    0.2872541  24.17  0.001806532    2.122    0.529
       140  -9.5813    138.2392     93.3398   9.9129088041e+01   3.6847214181e+01    0.4281184    0.2430861  25.22  0.001440271    3.074    0.675
       141  -9.4755    160.2301     93.4015   9.3875399292e+01   3.1619352585e+01     0.228613     0.151338  64.09 0.0009540164    1.705    0.413
       142 -10.3460    152.6723     91.9852   9.5215236107e+01   3.3722969588e+01    0.3503242     0.327518  77.99  0.001395709    1.103    0.094
       143 -10.5516    101.6474     90.8458   1.0848118237e+02   4.5123488899e+01    0.5124164    0.3776001  51.30  0.002200319    1.457    0.314
       144  -9.8589    104.3278     87.6754   1.0677620915e+02   4.5291817982e+01    0.3256204    0.2502451  68.25  0.001572517    1.604    0.376
       145 -10.2045    183.9846     86.3740   8.6887822524e+01   2.7059438621e+01    0.6115925    0.2520266 -45.51  0.002100183    2.521    0.603
       146  -9.8429    103.8884     77.5609   1.0385522272e+02   4.7497650556e+01    0.6740208    0.3443074 -31.17  0.002549989    2.452    0.592
       147 -11.1241    113.6146     83.2553   1.0276509511e+02   4.4345534757e+01    0.7752191    0.3690711 -34.61  0.002844926    2.430    0.588
       148 -10.6921    108.7274     80.8467   1.0344077325e+02   4.5850163607e+01     0.401991    0.3424214 -21.93  0.001345402    1.250    0.200
       149  -9.2578     67.6005     88.1711   1.1843518644e+02   5.1380874364e+01    0.2073877    0.1123894 -44.86 0.0009416715    1.734    0.423
       150  -9.5669    212.2209     87.1040   8.2006700121e+01   1.9993148423e+01    0.2229857    0.2012867  -0.17 0.0004913786    1.240    0.194
       151 -10.5646    165.6136     83.2099   8.9752979474e+01   3.2225837425e+01    0.4552019    0.3613912 -62.96  0.001531784    1.398    0.285
       152 -11.4341    143.4864     83.2756   9.4859283727e+01   3.7625756506e+01    0.4839535    0.3804449 -23.43  0.001665164    1.415    0.293
       153 -10.2571    127.7450     83.4725   9.8937436219e+01   4.1235887902e+01    0.3443874    0.2531689  35.28  0.001418431    1.470    0.320
       154 -11.2256     57.8908     78.1656   1.1907804500e+02   5.4920537264e+01    0.5776118    0.3887977 -77.55  0.001306041    1.967    0.492
       155 -11.5625     52.9366     76.1840   1.2028765282e+02   5.5973259886e+01    0.7882769    0.3303842 -55.79   0.00340656    2.106    0.525
       156 -10.4317    120.6994     79.8385   9.9731029137e+01   4.3525878067e+01    0.4166363    0.2040574  50.98  0.001601304    2.141    0.533
       157 -11.8010     24.4630     55.9952   1.2565005875e+02   6.3150715233e+01     1.505801    0.6050327  22.23  0.007232917    2.968    0.663
       158  -9.6173     51.9085     47.2748   1.1165659149e+02   6.2043414231e+01    0.6177388    0.2329536 -50.33  0.002566085    2.567    0.610
       159 -10.3824     20.8130     47.1786   1.2467667889e+02   6.5240700515e+01    0.3427013    0.2014064 -47.31  0.001824413    1.333    0.250
       160 -11.3342     27.8467     47.1011   1.2162086933e+02   6.4680235896e+01    0.3933076    0.2319024 -11.88  0.002124235    2.149    0.535
       161 -11.6693     32.5272     42.2668   1.1799628986e+02   6.5191228525e+01    0.5799254    0.4772379  42.19  0.002258377    1.585    0.369
       162 -11.8089     13.9343     74.5603   1.3398787295e+02   5.9896979631e+01    0.5211488     0.384259 -71.17  0.002445063    1.186    0.157
       163 -11.4827     39.9070     55.6495   1.1928850810e+02   6.1796938916e+01    0.4920785    0.4241787  67.42  0.003164186    1.575    0.365
       164 -12.0130      2.1054     70.9378   1.3759712556e+02   6.1353707207e+01    0.6586249    0.2179176 -65.75  0.002808526    2.166    0.538
       165 -11.4171     51.7349     61.7439   1.1656430139e+02   5.9199961936e+01    0.5949837    0.3486278 -64.30  0.002341993    2.066    0.516
       166 -11.4034     46.2404     58.4903   1.1766639569e+02   6.0520986857e+01    0.5777152    0.3814208 -48.49  0.003276474    1.303    0.233
       167 -11.6355     13.3394     66.0594   1.3248614278e+02   6.1795671931e+01    0.3016959    0.2564824  69.24 0.0004646753    1.451    0.311
       168 -11.8817      6.6699     62.3609   1.3427417719e+02   6.2978566346e+01    0.5805644    0.2185683 -51.26  0.002831935    1.951    0.487
       169 -11.3298     12.4771     62.2680   1.3199526855e+02   6.2665875984e+01    0.2604129    0.1899271  -7.96 0.0009067734    1.633    0.388
       170 -11.7545     45.9315     49.0379   1.1469071361e+02   6.2442831687e+01    0.4800843    0.3370472  -7.77  0.001115162    1.630    0.386
       171 -12.6796     41.8099     45.4582   1.1514357775e+02   6.3606409732e+01    0.3281777    0.2803674   6.26 0.0003227491    1.236    0.191
       172  -9.3475      4.9916     78.2473   1.3780210201e+02   5.9600367194e+01    0.1611277    0.1275112 -62.96 0.0006084621    1.036    0.034
       173 -10.1472    242.1558     76.1760   7.4819714591e+01   1.4778911409e+01    0.2035279    0.1565357 -63.73   0.00108354    1.355    0.262
       174 -12.1077    186.2770     70.3584   8.1920298710e+01   2.9244165975e+01    0.9034255    0.6813439 -34.89  0.003379978    1.330    0.248
       175  -9.4619     46.5407     73.0258   1.2174186423e+02   5.7407345955e+01    0.2929734    0.1211552 -62.83 0.0009146007    2.599    0.615
       176 -11.4680     40.3106     71.8362   1.2371132002e+02   5.8331077290e+01    0.5508178    0.3109352 -40.62  0.002871705    1.667    0.400
       177 -11.0886     33.2453     71.7846   1.2630903089e+02   5.9023231151e+01    0.4383248    0.2708645  23.44   0.00248183    1.922    0.480
       178  -9.4823     24.2338     73.3208   1.2998710531e+02   5.9444359456e+01    0.2137512    0.1430713  87.99 0.0008118241    1.910    0.476
       179  -8.7665    151.3127     73.3580   8.9975828374e+01   3.7582602689e+01    0.1623626    0.1228282  13.49 0.0007043373    1.743    0.426
       180  -9.1276     61.2701     72.9740   1.1643645078e+02   5.5605515167e+01    0.1804569     0.164284 -45.59 0.0004200706    1.045    0.043
       181 -11.8068    122.7259     68.2035   9.5459751689e+01   4.5323028994e+01    0.7330119    0.4675184  45.06  0.002518031    1.573    0.364
       182 -10.0961    162.0385     70.3683   8.6688188942e+01   3.5426310333e+01    0.4029281    0.2806984  73.50  0.001766825    1.672    0.402
       183  -9.2626     20.1621     71.5808   1.3110776619e+02   6.0132350786e+01    0.1566366    0.1088623 -13.26 0.0009502029    1.762    0.433
       184 -10.0671    207.8016     68.2726   7.7711951112e+01   2.4143210796e+01    0.4288653    0.1976694  47.68  0.001632517    2.382    0.580
       185 -10.5018    172.1111     67.8605   8.3867829646e+01   3.3287455024e+01    0.4771346    0.3292571 -53.65  0.002139403    1.565    0.361
       186  -9.9148    167.7349     63.0594   8.3282026077e+01   3.5207091305e+01     0.259952      0.21297  62.61 0.0007526148    1.206    0.171
       187  -9.3761    111.2746     67.0148   9.8268935296e+01   4.8056333658e+01    0.2133612    0.1954705 -79.74 0.0003047343    1.255    0.203
       188 -11.5542    219.6365     66.1798   7.5386954270e+01   2.1557917163e+01    0.6485348    0.3818513  60.09  0.002344149    1.739    0.425
       189  -9.2638    213.3545    248.3130   1.1497036195e+02  -5.4756515294e+00    0.1211655   0.07320354  16.77 0.0007044878    1.734    0.423
       190 -10.4881     60.6724     36.4350   1.0399510222e+02   6.2760387896e+01    0.3391308    0.1613216 -38.49  0.001181201    1.923    0.480
       191 -10.1936     20.9453     65.0910   1.2935337091e+02   6.1489331196e+01    0.1808716    0.1468561 -53.47 0.0008223651    1.018    0.018
       192  -9.6946    198.2077     62.8667   7.7750060933e+01   2.7405561917e+01    0.3263619    0.1860777 -46.37  0.001212891    1.745    0.427
       193 -10.5599    106.0017     62.6089   9.8324357984e+01   4.9988685506e+01    0.4421039    0.3061902  84.33  0.001826709    2.599    0.615
       194 -10.7076     58.5231     62.3319   1.1420223754e+02   5.8208380130e+01    0.6515877    0.3203374 -58.92  0.002821167    2.352    0.575
       195 -10.7736    159.5712     61.6737   8.4519156532e+01   3.7525592176e+01    0.4952904    0.2896144  42.52  0.001877703    1.836    0.455
       196 -10.2223     98.3413     62.2734   1.0053741871e+02   5.1601398696e+01    0.3032543    0.2621036  25.79   0.00166407    1.186    0.157
       197  -9.7005    174.8129    246.5930   1.2152121495e+02   7.7048635336e-01    0.1791154   0.09009233  47.22 0.0009600819    1.712    0.416
       198  -9.7156    199.0176    244.4983   1.1691867265e+02  -2.8077844602e+00    0.1904885   0.09350063  39.41  0.001040033    1.611    0.379
       199 -10.9518    128.6245    241.9576   1.2937868021e+02   8.8750965200e+00    0.3902216    0.3026876  33.19  0.002604007    1.354    0.261
       200 -11.5684    105.6522     32.9744   8.7440028158e+01   5.4895502873e+01     0.590162    0.3447593   5.30  0.001238983    2.744    0.636
       201 -10.2081    150.4868    237.9583   1.2485079332e+02   5.9632810951e+00    0.1584148    0.1234282 -52.84  0.001038641    1.608    0.378
       202 -12.8142    117.6099     43.0000   8.8022466108e+01   5.0755512844e+01    0.9207167    0.6702344  78.46  0.003386971    1.855    0.461
       203  -9.5616     15.2788    233.4292   1.4881667922e+02   2.5540465672e+01     0.174862    0.1032158 -75.94  0.001247236    1.672    0.402
       204  -9.5657    192.1866     65.7969   7.9577048775e+01   2.8477681493e+01    0.2425944    0.1987901 -69.57  0.001040772    1.292    0.226
       205  -9.7393    147.6012     60.5723   8.6773415732e+01   4.0731433022e+01    0.3797544    0.1518583  58.34  0.001291433    2.606    0.616
       206  -9.3972    228.7957     59.2928   7.2366956827e+01   2.0385327619e+01    0.2278193    0.1723391 -81.91 0.0006993081    1.425    0.298
       207  -9.9796    139.1876     43.8503   8.3063238204e+01   4.5455864399e+01    0.4171453    0.2203301  49.99  0.001746631    1.794    0.443
       208 -11.2395    136.6174     55.9880   8.7818702062e+01   4.4200573660e+01    0.6880998    0.5106126 -23.80  0.002460251    1.449    0.310
       209 -10.6202    242.3511    231.3164   1.0740915837e+02  -7.8659635815e+00     0.237755    0.2107433  58.76  0.001678016    1.856    0.461
       210  -8.8641    219.6626     57.2866   7.3058108662e+01   2.2884555050e+01     0.151859     0.103127 -67.57 0.0005747931    1.632    0.387
       211 -10.7374    157.4714     56.5346   8.3331280209e+01   3.8894491821e+01    0.4678871    0.2694393  51.52 0.0007851879    1.678    0.404
       212 -11.3408    156.6642     53.3110   8.2464946060e+01   3.9608045434e+01    0.7499163    0.4375274 -44.79  0.003189495    1.791    0.442
       213  -9.7445      2.0709     56.0307   1.3477480704e+02   6.4554195040e+01    0.1755327    0.1286714 -51.34 0.0004981769    1.078    0.072
       214  -9.4628    187.9950     55.0064   7.7181606754e+01   3.1233528944e+01    0.2408181    0.1770746  32.76 0.0007779932    1.648    0.393
       215  -9.8058     66.3039     73.3297   1.1477259552e+02   5.4829945093e+01    0.3375719    0.2338176 -72.47  0.001372195    1.891    0.471
       216  -9.9149     67.0211     55.0065   1.0861015983e+02   5.8453930637e+01    0.2053733    0.1836931 -24.68 0.0006201511    1.011    0.011
       217  -9.2054    212.1878     53.7475   7.3146809662e+01   2.5250201853e+01    0.3050636    0.1413533 -45.41  0.001214968    2.087    0.521
       218  -9.9352    249.0710     53.0444   6.8428121736e+01   1.6594171960e+01    0.2161578    0.1888003 -57.34 0.0007717247    1.010    0.010
       219 -11.2545    239.9428     50.1583   6.8744117891e+01   1.9068164766e+01    0.4313379    0.4028101  35.01  0.002629187    1.295    0.228
       220 -10.2549    244.5128     50.5120   6.8321324266e+01   1.7971305475e+01    0.2783799    0.1913069 -47.12 0.0009546361    1.291    0.225
       221  -9.8171    203.9525     52.0000   7.3844373470e+01   2.7579813189e+01    0.3056718    0.1998476  75.88 0.0008213372    1.619    0.382
       222 -10.8043    202.3927     47.1956   7.2738373190e+01   2.8664770985e+01     0.584487    0.3507501 -20.85  0.002555422    1.989    0.497
       223 -11.2272    174.0177     48.1591   7.7528773895e+01   3.5885864546e+01    0.6462936    0.3581108  65.12  0.002186461    1.799    0.444
       224 -10.0520    176.7759     43.4107   7.5601361520e+01   3.5842293117e+01    0.3630689    0.2752675 -73.47  0.001271443    1.464    0.317
       225  -9.8603     90.6595     48.1068   9.7873989094e+01   5.5642328502e+01    0.2427216    0.2315974  76.94 0.0007179034    1.273    0.214
       226  -9.4436      3.4342     48.9098   1.3262023133e+02   6.5971642847e+01    0.1720572    0.1467698  23.28  0.001293626    1.495    0.331
       227 -10.0514     14.0319     46.6963   1.2748196626e+02   6.5817817439e+01    0.4237619    0.1001999 -43.25  0.001657721    3.436    0.709
       228  -9.7132     17.7980     42.0037   1.2443990705e+02   6.6495405889e+01    0.2704393    0.1456519  -3.93  0.001449936    2.446    0.591
       229  -9.4481    193.2132     45.9550   7.3736115667e+01   3.1201261540e+01    0.3022636    0.1725373 -82.84  0.001155382    2.523    0.604
       230  -9.3893    132.3572     45.1579   8.5100530514e+01   4.6941901634e+01    0.2568066    0.1862228  40.85 0.0005774046    1.375    0.273
       231 -10.3268    100.7075     43.7227   9.3066433402e+01   5.4351110660e+01    0.4239371    0.3142239 -86.93  0.001971455    2.271    0.560
       232 -11.2721     93.8311     41.3941   9.4281491518e+01   5.6125627393e+01    0.5639262    0.3076827  44.20  0.002194382    1.818    0.450
       233 -11.6476    156.1870     41.7987   7.8812832675e+01   4.1432858068e+01     0.424473    0.3963803  47.98 0.0009859242    1.059    0.056
       234 -11.2142    153.5369     36.4220   7.7544006901e+01   4.2851710286e+01    0.3747462    0.3281276 -62.64 0.0008711035    1.218    0.179
       235  -9.7039      4.1326     44.0548   1.3111900892e+02   6.6927209235e+01    0.3279292    0.1783508 -26.40  0.000852377    1.917    0.478
       236 -11.5186     69.9892     32.5682   9.8827649417e+01   6.1905136224e+01    0.4905445    0.2737446  36.03 0.0005414443    1.827    0.453
       237 -11.1212     81.7104     39.4826   9.7503232380e+01   5.8752643007e+01    0.4282801    0.2839339  46.15  0.001631021    1.602    0.376
       238 -10.9356     77.8456     34.3984   9.6766836775e+01   6.0255758148e+01    0.3817566    0.3340458  48.91  0.001097336    1.340    0.254
       239 -10.9836     82.2502     31.4173   9.4006259121e+01   5.9895735825e+01    0.4083186    0.3470686  45.13  0.002016811    1.282    0.220
       240 -10.2771    231.2874     39.0681   6.6969658292e+01   2.2604149808e+01    0.3963327    0.1903495 -44.63  0.001430438    1.879    0.468
       241 -10.6901    198.6042    231.4849   1.1507058641e+02  -1.0655667240e+00    0.4019392    0.1401321  35.78  0.001707657    2.596    0.615
       242  -9.4060    218.3121     38.9718   6.8432785157e+01   2.5776841971e+01    0.2004648    0.1759386 -49.86  0.001125509    1.095    0.087
       243 -10.8883    176.8615     37.2817   7.3715984279e+01   3.6653570157e+01    0.4214957     0.313369 -27.98  0.001853636    1.433    0.302
       244 -10.6794    172.3753     33.2351   7.3191297612e+01   3.8355948906e+01    0.3784489    0.3238364  82.37  0.001227219    1.136    0.120
       245 -10.2287    175.8790     29.6784   7.1541127747e+01   3.7882591581e+01    0.3518493      0.30091  12.60  0.001110794    1.393    0.282
       246 -11.8333    182.1477     25.4365   6.9337953486e+01   3.6751457690e+01    0.6330869    0.3135611  52.39  0.000999429    1.975    0.494
       247 -10.2725    247.3983    231.2583   1.0656000120e+02  -8.5934978302e+00    0.1393288    0.1019017 -30.05 0.0006329831    1.603    0.376
       248 -10.1940    206.7622     37.0807   6.9359682866e+01   2.8926563220e+01    0.3221083    0.2247878 -53.25 0.0008037935    1.397    0.284
       249  -9.4715    189.4692     37.9851   7.1988654987e+01   3.3263370122e+01    0.2128136    0.1450086 -28.47 0.0004555639    1.554    0.356
       250  -9.9923    133.5615     37.2458   8.2006444009e+01   4.7786089429e+01     0.416819    0.3012795 -79.03   0.00193517    1.902    0.474
       251 -10.8781     22.4307     36.3699   1.2048260007e+02   6.7223885207e+01    0.3132097     0.240768  42.73  0.001304597    1.777    0.437
       252 -10.9718      5.0465     35.9941   1.2848880191e+02   6.8481205223e+01    0.3893162    0.2565207 -30.30  0.002496891    1.369    0.270
       253  99.0000      6.4039     30.7684   1.2622885090e+02   6.9410892138e+01    0.3814229    0.2141421   6.89  0.002371209    2.085    0.520
       254  -9.8309    161.9200     43.7460   7.8348368179e+01   3.9673128416e+01      0.36621    0.2049924  65.09  0.001539163    1.785    0.440
       255 -10.4124    190.1492     32.7387   7.0365402807e+01   3.3766764157e+01    0.3799436    0.2891991 -71.21  0.001266732    1.357    0.263
       256 -10.0135    189.4926     27.5063   6.8936986455e+01   3.4586098012e+01    0.3577265    0.2778818  10.10  0.001279964    1.687    0.407
       257 -10.2241    160.8169     33.2997   7.5169423751e+01   4.1371471080e+01    0.3859191    0.3104032  63.83  0.001241917    1.172    0.146
       258  -9.2037    190.1037    229.8601   1.1637438700e+02   5.5743374133e-01    0.1678141    0.1249716  21.95 0.0004942827    1.274    0.215
       259  -9.2156     23.2320    231.6175   1.4740313599e+02   2.5034447241e+01    0.1274813   0.08920068  42.85 0.0004722353    1.546    0.353
       260 -10.4384     56.8789     30.7719   1.0314187429e+02   6.4255041146e+01    0.3935921    0.2219306  29.52  0.001818549    1.881    0.468
       261 -11.7283     47.8048     30.5428   1.0682483783e+02   6.5554588973e+01    0.6744916    0.2925658  28.76  0.002741491    2.638    0.621
       262 -10.0580    203.3560     27.8222   6.7250310192e+01   3.0967535715e+01    0.2575012      0.19556 -29.67 0.0009066844    1.398    0.285
       263 -11.0709    198.0544     28.8367   6.8192972912e+01   3.2204698754e+01    0.5230469    0.4026471  63.15  0.002795732    1.262    0.208
       264 -10.3891    199.8427     24.8583   6.6858900306e+01   3.2225021261e+01    0.2805352    0.2609777 -34.53 0.0007044563    1.179    0.152
       265  -9.2655    182.6581     32.0772   7.1248715938e+01   3.5806748473e+01    0.1955774    0.1858659 -54.28 0.0004607864    1.088    0.081
       266  -9.9272    100.2628     30.0193   8.7788530348e+01   5.6468560958e+01     0.319966    0.2419985  -3.51  0.001364622    1.405    0.288
       267  -9.8963      9.1499    227.2163   1.4954769566e+02   2.7281582116e+01    0.1457705    0.1111536  73.90 0.0003705579    1.172    0.147
       268 -10.0320    234.0673    222.9594   1.0743138279e+02  -5.6414773200e+00    0.1995212    0.1222754  13.18   0.00105446    1.692    0.409
       269  -8.8651    209.3448    223.3246   1.1184659069e+02  -1.7401369620e+00    0.1297807   0.08348349  13.69 0.0007050412    1.739    0.425
       270  -9.9718      9.9680    217.5411   1.4896146566e+02   2.9000424059e+01    0.1654492     0.106908  83.38 0.0005361428    1.176    0.150
       271  -9.5002    166.4579    213.1174   1.1830627440e+02   7.1525000100e+00    0.2802023    0.1746078  82.72  0.001077154    4.122    0.757
       272  -9.4074    152.4997    207.5281   1.2022313584e+02   1.0583584552e+01    0.1336444    0.1143113  46.56  9.40982e-05    1.007    0.007
       273  -9.0206    230.5748     30.5068   6.4913917438e+01   2.3874692245e+01    0.2279313    0.2188587  -7.98 0.0006081457    1.270    0.213
       274  -9.7513    230.6611     27.3258   6.4117394929e+01   2.4248227334e+01    0.2253851    0.1243267 -38.50  0.001089026    1.659    0.397
       275  -9.4837    210.7211     29.9374   6.6943582341e+01   2.8836203605e+01    0.1996212    0.1692289 -56.67 0.0005091282    1.109    0.099
       276  -8.5846    168.3086     29.2940   7.2612721675e+01   3.9915134925e+01    0.1480124    0.1057457  35.93 0.0002134481    1.586    0.370
       277 -10.3302    238.8667    204.5105   1.0339318515e+02  -4.0799351754e+00    0.2275752    0.1567692 -44.10  0.001321874    1.910    0.476
       278  -9.4637    158.5020     20.4475   7.1352014819e+01   4.3509190611e+01    0.2036866    0.1835758  -1.20 5.584662e-05    1.245    0.197
       279  -9.0145    149.4847     19.4528   7.2542726040e+01   4.5952081490e+01    0.2039672    0.1279191 -38.97 0.0001080927    1.689    0.408
       280 -10.1807    143.5554     24.7803   7.5480064368e+01   4.6867592516e+01    0.4861937    0.2747367  72.56   0.00210847    1.924    0.480
       281 -10.0882    133.9903     24.6253   7.7344167467e+01   4.9292215971e+01    0.4457282    0.2780844 -63.57  0.001936347    2.287    0.563
       282 -10.2813      4.2824    204.6938   1.4933893944e+02   3.2005545497e+01     0.213869    0.1113248 -76.45  0.001393912    1.675    0.403
       283  -9.7903    145.5831     16.1894   7.2100182006e+01   4.7300436080e+01    0.3648141    0.2485948  72.35 0.0003239962    1.438    0.305
       284 -10.5510    245.6562    200.8687   1.0157225123e+02  -4.6947032757e+00    0.1969915    0.1363865  -5.08 0.0009412872    1.403    0.287
       285  -9.7385    250.5368     25.0644   6.1752863417e+01   1.9908288728e+01    0.1929012    0.1155547 -35.36 0.0004811248    1.548    0.354
       286 -11.1577    214.8821     23.5658   6.4791464178e+01   2.8566177248e+01    0.4222677    0.3543073 -18.97  0.001596528    1.396    0.284
       287 -10.5417    240.8852     31.2184   6.4065329777e+01   2.1352117405e+01    0.3896887    0.2865851 -19.89  0.002145671    1.607    0.378
       288 -10.1698    234.0225    197.0513   1.0286714807e+02  -2.2917509506e+00    0.3263622    0.1912887 -21.28  0.001478887    1.816    0.449
       289 -12.4928      5.3351    186.0346   1.4816082984e+02   3.5660281672e+01     0.900179     0.441591  89.92  0.005448929    1.628    0.386
       290 -10.8303     81.6653     18.9883   8.8786318737e+01   6.1694073872e+01    0.3639511    0.2013123  37.74 0.0005723137    1.734    0.423
       291 -12.0633     17.2223    192.6421   1.4625390381e+02   3.3207462395e+01    0.2232062    0.1602206  78.22 0.0003244044    1.026    0.026
       292  -9.8527    169.8663    191.1997   1.1400659071e+02   1.0253078680e+01    0.3740451    0.1646034  32.82  0.001179053    2.694    0.629
       293 -10.0570    212.7021    181.5756   1.0377761497e+02   3.7499324742e+00     0.311333     0.177761  15.48  0.001290989    2.660    0.624
       294  -9.3141    250.2226    180.2570   9.6885522514e+01  -2.6956713785e+00    0.1946989   0.09003242 -41.16 0.0008868834    2.416    0.586
       295  -9.1644     57.4713    175.0176   1.3629105701e+02   3.2487112046e+01    0.1821456    0.1106596 -72.59 0.0005063731    1.504    0.335
       296  -9.7296    223.2124     22.3718   6.3621797641e+01   2.6649102023e+01    0.2670258    0.1919596  89.09 0.0008273304    1.329    0.247
       297 -10.2585    220.7928     19.1435   6.3044324873e+01   2.7619162888e+01    0.2282428    0.2149066  72.59 0.0004580126    1.182    0.154
       298  -9.7684     51.9601    174.2318   1.3744075237e+02   3.3351828969e+01    0.2709382    0.1296783  80.86  0.001183703    2.614    0.617
       299  -9.6880    248.0341    173.6213   9.5930715383e+01  -1.4018377573e+00     0.326136    0.1313388  27.66  0.001125173    4.070    0.754
       300  -9.9740     39.5885    173.2508   1.4009104784e+02   3.5017520045e+01     0.189828    0.1397007  83.24 0.0006910969    1.111    0.100
       301 -10.0826     66.2477     22.0141   9.5583814872e+01   6.4092174370e+01    0.1940296     0.150971   0.92 0.0004111539    1.195    0.163
       302 -11.2169     35.1404    170.6764   1.4083053766e+02   3.6072199885e+01    0.3302571    0.1885824 -84.82  0.001255013    1.524    0.344
       303  -9.8780      8.9742    156.0146   1.4541438867e+02   4.1772734832e+01    0.3011224    0.1543892  54.17  0.001763742    1.841    0.457
       304 -11.7357      9.5664    166.8166   1.4608066830e+02   3.9361564516e+01    0.6087055    0.3389561 -68.04  0.003278415    1.606    0.377
       305 -10.5111     14.2850    159.6774   1.4451386880e+02   4.0521591636e+01     0.242847    0.1557732  83.21 0.0006778028    1.269    0.212
       306  -9.2696      1.7138     20.4343   1.2509655493e+02   7.1587314173e+01    0.1413694   0.08788597 -14.67  0.000941938    1.614    0.380
       307 -10.3709     13.4999    156.5511   1.4443792170e+02   4.1280894479e+01    0.2228486    0.1541786  82.57 0.0005129665    1.159    0.137
       308  -9.7239    191.5439     16.8676   6.5613855918e+01   3.5278740398e+01    0.2661027    0.2086151  42.77  0.001194687    1.435    0.303
       309  -9.6180    225.3792     16.9758   6.2060573356e+01   2.6747499772e+01    0.2626981    0.1670324 -81.35 0.0009521763    1.562    0.360
       310  -9.3735    198.0331    167.7094   1.0381656744e+02   8.8764659308e+00    0.1994921    0.1752062  30.83 0.0005944002    1.066    0.062
       311  -9.0379    149.4866    168.4965   1.1419701555e+02   1.8521801060e+01    0.1453994    0.1344769  56.71  0.000810443    1.021    0.021
       312 -10.0136     18.7942    165.2119   1.4396091684e+02   3.8900845108e+01    0.2287415    0.1965438 -67.51  0.001434145    1.358    0.264
       313 -10.0877    205.1305    163.1965   1.0149222410e+02   8.2331022106e+00    0.2906364    0.2185059  29.06 0.0009918805    1.320    0.243
       314  -9.4764    188.8459    163.9327   1.0487510569e+02   1.1403614529e+01    0.2278075    0.1902506   4.94   0.00117635    1.314    0.239
       315 -10.0916     28.2372    163.2912   1.4168992274e+02   3.8425985271e+01    0.2721117    0.1428755 -71.42  0.001518096    1.611    0.379
       316 -10.3122     80.5619    159.9623   1.2891992136e+02   3.2682460379e+01    0.3621645    0.2818648  47.00  0.002066996    1.288    0.224
       317  -9.7687    218.9945     12.7799   6.1603690213e+01   2.8776411258e+01    0.3466997    0.1402542  61.30  0.001471427    2.328    0.570
       318  -9.3653    224.3073    156.6822   9.6523799470e+01   5.5181341471e+00    0.1313415    0.1121135 -73.22 0.0007030449    1.633    0.388
       319 -10.8043    104.9810    153.6697   1.2188684843e+02   3.0145032078e+01    0.4368293    0.3342673 -68.45  0.002302851    1.299    0.230
       320 -10.9783     33.3275    144.4019   1.3853359320e+02   4.2217425988e+01    0.2673748    0.2070612  83.34 0.0006651089    1.116    0.104
       321 -10.2122     31.4359    154.1379   1.4005560419e+02   4.0171107818e+01    0.3796012    0.2448383  67.75  0.002183294    1.452    0.311
       322 -10.7681     30.4697    148.9749   1.3974502527e+02   4.1446695587e+01    0.3203854    0.2032342  67.61 0.0006235297    1.513    0.339
       323  -9.6546     22.9306    155.1437   1.4215295034e+02   4.0762012374e+01    0.2279777    0.1722652  17.46  0.001473289    1.884    0.469
       324 -11.4234     12.5623    138.6547   1.4308965302e+02   4.5379375357e+01    0.7323138    0.3170002  75.27  0.003374902    2.695    0.629
       325 -10.8177     10.8174    127.0746   1.4238853871e+02   4.8150990901e+01    0.5172833    0.1629939 -59.54  0.001567344    2.527    0.604
       326 -11.8569     22.6499    149.5032   1.4168300379e+02   4.2063492610e+01     0.517316    0.3105481 -34.21  0.002712423    2.775    0.640
       327 -10.5157     15.9168    148.0617   1.4314931227e+02   4.2977553070e+01    0.3489807    0.2035839  46.49  0.001456367    1.738    0.425
       328 -10.0762     72.3675    151.9027   1.2972895433e+02   3.5743987261e+01    0.4731149    0.2180997  57.39  0.001937079    2.585    0.613
       329 -11.1822      3.0593    141.3684   1.4562691158e+02   4.5472146159e+01    0.3677542      0.27423  44.91  0.002612166    1.500    0.334
       330 -11.8141      3.8495    136.4557   1.4502958546e+02   4.6517143026e+01    0.2486502    0.1813167 -79.42 0.0004650578    1.086    0.079
       331 -11.9673      5.2128    147.6850   1.4562416750e+02   4.3909228221e+01    0.5384647    0.3588663 -70.67  0.002576147    1.299    0.230
       332  -9.8665      7.9867    144.2451   1.4469507072e+02   4.4468879796e+01     0.164399    0.1492801  76.32 0.0002833937    1.254    0.202
       333 -11.2894     62.6457    149.7883   1.3186090897e+02   3.7569520302e+01    0.4905409    0.4169632  58.02   0.00232286    1.184    0.155
       334  -9.9668     47.9761    151.8530   1.3579295906e+02   3.8907757890e+01    0.3648233    0.2099055  52.65  0.001116288    1.721    0.419
       335  -9.3825     42.3283    148.3086   1.3675350279e+02   4.0368229043e+01     0.226893     0.174666  41.38  0.001412105    1.436    0.304
       336 -10.6058     47.9987    147.7505   1.3526757168e+02   3.9858092837e+01    0.3148521    0.2388808  16.36  0.001839833    1.850    0.460
       337 -10.0093     46.3791    144.8027   1.3529401426e+02   4.0731698488e+01    0.2977139    0.1943603 -52.84 0.0006166179    1.612    0.380
       338 -10.2281    246.5091    158.4881   9.3072964302e+01   1.0636547045e+00    0.2417036    0.1111417 -42.96  0.001038846    2.376    0.579
       339 -10.3435     56.4532    149.2079   1.3333784206e+02   3.8500149928e+01    0.2418066    0.2035599  87.31 0.0006361096    1.023    0.023
       340 -10.6987    249.7116    142.7195   8.9174471506e+01   2.8514788046e+00    0.6269497    0.2198927 -34.51  0.002432766    2.603    0.616
       341  -9.7280    239.9541    146.5409   9.1602848406e+01   4.1052989659e+00    0.1972169    0.1323509  44.21  0.000704889    1.555    0.357
       342  -9.9588    133.3278    140.3819   1.1224188892e+02   2.7744754376e+01    0.3147254    0.2797062 -22.51  0.001011383    1.319    0.242
