#   1 NUMBER                 Running object number                                     
#   2 MAG_AUTO               Kron-like elliptical aperture magnitude                    [mag]
#   3 X_IMAGE                Object position along x                                    [pixel]
#   4 Y_IMAGE                Object position along y                                    [pixel]
#   5 X_WORLD                Barycenter position along world x axis                     [deg]
#   6 Y_WORLD                Barycenter position along world y axis                     [deg]
#   7 A_WORLD                Profile RMS along major axis (world units)                 [deg]
#   8 B_WORLD                Profile RMS along minor axis (world units)                 [deg]
#   9 THETA_WORLD            Position angle (CCW/world-x)                               [deg]
#  10 FWHM_WORLD             FWHM assuming a gaussian core                              [deg]
#  11 ELONGATION             A_IMAGE/B_IMAGE                                           
#  12 ELLIPTICITY            1 - B_IMAGE/A_IMAGE                                       
         1 -12.9070     92.5162     34.0375   5.0556891793e+01   5.8041645492e+01     0.796701    0.5420099  51.93   0.00181776    1.414    0.293
         2 -11.8124    183.6072     14.9072   2.6498746992e+01   3.6618092668e+01    0.2624028    0.2250839 -75.78 0.0004906878    1.094    0.086
         3 -12.0450     75.0382     10.2900   4.4390895979e+01   6.5772750328e+01    0.6555576    0.3959799  78.82  0.001802063    2.281    0.562
         4  -9.8808     36.2971      9.6766   6.3649970623e+01   7.3990958574e+01    0.1245343    0.1087783 -85.88 0.0002941871    1.624    0.384
         5 -14.2300     24.3059    196.9469   1.0583228466e+02   3.1042391261e+01     1.194623    0.9233585 -34.33  0.006266605    1.885    0.469
         6 -10.1034    225.3531    206.6817   6.4240790962e+01   3.5448012247e+00   0.09219814   0.08352012  29.93 0.0005878426    1.744    0.427
         7 -12.1452     35.8393    205.0928   1.0350770088e+02   2.8354836717e+01    0.5619425    0.1084697  38.24  0.002347072    2.844    0.648
         8 -12.1356     44.7304    202.6846   1.0129584926e+02   2.7908752677e+01    0.3979408     0.312901  31.82  0.001485393    1.205    0.170
         9 -12.7447     40.3762    193.5910   1.0178764105e+02   3.0150124251e+01    0.9316952    0.1659487  36.66  0.003448152    3.095    0.677
        10 -10.9145    211.0016    199.2301   6.5435221240e+01   6.1970966919e+00    0.3287333    0.1261783 -44.70  0.001418303    4.371    0.771
        11  -9.9923    150.0406    199.5195   7.6968948522e+01   1.4662377976e+01    0.1735545   0.08883328  49.76 0.0008093468    2.494    0.599
        12  -9.9396    129.3379    188.6422   7.9895068503e+01   1.9482524560e+01    0.1310848   0.09196961  59.33 0.0007039629    1.812    0.448
        13 -10.4897     94.9701    186.6931   8.7714022790e+01   2.4845998468e+01    0.2587779     0.151876  76.16  0.001179365    2.760    0.638
        14 -10.1866    109.4790    185.9793   8.4129560717e+01   2.2905045279e+01    0.1704856    0.1104281  80.84 0.0008102199    2.567    0.610
        15 -11.6518    119.8398    180.6042   8.0933120565e+01   2.2347599871e+01    0.5091506    0.1560262 -50.73  0.001939947    3.664    0.727
        16 -10.5849    147.5058    180.5027   7.4641103987e+01   1.8071634340e+01    0.2039244    0.1289783 -60.40  0.001032514    2.342    0.573
        17 -10.6884    128.9300    176.3685   7.8170501428e+01   2.1709313486e+01    0.2882975    0.1868882 -63.73   0.00148407    2.105    0.525
        18 -12.5401     77.7995    174.4425   9.0612011438e+01   2.9660759774e+01    0.7207738    0.4200068  45.49  0.003732417    1.489    0.328
        19 -11.5158    108.5720    175.8427   8.2967477525e+01   2.4957868271e+01     0.369895    0.1606703  40.20   0.00162946    1.953    0.488
        20 -10.4661    159.7752    175.5908   7.1212404404e+01   1.6935968586e+01    0.1889823    0.1081406  43.90 0.0009542159    1.734    0.423
        21 -11.2770    121.6387    170.4696   7.8981147630e+01   2.3954737342e+01    0.2776778    0.1670497  58.05  0.001286099    2.170    0.539
        22 -10.9031    168.0120    168.9746   6.8357078413e+01   1.6666776183e+01    0.1907432    0.1627801  69.08  0.001134547    1.721    0.419
        23 -10.3279    184.6056    165.8109   6.4498494079e+01   1.4472180260e+01    0.1688718    0.1173356 -44.37 0.0009534047    1.727    0.421
        24 -11.5412    159.4616    163.8057   6.9218591442e+01   1.8917420244e+01    0.2951139    0.2305283 -58.81  0.001671974    1.730    0.422
        25 -10.4026    139.0889    164.8763   7.3935745309e+01   2.2141719340e+01    0.2815152    0.1964842  69.20  0.001353142    2.290    0.563
        26 -10.6404     92.9702    160.0144   8.4705834268e+01   3.0541821116e+01    0.2968541    0.1837546  80.65  0.001229578    2.466    0.595
        27 -10.7665    177.4075    160.1972   6.4857925599e+01   1.6500835246e+01    0.1729615    0.1218379 -47.05 0.0008416586    1.725    0.420
        28 -12.0812    167.8958    157.1953   6.6217636298e+01   1.8583999209e+01    0.3475316    0.2821052 -79.65  0.001900068    2.035    0.509
        29 -12.1954    157.7471    154.4910   6.7856526699e+01   2.0790891463e+01    0.5623617    0.2003422 -50.91  0.001937238    4.024    0.751
        30 -10.2898    133.1767    153.0016   7.3215435363e+01   2.5360618311e+01     0.218846    0.1653689  86.22  0.001076008    2.046    0.511
        31 -10.2904    105.6373    158.2890   8.1078652309e+01   2.8929813653e+01    0.2250989    0.1551239  64.71  0.001107316    1.779    0.438
        32 -13.0840      1.9116    194.4615   1.1101910395e+02   3.3402447410e+01     1.096427    0.2921413 -89.91  0.004676386    3.796    0.737
        33 -10.6677    234.3136    147.6660   5.2623745067e+01   9.2243778806e+00    0.1068985   0.09032765 -47.38 0.0007012323    1.685    0.406
        34 -12.0328    149.9706    145.7048   6.7870142547e+01   2.3731501303e+01    0.4757249    0.3269528  69.22  0.002156724    2.405    0.584
        35 -10.8374    107.5307    145.4125   7.8401298175e+01   3.1326317851e+01    0.4112988    0.2388173  67.74  0.001579517    2.936    0.659
        36 -12.0910     55.3235    141.2298   9.3050311397e+01   4.0058624344e+01    0.8330522    0.2217974 -66.62  0.002822471    3.628    0.724
        37  -9.8943    200.4973    144.5080   5.7461316270e+01   1.4989348944e+01    0.1308191     0.109287   2.13 0.0008100235    1.055    0.052
        38 -10.7158    125.1374    143.2839   7.3376191846e+01   2.8693913808e+01    0.2663328    0.1931918 -88.08  0.001236444    2.139    0.533
        39 -12.1558     23.9296    140.8113   1.0281939110e+02   4.3453492619e+01     0.545846    0.2409261  79.00  0.002350134    2.437    0.590
        40 -10.4473    132.4592    131.9600   6.9220609245e+01   2.9620257078e+01    0.1962142    0.1307462 -75.24 0.0007888952    2.513    0.602
        41 -10.4714     83.2408    131.7098   8.2965707956e+01   3.8397617841e+01    0.3422492    0.2099804  80.32  0.001402884    2.437    0.590
        42 -10.4583    152.8419    129.5299   6.3817805865e+01   2.6156831528e+01    0.2601475    0.1718504 -63.89  0.001146009    2.275    0.560
        43 -11.0702     12.1574    128.6894   1.0579131871e+02   4.7330371050e+01    0.3388337    0.1521396  66.52  0.001528258    2.149    0.535
        44 -10.8959     98.5760    127.6217   7.7578306024e+01   3.6788938777e+01    0.5159941    0.3056107 -84.73  0.001901547    3.083    0.676
        45 -12.1626     44.6260    123.2801   9.4275721775e+01   4.5737022935e+01     1.116246    0.4720248  71.44  0.003606045    3.998    0.750
        46 -12.2751     44.8575    109.5165   9.2256171835e+01   4.9205761948e+01    0.4475358    0.3251514  -1.78 0.0006338671    1.793    0.442
        47 -11.5131     59.0287    124.8278   8.9600200614e+01   4.3586448036e+01    0.4865006    0.2569675  57.05  0.001340751    2.111    0.526
        48 -11.2571     27.9695    121.5725   9.9862296888e+01   4.7851672574e+01    0.7275971    0.2430211  69.08  0.002069925    5.260    0.810
        49 -10.3560    141.4858    118.9960   6.4081897587e+01   3.0410691900e+01    0.2029115    0.1303262 -68.32 0.0007474648    2.519    0.603
        50 -11.0385      2.8229    116.6290   1.0830652134e+02   5.0897425851e+01    0.4823698    0.1662977  75.05  0.001879671    2.916    0.657
        51 -10.5510    109.3410    114.2666   7.1535236929e+01   3.7809621757e+01    0.3933374    0.2553212  87.15  0.001481854    2.829    0.646
        52 -10.3350     92.4019    112.9008   7.6375521712e+01   4.1277306150e+01     0.403806    0.2479942  86.57  0.001473199    2.964    0.663
        53 -10.6726     79.1450    112.7971   8.0674783560e+01   4.3573712182e+01    0.4346784    0.2562239  80.64  0.001599748    2.896    0.655
        54 -11.3023     14.0289    109.9314   1.0384482961e+02   5.1905582741e+01    0.5832631     0.207047  84.20  0.002124744    3.171    0.685
        55 -11.6317     43.8714    100.7406   9.1226292759e+01   5.1576806286e+01    0.4143093    0.2353027  71.05  0.001749765    2.191    0.544
        56 -11.4604     21.3730    100.1459   1.0008689483e+02   5.3892941551e+01    0.5980013    0.2216514  65.00  0.002020287    3.674    0.728
        57 -10.7188      6.6447    102.6648   1.0610615167e+02   5.4211935749e+01    0.2950103    0.1457266  85.39  0.001378239    1.893    0.472
        58 -10.8863    108.9287     99.1486   6.7920411345e+01   4.1237453140e+01    0.4897279    0.3032258  71.66  0.001805892    2.712    0.631
        59 -13.0632     59.1876     91.6172   8.3374968600e+01   5.1925865121e+01      0.68249    0.3825916  59.20  0.001548949    2.254    0.556
        60 -11.0719      4.8752     91.7431   1.0604677678e+02   5.7102745276e+01    0.2806523    0.1302223  65.22  0.001248189    2.175    0.540
        61 -11.0056     34.6905     89.0225   9.3004762310e+01   5.5609396939e+01    0.6187319    0.2139406 -80.21  0.001920932    3.911    0.744
        62 -11.8710     86.7421     86.3743   7.1661078399e+01   4.8554710996e+01    0.5894435    0.3779059 -89.04  0.002199686    2.733    0.634
        63 -11.2294     49.6769     85.5712   8.5924622444e+01   5.4771873879e+01    0.7080884    0.3382711  64.94  0.002273044    3.839    0.740
        64 -11.5606    105.4660     83.6804   6.4652312980e+01   4.5348608963e+01    0.5985875    0.3691248  73.12  0.002160212    2.784    0.641
        65 -11.1912     24.0960     80.2950   9.6281256327e+01   5.8850606307e+01    0.3676375    0.2038253  81.74  0.001629698    2.058    0.514
        66 -11.0559     74.8186     79.9358   7.4236945789e+01   5.2281469318e+01    0.5593725    0.2813177 -69.67  0.001897961    3.077    0.675
        67 -10.4416      9.0174     80.5212   1.0325953619e+02   5.9795677757e+01    0.1952167    0.0788448  43.62 0.0008096353    2.491    0.598
        68 -12.4678     51.6918     69.5123   8.1030994370e+01   5.8551514010e+01    0.9035788    0.4361728 -72.98  0.003265242    2.837    0.647
        69 -11.7172     57.5177     70.4673   7.8668961118e+01   5.7454237913e+01    0.3995624    0.3364023  -1.93  0.001249382    1.392    0.282
        70 -12.8057     63.4917     65.8184   7.4612382511e+01   5.7611962338e+01     1.522382     0.459289 -53.00    0.0048499    3.187    0.686
        71 -12.9671     57.9062     59.6989   7.5120572364e+01   5.9982494080e+01     1.207273    0.7192881 -85.20  0.004310117    3.268    0.694
        72 -12.6080     82.3955     72.1205   6.8973396434e+01   5.2684148497e+01    0.8341323    0.5310681 -74.24  0.003302597    2.338    0.572
        73 -12.2815     42.2116     71.0666   8.5881282766e+01   5.9410633935e+01    0.5792393    0.3774168 -81.12   0.00196648    1.728    0.421
        74 -12.4020     71.4931     70.5614   7.2743171126e+01   5.5097758670e+01    0.5824116    0.2739078  33.88  0.002201675    2.285    0.562
        75 -10.6644     16.4506     69.8148   9.8323308467e+01   6.2140715487e+01    0.2887641    0.1726069  73.63  0.001381194    1.848    0.459
        76  -9.7014    141.7094     69.2885   5.0398062886e+01   3.9756164558e+01    0.1511152     0.118297 -74.27            0    1.541    0.351
        77 -10.6987    138.2518     65.1622   4.9874525972e+01   4.1325303883e+01    0.2781042     0.239999 -49.85 0.0006719225    1.173    0.147
        78 -11.8457     37.2606     62.7228   8.6187084781e+01   6.2103031932e+01    0.5139015    0.2322471 -67.00  0.002065673    2.211    0.548
        79 -10.4352     26.2726     59.9922   9.1301142533e+01   6.3913642532e+01    0.3043287    0.1306801  47.52  0.001179698    2.776    0.640
        80 -11.6237     44.5459     55.4248   8.0278838256e+01   6.2996749049e+01    0.5121485    0.3149614 -84.84  0.002130023    2.415    0.586
        81 -10.5175      7.3965     57.2172   1.0124087467e+02   6.5894590784e+01    0.1948366    0.1130512  87.01 0.0009521319    1.739    0.425
        82 -12.4141     31.5507     50.8238   8.5938161834e+01   6.5696933061e+01    0.6536709    0.3574514 -80.98  0.002734424    2.393    0.582
        83 -11.5018    195.0864     41.7333   3.3102621038e+01   3.0813157436e+01    0.3289747    0.2165939 -65.46 0.0004521185    1.677    0.404
        84 -10.1863      5.4055     42.6089   1.0007515184e+02   6.9681729423e+01    0.2614363    0.1037373  84.16 0.0009554552    3.369    0.703
        85 -12.4350     95.8226     38.3561   5.1389998693e+01   5.6514335450e+01    0.5635416    0.4373583  43.75  0.001121569    1.277    0.217
        86 -11.4376    207.7657    218.2516   6.8854480980e+01   4.4251123784e+00    0.5451024    0.2176504  40.57  0.002829377    2.679    0.627
        87 -11.7571    206.7675     35.4743   3.0128938775e+01   2.8873028443e+01    0.4750889    0.3374996 -66.77  0.002626281    1.457    0.314
        88 -10.8525    171.8213     38.1573   3.5010433055e+01   3.6917218865e+01    0.2995613    0.2272621 -61.66 0.0009653163    1.340    0.254
        89 -11.0132      5.5248     21.7926   9.5044537286e+01   7.4755024276e+01    0.3754127    0.1785848 -34.30  0.001362328    2.074    0.518
        90 -12.9516      4.8520    212.3280   1.1072712254e+02   2.9756308522e+01    0.8130904    0.4169597 -56.29  0.004724963    2.813    0.644
        91 -13.3872      8.5191    202.6086   1.0969110655e+02   3.1294832684e+01     0.749994    0.3929341  77.14  0.003267845    1.777    0.437
