#   1 NUMBER                 Running object number                                     
#   2 MAG_AUTO               Kron-like elliptical aperture magnitude                    [mag]
#   3 X_IMAGE                Object position along x                                    [pixel]
#   4 Y_IMAGE                Object position along y                                    [pixel]
#   5 X_WORLD                Barycenter position along world x axis                     [deg]
#   6 Y_WORLD                Barycenter position along world y axis                     [deg]
#   7 A_WORLD                Profile RMS along major axis (world units)                 [deg]
#   8 B_WORLD                Profile RMS along minor axis (world units)                 [deg]
#   9 THETA_WORLD            Position angle (CCW/world-x)                               [deg]
#  10 FWHM_WORLD             FWHM assuming a gaussian core                              [deg]
#  11 ELONGATION             A_IMAGE/B_IMAGE                                           
#  12 ELLIPTICITY            1 - B_IMAGE/A_IMAGE                                       
         1 -18.6716    240.2888    145.1660   1.3809919516e+01   9.1935762169e+00     5.937347     4.213399 -40.94   0.02796534    1.267    0.211
         2 -12.9505      5.1619     55.2671   6.2082005246e+01   6.7675796613e+01     1.923193    0.3627222 -60.56  0.006444149    3.418    0.707
         3 -13.0910     11.4907     63.6922   6.0183821836e+01   6.5155384694e+01     1.785019     0.424622 -63.40  0.006021329    3.232    0.691
         4 -13.6334    196.4319     13.8389   3.5000602447e+02   3.5068795004e+01      3.96619     1.106706 -62.52   0.01303183    4.984    0.799
         5 -14.2767    230.6195      7.2769   3.4665416819e+02   2.9040298725e+01     2.928901     1.237236  85.87   0.01630664    2.478    0.596
         6 -10.8258    127.4867      5.0853   3.5357822170e+02   5.1894448871e+01    0.4044245     0.244891  42.08 0.0009363251    2.027    0.507
         7 -15.2754    227.7504    167.6071   1.9657218408e+01   7.4991737612e+00    0.7950556    0.6951315  55.79  0.003288342    1.760    0.432
         8  -9.6559    200.6213    218.2920   3.2545324271e+01   3.2730198517e+00    0.1811315    0.1443562   5.22  0.000247462    1.129    0.114
         9  -8.8568    152.3268    213.0093   4.1018092949e+01   9.8984603779e+00     0.168381    0.1458223 -15.54 0.0003539969    1.117    0.105
        10 -10.4177     55.3904    203.7713   6.3093360189e+01   2.4139208682e+01    0.1834964    0.1186521 -58.32 0.0009597687    1.699    0.412
        11 -11.0359    156.6444    198.7887   3.7918476828e+01   1.1822260076e+01    0.4665666    0.2429934 -45.31  0.002328054    1.950    0.487
        12 -11.9096    160.7548    197.1781   3.6800281914e+01   1.1549903305e+01    0.4862371    0.3975501  61.05  0.001583564    1.811    0.448
        13  -8.5133    124.0188    203.0176   4.5811267715e+01   1.5497473394e+01    0.1545033    0.1431522  -2.10 0.0003409022    1.067    0.063
        14  -9.1670      2.6743    202.9633   7.6704031126e+01   2.9355400678e+01    0.1711661    0.1381719  70.25 0.0003969639    1.103    0.094
        15 -11.8435    152.0197    194.4871   3.8205453551e+01   1.3238497173e+01    0.7884177    0.4088663 -53.02  0.003725319    2.237    0.553
        16 -10.2619     79.9912    190.4829   5.5129238899e+01   2.4158952723e+01    0.2660691    0.1847319 -43.62  0.001071271    1.620    0.383
        17 -10.0983    163.4318    202.2230   3.7062107555e+01   1.0311151505e+01    0.2341294    0.1865293 -67.92  0.001082027    1.913    0.477
        18 -10.8205    112.9956    152.9496   4.0187467922e+01   2.7951700031e+01    0.4569755    0.3190235 -36.72  0.002165692    1.547    0.354
        19 -11.4051     67.8779    143.9978   5.1923026940e+01   3.7327117897e+01    0.8155686    0.4183634  55.41  0.002830723    2.401    0.583
        20 -10.8979    120.9643    135.5549   3.4472762016e+01   3.0549570864e+01    0.6011193    0.2562081 -48.47 0.0009615581    2.294    0.564
        21 -11.1194    125.4111    130.7638   3.2243935262e+01   3.0804968192e+01    0.5442759    0.2568781 -45.22  0.001295428    2.085    0.520
        22 -12.2812    119.0179    122.3028   3.1962289643e+01   3.3934432824e+01    0.7205228    0.5933478 -31.55  0.003626262    1.296    0.228
        23 -10.4988    124.7130    123.9791   3.0855595388e+01   3.2455210749e+01    0.3539792    0.2640875 -41.99 0.0008535763    1.329    0.247
        24  -9.9971    112.1257    136.1059   3.6979436795e+01   3.2032076308e+01    0.2457993    0.2301085 -47.28 0.0004438011    1.061    0.057
        25 -10.0897    106.9329    127.9082   3.6628268486e+01   3.4916756784e+01    0.6670521    0.2718914 -38.64  0.002088924    3.327    0.699
        26  -9.8179     86.2272    114.8711   3.9957271948e+01   4.1880175471e+01     0.286395    0.2283634 -50.94  0.000415825    1.244    0.196
        27 -11.8796    114.3056    111.1473   3.0503590098e+01   3.7397829979e+01    0.6613586    0.4774497 -35.79  0.002108589    1.494    0.331
        28  -9.7252    109.4063    111.8769   3.2072168962e+01   3.8207742142e+01     0.364843    0.2386321  36.61 0.0009744956    1.612    0.380
        29  -9.8191     87.3465    108.5975   3.8049063277e+01   4.3230379781e+01    0.2680654    0.2532824 -33.85 0.0003931847    1.104    0.095
        30 -12.8056     50.1359     93.2956   4.8170179918e+01   5.3296933438e+01    0.5987487    0.5701098 -42.19 0.0009146904    1.052    0.049
        31 -13.0218     65.8711    101.1057   4.3792659593e+01   4.8868509560e+01     1.026857    0.7103017  54.01  0.001092281    1.593    0.372
        32 -13.9051     59.8322     95.2575   4.4668275305e+01   5.1334603785e+01     2.352993     1.101889  36.99  0.005276185    2.111    0.526
        33 -10.7217    114.2345     98.3830   2.7140115882e+01   4.0258586832e+01    0.4569859    0.3091954 -61.17  0.002022224    1.643    0.391
        34 -11.6188    125.2728    105.4591   2.6102070937e+01   3.6412377326e+01    0.6703816    0.3719783  40.61  0.002773125    1.926    0.481
        35  -9.7247    245.3371    233.3136   2.7618712677e+01  -3.0636819069e+00      0.18411    0.1331311  10.15 0.0007390982    1.326    0.246
        36  -9.3131    105.3713    104.2032   3.1254863316e+01   4.0782021659e+01    0.2589704    0.2240871 -28.16 0.0007194054    1.270    0.212
        37  -9.1130     96.7951    104.3714   3.3910694378e+01   4.2449737367e+01    0.2544015    0.2078515 -64.43 0.0006795834    1.269    0.212
        38 -10.9667    155.4516    102.5731   1.8445293685e+01   3.0715969341e+01    0.3844931    0.3040495  56.60  0.001472465    1.365    0.267
        39 -10.0350    110.4261    103.3114   2.9549002277e+01   3.9956104984e+01    0.2925695    0.1934219  49.08 0.0006147299    1.553    0.356
        40 -11.1559    165.0428    100.7742   1.6120277549e+01   2.9091369335e+01    0.3785821    0.3245068   3.50 0.0008404402    1.441    0.306
        41 -10.3857    167.4836     96.0538   1.4494921878e+01   2.9453158825e+01    0.3737789    0.1629646 -37.63  0.001335172    2.185    0.542
        42 -16.3639    208.3693    178.2709   2.4617514945e+01   8.3430051826e+00     2.336525     2.117117  87.10   0.01305144    1.854    0.461
        43 -16.2640    178.4529    172.8707   2.9020503886e+01   1.3359414052e+01     3.400691       2.3945  35.23   0.00872888    1.503    0.335
        44 -12.9856      7.0880     88.3762   6.6950725935e+01   5.8968523003e+01      1.68628    0.8268793 -74.88  0.007386632    1.866    0.464
        45 -13.6788     24.0431     87.8101   5.8717403173e+01   5.7838120621e+01     1.166972      1.00353  39.68   0.00362203    1.223    0.182
        46 -10.2664    150.5668    226.6687   4.3329512317e+01   7.8236585872e+00    0.2061249    0.1103892 -42.22 0.0009905281    1.957    0.489
        47  -8.0490    144.2627     89.2588   1.7286390790e+01   3.5636911500e+01    0.1331934    0.1155279   3.29 0.0006809885    1.446    0.308
        48 -10.5676    193.9457    223.6439   3.4531577043e+01   3.2456652373e+00    0.3337618    0.2207344  -6.29  0.001246161    1.369    0.269
        49 -10.2458    163.0094     80.8411   1.1382350011e+01   3.3081358194e+01    0.4187189    0.2444533  52.88  0.001809143    1.839    0.456
        50  -9.7649     57.0682    231.6398   6.4989139156e+01   1.8021699095e+01    0.1924332    0.1760131 -55.56 0.0005729207    1.312    0.238
        51 -11.8828    119.1216    101.6355   2.6696983697e+01   3.8523158665e+01    0.6406929    0.5049171  54.48  0.003158567    1.316    0.240
        52  -9.6925     38.2911     71.6841   4.7801002327e+01   6.0407372616e+01     0.302172    0.1984892 -48.52 0.0007754427    1.460    0.315
        53  -9.7150    236.9919     71.0057   3.5954089307e+02   2.0305956133e+01    0.3449615    0.2407747 -75.60  0.002014699    1.643    0.391
        54  -8.2344    229.3163     70.8697   2.3991449232e-01   2.1624944597e+01    0.3666798    0.1331298  54.61  0.001148232    3.363    0.703
        55  -9.6088    209.5395     70.4044   2.2098934847e+00   2.5260071800e+01    0.2717496    0.1918566  27.36  0.001313331    2.296    0.565
        56 -12.0605    175.8599    222.4418   3.7699124202e+01   5.4795884757e+00    0.6045541    0.2715294  26.29  0.001877084    2.061    0.515
        57 -12.0125    172.5642    210.5322   3.6541839169e+01   7.7523902346e+00    0.5691637    0.4345707  37.21  0.003624917    1.505    0.335
        58 -10.2944    219.9074     61.2864   3.5907746126e+02   2.4610236442e+01     0.360712     0.186601 -45.32  0.001927389    1.530    0.346
        59 -10.1635    227.3888     60.1049   3.5812002367e+02   2.3419283220e+01    0.2810343    0.1965983  55.90  0.001152735    1.809    0.447
        60 -10.2213    231.1721     56.8239   3.5708653933e+02   2.3183235953e+01     0.279933     0.141625 -36.34 0.0009091391    1.601    0.375
        61  -9.4147    239.4833     56.0271   3.5623438630e+02   2.1854403562e+01    0.1619385    0.1500894  71.60  0.000502749    1.403    0.287
        62 -11.0039    227.6763     49.6455   3.5584432267e+02   2.4729535129e+01    0.3924752    0.2988249  74.54  0.002067446    1.523    0.343
        63  -8.6233    207.1110     50.9297   3.5796956847e+02   2.8436443919e+01     0.147545    0.1389502 -40.80 0.0004356266    1.250    0.200
        64  -9.3357    215.6900     49.8244   3.5691236254e+02   2.6924260972e+01    0.1827227    0.1562473  65.96 0.0008257719    1.420    0.296
        65 -11.2593    175.3962    216.9018   3.6964370266e+01   6.3920408440e+00     0.361501    0.2743658  33.67  0.001218813    1.458    0.314
        66 -10.3022    171.7220    219.3464   3.8040450871e+01   6.4492450865e+00      0.21258     0.176199 -38.09 0.0005087149    1.384    0.277
        67  -9.7232    250.6097     39.4695   3.5210946204e+02   2.2024714870e+01    0.2071238   0.08158763 -35.36 0.0005568923    1.942    0.485
        68 -10.2607    165.5313    219.7702   3.9319815172e+01   7.1282605593e+00    0.2183582    0.1062628 -39.42  0.001132884    2.053    0.513
