#   1 NUMBER                 Running object number                                     
#   2 MAG_AUTO               Kron-like elliptical aperture magnitude                    [mag]
#   3 X_IMAGE                Object position along x                                    [pixel]
#   4 Y_IMAGE                Object position along y                                    [pixel]
#   5 X_WORLD                Barycenter position along world x axis                     [deg]
#   6 Y_WORLD                Barycenter position along world y axis                     [deg]
#   7 A_WORLD                Profile RMS along major axis (world units)                 [deg]
#   8 B_WORLD                Profile RMS along minor axis (world units)                 [deg]
#   9 THETA_WORLD            Position angle (CCW/world-x)                               [deg]
#  10 FWHM_WORLD             FWHM assuming a gaussian core                              [deg]
#  11 ELONGATION             A_IMAGE/B_IMAGE                                           
#  12 ELLIPTICITY            1 - B_IMAGE/A_IMAGE                                       
         1 -13.8845    181.7945     41.6603   6.1832921376e+01   3.4547950568e+01     1.191646    0.9213791  15.93  0.000903746    1.575    0.365
         2 -14.2398    191.5700     33.5229   5.7958674532e+01   3.3114170022e+01     1.633356     1.163794 -14.64  0.003485194    1.607    0.378
         3 -14.9225    200.8204     21.9446   5.3472680331e+01   3.2153566844e+01       2.2504     1.546708  22.11  0.002061328    1.973    0.493
         4 -11.3234     49.9667      6.9897   8.2205560464e+01   6.8089123245e+01    0.1698191    0.1537197 -50.34 0.0007762052    1.690    0.408
         5 -10.4238     57.2379      3.0076   7.7177222885e+01   6.7386408866e+01    0.1621756   0.09243366 -22.63 0.0006490293    1.631    0.387
         6 -12.3008     76.1115    179.6617   1.1995664475e+02   2.8557945939e+01    0.3955193    0.3160335 -37.86  0.001395343    1.685    0.406
         7 -16.3164     73.3073    151.5290   1.1676269009e+02   3.5158062145e+01     16.63253     8.217371  82.79   0.03087773    4.537    0.780
         8 -11.6865    136.6066    170.9688   1.0501543916e+02   2.0598182754e+01    0.6962151    0.2897263  30.72  0.002362611    3.461    0.711
         9 -11.0906    204.4996    199.4882   9.6250900282e+01   3.3594625559e+00    0.2377533    0.1842824  14.86 0.0008120027    1.191    0.160
        10 -10.7620    145.7653    168.3722   1.0250057494e+02   1.9421718972e+01    0.2579533    0.2294674 -20.67 0.0006319666    1.255    0.203
        11 -10.7838    140.1715    174.1759   1.0479700989e+02   1.9312080055e+01    0.2266662    0.1686124  75.17 0.0005039381    1.729    0.422
        12 -12.3706     79.9909    174.4081   1.1841501431e+02   2.9139790090e+01    0.3825918    0.3174053  77.35  0.002382877    1.099    0.090
        13 -10.4190    229.6142    165.7918   8.5139526367e+01   3.9545037631e+00    0.1872354    0.1177758 -40.42 0.0005344195    1.711    0.416
        14 -12.7541    194.2021    194.9749   9.7392394026e+01   5.8227585027e+00     1.099866     0.677525 -60.53  0.004952827    2.968    0.663
        15  -9.7234    238.6730    161.3094   8.2635251087e+01   3.0045092035e+00    0.1206816    0.1074064 -65.41 0.0007039373    1.658    0.397
        16 -10.5696    141.3349    158.3519   1.0157334183e+02   2.2271190867e+01    0.2499608    0.2259107  80.83 0.0004554604    1.204    0.170
        17 -10.5285     99.4868    180.5954   1.1488533668e+02   2.4922458206e+01    0.2280865    0.1969078  57.29 0.0006631096    1.062    0.059
        18 -10.2621    188.4918    154.5093   9.0543990319e+01   1.3669279886e+01    0.3053319    0.1368632  44.20  0.001212028    2.169    0.539
        19  -9.5557    113.2879    151.4658   1.0687180662e+02   2.8887706924e+01    0.2391318    0.1661423 -78.53 0.0007736324    1.782    0.439
        20 -11.4457    133.6644    143.9594   1.0043401112e+02   2.6751791608e+01     1.064264    0.2925884 -53.81  0.002878109    4.814    0.792
        21 -10.9311    174.2508    148.3212   9.2161348391e+01   1.7700566570e+01    0.3995391    0.3117364 -53.56  0.001432516    1.446    0.308
        22 -11.1497    144.1070    146.0020   9.8397432061e+01   2.4275672332e+01     0.443201    0.2720657 -65.66  0.001830263    2.275    0.560
        23 -11.2559    106.0759    141.4377   1.0673780440e+02   3.2370815528e+01    0.5535198    0.3547642 -29.88  0.002425188    2.228    0.551
        24 -12.3486     93.8311    141.8787   1.0994681775e+02   3.4307841194e+01    0.2806726    0.2475047 -47.23 0.0003840365    1.198    0.165
        25 -10.7402    144.6222    179.2090   1.0471226958e+02   1.7525789432e+01    0.2870416    0.2089237  14.64  0.001443576    1.783    0.439
        26 -10.6724    113.8832    131.4032   1.0266351805e+02   3.3235893162e+01    0.3355593    0.2882816   4.29 0.0009028908    1.418    0.295
        27 -12.0737    119.3604    126.2904   1.0010816858e+02   3.3351588804e+01    0.9442682    0.4435745 -39.39  0.003534753    2.446    0.591
        28 -10.4856    160.9714    127.7480   9.0336280498e+01   2.4513257286e+01      0.35324    0.2275873 -43.28  0.001310635    1.560    0.359
        29 -11.3901    135.3636    122.4122   9.5130055733e+01   3.1027294278e+01    0.6465178    0.1429428 -48.54  0.001629174    4.901    0.796
        30  -9.2202    145.0680    129.4683   9.4452964392e+01   2.7529069001e+01    0.2166073    0.1473236  46.41  0.000414895    1.471    0.320
        31 -11.0862    101.3411    127.7933   1.0517658517e+02   3.6281109006e+01    0.2879153    0.2284167 -30.89 0.0005042222    1.461    0.315
        32 -10.6108    106.0513    130.8833   1.0458886299e+02   3.4759349160e+01     0.328725    0.2872103 -84.66  0.001050083    1.199    0.166
        33 -10.1081    109.4034    119.9552   1.0126807727e+02   3.6628189842e+01    0.2445918    0.2086674  34.00 0.0002977804    1.243    0.195
        34 -19.2616      8.1581    153.8415   1.3258601450e+02   4.1547885392e+01     17.55886     2.836211 -78.14   0.05067932    6.568    0.848
        35 -10.2910    167.5204    112.3458   8.4997834795e+01   2.6110836983e+01    0.3418687    0.2669269 -62.53  0.001162067    1.527    0.345
        36 -10.3622    134.5130    102.9843   9.0347655514e+01   3.5319562238e+01    0.3963159    0.1493699 -43.14  0.001230048    2.607    0.616
        37 -11.7373    120.2352    110.7813   9.6130406022e+01   3.6600623001e+01    0.5093485     0.317645  58.61  0.002155402    1.975    0.494
        38 -10.1476    205.5317    110.1586   7.6750395333e+01   1.7914487263e+01    0.3121331    0.2107848  41.02 0.0009314216    1.544    0.352
        39  -9.0832    102.4774    110.3753   1.0088244960e+02   4.0042580678e+01    0.1430048    0.1383461 -85.30 0.0001233132    1.058    0.055
        40 -16.2639     57.6512    204.6337   1.2644682693e+02   2.5846818725e+01     3.818063     2.408335  78.70   0.02357088    1.497    0.332
        41 -10.8363    197.0410    175.8473   9.3243723558e+01   8.3574841900e+00    0.5342966    0.3587274  78.97  0.002064348    3.821    0.738
        42 -11.0050    195.9076    170.4213   9.2383528540e+01   9.4686883993e+00     0.480572    0.3844822 -63.60  0.002175452    1.748    0.428
        43  -9.8349    180.0570    192.4975   9.9710429954e+01   8.7288141234e+00    0.2247719    0.1915462 -64.40 0.0007041949    1.543    0.352
        44  -9.3987    121.6702     98.7057   9.2542421228e+01   3.8915248051e+01    0.1534238     0.120291   0.03 0.0002654444    1.632    0.387
        45 -10.6202     81.1174    196.3847   1.2085935010e+02   2.4407720351e+01    0.4115404    0.2741822 -34.47  0.002159627    2.515    0.602
        46  -9.6788    168.1716    190.3161   1.0171365640e+02   1.1232224293e+01    0.1881801    0.1692128   1.99  0.001147491    1.157    0.136
        47 -10.2961    193.3807    164.7666   9.1728126692e+01   1.0910320588e+01    0.3714488    0.2740998  68.04  0.001814315    1.980    0.495
        48  -9.2420    155.4604     79.4685   7.8498180012e+01   3.5153220171e+01    0.1529223    0.1497927  -9.48 0.0001761608    1.003    0.002
        49  -9.8905    182.5179     77.6256   7.2324280566e+01   2.8905700011e+01    0.3682944    0.1799184  50.34  0.001386789    2.047    0.511
        50  -9.4908     66.2110     70.8527   1.0149363496e+02   5.4637355641e+01    0.1930953    0.1822253  86.20 0.0008819416    1.277    0.217
        51 -11.3547    163.4991     64.3917   7.2157263372e+01   3.5793141338e+01     0.356098    0.2808591 -78.94 0.0006587292    1.586    0.370
        52 -11.3487     66.0002    174.8210   1.2162298242e+02   3.0950808594e+01     0.346649    0.2210135 -46.75    0.0018336    1.953    0.488
        53 -10.4969    163.2600     56.0069   6.9588368553e+01   3.7182358443e+01    0.2111606    0.1964799 -27.39 0.0004225569    1.080    0.074
        54  -9.4778    154.1502    196.8691   1.0567843207e+02   1.2588056850e+01    0.1993482    0.1678086  61.54  0.000472964    1.280    0.219
        55 -11.3551    183.4235    234.2580   1.0573785708e+02   1.9279837434e+00    0.3774235    0.1585183  44.50  0.001842235    2.097    0.523
        56  -9.2519    164.6250    206.2354   1.0507338814e+02   9.1872843142e+00    0.1674299    0.1208476 -30.97 0.0009490253    1.636    0.389
        57 -11.3911    210.8773    179.6749   9.1353137957e+01   5.2164926827e+00    0.4827289    0.3114928  -9.43  0.001499336    1.864    0.464
        58 -10.3048    164.2541    216.1903   1.0667719309e+02   7.6602153307e+00    0.2927653    0.1734186 -54.99  0.001544832    2.221    0.550
        59 -10.5518    190.3377    217.4248   1.0192080973e+02   3.1455160115e+00    0.2337367    0.1030152  36.66 0.0007334834    1.958    0.489
