#   1 NUMBER                 Running object number                                     
#   2 MAG_AUTO               Kron-like elliptical aperture magnitude                    [mag]
#   3 X_IMAGE                Object position along x                                    [pixel]
#   4 Y_IMAGE                Object position along y                                    [pixel]
#   5 X_WORLD                Barycenter position along world x axis                     [deg]
#   6 Y_WORLD                Barycenter position along world y axis                     [deg]
#   7 A_WORLD                Profile RMS along major axis (world units)                 [deg]
#   8 B_WORLD                Profile RMS along minor axis (world units)                 [deg]
#   9 THETA_WORLD            Position angle (CCW/world-x)                               [deg]
#  10 FWHM_WORLD             FWHM assuming a gaussian core                              [deg]
#  11 ELONGATION             A_IMAGE/B_IMAGE                                           
#  12 ELLIPTICITY            1 - B_IMAGE/A_IMAGE                                       
         1 -12.4603     75.2630     51.6035   8.0651034283e+01   5.7472756749e+01     1.315205    0.7858733 -47.18  0.006326272    1.779    0.438
         2 -13.3013     42.5124     45.7657   9.1438363852e+01   6.3227737921e+01     1.073707    0.6115286  44.03 0.0007112701    2.410    0.585
         3 -12.0387    124.8992     27.9703   5.6883014543e+01   5.0645930790e+01    0.7915981    0.4175537  43.84  0.002502692    1.809    0.447
         4 -12.9312    115.9707     41.2460   6.3966690165e+01   5.0968277368e+01     1.027993    0.7901848  83.72  0.005095978    1.784    0.439
         5 -10.3632    147.3255     16.9222   4.8569591715e+01   4.6358582979e+01    0.5663329     0.496327 -14.29  0.003339078    1.272    0.214
         6 -11.8017    138.9213     23.6235   5.2373573406e+01   4.7732851314e+01      1.11575    0.5944941  63.63  0.003892641    1.772    0.436
         7 -10.9624    154.7856     25.0759   4.9952796862e+01   4.3583444029e+01     1.095412    0.5710322  58.20  0.004914741    1.714    0.417
         8 -10.1173     60.3375     19.9092   7.3135267335e+01   6.4946460837e+01    0.3375735    0.2178507 -44.15  0.001254562    1.970    0.492
         9 -12.0788     60.8090     46.2766   8.4098394827e+01   6.0722799856e+01     1.100732    0.3759437 -41.19  0.004299772    2.684    0.627
        10 -11.0844     41.1015      5.2191   7.4041744229e+01   6.9749958621e+01    0.5038581    0.2474493 -11.23  0.002423612    2.522    0.604
        11 -11.2324      6.2484     34.5838   1.0432752068e+02   6.8483830112e+01     1.627771       0.3622 -51.87  0.003229802    2.786    0.641
        12 -10.3576     47.1572     18.8033   7.8123727715e+01   6.7115911887e+01    0.3330134     0.238714  -1.58  0.001112298    1.264    0.209
        13 -10.0800     32.0388     12.3385   8.2054947394e+01   7.0011606408e+01    0.1907715    0.1509458 -30.75 0.0005842968    1.349    0.259
        14 -11.1887     13.9197     23.8532   9.6590547140e+01   6.9952955301e+01    0.5207306    0.3962293 -19.93  0.001825705    1.095    0.086
        15 -10.7899     22.1066      5.1783   8.3528367739e+01   7.2141031167e+01    0.2812658    0.1889917 -36.36  0.001054528    1.509    0.337
        16 -11.9000     36.4052     18.6462   8.2982998804e+01   6.8563582854e+01    0.7875638    0.4020733 -31.43  0.004285796    1.726    0.421
        17 -11.8441     26.1708     27.8616   9.2020048362e+01   6.8197154895e+01    0.4612611    0.3962165 -16.54  0.002029187    1.161    0.139
        18 -11.7662     20.2417     22.0048   9.2547933965e+01   6.9746150578e+01     0.678294     0.220386 -44.84  0.003147705    2.485    0.598
        19 -12.1043     22.8876     11.4370   8.6305378266e+01   7.1164528133e+01    0.5329899    0.3382769  -7.14   0.00215098    1.462    0.316
        20 -12.6156     17.0613     12.6325   9.0017983289e+01   7.1548991730e+01    0.7900268    0.4787252 -20.42  0.003971927    1.409    0.290
        21 -10.9697    178.6788     21.2219   4.5124805190e+01   3.7950164206e+01    0.5518118    0.3077263  38.12  0.001973033    2.302    0.566
        22 -11.4791    183.1519     25.2515   4.5671662365e+01   3.6354575755e+01    0.6107006    0.3257378  51.18  0.002767908    1.897    0.473
        23 -12.3029    104.4874     12.7423   5.5880970926e+01   5.7066535902e+01    0.5701146    0.4557242 -32.85  0.002032342    1.404    0.288
        24 -11.5118    105.9749     20.5231   5.8640129545e+01   5.5908080105e+01    0.4472623    0.3506972 -27.69 0.0005576769    1.360    0.265
        25 -12.2609     48.6354     12.9108   7.4622705138e+01   6.7695448547e+01    0.7115437     0.301527  39.78  0.003471496    2.336    0.572
        26 -10.9481    214.3371     23.0830   4.1375691960e+01   2.8913499493e+01    0.4206217    0.3453646   7.84  0.002296087    1.689    0.408
        27 -10.3642     87.1950      7.3084   5.8179286023e+01   6.1338840315e+01     0.576444    0.3005166  53.38   0.00235137    1.756    0.431
        28 -11.2710     90.8251     21.2084   6.3154210663e+01   5.9100717436e+01    0.6029473      0.35658 -20.71  0.002258143    1.758    0.431
        29 -11.2535     86.1154     14.3222   6.1601730149e+01   6.0850886392e+01    0.7479333    0.4519478  11.11  0.002879462    1.941    0.485
        30 -12.0118     68.1194     17.9928   6.9280744381e+01   6.3865990192e+01    0.4908388    0.4146262   8.35  0.001798844    1.023    0.022
        31 -10.3468    120.4493     20.5392   5.5142641176e+01   5.2564224605e+01    0.7136281    0.3096153 -23.53  0.002298859    2.533    0.605
        32  -9.7884    141.6001     12.2863   4.7998139205e+01   4.8253984742e+01    0.4067394    0.1969087  36.65  0.001426081    2.446    0.591
        33 -12.1105    132.2531     15.8816   5.0961724585e+01   5.0208045595e+01      1.23823    0.7076364  76.66  0.004535896    2.035    0.508
        34 -12.3797    238.2284     16.0101   3.7490940822e+01   2.4222448241e+01    0.8626657    0.5096272  77.09  0.004467558    1.631    0.387
        35 -12.0050    247.0191      6.6888   3.4795818158e+01   2.3349154900e+01    0.5872712    0.4888508  32.85  0.003829187    1.779    0.438
        36 -10.8533    232.5594      7.3493   3.6002699863e+01   2.6459900245e+01    0.4239511    0.2273945  71.88  0.001620269    1.759    0.432
        37 -10.7660    228.2596      3.4219   3.5448585143e+01   2.7849571967e+01    0.4156045    0.2734483 -74.61  0.001997888    1.357    0.263
        38 -11.1592    218.8785      3.2512   3.6150687760e+01   3.0027665070e+01    0.3322558    0.2869455 -61.41  0.001157671    1.114    0.103
        39 -10.1867    223.2433      1.6306   3.5426244443e+01   2.9181423772e+01    0.2804497    0.1682151  73.31  0.001116769    1.537    0.349
        40 -11.2542    164.9205     18.0650   4.6135793035e+01   4.1788137577e+01    0.4630536    0.2657746  41.58  0.001658022    1.941    0.485
        41 -10.4884    226.2373     15.6739   3.8437655708e+01   2.6978499853e+01    0.3879027    0.1956542 -39.56  0.001652007    1.800    0.445
        42  -9.5880    191.3550     16.8070   4.2288924726e+01   3.5253444273e+01     0.288771    0.2015136  30.72  0.001365863    1.917    0.478
        43 -10.4468    136.4991     14.4960   4.9668825393e+01   4.9302749320e+01    0.3018499    0.2501323  26.22 0.0008049919    1.269    0.212
        44 -11.3493    241.8852      4.0699   3.4595140686e+01   2.4744538010e+01     0.600054    0.2008723  66.45  0.002673848    2.779    0.640
        45  -9.9723     94.4646     12.1338   5.8245845575e+01   5.9330239403e+01    0.2286143    0.1914561  48.93 0.0004015043    1.170    0.146
        46 -11.3195    211.8235      9.7561   3.8328392993e+01   3.1014782303e+01    0.5006266    0.3272676   6.47  0.001733839    2.611    0.617
        47 -11.4063    192.6004      7.6766   3.9699077383e+01   3.5900681663e+01    0.5395169     0.376047  19.87  0.001827527    2.091    0.522
        48  -9.0892      4.5174     11.3075   9.6470488857e+01   7.2754086835e+01    0.3297501    0.1361599 -40.05  0.001856925    1.804    0.446
        49  -8.8424    163.3736      9.7847   4.3828997099e+01   4.3020134201e+01    0.5180583     0.250568  -5.64  0.002021545    3.374    0.704
        50  -8.6645    162.7204      6.3304   4.2866282897e+01   4.3509244560e+01    0.2267759    0.2054615  42.66 0.0009125891    1.184    0.155
        51 -10.0801     65.8733     10.2991   6.6472092694e+01   6.5172528629e+01    0.3098506    0.1706348  47.50 0.0009446671    1.804    0.446
        52  -9.9195     62.9422      6.8372   6.5856481725e+01   6.6068983706e+01    0.2809719    0.2052836  16.42  0.001198575    1.189    0.159
        53  -9.8980    168.7895      9.8395   4.3115138590e+01   4.1646885892e+01    0.3366807    0.1619484  50.71  0.001499649    2.022    0.505
        54 -10.2655    183.4447      4.8181   3.9912661167e+01   3.8450019390e+01     0.404573    0.2200098 -31.79   0.00197728    1.923    0.480
        55  -9.6930    153.9425      7.0977   4.4331904482e+01   4.5648794283e+01     0.434907    0.1599122  64.50  0.001750563    2.277    0.561
        56  -7.9044     78.4857      7.4917   6.0871842716e+01   6.3089099102e+01    0.3198932    0.1886882  62.52  0.001613153    2.117    0.528
        57 -10.2885     76.5162      3.4912   5.9618905220e+01   6.3858307936e+01    0.6274313    0.2454093  38.40  0.002772839    2.354    0.575
        58 -10.6345     73.3202      2.6835   6.0246881084e+01   6.4556271761e+01    0.5346622    0.2459134  29.52  0.002465776    2.299    0.565
        59 -10.7561    176.7009      5.6347   4.0908029016e+01   4.0057917179e+01    0.3989325    0.2210626  82.62   0.00097025    1.769    0.435
        60  -9.0702    170.7175      3.9669   4.1142992041e+01   4.1713024940e+01     0.200599    0.1293987 -78.58 0.0007684312    1.656    0.396
        61  -9.4298    123.0034      1.0000   4.7319784190e+01   5.3789913316e+01    0.4088098   0.08566259  67.22  0.001161164    4.908    0.796
        62 -11.1029    106.7658      2.3780   5.1140972819e+01   5.7485014295e+01    0.6414469    0.3408256  65.94   0.00227876    1.866    0.464
        63 -10.7606    114.9091      3.4870   4.9838641074e+01   5.5509163355e+01     0.459776    0.2384803  46.71 0.0007386031    1.666    0.400
        64 -10.8469    142.4764      2.6431   4.4604620147e+01   4.8901144114e+01    0.4299628    0.2566268  51.82 0.0009584048    1.488    0.328
        65 -11.8660    133.8616      2.6909   4.6012848683e+01   5.1022021441e+01     0.436557    0.2725266  58.39  0.001756834    1.366    0.268
        66 -10.0257    207.7520      2.5988   3.6938578648e+01   3.2721071275e+01    0.2605977    0.2039503  85.93 0.0009099206    1.122    0.109
        67  -9.9215    204.4813      1.4811   3.6952455272e+01   3.3614511461e+01    0.3243301    0.1428429  63.81  0.001317872    2.046    0.511
        68  -9.7376    158.5479      2.1440   4.2140835734e+01   4.4929238230e+01    0.4562085    0.1565688  51.93  0.001795424    2.610    0.617
        69 -11.2611      3.0474      1.8421   9.2847359899e+01   7.4345682286e+01    0.3781856    0.1655345  10.65  0.002101375    2.544    0.607
        70 -10.3418     12.5601      1.8468   8.7126096275e+01   7.3559317020e+01    0.3136208     0.142033  23.52  0.001519891    2.239    0.553
        71 -10.2802     82.2208      1.3179   5.6895242537e+01   6.2904212875e+01    0.1981471    0.1013764  52.47 0.0003386129    1.731    0.422
        72  -8.9060    152.0320      1.1868   4.2726486883e+01   4.6641508355e+01    0.1849275   0.09057478  68.56 0.0005371946    1.772    0.436
        73 -10.3116     47.2764    135.8157   1.1124974664e+02   4.2131694370e+01    0.4680009    0.1570231 -64.40  0.001361815    2.509    0.602
        74 -10.6573    143.6681    248.7941   1.0463610197e+02   3.7867920061e+00    0.3156551    0.2281879 -15.39  0.001856128    2.120    0.528
        75 -10.4885     39.7741    137.6312   1.1358331655e+02   4.2494591527e+01     0.243503    0.2043184 -65.63 0.0008787434    1.115    0.103
        76  -9.1848    192.2760    136.3443   7.4096474907e+01   1.5383403601e+01     0.154882    0.1177025  -3.08 0.0004087947    1.625    0.385
        77  -9.2611    216.6388    135.2113   6.9078634933e+01   1.0455230186e+01    0.2068321    0.1301541 -27.86  0.000719071    1.607    0.378
        78 -10.7473     92.9668    129.5084   9.7123083295e+01   3.7291584798e+01    0.3849331    0.2541859 -69.07  0.001741816    1.642    0.391
        79 -10.6843     33.4784    144.4741   1.1616343652e+02   4.1466220912e+01     0.413433    0.2314218  51.41  0.002148294    1.883    0.469
        80 -10.0434     61.7566    132.3186   1.0659195311e+02   4.1248500305e+01    0.3331443    0.2934437 -16.99  0.001931862    1.400    0.286
        81  -9.4176     39.3143    132.8586   1.1303264726e+02   4.3707775844e+01    0.2162679    0.1680944  54.38 0.0005917774    1.374    0.272
        82  -9.3122    103.3936    131.0842   9.4542388169e+01   3.5094355479e+01    0.2551831    0.2058682  25.50  0.000960689    1.412    0.292
        83 -11.0439     10.8958    126.9411   1.2014464727e+02   4.7564920000e+01    0.5482901    0.1876368 -59.46  0.001734318    2.263    0.558
        84 -10.3889     81.9684    125.5096   9.9433067427e+01   4.0048711546e+01    0.3955373    0.2685064 -29.80 0.0007961305    1.907    0.476
        85 -10.3007     74.4692    132.3986   1.0297757611e+02   3.9484478116e+01    0.3477173    0.2433728 -13.97  0.001580194    2.242    0.554
        86  -9.1509    224.0045    126.9339   6.5823152278e+01   1.0423803761e+01    0.2202686    0.1693408 -62.68 0.0005500501    1.612    0.380
        87  -9.9344     26.0887     86.6226   1.0926888313e+02   5.6027142771e+01    0.6650391    0.5538325 -87.88  0.002890168    1.318    0.241
        88 -11.3589     42.1859     93.9391   1.0521212358e+02   5.2851693911e+01    0.3851623     0.298653  84.58  0.001352033    1.553    0.356
        89 -11.5752      9.2415     96.8108   1.1676249965e+02   5.4802880519e+01    0.5774356    0.4569991  86.42  0.001798295    1.298    0.229
        90 -11.9988      7.0046     88.6190   1.1624426139e+02   5.6834454892e+01    0.5159896    0.4428447  40.56  0.002351291    1.450    0.310
        91 -11.1990     35.6343     93.3181   1.0732196384e+02   5.3638058187e+01      1.04098    0.6051593 -70.57  0.005243971    1.667    0.400
        92 -12.2108     42.1909     85.3920   1.0326882183e+02   5.4848040335e+01     1.072989    0.4320796  23.41  0.004476433    3.035    0.671
        93 -11.6787     17.1076    100.9999   1.1487101536e+02   5.3312536068e+01    0.2879721    0.2378305 -43.46 0.0004157311    1.239    0.193
        94 -11.8166     25.2700    113.6068   1.1426997029e+02   4.9681767081e+01    0.9983985    0.3896914  12.07  0.003856469    4.346    0.770
        95 -12.7295     25.2607    106.7550   1.1320075339e+02   5.1330838848e+01     1.189884    0.8060848 -15.76  0.005735887    1.972    0.493
        96 -11.9629     18.7339    106.1279   1.1514737085e+02   5.1978640784e+01    0.2623739    0.2206698 -42.70 0.0002361673    1.255    0.203
        97 -11.6391     22.4653     94.8903   1.1209109411e+02   5.4370881613e+01    0.5663418    0.3147774  14.53  0.002841647    2.304    0.566
        98 -12.1809     18.2789     89.7980   1.1259842195e+02   5.5865911545e+01    0.5574718    0.2349497 -57.97  0.001135183    1.782    0.439
        99 -11.4914      3.8954    105.6339   1.1964136663e+02   5.3039928790e+01    0.4245628    0.3580469 -85.45   0.00226552    1.139    0.122
       100 -10.7706     55.2311    123.4996   1.0691835269e+02   4.4238004930e+01    0.4847021    0.3749611  -8.08    0.0022191    1.743    0.426
       101  -9.6333     49.5446    122.9554   1.0850833283e+02   4.5037455789e+01    0.2424908    0.1828231 -28.33 0.0009740881    1.633    0.388
       102 -11.3631     45.6181    120.1830   1.0919866398e+02   4.6152661324e+01    0.6295342     0.331327 -88.61  0.002358163    2.698    0.629
       103  -9.4017     79.2350    137.9737   1.0268962196e+02   3.7409443869e+01    0.2806825    0.1698483 -63.10  0.001294724    1.562    0.360
       104 -10.1377     18.8325    123.3489   1.1750907075e+02   4.7844224381e+01    0.3900267     0.124799 -65.24  0.001661715    2.317    0.568
       105 -11.9348    104.2051    122.1003   9.2259574033e+01   3.7097926517e+01    0.4823993    0.4164069 -45.96  0.001396659    1.135    0.119
       106  -9.4579     87.3251    135.3176   9.9916840482e+01   3.6802826155e+01    0.1479885    0.1134103 -25.75 0.0007044798    1.673    0.402
       107  -9.4151     71.6501    120.6442   1.0146393864e+02   4.2779035857e+01    0.2138631    0.1579094 -30.25 0.0006390963    1.619    0.382
       108 -11.0835     33.0732    119.4111   1.1281791221e+02   4.7596938526e+01     0.335308     0.262083 -61.24  0.001651871    1.112    0.101
       109  -9.2002    148.1801    119.9948   8.0003559664e+01   2.8556808464e+01    0.2646899    0.1859685 -15.31 0.0009880823    1.994    0.499
       110  -9.5264    185.3251    118.8442   7.1243699045e+01   2.0370128759e+01    0.2708439    0.2057587  66.55  0.001248249    1.559    0.359
       111  -8.9337     13.6788    118.7377   1.1839875921e+02   4.9325872508e+01    0.1209107    0.0792938 -46.63 0.0002196032    1.553    0.356
       112  -9.5836    113.6674    115.8772   8.8063673214e+01   3.6765780301e+01    0.2596545    0.2211373  21.19 0.0006764982    1.318    0.241
       113 -10.7079    107.5629    111.9914   8.8810914526e+01   3.8853755388e+01      0.60667    0.3866309 -74.03  0.002379998    2.330    0.571
       114 -11.1667    102.3230    109.5712   8.9715004514e+01   4.0405519759e+01    0.6966056     0.499116  18.23  0.002675522    1.791    0.442
       115  -9.6579     67.3004    114.1572   1.0142088579e+02   4.4973505306e+01    0.3492935    0.2374613  83.74  0.001610624    2.001    0.500
       116  -9.7307     67.4493    110.5149   1.0058362023e+02   4.5838250674e+01    0.3479964    0.2020531  33.18  0.001614474    1.904    0.475
       117  -8.9756    221.2872    120.6330   6.4808582267e+01   1.2107904630e+01    0.1502956    0.1101297 -62.55 0.0003428787    1.701    0.412
       118  -9.0961    126.9060    113.5102   8.3810502215e+01   3.4613164953e+01    0.2327424    0.1560345  42.81 0.0006715289    1.525    0.344
       119 -11.2319    170.4209    110.5251   7.2298388555e+01   2.5475030452e+01    0.4528859      0.39359 -24.83  0.001467441    1.192    0.161
       120 -10.4380     90.0037    104.4845   9.2112816659e+01   4.3795317887e+01    0.4277718    0.3489758 -26.31  0.001263473    1.340    0.254
       121 -10.6969     85.8997    103.8713   9.3226037152e+01   4.4629922811e+01    0.5549368    0.3504246 -15.19  0.001448567    2.716    0.632
       122  -9.7857     48.7893    112.3064   1.0679701647e+02   4.7730237300e+01    0.2314876    0.1967579  81.40  0.001363175    1.260    0.206
       123 -10.1068    120.3161    109.4123   8.4529585116e+01   3.6913184126e+01    0.3607916     0.207878 -43.89  0.001474181    1.702    0.413
       124 -11.3132     79.3924    108.3103   9.6347552009e+01   4.4619150021e+01    0.7093423    0.4096524  34.93  0.002222284    1.882    0.469
       125  -9.5131     58.4737    108.4693   1.0297098837e+02   4.7515674079e+01    0.2793399    0.1256497 -60.48 0.0006577863    1.996    0.499
       126 -10.5285    157.2144    106.6461   7.4284044191e+01   2.9348945955e+01    0.4140223    0.3169712   5.64  0.001422895    1.752    0.429
       127 -11.6015    145.4179    100.6462   7.5490206574e+01   3.3331152581e+01    0.5785878    0.4842836 -16.17  0.002132646    1.346    0.257
       128 -10.3874    143.3024    105.9886   7.7503875472e+01   3.2682846101e+01    0.3545946    0.2948049  72.98  0.001294405    1.396    0.284
       129  -9.8256     57.4114    102.9357   1.0210966084e+02   4.8982930571e+01    0.3328248    0.1978576 -61.84  0.001347768    1.540    0.351
       130  -8.9427     82.4187    102.4981   9.3966799251e+01   4.5521192415e+01    0.1480718    0.1342247 -44.73 0.0001055815    1.034    0.033
       131  -9.4739     50.6285    101.7756   1.0407541930e+02   5.0070582279e+01    0.2577022    0.1670158 -49.46 0.0008466902    1.365    0.267
       132 -10.9174     52.1130     95.6832   1.0222777574e+02   5.1350431156e+01    0.7824383    0.4516903 -85.29  0.003165773    2.889    0.654
       133  -9.5029    120.8175    101.1839   8.2145460700e+01   3.8651063845e+01    0.2208857    0.1884843  -6.91  0.001074137    1.350    0.259
       134 -10.1207    210.6194     97.9517   6.1083167628e+01   1.8498242187e+01    0.5083424    0.3407698  12.97  0.002085361    2.435    0.589
       135 -11.5746     67.2100     95.2989   9.7067252734e+01   4.9501576342e+01    0.4934687    0.4477042  13.65  0.001547476    1.216    0.178
       136 -11.0706     89.8606     89.5037   8.8080684781e+01   4.7251943700e+01    0.8174618    0.4293056 -30.52  0.003067167    2.547    0.607
       137  -9.6842     80.7344     98.4024   9.3447331457e+01   4.6750412515e+01    0.2899098    0.2351627  -7.71  0.001075021    1.468    0.319
       138  -9.4566     77.2863     96.9577   9.4182004661e+01   4.7628903662e+01    0.3046991    0.2336581 -19.99 0.0008613402    1.527    0.345
       139 -10.2483     82.9497     93.4763   9.1417930807e+01   4.7529292302e+01    0.3664622    0.2457656  34.02  0.001090658    1.611    0.379
       140 -10.7387     76.5171     92.8980   9.3359561124e+01   4.8687664808e+01     0.549967    0.3747011  15.75    0.0017771    1.864    0.463
       141  -8.9136     60.6837     97.7057   9.9828644918e+01   4.9814612952e+01    0.1783685    0.1323706  42.83 0.0004522226    1.522    0.343
       142  -9.6790     57.4890     97.5462   1.0085487335e+02   5.0258997715e+01    0.2419951    0.2160046  21.71  0.001177271    1.265    0.210
       143 -10.0487    141.1369     96.3448   7.5347404934e+01   3.5212398243e+01    0.4806553    0.2644986  31.11  0.001727473    2.464    0.594
       144 -10.4398    117.5059     93.4986   8.0885910648e+01   4.1024966273e+01    0.4328668    0.3369728  17.25   0.00192937    1.540    0.351
       145 -11.5764    120.8779     86.7825   7.7938586586e+01   4.1729522383e+01    0.7932358    0.4388814 -45.43   0.00322617    1.793    0.442
       146 -10.2339    122.3811     93.7801   7.9596006467e+01   3.9929529511e+01    0.3426906    0.2514248 -39.13 0.0008105397    1.346    0.257
       147  -9.5594    160.7669     93.8406   6.9901602458e+01   3.1103030899e+01    0.4453687    0.2579246  73.85  0.001501362    3.013    0.668
       148 -10.7214    152.0947     91.5162   7.1256990188e+01   3.3633605208e+01    0.5596291    0.4365581  73.52  0.002416307    1.530    0.346
       149 -11.4646    102.1351     90.2155   8.4454989984e+01   4.4834154945e+01    0.9056139     0.648076 -18.80  0.004097616    1.746    0.427
       150  -9.4695    102.6567     80.1777   8.1256963318e+01   4.6876425931e+01    0.2974243    0.1738781 -36.16 0.0009746398    1.733    0.423
       151 -10.1243    104.2504     75.8704   7.9404503625e+01   4.7442017166e+01    0.4162156    0.3853009 -80.72  0.001390936    1.268    0.212
       152 -10.9904    113.6844     83.5171   7.8996466755e+01   4.3938942412e+01    0.4276041    0.3756551 -49.00  0.001490531    1.155    0.134
       153 -10.5124    109.1550     80.5969   7.9422992508e+01   4.5481660857e+01     0.348723    0.2971249 -27.12 0.0007608058    1.169    0.145
       154  -9.3591    138.2028     92.9447   7.5114466942e+01   3.6589153825e+01    0.3174513    0.2099896  19.49  0.001236262    2.224    0.550
       155  -9.8022    200.1435     88.2819   6.0415502400e+01   2.2651686104e+01    0.3431171    0.2570646 -80.30  0.001597628    1.677    0.404
       156 -10.5175     64.6644     75.3856   9.2480912944e+01   5.4361066034e+01    0.4462453    0.2824221  16.69 0.0006271985    1.952    0.488
       157  -9.5694    174.7693    246.5585   9.8424754639e+01  -7.5816156570e-01    0.2520346   0.09886589  35.48   0.00115479    2.159    0.537
       158 -10.0189     94.1723     76.4799   8.2754968196e+01   4.9273333320e+01    0.6386785    0.3861021  28.75  0.002541469    1.919    0.479
       159 -10.4796     67.3050     81.8261   9.3421680122e+01   5.2569115213e+01    0.4892055    0.3780598 -35.46  0.002655644    1.215    0.177
       160 -11.6560     85.5883     73.7538   8.4697217315e+01   5.1392631527e+01     0.689108    0.4858055  42.89  0.002467067    1.528    0.345
       161 -11.1420     79.9883     67.8552   8.4681760104e+01   5.3563049390e+01     0.554727    0.4037075  42.64  0.001660565    1.502    0.334
       162 -10.4437     84.0577     64.1852   8.2047509859e+01   5.3587370643e+01    0.3784459    0.2354003 -29.83 0.0006800653    1.662    0.398
       163 -10.7874     79.2745     82.9078   8.9630870948e+01   5.0500708818e+01    0.6453303    0.4977332 -72.00  0.002869445    1.626    0.385
       164 -11.6306     73.3387     77.9846   9.0194467205e+01   5.2515081046e+01     1.363736    0.6316056 -29.70  0.004666317    3.385    0.705
       165 -11.2694     91.3172     62.6015   7.9071967867e+01   5.2563902297e+01    0.6080443    0.3735147  55.69  0.002686445    2.110    0.526
       166 -11.8815     89.9054     57.8600   7.7867811656e+01   5.3713529301e+01     1.051595     0.629674  56.06  0.004608361    2.213    0.548
       167 -10.3811    183.8458     86.1001   6.2855644999e+01   2.6968644249e+01    0.7208122    0.2898648 -44.55  0.002491747    2.491    0.599
       168 -10.4813    165.5312     83.5940   6.5905779730e+01   3.1912077701e+01    0.4299037    0.3567455 -54.46  0.001355524    1.246    0.198
       169 -11.4120    142.8684     84.0232   7.1289801781e+01   3.7298151144e+01    0.4203754    0.3875256  46.66  0.000843951    1.090    0.082
       170  -9.9556    127.7841     83.2012   7.4946022055e+01   4.0939020772e+01    0.3212401    0.2714956  36.88  0.001136456    1.205    0.170
       171 -10.6174    127.2131     77.6525   7.3375607691e+01   4.2165647334e+01    0.5180344    0.2833431 -42.46  0.001331518    1.819    0.450
       172  -9.3768    124.6633     73.2835   7.2675470688e+01   4.3582917114e+01    0.2819104    0.1919682  60.22 0.0008963622    1.687    0.407
       173 -11.6532    122.6459     68.4820   7.1662976148e+01   4.4938342856e+01    0.6337656    0.4120333  42.32  0.002856014    1.543    0.352
       174 -12.7086     52.4016     73.7608   9.6495833099e+01   5.6326391583e+01    0.6134457    0.3176877 -59.61  0.000809452    1.992    0.498
       175 -11.4191     57.9897     77.8305   9.5600836965e+01   5.4728455995e+01    0.6730797    0.3382158 -66.72 0.0003802347    2.868    0.651
       176 -11.3187     47.0676     74.5124   9.8699656742e+01   5.6785162781e+01    0.3436431    0.2262633 -57.20            0    1.406    0.289
       177 -10.4338    125.9976     93.6650   7.8564656878e+01   3.9170804150e+01    0.3497283    0.3325731  55.70 0.0009692807    1.092    0.085
       178 -11.7737      2.2988    111.9887   1.2087602334e+02   5.1637532921e+01     1.333352    0.3873514 -79.13  0.005036339    3.319    0.699
       179 -10.2937    232.8982     77.3662   5.2512489161e+01   1.6940380321e+01    0.4227322    0.2293183 -38.26  0.001765555    1.644    0.392
       180  -9.5078    230.3241     73.6697   5.1967044344e+01   1.8096726628e+01    0.2987284      0.16099 -56.42  0.001178645    2.081    0.520
       181  -8.9599    170.5759     77.7825   6.3157425404e+01   3.1729648634e+01    0.2136596    0.1421271 -47.13  0.000477791    1.526    0.345
       182 -11.7172     14.0409     74.6529   1.1121240579e+02   5.9614646880e+01    0.4564186     0.293352 -65.31  0.001715534    1.305    0.234
       183 -10.0515     14.6807     67.2639   1.0937832076e+02   6.1219256803e+01    0.3347937    0.2555132  -6.32  0.002196975    1.497    0.332
       184 -10.5723     15.6937     44.1344   1.0283955449e+02   6.6018585587e+01    0.9144048    0.2542383 -34.78  0.003181521    4.470    0.776
       185 -10.6946     22.3905     36.9815   9.7339695975e+01   6.6892181312e+01    0.5468531    0.2785762  44.98  0.002589371    3.419    0.708
       186 -11.8716     21.3559     46.8558   1.0111808277e+02   6.5058750762e+01    0.5390455    0.4417304  -3.39  0.003583454    1.281    0.220
       187  -9.2772    199.2592    244.4368   9.3527470004e+01  -4.2465610032e+00    0.1644183    0.1354462  44.79 0.0008938343    1.409    0.290
       188 -11.9688     40.6132     70.2912   9.9991371026e+01   5.8409330065e+01    0.8868625    0.2828827 -47.33   0.00351479    2.531    0.605
       189 -11.5056     32.3427     72.1478   1.0366909030e+02   5.8795285284e+01    0.5457269    0.2787288  24.43  0.002285829    2.260    0.557
       190 -10.8235     20.5237     55.5444   1.0404248311e+02   6.3341480319e+01    0.4798944    0.3356063 -89.02  0.002676472    2.188    0.543
       191 -11.7814      1.9763     71.2879   1.1508916588e+02   6.1016597661e+01    0.5949576    0.1577094 -66.01  0.002486671    2.722    0.633
       192 -12.4239      6.2668     62.7094   1.1171798800e+02   6.2695469681e+01    0.7396796    0.3917132 -31.31  0.004164097    1.887    0.470
       193 -11.3144     33.5470     58.3502   9.9385683713e+01   6.1659113297e+01    0.5717107    0.3120601  -6.71 0.0008022865    2.610    0.617
       194 -11.8543     27.2656     54.4347   1.0085167808e+02   6.3036318633e+01     0.896856    0.5742135 -17.10  0.005016401    1.685    0.406
       195 -11.2039     41.0435     57.0419   9.5890608391e+01   6.1170622926e+01    0.4189605     0.345718  52.80  0.001658889    1.660    0.398
       196 -11.6860     50.9038     61.1709   9.3251497748e+01   5.9184742558e+01     0.355202    0.3255442 -49.49 0.0009736708    1.205    0.170
       197 -11.4840     46.1283     58.6733   9.4347071298e+01   6.0267952246e+01    0.5013481    0.2608376 -40.24  0.002459603    1.686    0.407
       198  -9.4437    139.2992     77.3226   7.0132633269e+01   3.9431485156e+01    0.1580423    0.1226486   9.09            0    1.626    0.385
       199  -8.9375    134.9828     77.4969   7.1282023528e+01   4.0410942782e+01    0.2206122    0.1406486  76.30 0.0008104704    2.583    0.613
       200  -9.6455    192.4305     65.6053   5.5619079525e+01   2.8364028908e+01    0.2864826    0.2201664 -74.81 0.0007513198    1.457    0.314
       201 -12.2048    186.5188     70.4258   5.7988999867e+01   2.9040659120e+01    0.9838424    0.6541484 -37.14  0.003524606    1.474    0.322
       202  -8.8293    112.8243     75.3850   7.6688524754e+01   4.5767685948e+01    0.2184936    0.1401024  34.79 0.0009495479    1.675    0.403
       203  -9.6919    184.4795     61.0055   5.5686766216e+01   3.1079418403e+01    0.3212168    0.2138104 -35.80  0.001230328    1.494    0.330
       204  -9.4689    151.9624     73.4664   6.5909237296e+01   3.7096373927e+01    0.4219572    0.1976295  37.37  0.001421846    2.800    0.643
       205  -8.9412     20.2846     71.8001   1.0822535497e+02   5.9838689134e+01    0.1608152    0.1482792 -44.01  0.001117422    1.152    0.132
       206  -9.8052    162.1901     70.8193   6.2852702806e+01   3.5040510171e+01     0.314321    0.2604414 -70.93  0.001017151    1.360    0.265
       207 -10.0694    172.2009     68.5884   6.0148352514e+01   3.2922719438e+01    0.4539706    0.2838251  35.97  0.001725518    1.947    0.486
       208  -9.9516    171.8553     65.1679   5.9209157234e+01   3.3580412744e+01    0.4602442    0.3632606 -71.22  0.002237839    1.440    0.305
       209 -11.4125    219.8144     66.5245   5.1650094747e+01   2.1616487365e+01    0.5698607     0.359361  65.00  0.002003698    1.673    0.402
       210  -9.0950    208.0560     68.4948   5.3885322154e+01   2.4088018464e+01    0.2201831    0.1427107  60.42  0.001030051    1.587    0.370
       211 -10.6266     21.1978     65.6584   1.0641348163e+02   6.1128250685e+01    0.2699323    0.2184411  86.25 0.0004074549    1.591    0.372
       212  -9.3164     25.8439     65.4896   1.0451341184e+02   6.0809183083e+01    0.1927901    0.1553569 -25.22   0.00045466    1.215    0.177
       213 -10.5668     59.5086     63.9795   9.0836891842e+01   5.7488409463e+01      0.46033    0.2263071 -39.19  0.001499741    1.892    0.472
       214 -10.0064     57.3216     61.2955   9.0794562231e+01   5.8333071609e+01    0.2521628    0.2038688 -10.73 0.0006731053    1.234    0.189
       215  -9.7250     53.1360     66.0195   9.3914377747e+01   5.7898955430e+01    0.2585322    0.1837645  43.43  0.001402421    1.715    0.417
       216  -9.9536    202.4962     64.7087   5.3743476336e+01   2.6033275894e+01    0.3383092    0.2284409  73.43 0.0001915788    1.611    0.379
       217  -9.6021    198.4528     62.9498   5.3906683121e+01   2.7299739649e+01    0.3349817    0.1879109 -47.26  0.001382997    1.761    0.432
       218 -10.0918    106.0177     64.2185   7.5003367204e+01   4.9339399205e+01    0.3418747     0.304249  14.44  0.001854737    1.122    0.109
       219 -11.4725    234.2855     61.1736   4.8424773019e+01   1.9124048025e+01    0.5688118    0.4352347  80.88  0.002592603    1.389    0.280
       220 -10.2370    159.2854     62.2783   6.0865582965e+01   3.7213603150e+01    0.5858357    0.2334004  47.94  0.002051041    2.512    0.602
       221 -11.2584    127.4470    242.3919   1.0698394352e+02   7.3557280132e+00     0.348355    0.2366292 -73.24  0.002064315    1.916    0.478
       222 -11.5105    120.9352     60.0761   6.9311174436e+01   4.6831095403e+01     1.083536    0.5247179  38.47  0.003961156    2.288    0.563
       223 -10.6981    117.4242     56.1038   6.8900729345e+01   4.8303573024e+01     0.473982    0.3711264  31.75  0.001007298    1.294    0.227
       224 -11.7479    114.6398     49.2748   6.7248453552e+01   5.0047744101e+01     0.942292    0.4912051  38.59  0.003903914    2.016    0.504
       225  -9.6536     68.0068    240.4900   1.1813817438e+02   1.6368550696e+01    0.1761346   0.09655153  41.91  0.001027397    1.577    0.366
       226  -9.4453    148.2004     60.7612   6.2791010249e+01   4.0222824507e+01    0.4476845    0.1338064  57.96  0.001294237    3.666    0.727
       227 -11.5070    145.7921     46.8123   5.8795169815e+01   4.3002850682e+01     1.081289    0.4210841 -25.07  0.003597327    3.274    0.695
       228 -10.5823    136.4682     56.6091   6.4165492547e+01   4.3771635561e+01    0.6626679    0.4386012   2.94  0.002724539    2.281    0.562
       229 -10.3919    134.8165     50.8225   6.2617377363e+01   4.5092018294e+01    0.2877225    0.2440766 -76.32  0.001302644    1.410    0.291
       230 -10.8791    105.4857     58.1559   7.3057185804e+01   5.0548077390e+01    0.4640152    0.2908394  47.14  0.002142714    1.613    0.380
       231 -10.9347    137.9454     33.4489   5.5961694439e+01   4.6789082658e+01    0.5605592    0.3479738 -59.37  0.001806113    2.187    0.543
       232 -11.5149    156.8241     52.9437   5.8466559751e+01   3.9317848416e+01     1.007242     0.480635 -46.13  0.003871914    2.294    0.564
       233 -11.1079    148.9233    238.1186   1.0225278682e+02   4.6441297607e+00    0.3821318    0.1834962  40.57  0.001650942    1.708    0.415
       234 -10.8492    197.9351    233.0067   9.2009682615e+01  -2.4691770996e+00    0.3014698    0.2590347 -82.50  0.001891628    1.964    0.491
       235  -9.6787    205.2240    234.1112   9.0815235319e+01  -3.7621225600e+00    0.1587213    0.1315062  37.51  0.001045237    1.291    0.225
       236 -10.0096    157.2562     20.4029   4.8048573519e+01   4.3481318108e+01    0.3798138    0.1883956  58.45   0.00168296    1.777    0.437
       237 -10.8668    155.8507     42.0483   5.5203961013e+01   4.1156292582e+01    0.5053559    0.4154515   4.61  0.002612562    1.440    0.305
       238 -11.7244    153.0934     36.0120   5.3789482404e+01   4.2667392394e+01    0.3989826    0.3320184  53.04 0.0003969626    1.138    0.122
       239 -11.5784    159.9040     29.8173   5.0585102525e+01   4.1720997357e+01     0.427412    0.3765234 -19.86  0.001091818    1.250    0.200
       240 -12.1412    164.2118     27.7238   4.9215430915e+01   4.0876650104e+01    0.3163538    0.3023064 -65.09 0.0003198273    1.084    0.077
       241  -9.6118    187.7212     55.5539   5.3593910194e+01   3.1109492424e+01    0.2691246    0.2316499  51.57 0.0007542523    1.204    0.169
       242  -9.5637     67.6345     32.0210   7.5690312010e+01   6.2011318422e+01    0.5720078    0.5244314  85.10   0.00353211    1.672    0.402
       243 -10.1064     66.9986     54.4929   8.4756507090e+01   5.8274011176e+01    0.3157118     0.292522 -81.73  0.001103665    1.464    0.317
       244  -9.6885     59.5059     23.9863   7.5334689875e+01   6.4519517410e+01    0.2305666    0.1351894 -25.36 0.0003746967    1.617    0.382
       245 -10.3985    247.4874    232.0139   8.2883622807e+01  -9.6708917262e+00    0.1735957    0.1484336  13.00 0.0009390504    1.297    0.229
       246 -11.1220     60.7072     36.3108   8.0185043151e+01   6.2449060558e+01    0.4020586    0.2337389 -37.32  0.001026911    1.615    0.381
       247  -9.6599     23.6795    231.7421   1.2556991409e+02   2.3329230885e+01    0.2146828    0.1075673  51.08 0.0009010755    1.571    0.363
       248 -10.0510     56.6277     42.1356   8.4169649130e+01   6.2065863573e+01    0.2883797    0.2251132  24.70  0.001062101    1.314    0.239
       249 -11.4526     57.0640     30.6574   7.9271350750e+01   6.3905415391e+01    0.4791091    0.2972405  11.38  0.001957185    1.855    0.461
       250 -11.4236     48.7040     30.4929   8.2718274378e+01   6.5131858292e+01    0.6196088    0.2686254  28.58   0.00282468    2.528    0.604
       251 -10.9543    240.4550     50.1259   4.5090560241e+01   1.9351486502e+01     0.478625    0.3318327 -16.02  0.002471174    1.893    0.472
       252  -9.4615    212.0079     53.0084   4.9273673730e+01   2.5506217510e+01    0.2426368    0.1579185 -66.36  0.001141605    1.703    0.413
       253 -11.1740    201.8523     48.8663   4.9592723732e+01   2.8577806815e+01     0.739278    0.3689728 -43.23  0.003179373    1.902    0.474
       254 -10.9247    200.1903     45.1624   4.8831454070e+01   2.9512142261e+01    0.6058249    0.2933975  71.09  0.002486557    2.207    0.547
       255  -9.4680    176.4930     43.4990   5.1966399845e+01   3.5704256247e+01    0.3016917    0.2206772 -88.17  0.001111438    1.528    0.346
       256 -12.7632    119.4396     37.6175   6.1735033197e+01   5.0683222999e+01    0.8206604    0.6113922  87.47  0.002953851    1.886    0.470
       257  -9.6735     15.1631    233.7050   1.2715259506e+02   2.3842739868e+01    0.1983526    0.1258583 -82.58  0.001290018    1.428    0.300
       258  -9.0551    190.1415    229.8136   9.2991899352e+01  -7.6242665547e-01    0.1784649    0.1308843  14.42  0.001062429    1.336    0.252
       259  -9.5799    108.4764    230.0307   1.0928149956e+02   1.2480638597e+01    0.1699674    0.1226412 -66.34  0.001024689    1.569    0.363
       260  -9.9452    234.1563    223.0653   8.3678322404e+01  -6.6560344766e+00    0.1983359    0.1382187   6.58  0.000747944    1.293    0.226
       261  -8.9289    209.3279    223.3360   8.8274866645e+01  -2.8920140625e+00    0.1330393   0.08626511   6.59 0.0007051853    1.725    0.420
       262  -9.5220      9.9993    217.9788   1.2726107523e+02   2.7392837618e+01    0.1377775   0.09799116  76.66 0.0005842163    1.028    0.028
       263 -10.4550    165.1214    212.2712   9.5164833906e+01   6.2756917697e+00    0.2830327    0.1866954  47.01  0.001488064    1.444    0.308
       264  -9.5914    153.0710    207.8133   9.6961595217e+01   9.1873396187e+00    0.2111098    0.1760982  58.11 0.0008241561    1.256    0.204
       265  -9.6945     61.0688    206.9265   1.1652670229e+02   2.3917807194e+01    0.1924151    0.1525335  70.71 0.0004955028    1.036    0.035
       266 -10.1790    238.3506    204.6083   7.9613979662e+01  -4.7754637609e+00    0.2468356    0.1453608 -28.36  0.001353602    1.621    0.383
       267 -12.1028      4.8956    184.2816   1.2633148537e+02   3.4862228239e+01    0.6020473    0.4202847  79.61  0.003368883    1.095    0.087
       268  -9.9265    162.8539     43.9030   5.4469134127e+01   3.9119984878e+01     0.408505    0.2480078  60.48  0.001853044    1.569    0.363
       269 -10.8785    174.0785     47.9085   5.3680620164e+01   3.5692700119e+01    0.5841637    0.4445333  81.79  0.002922904    1.394    0.283
       270 -10.7268    138.2125     44.6045   5.9721268837e+01   4.5198637711e+01    0.5987133    0.2508642  40.81  0.002102306    2.773    0.639
       271  -9.3261    132.4600     45.4956   6.1353659079e+01   4.6468050716e+01    0.2699104    0.1620993  38.46   0.00100082    1.756    0.431
       272 -10.5138     91.0963     47.8642   7.3799018707e+01   5.5232157728e+01    0.3823249    0.2248544 -30.48  0.000988076    1.701    0.412
       273  -9.1749    234.1748     44.6425   4.4488949355e+01   2.1514624390e+01    0.1799514    0.1170241  58.91 0.0004842947    1.651    0.394
       274  -9.3859     94.9637     36.2016   6.8045093245e+01   5.6269717662e+01    0.2153994    0.1960655 -40.97  0.001267875    1.269    0.212
       275  -9.2320    101.4964     44.4980   6.9268244819e+01   5.3661510611e+01    0.2141336    0.1821575 -67.74 0.0009937144    1.560    0.359
       276 -11.0583     94.4775     41.2300   7.0171209047e+01   5.5619945834e+01    0.6969413    0.3088625  47.59  0.002880052    2.223    0.550
       277 -10.3934    189.1933     41.3920   4.9375455087e+01   3.2777950974e+01    0.6326082     0.252493 -23.55  0.002035677    3.307    0.698
       278  -9.6630    193.6832     38.9730   4.8057042580e+01   3.1977328246e+01    0.2348935    0.1895621  75.21 0.0003742616    1.189    0.159
       279 -10.3148     86.1090     30.6550   6.8601746532e+01   5.8836775869e+01       0.4028    0.2417752 -13.88  0.001921661    1.909    0.476
       280 -10.3508     81.5502     40.0341   7.3958878800e+01   5.8317099032e+01    0.6519632    0.3185902  40.79  0.002919052    2.021    0.505
       281 -10.0343     78.1191     34.8792   7.3060702207e+01   5.9742356348e+01    0.6217346    0.4002503 -27.20  0.003176071    1.507    0.336
       282 -10.5790     81.7513     31.7334   7.0499980331e+01   5.9527005958e+01    0.4414579    0.2982966 -57.12  0.002114923    2.384    0.580
       283  -9.8874    231.5222     38.5837   4.3335712329e+01   2.2934992043e+01     0.305373    0.1874304 -50.60   0.00158181    1.468    0.319
       284  -9.6398    228.2219     37.1692   4.3349806281e+01   2.3879212707e+01    0.2211111    0.1782446 -65.53 0.0007150486    1.110    0.099
       285  -8.9405    217.5028     39.4627   4.5120662937e+01   2.6086508240e+01    0.1371434    0.1232601 -71.62 0.0001649517    1.018    0.018
       286 -11.2843      6.8916    194.8869   1.2657210599e+02   3.2416078204e+01    0.7654485    0.1049126 -68.11  0.002792235    4.637    0.784
       287 -11.0613    176.8410     36.1842   4.9756048727e+01   3.6601222095e+01    0.4044198    0.3707295  25.54   0.00157999    1.240    0.194
       288  -9.9405    171.7643     32.9928   4.9607979891e+01   3.8304096360e+01    0.3807722     0.197611  65.82  0.001645775    1.831    0.454
       289 -10.5875    177.0620     29.8224   4.7855096014e+01   3.7349575264e+01     0.489881    0.2255528  48.00  0.001642882    2.298    0.565
       290 -10.0770     16.8642    203.3049   1.2514418699e+02   2.9717241926e+01    0.3006701   0.08478086 -67.34  0.001359881    3.013    0.668
       291  -9.7722    132.9867     36.8286   5.8217082326e+01   4.7561861206e+01    0.3595765    0.2304724 -60.08  0.001579513    2.148    0.534
       292  -9.5630    206.9729     37.0344   4.5778056055e+01   2.8947533680e+01    0.2131149    0.1947638 -79.07 0.0007610797    1.026    0.025
       293 -10.8923    245.5971    200.7276   7.7615354367e+01  -5.3371613757e+00    0.2189969    0.1737631   5.85 0.0007010855    1.055    0.052
       294 -10.4452    234.1073    196.9935   7.8938957997e+01  -3.0140860117e+00    0.3638933    0.2681805   8.67  0.001536841    1.259    0.206
       295 -12.2760    106.0073     32.7243   6.3445209858e+01   5.4396038976e+01    0.5349985    0.3196405  18.12  0.001251833    2.244    0.554
       296 -12.2226    113.7063     25.1489   5.8491364832e+01   5.3614789978e+01    0.7837862    0.3671066  50.51  0.002713196    1.900    0.474
       297 -11.5235    240.1507     31.3139   4.0779450093e+01   2.1937841939e+01    0.6087068    0.3613445 -31.60  0.003198756    1.700    0.412
       298  -9.5575    215.9825     33.0184   4.3679233824e+01   2.7292957206e+01     0.358102    0.2168571  14.67  0.001388153    3.659    0.727
       299 -10.7297    198.0305     29.1387   4.4807185621e+01   3.2156538737e+01    0.4708294    0.4041346 -32.11  0.002100917    1.262    0.207
       300 -10.6668    189.1649     28.2424   4.5704900305e+01   3.4480786246e+01    0.5225902    0.3409179  12.26  0.002334123    2.491    0.599
       301  -8.7917     83.6296    195.8341   1.1043981657e+02   2.3161670258e+01    0.1766589    0.1166971 -82.13 0.0005790259    1.582    0.368
       302  -9.2614    199.6958     24.6744   4.3414393994e+01   3.2284978043e+01    0.1987205    0.1969261  13.14 0.0006308026    1.204    0.169
       303  -9.3411    221.5488     29.8201   4.2279226941e+01   2.6379288238e+01    0.1969533    0.1249059 -34.18   0.00101891    1.565    0.361
       304  -9.2940     99.5184     30.4545   6.4391177122e+01   5.6108469260e+01    0.2411189    0.2009102  81.35  0.001107396    1.625    0.385
       305  -9.7615     97.9497     26.5307   6.3263678354e+01   5.6950492315e+01    0.2347843    0.2227071 -39.92  0.001444675    1.249    0.200
       306 -10.2291    230.6653     27.0505   4.0695637282e+01   2.4609572175e+01    0.3359354     0.192253 -43.96 0.0009610152    1.556    0.357
       307 -10.8493    245.2709     51.2768   4.4835301251e+01   1.8138144057e+01    0.4810519    0.2346185  83.44   0.00201976    2.826    0.646
       308  -9.7435    250.5095     26.4840   3.8784175090e+01   2.0288805422e+01    0.2550083     0.112619 -33.11  0.001201448    2.137    0.532
       309  -9.9715    169.9957    191.3747   9.0524509988e+01   9.1788113455e+00    0.4129833    0.1939414  31.83  0.001338269    2.342    0.573
       310 -11.0676    211.3137     18.9008   4.0645111554e+01   3.0126876337e+01    0.2284487    0.1952741  89.90 0.0002982622    1.065    0.061
       311  -8.5448    206.2509     25.6479   4.2907849086e+01   3.0559578713e+01    0.1425081   0.08918195 -59.36 0.0003138874    1.595    0.373
       312  -9.2467     44.9834     24.3732   8.1663265771e+01   6.6596230985e+01    0.1964407    0.1552809 -35.21 0.0006827297    1.342    0.255
       313  -9.4442    168.8206     23.9088   4.7329078791e+01   4.0149063826e+01    0.2171763    0.1797969  41.55 0.0006568946    1.288    0.224
       314 -10.0868    239.3892    185.2720   7.5718432266e+01  -2.1182939128e+00    0.4099685    0.2248485 -11.63  0.001829906    2.412    0.585
       315 -10.3672     86.0698     23.9335   6.5784214682e+01   5.9734279751e+01    0.1946804    0.1667334  16.70  0.001178127    1.023    0.023
       316 -10.1512    250.4747    178.4569   7.2445115190e+01  -2.8828019824e+00    0.4113728    0.1140938 -35.14  0.001498259    3.308    0.698
       317  -9.6941     28.0429    176.1395   1.2078685400e+02   3.4552110575e+01    0.2243477    0.1525625 -87.08  0.001375835    1.218    0.179
       318  -9.3136    223.5213     22.0255   4.0194031889e+01   2.6869633996e+01    0.2053218    0.1553416  82.36 0.0005611464    1.242    0.195
       319 -10.1424     52.0373    173.7115   1.1503072369e+02   3.2457759328e+01    0.4238744    0.1907847 -88.12  0.001689329    2.901    0.655
       320  -9.6906     74.4955     19.5445   6.7710187739e+01   6.2515142861e+01    0.2327786    0.1740566  31.86 0.0006967873    1.214    0.176
       321  -9.8405    247.7007    173.9493   7.2004452889e+01  -1.7578500694e+00     0.439095    0.1610533  29.72   0.00148913    4.274    0.766
       322  -9.7042    231.5119    175.3906   7.5136405455e+01   7.4125316048e-01    0.3694615    0.1231092  41.24  0.001392164    3.047    0.672
       323  -9.9284     39.2313    173.4052   1.1798586824e+02   3.4007667739e+01    0.2514935    0.1907243  65.87  0.001567011    1.197    0.165
       324 -10.7113     35.2554    170.0362   1.1856669538e+02   3.5215847570e+01    0.3381086    0.2105124 -87.14  0.001391997    1.420    0.296
       325 -10.5717      8.5747    157.5139   1.2363416535e+02   4.0560285955e+01    0.3433201    0.1873969 -72.95 0.0006469761    1.469    0.319
       326 -11.7288      9.5649    166.7453   1.2413431700e+02   3.8370663663e+01    0.4843885    0.3448617  80.51  0.002056639    1.140    0.123
       327 -11.3014     13.7627    159.7284   1.2261308560e+02   3.9631995890e+01    0.4353347    0.2335221 -74.08  0.001428612    1.503    0.335
       328  -9.0393    198.1416    167.8591   7.9964752685e+01   8.1825085374e+00    0.2011843    0.1624374  -3.94 0.0007436518    1.305    0.234
       329  -9.5561    188.8062    164.0193   8.1073910730e+01   1.0738756623e+01    0.2867337    0.1887667 -15.48 0.0007681671    1.991    0.498
       330  -8.7112    152.4156    166.5320   8.9640966638e+01   1.7519346230e+01    0.1461411    0.1424536  30.03 0.0001360647    1.015    0.015
       331 -10.3676     18.8378    165.0323   1.2189649350e+02   3.7970255326e+01    0.2847889    0.2370153 -67.38  0.001449663    1.274    0.215
       332 -10.1344    205.1446    163.0117   7.7526757513e+01   7.7047676015e+00    0.3088158    0.2027949  30.87 0.0005836458    1.581    0.367
       333  -9.3261     40.1436    162.8315   1.1663917670e+02   3.6383401420e+01     0.376501    0.1381678 -85.33  0.001256644    4.070    0.754
       334 -10.3834     28.0624    161.9246   1.1944838112e+02   3.7836058908e+01    0.3749785    0.1691187 -64.69  0.001862794    1.886    0.470
       335 -10.4092    186.3859     15.1304   4.2419271213e+01   3.6676065578e+01    0.2545671    0.2131323  82.05  0.000409005    1.074    0.069
       336  -9.2983      6.0296     16.3165   9.7768112863e+01   7.1816499047e+01    0.1510467    0.1155382 -17.43 0.0004406224    1.127    0.113
       337  -9.4708     79.1173    160.2567   1.0654739773e+02   3.2006593631e+01    0.2745884    0.1696114  84.77  0.001221258    2.053    0.513
       338  -9.2403    205.4688     17.4780   4.0893925434e+01   3.1701823384e+01    0.1337586     0.117483 -81.61 0.0001036048    1.012    0.012
       339 -10.2556    246.4501    158.7763   6.9067812451e+01   8.1201022044e-01    0.3378251      0.11924 -33.68  0.001301661    2.621    0.618
       340  -9.4558    215.2705    158.3191   7.4543492677e+01   6.5851778486e+00    0.2743031    0.1642883 -26.10  0.001021695    1.754    0.430
       341  -9.4437    223.8123    156.8224   7.2620570789e+01   5.2199338931e+00     0.184081    0.1685014 -51.69 0.0006962587    1.299    0.230
       342 -10.1650     21.7587    155.6266   1.2034033121e+02   3.9900443939e+01    0.3624311    0.2074782  16.29   0.00191949    2.532    0.605
       343 -12.0735     23.0312    149.0815   1.1936394664e+02   4.1334552681e+01    0.5818743    0.3056182 -40.65  0.001852746    2.641    0.621
       344 -10.8315     15.6654    147.7807   1.2106798306e+02   4.2265951080e+01    0.3283802    0.2436458  78.38  0.001055164    1.205    0.170
       345 -11.7230     12.4218    139.0479   1.2102190063e+02   4.4581855196e+01    0.7257965    0.4194267 -83.17  0.004018764    1.440    0.306
       346 -10.5961    104.5091    154.0544   9.8939011740e+01   2.9393824512e+01     0.375215    0.3237848 -67.19  0.002020915    1.132    0.117
       347 -10.8500     31.8011    153.2087   1.1761632926e+02   3.9533556498e+01    0.4616699    0.2946082  88.19  0.002578923    1.446    0.308
       348 -11.8419      3.7941    147.3758   1.2393156466e+02   4.3256137277e+01    0.7157614    0.3781201 -78.78  0.003209859    1.477    0.323
       349 -11.9177      3.3491    139.1389   1.2333330760e+02   4.5202269300e+01    0.6391315    0.2770323 -76.52  0.003284862    1.795    0.443
       350 -11.1104     63.3521    150.6429   1.0914877331e+02   3.6540570706e+01    0.5021216    0.3636461  -6.37  0.002398824    2.221    0.550
       351 -11.2251     46.8583    148.0218   1.1311385500e+02   3.9195681970e+01    0.7391921    0.3446054 -62.59  0.003436439    1.842    0.457
       352  -9.0158     41.6870    148.9911   1.1459158641e+02   3.9530921041e+01    0.1849571    0.1656601  54.81  0.001184547    1.221    0.181
       353  -9.9793    215.2353    151.0471   7.2947953029e+01   7.8851011886e+00    0.2084825    0.1843203 -20.65  0.001163894    1.049    0.047
       354  -9.7501     70.9333    151.1717   1.0723115599e+02   3.5382685657e+01    0.2872901    0.1874976  35.81 0.0008776336    1.645    0.392
       355  -9.5536    234.3615    150.3503   6.9319590296e+01   4.3490572979e+00    0.2248517    0.1586873  -0.34  0.001011256    1.669    0.401
       356  -9.9232    239.8430    146.7159   6.7583161476e+01   3.9451618978e+00    0.2338539    0.1740674 -20.16 0.0006110626    1.264    0.209
       357 -10.9039    249.5872    142.8509   6.5135843408e+01   2.8151313232e+00    0.6204091    0.2267345 -35.90  0.002458483    2.403    0.584
       358  -9.7720    107.3294    145.9657   9.6623414031e+01   3.0820028256e+01    0.2435464    0.2123495  45.38 0.0004213908    1.163    0.140
       359  -9.0475    161.8042     47.8297   5.5886033551e+01   3.8824004966e+01      0.24511    0.1746494 -39.51 0.0004274118    1.430    0.301
       360 -10.9298    133.4481    141.4014   8.8872739016e+01   2.6885103976e+01    0.3457359    0.2921646 -57.54  0.001732961    1.199    0.166
       361 -10.4011     22.9697    127.0181   1.1681247654e+02   4.6632159239e+01    0.2681197    0.1785316  45.54 0.0003272579    1.665    0.399
       362 -11.7274     23.4821    135.0519   1.1767099352e+02   4.4652853513e+01     0.911659    0.4159549  50.03  0.004353182    2.432    0.589
       363 -12.4341     30.0953    132.8957   1.1559803407e+02   4.4590739776e+01    0.4157945     0.293119 -88.57 0.0003095016    1.308    0.235
       364  -9.5567     81.8219    135.3921   1.0147366214e+02   3.7649379533e+01    0.2615833     0.150431  20.35  0.001059559    2.530    0.605
       365 -10.5115     67.5689    135.7447   1.0554934534e+02   3.9631563896e+01    0.3680811    0.2510632 -41.60 0.0009568714    1.636    0.389
