#   1 NUMBER                 Running object number                                     
#   2 MAG_AUTO               Kron-like elliptical aperture magnitude                    [mag]
#   3 X_IMAGE                Object position along x                                    [pixel]
#   4 Y_IMAGE                Object position along y                                    [pixel]
#   5 X_WORLD                Barycenter position along world x axis                     [deg]
#   6 Y_WORLD                Barycenter position along world y axis                     [deg]
#   7 A_WORLD                Profile RMS along major axis (world units)                 [deg]
#   8 B_WORLD                Profile RMS along minor axis (world units)                 [deg]
#   9 THETA_WORLD            Position angle (CCW/world-x)                               [deg]
#  10 FWHM_WORLD             FWHM assuming a gaussian core                              [deg]
#  11 ELONGATION             A_IMAGE/B_IMAGE                                           
#  12 ELLIPTICITY            1 - B_IMAGE/A_IMAGE                                       
         1  -8.6422     55.7757     10.2360   6.3970344375e+01   6.6844585170e+01    0.1862562    0.1827352  73.75 0.0007886511    1.499    0.333
         2  -8.3543     90.6116      8.8045   5.2377673127e+01   6.0200028154e+01     0.169743    0.1117312 -33.74 0.0005476349    1.721    0.419
         3  -7.7890    101.4140      8.1992   4.9532804113e+01   5.7887316611e+01    0.1615873    0.1159261 -35.55  0.000490871    1.593    0.372
         4  -7.6651      5.6699      8.2962   8.7560775197e+01   7.3638413981e+01   0.09020906   0.08610886   4.84 0.0003112312    1.636    0.389
         5  -8.5824     33.3785      4.9777   7.0771848880e+01   7.0931095282e+01     0.270821     0.151102 -43.74   0.00145671    2.652    0.623
         6  -8.5526     79.0360      4.0149   5.3389665591e+01   6.3032939892e+01    0.2423867    0.1421131 -44.53 0.0009137139    2.346    0.574
         7  -8.1180    115.3117      3.5281   4.4895443730e+01   5.5095019017e+01    0.2114029    0.1181849 -18.58  0.001083448    2.032    0.508
         8  -7.6165     15.7026      2.7072   7.8696602098e+01   7.3426557728e+01    0.1136453    0.0682316  -4.91 0.0002276213    1.562    0.360
         9  -8.3571     62.4408      1.4662   5.7254938199e+01   6.6489820531e+01    0.1809208     0.112815  62.57 0.0006246215    1.994    0.499
        10  -7.7535     39.2016      1.4121   6.6158521055e+01   7.0456880667e+01    0.1431434    0.1031774  45.00 0.0004154392    1.598    0.374
        11  -9.1103    210.8570    246.2923   8.6820061619e+01  -6.3296592539e+00    0.2156234    0.1668184 -50.61  0.001017322    1.918    0.479
        12  -9.4976    246.6926    228.3915   7.7526380286e+01  -8.8499781068e+00     0.489819     0.205201 -28.55  0.002449309    2.323    0.570
        13 -10.0418    248.6104    243.0300   7.9663784303e+01  -1.0930863552e+01    0.6990007    0.1754388 -36.87  0.002907175    3.991    0.749
        14  -9.1046    247.8197    234.7573   7.8420410228e+01  -9.8110230005e+00    0.2427003     0.170994 -11.67 0.0007893461    1.195    0.163
        15  -8.6502    232.9215    247.8642   8.3132974368e+01  -9.5242987734e+00     0.265741    0.1579938 -48.30  0.001473496    2.774    0.640
        16  -8.2356    191.3342    249.8034   9.0971375466e+01  -4.0083131244e+00    0.1537131    0.1524353  89.87 0.0007171155    1.440    0.305
        17  -8.1557    184.0138    250.5000   9.2452875220e+01  -3.0307916327e+00    0.1894824    0.1006097  35.43 0.0006258658    1.577    0.366
        18  -8.4114     93.8245    249.4928   1.0988470080e+02   1.0697990369e+01    0.2311454    0.1241532  67.47   0.00111518    2.287    0.563
        19  -8.7862    169.3394    247.4228   9.4819333866e+01  -3.7051499554e-01    0.2417674    0.1028677  33.52  0.001125488    2.077    0.518
        20  -9.2404    146.9734    246.0497   9.9008898135e+01   3.2906403389e+00    0.2639917    0.1961717  85.64  0.001351901    2.037    0.509
        21  -9.3171    120.1663    245.4866   1.0426164802e+02   7.5138523204e+00    0.3409842    0.2089146  70.30  0.001728782    2.254    0.556
        22  -8.7293     67.5694    244.7529   1.1452372501e+02   1.5203074940e+01    0.2512158    0.1113354 -73.43  0.001165927    2.491    0.599
        23  -8.8406    139.2896    244.4424   1.0032220483e+02   4.7495462730e+00     0.197205    0.1501285  87.02  0.000793446    1.815    0.449
        24  -8.8419    201.9714    243.4800   8.8019007445e+01  -4.6725086774e+00     0.193859    0.1687451 -48.87 0.0007378039    1.602    0.376
        25  -8.7034    168.9869    243.4159   9.4313329546e+01   3.0091691347e-01    0.1933402     0.177735 -87.04 0.0005698333    1.470    0.320
        26  -9.1244     77.9865    243.7310   1.1241648364e+02   1.3988236521e+01    0.2838099    0.1365014  64.74  0.001352649    2.409    0.585
        27  -7.6544     58.3240    244.6361   1.1627833720e+02   1.6428537541e+01    0.1305955     0.068728  64.87 0.0007039933    1.790    0.441
        28  -7.5376     34.3152    244.6544   1.2074038135e+02   1.9333823810e+01    0.1250184    0.0623522  64.64 0.0002846871    1.717    0.418
        29  -8.6561      9.4889    243.4567   1.2507858055e+02   2.2227014372e+01    0.2450438   0.06700538  83.08 0.0008096677    6.047    0.835
        30  -8.7669    213.6711    242.5347   8.5713027746e+01  -6.2198560946e+00    0.2468129    0.1906734  42.22  0.001345326    1.546    0.353
        31  -8.4091    195.9747    242.9856   8.9065305138e+01  -3.7231576737e+00    0.1979245    0.1655459 -12.97 0.0005997813    1.213    0.176
        32  -8.5902    194.0115    239.7080   8.8926699683e+01  -2.9559920214e+00    0.1776254    0.1540852  36.83 0.0004490531    1.278    0.218
        33  -9.4775    160.2074    240.6400   9.5641851009e+01   2.1085388292e+00    0.3483102    0.2511463 -82.26  0.001613825    2.404    0.584
        34  -9.2222    183.1890    240.2890   9.1089095511e+01  -1.4027847470e+00    0.3797419    0.2504753  62.27   0.00190927    2.642    0.622
        35  -8.1271    153.4001    242.1709   9.7208930408e+01   2.9255890558e+00    0.1545768    0.1217401 -70.83 0.0007006686    1.722    0.419
        36  -8.0225     88.3766    242.2849   1.1023420037e+02   1.2802796585e+01    0.1561334     0.107937 -88.36 0.0005377142    1.589    0.371
        37  -8.5268    146.6030    240.2064   9.8295538757e+01   4.3198965703e+00    0.3075119    0.1842223  62.05   0.00092375    2.393    0.582
        38  -9.1634    241.5966    238.5281   8.0111594608e+01  -9.4847503788e+00    0.4275557     0.187313 -13.37  0.001658914    4.284    0.767
        39  -8.7948    208.6427    239.5711   8.6162297628e+01  -5.0933220432e+00    0.2244666    0.1365596 -28.35  0.001300434    1.715    0.417
        40  -9.3292    135.8677    239.2623   1.0033126814e+02   6.1718346253e+00    0.3235895    0.1720267  55.79  0.001211029    2.226    0.551
        41  -8.8187    129.0561    238.7702   1.0164695129e+02   7.3268339671e+00    0.2132928    0.1628176 -89.28  0.001032714    1.680    0.405
        42  -9.0403    230.8399    237.2188   8.1765720558e+01  -7.8890989705e+00    0.2337152    0.1996458 -59.39  0.001207349    2.091    0.522
        43 -10.0156    215.1071    233.5890   8.3995516153e+01  -5.1893377571e+00    0.5056147    0.3805859 -80.34  0.002445891    3.782    0.736
        44  -8.7755    203.0811    234.7326   8.6418577079e+01  -3.5857252684e+00    0.2376627    0.1746856 -53.97  0.001027716    1.990    0.498
        45 -10.0768    175.8219    233.7252   9.1519074702e+01   7.6342298205e-01    0.4471951    0.2367386 -54.59  0.002141525    2.652    0.623
        46  -7.7277     57.9627    237.0000   1.1573344730e+02   1.7954553584e+01    0.1922905   0.05931108  36.12 0.0008028096    2.945    0.660
        47  -9.3401    108.9983    234.3993   1.0520353096e+02   1.1237430462e+01    0.4592293    0.2308403  53.98  0.001845709    2.004    0.501
        48  -8.4047     99.8380    234.7092   1.0711847477e+02   1.2564292271e+01    0.2418998    0.1469924  76.12  0.001222015    2.124    0.529
        49  -9.1680     78.7697    234.6073   1.1139077096e+02   1.5636043371e+01    0.2387854    0.1515696  87.13  0.001035964    1.731    0.422
        50  -9.0597      8.1557    234.8452   1.2489869422e+02   2.4024467134e+01    0.1384443     0.112515 -88.19  0.000597043    1.294    0.227
        51  -8.2317    122.9286    234.1513   1.0230665638e+02   9.1224568483e+00     0.205009    0.1527082  62.59 0.0007383719    1.397    0.284
        52  -9.6891     68.1510    231.6752   1.1324971256e+02   1.7675108052e+01    0.5308079    0.2669318  82.41    0.0024733    2.616    0.618
        53  -8.2129    194.5426    232.7897   8.7725473602e+01  -2.0062703498e+00     0.148618    0.1214674 -48.81 0.0005405939    1.578    0.366
        54  -8.4862    144.9755    233.4737   9.7689587733e+01   5.7361196580e+00    0.2182016    0.1343119  69.81 0.0009721295    2.836    0.647
        55  -8.6889    140.0838    230.2110   9.8234363972e+01   7.1034546252e+00    0.3419795    0.1895972  58.91   0.00143995    2.405    0.584
        56  -8.7322    132.7274    232.8692   1.0011970066e+02   7.8048704686e+00    0.2202225    0.1730863  86.11 0.0009870959    1.602    0.376
        57  -9.0258    236.1365    230.9724   7.9786489089e+01  -7.7814909265e+00    0.2130734    0.1707453 -25.73 0.0006840242    1.337    0.252
        58  -9.4086    186.4348    230.6539   8.8949970692e+01  -4.2032533160e-01    0.3108887    0.2447704 -75.78  0.001310702    2.176    0.540
        59  -8.3110    157.6878    232.3502   9.4939818478e+01   3.8852345989e+00    0.1922998    0.1439069  63.65   0.00107823    1.706    0.414
        60  -8.3938     92.2134    231.6522   1.0834282982e+02   1.4287330552e+01    0.2921636    0.1311443  65.19 0.0009466163    3.628    0.724
        61  -8.7029      1.8812    231.1616   1.2583780186e+02   2.5352929815e+01    0.1821835    0.1044721  66.77 0.0007304914    1.320    0.242
        62  -9.1978    151.3272    229.0018   9.5741744965e+01   5.4939625186e+00    0.2570496    0.1901092 -86.17 0.0009746675    2.080    0.519
        63  -9.5047    148.6689    224.6543   9.5643716761e+01   6.7041538411e+00    0.3977987    0.2765663 -83.53  0.001431285    2.355    0.575
        64  -8.0710    229.8301    229.0553   8.0570952929e+01  -6.6543251759e+00    0.1643063      0.14042 -59.85  0.000697698    2.009    0.502
        65  -8.9673    162.2088    227.8009   9.3334400707e+01   3.9296655521e+00    0.2761588    0.2081699  76.63  0.001282368    2.044    0.511
        66  -8.9796    128.0442    227.5171   1.0036646742e+02   9.5416710242e+00    0.2929678    0.1885273  60.43  0.001138744    1.764    0.433
        67  -8.5026    120.0158    227.9774   1.0211117163e+02   1.0737940388e+01    0.2083093    0.1432376  67.26 0.0006283958    1.683    0.406
        68  -9.0646      8.3638    228.1849   1.2452715787e+02   2.5327188796e+01    0.1639376   0.07927409  83.83 0.0007343608    1.769    0.435
        69  -8.0128    223.4658    227.0145   8.1363284041e+01  -5.4679962794e+00    0.1712362    0.1109221 -31.58 0.0004174537    1.535    0.348
        70  -8.1950     49.5964    227.2546   1.1658209397e+02   2.0968959857e+01    0.2132225    0.1117411  66.66  0.001125448    1.836    0.455
        71  -9.0400    205.9462    225.6955   8.4379153458e+01  -2.6784668853e+00    0.2253992    0.1754959 -39.91 0.0007892346    1.483    0.326
        72  -8.0069    200.2044    226.2166   8.5558565619e+01  -1.8765146536e+00     0.153899    0.1463023  32.19 0.0004062058    1.313    0.239
        73  -8.0404    170.3775    236.1221   9.2961994159e+01   1.2381478426e+00    0.1576289    0.1217408 -61.47 0.0006516216    1.762    0.432
        74  -9.0331     94.1551    224.4580   1.0712336883e+02   1.5430232272e+01    0.4326662    0.2097629  64.21  0.001636355    2.847    0.649
        75  -8.7748    180.6562    224.5739   8.9103824477e+01   1.4759314328e+00    0.2589206    0.2009453  59.14 0.0008556948    1.692    0.409
        76  -8.8851    104.8633    223.7640   1.0477106552e+02   1.3937858088e+01    0.3231658    0.2081938  80.31  0.001633092    2.007    0.502
        77  -7.8178     85.3190    225.2768   1.0907463588e+02   1.6567267720e+01    0.1132294    0.1009993  -3.47 0.0003200724    1.574    0.365
        78  -8.2736     38.2164    224.9489   1.1865739341e+02   2.2807849991e+01    0.1803569   0.09782597  60.75 0.0006236622    1.586    0.370
        79  -9.0520    216.4731    223.5315   8.2042223506e+01  -3.9428957603e+00    0.2215162    0.2126818 -66.67 0.0009120594    1.578    0.366
        80  -8.8091    173.0258    223.3905   9.0442686639e+01   2.9140259861e+00    0.2183946    0.1855052 -67.44 0.0006643109    1.574    0.365
        81  -8.2044    113.6096    223.7654   1.0291250372e+02   1.2568016920e+01     0.163588    0.1238384 -78.17 0.0006403369    1.508    0.337
        82  -9.2621    160.2165    221.2088   9.2714183111e+01   5.4080425260e+00    0.5170882    0.2553832  56.66  0.001988305    3.291    0.696
        83  -8.5299    140.1658    222.8407   9.7154909195e+01   8.4396048150e+00    0.2051573    0.1647134  59.48 0.0008483336    1.315    0.240
        84  -9.0795    238.9100    221.5843   7.7678888820e+01  -6.8907823162e+00    0.2109997    0.1591703 -32.05 0.0006392188    1.408    0.290
        85  -9.1459    225.4264    221.8154   8.0108992019e+01  -5.0107359943e+00    0.2335096    0.2093631  36.29  0.001093121    1.440    0.306
        86  -9.8852    226.8704    216.8244   7.8967533800e+01  -4.4985894079e+00    0.2302442    0.1861731  -2.27 0.0003200906    1.038    0.037
        87  -9.2873    192.3719    221.2290   8.6232641231e+01   1.3696025000e-01    0.2812914    0.2463229 -68.87  0.001132295    1.650    0.394
        88  -9.1528      8.8409    222.3678   1.2413323959e+02   2.6461954698e+01    0.1901666   0.09324063  35.39 0.0008467027    2.077    0.519
        89  -8.6166    202.6004    220.3112   8.4095114382e+01  -1.3360950963e+00    0.2121379    0.1200713 -42.10 0.0006832239    1.924    0.480
        90  -9.1744    120.3962    219.2807   1.0085764113e+02   1.2364244123e+01    0.4409627    0.2409055  64.87   0.00184958    2.720    0.632
        91  -8.8365     82.6162    220.5969   1.0912866843e+02   1.7919682974e+01    0.2572236    0.1483639  68.86 0.0007781723    1.960    0.490
        92  -8.2315     73.1578    220.9547   1.1116769438e+02   1.9185113354e+01    0.2203332    0.1223486  74.23  0.001064047    2.114    0.527
        93  -8.2605     27.5916    220.7558   1.2044631828e+02   2.4874237939e+01    0.2168888   0.09420148 -71.70  0.001132882    2.106    0.525
        94  -8.8376    248.7450    218.1057   7.5378379698e+01  -7.7569250806e+00    0.2749081    0.2139124  65.00  0.001553666    2.856    0.650
        95  -8.3047    210.1233    218.9101   8.2422955702e+01  -2.2880314601e+00    0.1749065     0.165555   5.09 0.0004237914    1.260    0.206
        96  -9.3181    132.8674    216.0677   9.7707772979e+01   1.0942233044e+01    0.4665149    0.2828997  73.88  0.001947753    2.924    0.658
        97  -8.4951    112.0301    217.3517   1.0240121211e+02   1.4098006522e+01    0.2627477     0.157864  83.63  0.001143367    2.662    0.624
        98  -8.5824     62.3717    217.5920   1.1310034859e+02   2.1356132378e+01      0.35642    0.1500434  58.42  0.001543765    2.539    0.606
        99  -9.0544     51.7943    217.2607   1.1528153665e+02   2.2787229582e+01    0.3251573    0.1795088  80.00  0.001256879    1.894    0.472
       100  -8.6349    169.3866    216.1133   8.9991834050e+01   4.7768474394e+00     0.271813    0.2153266 -82.48 0.0009794743    1.917    0.478
       101  -8.7352    143.0655    216.5961   9.5599232797e+01   9.1305061733e+00    0.2672406    0.2028339  79.97  0.001321517    1.784    0.439
       102  -8.1732     18.5071    215.9799   1.2191066343e+02   2.6833893351e+01    0.1786262   0.09606167 -82.57  0.001038451    1.608    0.378
       103  -8.8183    232.2203    214.7521   7.7639645598e+01  -4.9784706316e+00    0.2190561    0.1873425 -51.35 0.0009338584    1.715    0.417
       104  -8.3109    154.1800    214.9815   9.2982627954e+01   7.5538708737e+00    0.2003422    0.1758011  69.31 0.0006880712    1.328    0.247
       105  -8.9973     92.9887    214.1153   1.0613103303e+02   1.7739723155e+01    0.3356237    0.1885601  67.05  0.001252002    2.190    0.543
       106  -9.5635     73.3092    212.1604   1.1019609642e+02   2.1032070475e+01    0.6507473    0.2388772  59.18  0.002201645    4.067    0.754
       107  -9.4072    213.7745    212.1906   8.0544324392e+01  -1.8164388250e+00    0.2991503    0.2506028  61.05  0.001706374    1.789    0.441
       108  -8.6715    196.9215    213.4625   8.3998777159e+01   6.6423919625e-01    0.1974634    0.1182021  35.58  0.000792919    1.553    0.356
       109  -8.6426    161.6352    212.5993   9.1020761866e+01   6.7237664141e+00    0.2415563    0.2077827 -87.21 0.0006789939    1.525    0.344
       110  -8.0326    106.4738    212.9424   1.0302065275e+02   1.5888823342e+01    0.1857229    0.1312172 -68.13 0.0006656357    1.531    0.347
       111  -7.9157    224.7811    212.5490   7.8578333426e+01  -3.5556977106e+00    0.1563417    0.1144095  40.62  0.000440513    1.538    0.350
       112  -8.9565    204.2316    210.8258   8.2110992860e+01  -8.8479895477e-02     0.248011    0.1971118 -58.69  0.000732344    1.794    0.442
       113  -9.4649    175.6257    210.0968   8.7683690170e+01   4.7875728485e+00    0.4060674    0.3037614  87.50   0.00141696    2.395    0.583
       114  -9.2762    116.4475    210.6796   1.0050587402e+02   1.4745718378e+01    0.3492209    0.2125277  66.99  0.001128749    2.154    0.536
       115  -9.2823      6.7888    209.5387   1.2381208095e+02   2.9338596790e+01    0.4922233    0.1492326  74.18  0.001728624    4.721    0.788
       116  -8.3562    192.4011    210.7005   8.4399612275e+01   1.8633880002e+00    0.2291805    0.1259862 -46.89 0.0007689365    2.069    0.517
       117  -8.9024    148.0747    210.5906   9.3576275252e+01   9.4260325725e+00    0.2652387    0.2066006  83.45  0.001105045    1.749    0.428
       118  -8.6431     33.0695    210.9931   1.1863265978e+02   2.6351086470e+01    0.3036133    0.1242805  61.88  0.001385136    2.482    0.597
       119  -8.4900     85.5002    209.5171   1.0721348973e+02   1.9845560739e+01     0.313746    0.1682886  69.80  0.001355764    2.469    0.595
       120  -8.4527    185.6803    214.3263   8.6375057085e+01   2.3644040686e+00    0.2161354    0.1603634 -50.99 0.0006580628    1.629    0.386
       121  -9.7565    124.3472    206.3242   9.8106997012e+01   1.4330030551e+01    0.3419396    0.2272343  73.26  0.001607904    2.052    0.513
       122  -7.9138    179.4496    217.5432   8.8178187217e+01   2.8496876634e+00    0.1308599     0.117355  24.10 0.0008061951    1.060    0.057
       123  -9.3487    246.3871    207.4236   7.3846104943e+01  -5.9498349370e+00    0.2419133    0.1880836 -21.43 0.0005673253    1.158    0.137
       124  -9.3876    250.1490    202.2333   7.2252549974e+01  -5.7366672625e+00    0.3702193    0.1670758 -32.59  0.001345408    1.984    0.496
       125  -8.0864    156.4143    208.1915   9.1390884562e+01   8.4447195762e+00    0.1774224    0.1334372 -64.05 0.0006090651    1.653    0.395
       126  -8.5325    139.1053    207.7381   9.5065245636e+01   1.1525996915e+01    0.2310693    0.1871588 -72.99 0.0006569637    1.458    0.314
       127  -9.2824     99.3021    206.0022   1.0367819728e+02   1.8494220430e+01    0.3981302    0.2497645  87.81   0.00149912    2.103    0.524
       128  -8.4884     11.6110    207.1809   1.2271940375e+02   2.9391887535e+01    0.1650844   0.08794135 -70.71 0.0009547714    1.708    0.414
       129  -8.5820    109.0192    205.4585   1.0141465540e+02   1.7054980105e+01    0.2040271     0.179683 -79.67 0.0006620188    1.171    0.146
       130  -9.6033    194.8873    203.2915   8.2567244787e+01   2.7067182211e+00    0.4328656    0.3168603 -29.34  0.001088248    1.371    0.271
       131  -9.2468    192.4192    197.2772   8.1941257487e+01   4.1765586718e+00    0.3324652    0.2207682 -45.82 0.0008467714    1.633    0.388
       132  -8.9664    183.8955    204.0355   8.4914405768e+01   4.4491530790e+00     0.313262    0.2479671  73.81 0.0009918017    1.931    0.482
       133  -7.8308     92.3387    205.6319   1.0519604000e+02   1.9656907520e+01    0.1488571   0.09280311  69.21 0.0007027408    1.847    0.458
       134  -8.9091     55.9399    204.9424   1.1322631585e+02   2.4947548555e+01    0.2316936    0.1545273  89.96  0.000777479    1.421    0.296
       135  -9.1214    236.6680    208.6583   7.5748608331e+01  -4.7379278226e+00    0.2626729    0.2164244 -60.10  0.001059679    2.006    0.501
       136  -9.6857    163.7199    203.0613   8.8949573620e+01   8.1415368969e+00    0.3835357    0.2884142  62.25 0.0008913688    1.667    0.400
       137  -8.6883    131.0041    203.9839   9.6257872424e+01   1.3678375138e+01    0.2764419    0.1976207  69.13 0.0008800065    1.722    0.419
       138  -8.4679    211.0352    202.2977   7.9247111187e+01   1.9704102422e-01    0.2180691    0.1846545 -60.09  0.000652707    1.664    0.399
       139  -9.1066    243.0427    200.8941   7.3203979432e+01  -4.5251184548e+00    0.2843657    0.1654752 -36.42 0.0009716946    1.629    0.386
       140  -8.1418    222.3314    201.5711   7.7003003117e+01  -1.4917672387e+00    0.2297093    0.1064475 -49.46  0.000777425    3.072    0.674
       141  -9.0319    140.2511    200.9808   9.3708418821e+01   1.2685730630e+01    0.3317173    0.2405939 -88.63  0.001418409    1.980    0.495
       142  -8.7171     79.9193    201.2749   1.0745048319e+02   2.2479904540e+01    0.3380581    0.1875623  77.99  0.001421845    2.442    0.590
       143  -7.8022     73.2236    202.3998   1.0910302785e+02   2.3189582343e+01    0.1903803    0.1057398  49.14 0.0007756675    1.651    0.394
       144  -9.0045    124.0481    199.3616   9.7089540547e+01   1.5838299823e+01    0.3515163    0.2271564 -79.67  0.001232434    2.171    0.539
       145  -9.0668    237.1031    198.5939   7.3797311650e+01  -3.3025248543e+00    0.2937322    0.1592992 -44.57  0.001065497    2.096    0.523
       146  -9.5095    149.4835    198.5999   9.1257724605e+01   1.1533445416e+01    0.4180616    0.2899877 -83.75  0.001169006    2.334    0.571
       147  -9.7052    112.7237    198.5283   9.9548202393e+01   1.7935327794e+01    0.4863302    0.2784907  65.73  0.001717547    2.416    0.586
       148  -9.2552     88.5828    198.5900   1.0511975867e+02   2.1787318679e+01    0.3825949    0.2365912  84.34   0.00160374    2.039    0.510
       149  -8.5251    177.0466    199.0498   8.5418127065e+01   6.5437787782e+00    0.2049292    0.1959697  19.62 0.0004902752    1.088    0.081
       150  -8.3029    202.1322    197.6972   8.0096668591e+01   2.4417585139e+00     0.219643    0.1789509 -46.12 0.0007429007    1.407    0.289
       151  -9.1697     61.6829    197.0761   1.1110512798e+02   2.5972836219e+01    0.4631015    0.2253894  65.09  0.001498218    2.461    0.594
       152  -8.4803     12.6960    197.6843   1.2188170952e+02   3.1367116219e+01    0.2563001    0.1054567  77.97  0.001150667    2.541    0.606
       153  -9.6173    245.9131    193.8697   7.1386587121e+01  -3.9008607394e+00    0.3737235    0.2632877 -58.99  0.001958836    2.518    0.603
       154  -8.7146    215.7970    195.6819   7.7097596915e+01   5.0508412343e-01    0.2490059    0.1712296 -46.82 0.0008255829    1.680    0.405
       155  -8.1829    133.0309    196.0010   9.4498197369e+01   1.4986078756e+01    0.2173073    0.1661644  76.07  0.000524272    1.614    0.380
       156  -8.1082     53.3749    196.1949   1.1289449988e+02   2.7247847096e+01    0.1863005    0.1078339 -87.86 0.0006501498    1.749    0.428
       157  -8.8088    224.4406    193.9414   7.5166442794e+01  -6.1113764876e-01     0.282498    0.1762125 -43.67  0.001477185    1.728    0.421
       158  -8.9943    185.1492    194.5831   8.2909321216e+01   5.9332772492e+00    0.2813891    0.2108261 -58.26 0.0006729683    1.694    0.410
       159  -8.9278    160.7659    194.2658   8.8012098313e+01   1.0368666715e+01    0.2791892    0.2228371 -75.39 0.0007955176    1.652    0.395
       160  -8.0645    230.7837    194.3752   7.4107430955e+01  -1.6828958771e+00     0.174373    0.1452054 -22.07 0.0005278307    1.123    0.109
       161  -8.7622     76.9058    193.9304   1.0721599279e+02   2.4581439255e+01    0.2258142    0.1808554 -83.32 0.0005487294    1.187    0.157
       162  -8.9819     43.6011    193.2025   1.1479752383e+02   2.9124698907e+01    0.4203152     0.200425  81.69  0.001819746    2.555    0.609
       163  -8.3496    198.8966    192.0584   7.9654826061e+01   3.9752944547e+00    0.1948876    0.1878041 -51.64 0.0005676097    1.270    0.213
       164  -8.4316    179.2386    191.6332   8.3574716702e+01   7.5355498895e+00    0.2419801    0.1701378 -54.87 0.0006244269    1.692    0.409
       165  -8.5309    172.3554    191.8190   8.5062362430e+01   8.7444751280e+00     0.251217    0.2131351  89.29  0.000912576    1.599    0.375
       166  -7.7117     29.3328    197.6799   1.1835392863e+02   2.9702861200e+01    0.1347288   0.07399441  66.42  0.000704914    1.697    0.411
       167  -8.9851    139.4100    190.4655   9.2091852501e+01   1.5015108789e+01    0.3320929    0.2529147  80.84   0.00103051    1.725    0.420
       168 -10.4836     92.1107    188.7868   1.0291867891e+02   2.3467603842e+01    0.9760415    0.3111284  49.30  0.003202341    3.526    0.716
       169  -8.4928      6.5056    191.0136   1.2273240685e+02   3.3414742748e+01    0.1810443   0.07280488  76.24 0.0008105272    2.571    0.611
       170  -8.6933    148.4746    189.3014   8.9828007017e+01   1.3610338831e+01    0.3173976    0.2252181 -84.40 0.0008857906    2.167    0.539
       171  -9.0591    129.2847    188.7511   9.4124243807e+01   1.7200053897e+01    0.3156723    0.2403402  79.74 0.0008085133    1.634    0.388
       172  -8.3039    237.1113    188.6614   7.1888557469e+01  -1.7711459303e+00    0.2135112    0.1580779 -36.09 0.0005340957    1.328    0.247
       173  -8.7766    216.3630    188.1186   7.5523934549e+01   1.6706057949e+00    0.2723176    0.1897519 -45.70 0.0007910915    1.584    0.369
       174  -9.0385    186.2228    188.1795   8.1460340731e+01   6.9223436737e+00    0.2411952    0.2279033  53.99 0.0002359704    1.228    0.186
       175  -8.6487    183.2170    184.9862   8.1457724685e+01   8.0682723252e+00    0.2128704    0.2063809  28.95 0.0004996341    1.121    0.108
       176  -9.2581    155.9920    187.5490   8.7821747751e+01   1.2588737531e+01    0.3999474    0.2316411 -59.99  0.000979365    2.200    0.545
       177  -9.7138    120.9149    186.6929   9.5732382808e+01   1.9133486853e+01    0.5610831     0.309799 -75.47  0.002113118    2.942    0.660
       178  -8.7413     34.3027    188.4241   1.1644169137e+02   3.1283232903e+01     0.289182    0.1481005  63.52  0.001198849    1.961    0.490
       179  -9.0299    191.2905    187.0702   8.0207707889e+01   6.2155836221e+00    0.3708528    0.2353988 -60.29  0.001425471    2.333    0.571
       180  -9.1095     54.7195    187.0184   1.1157712514e+02   2.9205573442e+01    0.4031384    0.2124802  73.26   0.00160082    2.281    0.562
       181  -8.1820    230.4279    187.2306   7.2783299923e+01  -4.8946877321e-01    0.1812604    0.1154477 -44.46 0.0009430046    1.703    0.413
       182  -8.6686    164.7864    186.8961   8.5760348309e+01   1.1094660304e+01    0.2426791    0.2010703 -74.07  0.000848024    1.532    0.347
       183  -9.3280    109.5504    186.0438   9.8325086909e+01   2.1242240561e+01    0.3972772    0.2685899  80.17  0.001022022    1.944    0.486
       184  -8.8155    249.1975    185.6085   6.9244648802e+01  -3.1400960836e+00    0.2350602    0.1527888 -33.46  0.000688119    1.368    0.269
       185  -8.6606    210.0952    184.4971   7.5992140635e+01   3.3577129594e+00    0.2317975    0.1801357 -46.68 0.0004922338    1.435    0.303
       186  -8.6012    202.8608    184.8063   7.7453047863e+01   4.5664410884e+00    0.2377157    0.1808906 -66.91 0.0006810666    1.986    0.496
       187  -9.0874     66.5791    184.6313   1.0846853834e+02   2.8204218006e+01    0.3543343     0.208865  64.33  0.001068844    1.828    0.453
       188  -8.4726    224.1163    183.7374   7.3227409021e+01   1.1107986202e+00     0.220912    0.1671456 -40.32 0.0004673401    1.360    0.265
       189  -8.9555    174.1796    183.8404   8.3139498160e+01   9.9564410237e+00    0.2846918    0.2605696  56.63   0.00108164    1.220    0.180
       190  -8.0209      1.7767    183.8256   1.2326815445e+02   3.5432221283e+01    0.1696481    0.1062567  68.69 0.0008447223    1.361    0.265
       191  -9.0265     44.1973    182.1218   1.1351517919e+02   3.1643066391e+01    0.3635364    0.1941763  87.79  0.001093622    2.012    0.503
       192  -9.2969    147.6044    180.7491   8.8431670076e+01   1.5567060129e+01    0.3939048    0.2887703 -87.85  0.001022068    1.999    0.500
       193  -9.5188     25.4709    178.6818   1.1756682481e+02   3.4483092072e+01    0.6912854    0.2624844  78.64  0.002362024    4.253    0.765
       194  -8.5292    235.0415    181.5142   7.0841113101e+01  -3.0736551608e-01    0.1782164     0.125601  35.43 0.0005748504    1.500    0.333
       195  -8.0661     90.9378    181.5108   1.0211270159e+02   2.5344609394e+01    0.2135958    0.1357445  38.30 0.0009363466    1.572    0.364
       196  -8.3453    240.3577    180.2264   6.9669423830e+01  -9.4653183416e-01    0.1830865    0.1085832 -41.59 0.0008782315    1.665    0.399
       197  -8.5172    137.5692    179.3651   9.0497046583e+01   1.7738882426e+01    0.3060113    0.2220585  83.30 0.0008790182    1.947    0.486
       198  -9.3173    191.6176    178.4628   7.8422481092e+01   7.7550004518e+00    0.3061467    0.2652715  77.51 0.0006428804    1.558    0.358
       199  -8.0929    169.4466    178.8852   8.3180750606e+01   1.1827145501e+01    0.2143537    0.1416851 -45.80    0.0010102    1.548    0.354
       200  -7.9505    120.2843    179.3287   9.4603302102e+01   2.0898192377e+01    0.1431489    0.1155497 -17.92 0.0007007119    1.608    0.378
       201  -9.0302     35.8364    176.7770   1.1493682304e+02   3.3856742274e+01    0.4986731    0.2063469  82.52  0.001764719    3.757    0.734
       202  -9.5477    248.2935    176.2831   6.7557165041e+01  -1.5627296149e+00    0.4246779    0.2587723 -47.79  0.002063229    1.922    0.480
       203  -8.7010    250.4961    172.8645   6.6515363002e+01  -1.3673719643e+00    0.2403945    0.1611359 -35.23  0.000729495    1.320    0.243
       204  -8.8963    205.0804    177.6400   7.5576009310e+01   5.4549151061e+00    0.2410068    0.1817267 -45.61  0.000606025    1.406    0.289
       205  -8.6549    129.1580    177.4456   9.2131106834e+01   1.9716836076e+01    0.3065887    0.2194452  81.97 0.0009301699    1.923    0.480
       206  -8.5001     97.2664    177.8412   9.9976899924e+01   2.5190116668e+01    0.2629597    0.1942384  -1.09  0.001216464    2.140    0.533
       207  -8.7544    231.0433    176.7205   7.0579378854e+01   1.1276057459e+00    0.2917475    0.1659199 -36.66 0.0006792767    1.604    0.377
       208  -8.3172    217.2280    177.1551   7.3167815874e+01   3.3963013991e+00    0.2047627    0.1696426 -14.63 0.0005428255    1.111    0.100
       209  -8.9490    183.1172    176.1637   7.9709309970e+01   9.7798721970e+00    0.2847162    0.2250197 -52.79 0.0006958111    1.404    0.288
       210  -8.8716     88.9927    177.0153   1.0189697013e+02   2.6714121612e+01    0.2912681    0.1959992  71.01 0.0009073821    1.709    0.415
       211 -10.0247     57.3410    173.3689   1.0927914507e+02   3.2130308986e+01    0.8482874    0.3863537  80.30  0.002719194    4.358    0.771
       212  -9.1800     12.4921    176.2992   1.2035209180e+02   3.6256355393e+01    0.3088728    0.1429049  72.27  0.001062613    2.234    0.552
       213  -7.6489    211.6695    176.3179   7.4040463188e+01   4.5166459569e+00    0.1306272    0.1128113 -80.51 0.0007047356    1.687    0.407
       214  -9.1581    158.9296    175.1995   8.4772269057e+01   1.4588978692e+01     0.404663    0.2817454  76.65   0.00123079    2.329    0.571
       215  -9.4869    104.3077    174.8068   9.7724748274e+01   2.4729484675e+01    0.5129586    0.2878324  65.72  0.001671527    2.587    0.613
       216  -9.5196     81.8343    155.1867   1.0012449958e+02   3.3144880182e+01    0.4942826    0.2874778  70.82  0.001464023    2.509    0.601
       217 -10.7618     75.7910    169.8794   1.0412301653e+02   3.0441011938e+01     1.322214    0.4826821 -73.84  0.003825713    4.644    0.785
       218  -8.5142     79.2500    158.5774   1.0140362286e+02   3.2700813294e+01    0.3059674    0.1500122  24.00  0.001143142    2.927    0.658
       219  -8.1889    224.4372    174.1054   7.1224560947e+01   2.6783951726e+00    0.2064138    0.1217699 -36.90 0.0005135209    1.563    0.360
       220  -9.3048    175.7737    172.3603   8.0485713169e+01   1.1929100556e+01    0.3616475    0.2556618 -51.04  0.000870618    1.515    0.340
       221  -8.3704    143.1288    172.6812   8.7906043323e+01   1.8156202975e+01    0.2535647     0.203753 -67.52 0.0006903579    1.397    0.284
       222  -8.5646    134.6420    171.8010   8.9747489758e+01   1.9961236406e+01    0.2815597     0.219911  88.62 0.0008341129    1.614    0.381
       223  -9.5770    121.4572    170.5960   9.2720120581e+01   2.2684387733e+01     0.395926    0.2921928 -88.53  0.001091943    1.722    0.419
       224  -9.3018     45.0066    170.2999   1.1197366825e+02   3.4386302811e+01    0.5600287    0.2328741 -78.87  0.002238537    2.602    0.616
       225  -8.4221    205.8746    170.5746   7.3962186641e+01   6.5926934107e+00    0.2671382    0.1769258 -54.36 0.0007324113    1.860    0.462
       226  -8.4941    198.6405    170.4642   7.5357758785e+01   7.9513578059e+00    0.2631923    0.2089825 -65.77   0.00077246    1.683    0.406
       227  -8.4462    237.1321    169.6823   6.8090766347e+01   1.2838328665e+00    0.2233225    0.1631238 -40.53 0.0005826152    1.342    0.255
       228  -8.7254    230.3359    170.1260   6.9357395746e+01   2.3482510432e+00    0.2220834    0.1763991  12.99 0.0007082619    1.293    0.227
       229  -9.1886    167.1586    168.7357   8.1612028340e+01   1.4339741750e+01    0.3470365    0.2645611 -87.93 0.0009791467    1.958    0.489
       230  -8.4630    149.8181    169.5504   8.5715977514e+01   1.7551511146e+01    0.2838897    0.1998526 -70.70  0.000810228    1.870    0.465
       231  -7.6687     68.5026    170.5145   1.0607512897e+02   3.1328704775e+01    0.1422856    0.1230035  83.02 0.0008098847    1.056    0.053
       232  -8.2413    244.6292    169.2118   6.6737195610e+01   1.3842795440e-01    0.1999688    0.1467268 -41.51 0.0005713683    1.366    0.268
       233  -8.8250    111.8437    167.7686   9.4583966246e+01   2.5077133191e+01    0.4103725    0.2374048  71.11  0.001451008    2.952    0.661
       234  -8.3913     88.4840    168.6451   1.0067828787e+02   2.8803732314e+01    0.2555162    0.1922653  88.19  0.000716084    1.436    0.303
       235  -8.3246    218.8240    168.1921   7.1022161239e+01   4.6809979030e+00    0.1998824    0.1792102 -43.29 0.0005100971    1.227    0.185
       236  -8.1526    211.2117    168.1546   7.2433368650e+01   6.0571013390e+00    0.1891423    0.1642392 -57.90 0.0005839033    1.393    0.282
       237  -8.7742    191.9109    166.6727   7.5911461091e+01   9.9441810545e+00    0.2782111    0.2001849 -47.42 0.0005806088    1.439    0.305
       238  -8.5599    185.0996    166.7312   7.7328619546e+01   1.1245506198e+01    0.2487649    0.1948686 -54.00 0.0006757129    1.414    0.293
       239  -9.2611     20.1531    165.4199   1.1758777546e+02   3.8145953699e+01    0.4661724    0.1931319  88.19  0.001911743    2.779    0.640
       240  -8.3443    140.6546    166.3243   8.7219429772e+01   2.0037709452e+01    0.2879128    0.1754169  50.85 0.0008793829    1.735    0.424
       241  -9.5710    135.7148    164.0577   8.7947987601e+01   2.1501369583e+01    0.3980471    0.2753817  58.36  0.000943727    1.638    0.390
       242  -9.9312     95.0376    162.5037   9.7927216464e+01   2.9230586984e+01    0.9379448    0.5525115 -88.82   0.00306785    2.697    0.629
       243  -8.3901    233.8740    165.0620   6.7694730250e+01   2.6008168523e+00    0.2004022    0.1698263 -47.03 0.0006286234    1.326    0.246
       244  -8.6387    159.6151    164.4913   8.2413439193e+01   1.6717390909e+01    0.2804399     0.238489  72.21 0.0007266861    1.392    0.282
       245  -9.6477     33.4399    163.4908   1.1408408897e+02   3.7317750890e+01    0.5309045    0.2224238  59.67  0.002117013    2.968    0.663
       246  -8.5585    213.0131    163.7573   7.1163863654e+01   6.5219850193e+00    0.2487264    0.1846182 -37.69 0.0006250333    1.267    0.211
       247  -8.7274    204.8904    163.1764   7.2586213755e+01   8.1390753111e+00    0.3040167    0.1897951 -53.04 0.0007716555    1.898    0.473
       248  -9.0357    245.9811    162.9596   6.5237167469e+01   9.3213743739e-01    0.2007535     0.169446 -22.80 0.0004402268    1.024    0.023
       249  -9.5367      3.3727    162.3933   1.2136710835e+02   4.0263801368e+01    0.3894306    0.1730448  54.79  0.001917928    2.261    0.558
       250  -8.9429    177.5279    160.8328   7.7664420308e+01   1.3914198615e+01    0.3171518    0.2458977 -79.46 0.0008976484    1.840    0.457
       251  -8.8067    151.5886    161.1313   8.3552011600e+01   1.9038292856e+01    0.3173822    0.2419712 -76.74 0.0007415746    1.707    0.414
       252  -8.7403     60.5265    160.2203   1.0663936128e+02   3.4942507098e+01    0.3275247    0.1977494  82.26  0.001075534    2.011    0.503
       253  -9.1604    245.3102    158.6931   6.4464016004e+01   1.7395300680e+00    0.2009885    0.1507008 -29.26 0.0002924984    1.140    0.123
       254  -9.7414    250.1814    157.8296   6.3507519239e+01   1.0807469489e+00    0.3414427    0.1708687 -38.05  0.000817406    1.719    0.418
       255  -8.4738    246.5687    155.5475   6.3607252344e+01   2.0473050651e+00    0.2321958    0.1692297 -28.15 0.0005188739    1.182    0.154
       256  -8.4841    227.2491    158.9661   6.7562320168e+01   4.7971324425e+00    0.2760736    0.1676457 -47.28 0.0009553413    1.725    0.420
       257  -9.6601    105.8801    157.5098   9.4166253875e+01   2.8582345012e+01    0.6301615    0.3991189 -61.00  0.001428223    1.592    0.372
       258  -9.0089    237.1188    158.8633   6.5848116805e+01   3.0914398990e+00    0.2028724    0.1723527 -45.52  0.000689906    1.275    0.216
       259  -8.4688    128.2415    158.9604   8.8742367624e+01   2.4106865454e+01    0.3003408    0.2243009  85.50  0.001052567    1.768    0.434
       260  -8.3892    196.5271    157.9704   7.3101496386e+01   1.0727594537e+01    0.2532966    0.2093124  69.22 0.0007475858    1.561    0.359
       261  -8.3347    188.1188    157.7770   7.4765533650e+01   1.2420441035e+01    0.2577728    0.1902483 -49.94 0.0005669238    1.416    0.294
       262  -9.1558    167.6811    157.2615   7.9037372006e+01   1.6632167905e+01    0.3331153    0.2558944 -81.54 0.0009984792    1.834    0.455
       263  -8.3741    218.0159    156.5687   6.8697135742e+01   6.8967241409e+00    0.2719731    0.1781365 -51.03  0.000747507    1.706    0.414
       264  -9.0020    157.6256    156.1525   8.1073021542e+01   1.8908718591e+01    0.3292368    0.2495307 -76.56 0.0009328537    1.760    0.432
       265  -9.2951    119.5453    155.2966   9.0185816579e+01   2.6616770842e+01    0.4019031    0.2846952 -85.24  0.001420861    1.897    0.473
       266  -9.3091     49.5364    155.4410   1.0887240430e+02   3.7509493870e+01    0.3568623    0.2149925  69.46  0.001458597    1.916    0.478
       267  -8.2760    239.8898    164.1687   6.6490098870e+01   1.7373385122e+00    0.1946469    0.1709182 -43.48 0.0006332029    1.273    0.214
       268  -9.5922    242.8005    155.2218   6.4145675211e+01   2.7336470403e+00    0.1931592    0.1678484 -37.96 0.0004437825    1.167    0.143
       269  -8.3339     57.2179    163.8672   1.0803028917e+02   3.4470291758e+01    0.3213133    0.1996304   6.68  0.001393081    2.834    0.647
       270  -8.5828    144.4217    154.8158   8.3892961240e+01   2.1872149799e+01      0.29329    0.2365687  77.97 0.0009059141    1.525    0.344
       271  -9.6034    132.8417    153.0017   8.6337805504e+01   2.4590836952e+01    0.4854158    0.3607075 -81.60  0.001296882    1.753    0.430
       272  -9.2792    133.4928    148.0209   8.5084911530e+01   2.5611602096e+01    0.3289967    0.2338715 -34.55  0.001172619    1.563    0.360
       273  -9.7763     68.0723    153.6446   1.0359007784e+02   3.5555292437e+01    0.4918359    0.2901417  76.16  0.001460207    2.330    0.571
       274  -8.2540    232.5918    153.7906   6.5536869005e+01   4.7447560392e+00    0.1934059    0.1168097 -44.86 0.0004461241    1.619    0.382
       275  -9.2727     20.1439    152.8214   1.1630972007e+02   4.1196703295e+01    0.1970441    0.1457569  77.80 0.0005539936    1.249    0.200
       276  -8.3361      9.0173    153.2281   1.1919629589e+02   4.2015972027e+01    0.1442344    0.1038795  28.77 0.0008871954    1.686    0.407
       277  -8.8534      2.9989    150.9982   1.2050944983e+02   4.2996064700e+01    0.3863981    0.1425903 -80.55  0.001663053    2.301    0.565
       278  -8.7680     98.4819    150.9977   9.4852754492e+01   3.1456742703e+01    0.3064089    0.2306765  86.81  0.001115707    1.573    0.364
       279  -9.9073     29.0809    149.8596   1.1361691157e+02   4.1101015429e+01    0.6385542    0.3092372 -89.39  0.002781318    2.323    0.570
       280  -9.6808    248.7729    149.3187   6.1955792936e+01   2.7032510725e+00    0.3335527     0.185367 -35.47 0.0008338894    1.535    0.348
       281  -9.7041    243.2108    150.1079   6.3001158995e+01   3.5171284893e+00    0.3231274    0.2844737 -68.03  0.001957106    1.470    0.320
       282 -10.0440    240.9771    144.5820   6.2180367495e+01   4.8362498628e+00     0.380752    0.2789911  -3.01  0.001349076    1.625    0.385
       283  -8.8425    189.2944    150.1836   7.2831675625e+01   1.3689183944e+01    0.3081185    0.2398715 -62.26  0.001006072    1.536    0.349
       284  -8.0588    182.3968    151.2831   7.4512680632e+01   1.4871665709e+01    0.2090591    0.1381367 -51.67 0.0006658334    1.610    0.379
       285  -8.4152    162.7546    150.6687   7.8676698215e+01   1.9040887638e+01    0.2841439    0.1971455 -70.59 0.0009217265    2.020    0.505
       286  -8.9396    237.2466    150.4149   6.4036296313e+01   4.5016053762e+00    0.1612117    0.1342144  59.16 0.0003177326    1.535    0.349
       287  -8.1961    212.9971    149.9504   6.8168625236e+01   9.0476285184e+00     0.211884    0.1722596 -69.32 0.0005033616    1.611    0.379
       288  -8.4490    198.7959    149.0114   7.0662083457e+01   1.2006411861e+01    0.2234872     0.191892 -61.26 0.0005961541    1.331    0.248
       289 -10.1139     89.2470    146.4171   9.6469409322e+01   3.4138332632e+01    0.6706083     0.381661 -89.85  0.002302235    3.306    0.698
       290  -9.7930     39.6153    147.8264   1.1049931842e+02   4.0532505674e+01    0.4928104     0.259041  69.06   0.00184811    2.473    0.596
       291  -8.7518     39.9920    141.4800   1.0949435492e+02   4.2076723790e+01    0.3091841    0.1491815 -32.42  0.001115354    3.853    0.740
       292  -9.0013    233.2269    147.5840   6.4094985484e+01   5.7034116070e+00    0.2609659    0.1695461 -36.27 0.0007301031    1.357    0.263
       293 -10.3463    106.9444    144.4224   9.1222960387e+01   3.1560302261e+01    0.8433179    0.5393672  84.78  0.002316947    2.607    0.616
       294  -8.9981     78.2615    147.3978   9.9699822619e+01   3.5629817891e+01     0.338886    0.2334114 -88.09 0.0009250924    1.705    0.414
       295 -10.8245     54.9242    143.1908   1.0552916944e+02   3.9917303973e+01     1.095817    0.6043116 -73.87  0.003323781    1.804    0.446
       296  -8.4708    223.4896    147.0483   6.5643090270e+01   7.5858285962e+00    0.2148526    0.1844353 -50.12 0.0005990101    1.242    0.195
       297  -8.2049    206.7746    146.7305   6.8611801858e+01   1.0857801115e+01    0.1898446    0.1690861 -67.78 0.0005762025    1.324    0.245
       298 -10.2347    148.9261    145.0529   8.0624545684e+01   2.3136795164e+01    0.5707428    0.3930508 -79.81  0.001522707    2.255    0.557
       299  -9.0076    150.2703    136.7312   7.8348940803e+01   2.4704957552e+01    0.6155187    0.3959138  -2.59  0.002096593    3.253    0.693
       300 -10.0763    138.9378    144.7257   8.2984873601e+01   2.5268324021e+01    0.5883259    0.3475153 -68.49   0.00163586    2.536    0.606
       301  -9.3672     13.3657    146.4387   1.1740480506e+02   4.3318163170e+01    0.3550812    0.1825313  61.08  0.001303031    2.139    0.532
       302  -8.3434    175.4628    146.3031   7.4858758813e+01   1.7322617788e+01    0.2446264    0.1879475  71.27 0.0007360083    1.693    0.409
       303  -9.8445    124.8847    142.7662   8.6105846408e+01   2.8546780202e+01    0.5005346    0.3530115 -86.56  0.001468732    2.043    0.510
       304  -9.3426    247.0804    143.6699   6.1024881812e+01   3.9260187119e+00    0.2645988    0.1709062 -35.21 0.0004762516    1.320    0.242
       305  -8.5172    250.4754    140.9675   5.9931505150e+01   3.7911383960e+00     0.192948    0.1517816 -33.18 0.0004995198    1.072    0.067
       306  -7.7298    194.0102    143.9990   7.0469544080e+01   1.3949324548e+01    0.1784205    0.1657503 -28.44 0.0004218507    1.012    0.012
       307  -8.7834    165.3033    143.9354   7.6555413819e+01   1.9950571676e+01    0.2666228    0.2479804  84.41  0.000484384    1.190    0.160
       308 -10.8506     69.3471    141.3583   1.0110392600e+02   3.8452888513e+01    0.6932148    0.4714202 -76.99  0.002315792    1.523    0.344
       309  -9.4040      2.7227    141.9068   1.1975422239e+02   4.5194108451e+01    0.3890176    0.1859054  74.25  0.001517396    2.311    0.567
       310  -8.4573    181.9286    141.6183   7.2392293641e+01   1.6932106636e+01    0.3024152    0.1913493 -57.62 0.0008847892    1.898    0.473
       311  -9.4060    140.0096    137.0397   8.0929518655e+01   2.6798302410e+01    0.3131119    0.2449511   2.10  0.001171757    1.709    0.415
       312 -10.5869     23.6156    137.1437   1.1352576203e+02   4.4746805919e+01    0.8247334    0.3865386 -72.93  0.003526759    1.813    0.448
       313  -8.6706    172.0602    138.3938   7.3749564896e+01   1.9689019754e+01    0.2866474    0.2080644 -59.54 0.0006249421    1.566    0.361
       314  -8.6118    240.7478    137.9655   6.0787905283e+01   6.0010701127e+00    0.1807799    0.1033139 -36.16 0.0003340326    1.516    0.340
       315  -7.8067    218.4797    138.5530   6.4629731743e+01   1.0076648637e+01    0.1430712    0.1297441 -36.01  0.000204897    1.049    0.046
       316  -8.2487    207.6558    138.1372   6.6492996579e+01   1.2301663578e+01    0.2316809    0.1695093 -55.23 0.0007277804    1.508    0.337
       317  -8.6343    197.6093    137.5800   6.8274230928e+01   1.4461918517e+01     0.288076    0.2044426 -54.60 0.0007116122    1.538    0.350
       318  -8.2605    162.6802    136.5676   7.5408856918e+01   2.2086205414e+01    0.2567114    0.1844943 -64.46 0.0006752569    1.683    0.406
       319  -7.8420     80.6604    137.6938   9.7158355917e+01   3.7682881603e+01    0.1496505    0.1134869 -25.60 0.0007041723    1.680    0.405
       320 -10.4612     83.3743    132.7770   9.5361613866e+01   3.8476809756e+01    0.6385556    0.3431582 -64.83  0.001352033    1.960    0.490
       321  -9.0787     38.9370    136.1824   1.0900720472e+02   4.3513640697e+01    0.3102982     0.197448  76.18  0.001030613    1.825    0.452
       322  -9.3272    250.6461    129.7652   5.7513511729e+01   5.6143453516e+00    0.4974681    0.1103004 -36.98   0.00154006    3.912    0.744
       323  -9.1624    248.4090    135.2324   5.9019342243e+01   5.0999428246e+00    0.3209162    0.1928127 -44.92 0.0007111365    1.532    0.347
       324  -8.7127    246.8863    130.3584   5.8196275165e+01   6.1838484180e+00    0.2763238    0.1733989 -38.93 0.0006690837    1.355    0.262
       325  -8.3213    192.3964    135.6654   6.8851343569e+01   1.5924263821e+01    0.3017122    0.1346179 -45.57 0.0008785343    2.190    0.543
       326  -7.8317    187.8530    135.8285   6.9804205958e+01   1.6850636774e+01    0.2051681     0.175349 -64.71 0.0004277946    1.308    0.236
       327  -8.5083    179.6936    134.1759   7.1100432393e+01   1.8925942190e+01     0.280681    0.2197269 -67.38  0.001030512    1.534    0.348
       328  -8.0863    237.5164    133.5353   6.0329279381e+01   7.3484134253e+00    0.2435029    0.1116495 -46.03    0.0010178    2.105    0.525
       329  -7.8800    231.4995    134.4118   6.1490425586e+01   8.3186202111e+00    0.1386837    0.1235446 -31.46 5.475574e-05    1.017    0.017
       330  -9.1938    112.9267    133.3878   8.7141087734e+01   3.3102071016e+01    0.3504199     0.251108  72.63 0.0007634984    1.843    0.458
       331 -10.6851    132.6976    130.4472   8.1191522848e+01   2.9828966943e+01    0.8670582    0.5400438 -51.91  0.002134077    1.605    0.377
       332 -10.3806     98.0651    130.3833   9.0598209986e+01   3.6579437847e+01    0.7493184     0.342244 -55.77  0.001545438    2.147    0.534
       333 -10.6463     60.4253    125.9235   1.0080979170e+02   4.3546420922e+01    0.8802792    0.4948407  82.34  0.003219761    3.239    0.691
       334  -9.1190    143.0235    131.7299   7.8901898355e+01   2.7363029721e+01    0.3144626    0.2479257 -70.73 0.0008388537    1.480    0.324
       335 -10.1417     12.6976    128.8668   1.1559910037e+02   4.7659154689e+01    0.5736983    0.2815953  83.21  0.002317216    2.426    0.588
       336  -7.8696    220.7309    129.9854   6.2291117263e+01   1.1190100903e+01    0.1884883    0.1149454 -37.75 0.0007064996    1.475    0.322
       337  -7.9431    204.5313    130.5062   6.5299514190e+01   1.4384938368e+01    0.1483842    0.1366002 -42.02 7.835939e-05    1.046    0.044
       338  -8.1044    192.8333    130.1599   6.7456101867e+01   1.6915324274e+01    0.2292621    0.1988899 -64.73 0.0005324276    1.266    0.210
       339  -9.2768    168.3616    129.5621   7.2428650324e+01   2.2342480922e+01    0.3157677    0.2502418 -70.54 0.0008699808    1.513    0.339
       340  -9.3080    152.9074    129.1264   7.5866136344e+01   2.5812774010e+01    0.4236616    0.2796735 -61.95 0.0008666201    1.829    0.453
       341  -8.3782    153.5458    123.9306   7.4412343728e+01   2.6803908057e+01    0.4189932    0.2460704 -19.56  0.001364087    3.026    0.670
       342 -10.3041     73.1616    128.5891   9.7498446358e+01   4.1095509493e+01    0.6632047    0.3024445 -59.38  0.001911561    2.041    0.510
       343  -9.6024     71.1894    119.9932   9.6260632246e+01   4.3518654738e+01    0.4520457    0.2873716 -81.75  0.001708844    2.101    0.524
       344  -7.8299      1.5260    130.4846   1.1894678040e+02   4.8021250544e+01    0.1254902   0.09789658 -83.48  0.000186747    1.056    0.053
       345  -8.0762    211.4577    129.2049   6.3731758507e+01   1.3201498268e+01     0.210916     0.126371 -49.86 0.0005435747    1.710    0.415
       346  -7.7701    186.3584    129.6833   6.8637042820e+01   1.8398988461e+01    0.1565868    0.1208142 -80.47 0.0007044098    1.754    0.430
       347 -10.7024     45.1411    123.9594   1.0513330318e+02   4.5898872652e+01     1.084417    0.5610276  77.49    0.0038315    3.732    0.732
       348  -9.9003    117.9642    125.4028   8.3853652220e+01   3.4008696270e+01    0.5783123    0.3960929  81.16  0.001364803    2.300    0.565
       349  -7.7947    118.3531    120.2949   8.2468335548e+01   3.5122872464e+01    0.1588905    0.1250887  -4.25 0.0007032522    1.686    0.407
       350  -8.2953    228.3910    125.2423   5.9935384424e+01   1.0529114209e+01     0.203396    0.1179226 -45.56 0.0004287768    1.602    0.376
       351  -8.8823    179.2056    124.7788   6.8911672202e+01   2.0947239812e+01    0.2745301    0.2217439 -68.63 0.0005747055    1.439    0.305
       352 -10.1660     28.5937    122.6096   1.0999802211e+02   4.7904248597e+01    0.7116944    0.3578271  72.30  0.002830832    3.168    0.684
       353  -7.5401    244.2649    124.6510   5.7342053122e+01   7.6186459319e+00    0.1371556     0.095053 -56.76 0.0003195417    1.613    0.380
       354  -8.2258    188.5872    123.8033   6.6756621853e+01   1.9083789861e+01    0.2170177     0.135912 -50.50 0.0005211059    1.633    0.388
       355  -8.7832    172.0526    121.9186   6.9717351979e+01   2.3117635438e+01    0.3066236     0.210544 -43.84  0.000740947    1.402    0.287
       356  -9.0153    158.8219    121.7741   7.2632652243e+01   2.6098302117e+01    0.3608364     0.284344 -85.22  0.001107389    1.640    0.390
       357  -7.7367    203.2070    122.2357   6.3578534251e+01   1.6231366196e+01    0.2413598    0.1016248 -47.54 0.0006339037    2.425    0.588
       358  -8.2055    195.0278    122.0362   6.5065839008e+01   1.8027455095e+01    0.2420559    0.1781524 -68.03 0.0006438741    1.708    0.414
       359  -9.9321    131.0404    118.6466   7.8649692381e+01   3.2865615259e+01    0.6034254    0.4035899 -71.69  0.001956904    2.102    0.524
       360  -9.9534    141.5147    118.2369   7.5870122236e+01   3.0694153448e+01    0.5867276    0.3084113 -54.69  0.001072996    2.144    0.534
       361  -9.7536      3.0968    117.5422   1.1704408340e+02   5.1043827656e+01    0.4552793    0.2274019  71.76  0.002145896    2.530    0.605
       362  -8.1744    231.5730    117.7447   5.7725070131e+01   1.1218617063e+01    0.2007436    0.1167513 -46.47 0.0005334544    1.592    0.372
       363  -8.1178    185.6842    116.0660   6.5413742252e+01   2.1249579764e+01    0.2454983    0.1746482 -54.29 0.0006526399    1.467    0.318
       364  -9.9816    109.3874    114.1734   8.3399676116e+01   3.8331279347e+01    0.5587761     0.382224 -78.15  0.001247489    2.131    0.531
       365  -9.1253    109.0439    107.7931   8.1804483594e+01   3.9868362230e+01    0.2977602    0.2118988  10.34  0.001208711    2.028    0.507
       366  -8.7359     59.2967    115.3149   9.8982360208e+01   4.6328042606e+01    0.4000577    0.2361129 -10.69  0.001521639    3.256    0.693
       367  -9.4748    249.7527    114.6654   5.4367450389e+01   8.2746028859e+00     0.334462    0.2056534 -56.23  0.001661833    1.813    0.448
       368  -8.1455    193.1606    115.2268   6.3746934746e+01   1.9750360271e+01    0.2093633    0.1692467 -62.60 0.0004811269    1.340    0.254
       369  -8.6895     85.3524    122.4472   9.2498109194e+01   4.0702587116e+01    0.4534654    0.2328894  19.75  0.001550834    3.362    0.703
       370 -10.2345     92.7532    112.6228   8.7889328279e+01   4.1806242582e+01    0.5994723    0.3389102 -64.23   0.00136781    2.127    0.530
       371 -10.0509     78.8245    112.3274   9.2105786979e+01   4.4221986529e+01    0.6846898    0.4129732 -77.12  0.001861209    2.470    0.595
       372  -8.5410     78.3240    105.3245   9.0518658740e+01   4.5976348551e+01     0.284568    0.2089356 -11.71 0.0008698104    1.807    0.447
       373  -8.1932    167.3981    114.2741   6.8773924821e+01   2.5736691306e+01    0.2242658    0.1418561 -51.01 0.0006701601    1.621    0.383
       374  -9.2452     27.8597    113.6619   1.0877373069e+02   5.0174956423e+01    0.4191414    0.1740321  27.43  0.001862039    2.729    0.634
       375  -9.9899    133.6568    109.8718   7.5642091480e+01   3.4252235211e+01    0.6828656    0.3118493 -53.82  0.002179996    2.555    0.609
       376 -10.0399    121.9054    112.2578   7.9402909814e+01   3.6234617971e+01    0.4570193     0.316285 -55.85 0.0008913876    1.500    0.333
       377  -9.8438     14.0636    111.2686   1.1280654538e+02   5.1850028101e+01    0.4184909    0.2256262  81.36  0.001638728    2.384    0.581
       378  -8.5834    174.7761    111.9144   6.6582176709e+01   2.4535738522e+01    0.2806605    0.2011104 -58.57 0.0006062501    1.537    0.349
       379  -8.6673    159.2352    111.5935   6.9892608247e+01   2.8147912830e+01     0.293771     0.207693 -45.26 0.0006121048    1.375    0.273
       380 -10.1860     66.3861    110.0441   9.5522179082e+01   4.6648554703e+01    0.5552051    0.3283782 -65.67  0.002404752    1.763    0.433
       381  -8.9000     42.5748    109.6083   1.0322763577e+02   4.9729738543e+01    0.3048469    0.1714939   0.82  0.001277905    2.954    0.662
       382 -10.7685    248.4746    107.7677   5.3030829795e+01   9.6487388378e+00     0.510474    0.2977788 -36.25    0.0018983    1.476    0.322
       383  -8.3624      4.1880    109.2948   1.1565965036e+02   5.2959894719e+01    0.2066744    0.1128828  -0.76  0.001067231    2.606    0.616
       384  -8.2143    189.0845    108.0454   6.2720011852e+01   2.2039912768e+01    0.2398976    0.1758589 -66.18 0.0004737488    1.617    0.382
       385 -10.0251    119.0200    105.8435   7.8453819155e+01   3.8275279010e+01    0.3432983    0.3180378 -85.10 0.0007904142    1.167    0.143
       386 -10.3590    108.8423     98.8744   7.9384573085e+01   4.1910069440e+01    0.6229303    0.4178187  73.20  0.001715208    2.374    0.579
       387  -9.0171    107.9349     92.5991   7.7827535759e+01   4.3458851098e+01    0.5210781    0.2880547  24.90  0.001872258    2.785    0.641
       388  -9.5523    139.8342    104.3603   7.2560682161e+01   3.4069827298e+01    0.4996576    0.2982413 -52.68  0.001076927    1.784    0.439
       389 -10.5830     45.8561    102.6513   1.0066124638e+02   5.1057302725e+01    0.7697634    0.4505232  72.93  0.003087426    3.108    0.678
       390  -9.3577     45.1579     93.0459   9.8690396151e+01   5.3420170818e+01     0.442517    0.2536201  -2.01  0.001883918    2.811    0.644
       391 -10.6868     22.9019    102.7243   1.0849830652e+02   5.3251314038e+01    0.7464862    0.3990767  77.87  0.002530002    3.094    0.677
       392  -8.5346    166.6884    104.3271   6.6303502754e+01   2.7912969824e+01    0.2865103    0.1783564 -51.19 0.0007046585    1.661    0.398
       393  -9.4569    150.5838    103.2232   6.9636714114e+01   3.1862067347e+01    0.4461538    0.2941774 -65.35  0.001197796    1.998    0.500
       394  -9.0946      6.9844    103.4264   1.1393258282e+02   5.4197093520e+01    0.2355991    0.1785048  66.77 0.0007604878    1.515    0.340
       395  -9.5196    128.3498    102.1175   7.4888614232e+01   3.7095845554e+01    0.3495989    0.2714388 -67.07 0.0007764426    1.502    0.334
       396  -7.5704    175.6631    102.2800   6.3874867378e+01   2.6231274158e+01    0.1556252    0.1200149 -79.87 0.0003614648    1.617    0.382
       397  -8.2358    159.8482    101.0427   6.6913976371e+01   3.0159976681e+01    0.2408114    0.2017088 -65.11 0.0004528979    1.283    0.221
       398  -9.3639     82.1064    100.0404   8.7914433267e+01   4.6594595630e+01    0.3554512     0.260227 -76.49 0.0008638979    1.762    0.432
       399  -9.1851    244.0000     98.4604   5.1568659162e+01   1.2034512318e+01    0.3076001   0.06761803 -36.99 0.0008165105    3.900    0.744
       400  -9.4081     95.0894     97.2337   8.3040390762e+01   4.4941902401e+01    0.3522926    0.2527898 -62.29 0.0007132735    1.563    0.360
       401 -10.1243     63.8030     95.7765   9.2856794507e+01   5.0411133350e+01    0.5754324    0.3696067 -81.98  0.001729428    2.463    0.594
       402  -8.8986     64.8020     87.8711   9.0370758380e+01   5.2080407780e+01    0.5529777    0.2801508  14.29  0.001955704    3.603    0.722
       403  -8.4017    129.8170     97.4071   7.3162514808e+01   3.7775141543e+01    0.2272608    0.1464266  35.34 0.0009515632    1.738    0.425
       404  -8.5454    151.1815     95.6344   6.7380790704e+01   3.3262906934e+01    0.3287513    0.1884681  26.98  0.001139359    2.874    0.652
       405  -7.8390    188.5216     94.0063   5.9200864125e+01   2.4798454569e+01    0.2180572    0.1168275 -57.88 0.0005932041    2.383    0.580
       406  -8.3508    176.5315     93.3162   6.1302844417e+01   2.7736924863e+01    0.2893637    0.1382684 -44.37 0.0007834852    2.022    0.505
       407  -8.0823    164.9638     94.2762   6.3937860359e+01   3.0288327472e+01    0.2089324    0.2017933 -86.84  0.000385949    1.041    0.040
       408 -10.2691    123.8370     91.3819   7.2993439449e+01   4.0349845946e+01    0.5864883    0.4546409  27.89  0.001751709    1.453    0.312
       409  -7.8666    182.5636    109.5052   6.4368343459e+01   2.3237925356e+01    0.1535665    0.1442039 -50.53 6.652973e-05    1.020    0.020
       410  -9.3352    138.9305     91.9442   6.9257733612e+01   3.6841161955e+01    0.4645028    0.2851093 -54.37  0.001371314    1.825    0.452
       411  -9.6234      4.8885     92.0837   1.1287912126e+02   5.6997018117e+01    0.3374328    0.2052165  74.43  0.001246784    2.135    0.532
       412  -8.0583    157.5632     92.0032   6.4909397314e+01   3.2476841034e+01    0.2352694     0.148733 -40.94 0.0003977622    1.546    0.353
       413  -9.5289     34.8530     89.8196   1.0164590441e+02   5.5258879937e+01    0.4567968    0.2606877 -84.23  0.001905485    2.712    0.631
       414  -9.9879     98.8881     86.9032   7.8832470980e+01   4.6473471172e+01    0.3429578    0.2317642 -33.28  0.000412584    1.534    0.348
       415  -8.1849    150.9810     89.0263   6.5541742927e+01   3.4607593394e+01    0.2461277      0.18447 -70.43 0.0005640884    1.643    0.391
       416 -10.2088     86.6772     86.0125   8.2421815046e+01   4.8944897553e+01    0.7268613     0.431454 -52.23  0.001587209    1.708    0.415
       417  -9.9429     48.6155     83.9943   9.5129061841e+01   5.5102825872e+01    0.6016442     0.396919 -75.83  0.002532046    2.027    0.507
       418  -7.7306    195.6724     86.3028   5.5927349597e+01   2.4513051874e+01    0.1537226    0.1101653 -70.83 0.0004469616    1.645    0.392
       419  -7.7246    179.3301     85.6721   5.8691860033e+01   2.8475842996e+01    0.1598147    0.1145298 -71.83 0.0004289658    1.710    0.415
       420  -9.9790    104.7754     82.6640   7.5744029943e+01   4.6182593659e+01    0.6324877    0.3134767 -49.02  0.001720229    2.103    0.524
       421  -8.4293    158.0650     84.0614   6.2536624693e+01   3.3863002612e+01    0.2356205    0.2184571 -61.17 0.0004412551    1.073    0.068
       422  -9.1325    140.7663     82.5298   6.6026492331e+01   3.8256502476e+01    0.3609655    0.2339598 -48.54 0.0009592468    1.589    0.371
       423  -8.5252     63.9005     82.1856   8.9057611446e+01   5.3476195298e+01    0.2108542    0.1875112 -74.51 0.0006289294    1.317    0.240
       424  -9.1283     22.9607     90.1751   1.0605776229e+02   5.6228494184e+01    0.3091278    0.2413402  -9.26  0.001705151    1.486    0.327
       425  -9.7338     24.5173     80.5219   1.0335671387e+02   5.8330497104e+01    0.4222394    0.2490019 -83.18  0.001371873    2.376    0.579
       426  -9.3086      9.7943     80.9662   1.0908229861e+02   5.9282337911e+01    0.3408614    0.1953064  56.06  0.001699551    2.565    0.610
       427  -8.3394    150.3191     80.4502   6.3188072060e+01   3.6384128665e+01    0.2740671    0.1755495 -56.61 0.0007768563    1.806    0.446
       428  -8.7262    119.0959     80.4461   7.0953007560e+01   4.3591842596e+01    0.2803226    0.2089621 -57.76 0.0006924242    1.520    0.342
       429  -8.9962     74.4595     80.3955   8.4805279789e+01   5.2236940559e+01    0.3260167    0.2349664 -63.85  0.001155734    1.666    0.400
       430  -8.2225    166.7607     79.7578   5.9496130988e+01   3.2553097568e+01    0.2531891    0.1825054 -35.74 0.0004923716    1.392    0.282
       431  -9.3005    128.2260     75.6125   6.7014787432e+01   4.2465134878e+01    0.3757896    0.2558024 -58.15 0.0006528518    1.760    0.432
       432  -8.0410    157.0160     76.5112   6.0567490103e+01   3.5487038094e+01    0.1988932      0.13333  88.84 0.0004147197    2.180    0.541
       433  -8.5652    140.3750     75.3859   6.3953208592e+01   3.9676090085e+01    0.2597933      0.23209 -71.59 0.0006140624    1.209    0.173
       434 -10.0529     63.1200     73.7012   8.6760370865e+01   5.5412483488e+01    0.4856434    0.2759471 -57.45  0.001197423    1.974    0.493
       435  -9.6747     82.4147     72.5928   7.9600628368e+01   5.2497120267e+01    0.4131499    0.2835338 -65.42  0.001150013    2.052    0.513
       436  -8.0283    163.4153     73.2555   5.8301134671e+01   3.4504007325e+01    0.2147565    0.1350689 -47.87 0.0009402609    1.610    0.379
       437  -8.4173    151.4261     73.2671   6.0804757154e+01   3.7410772770e+01    0.2093893    0.1390704 -48.02 0.0006046565    1.544    0.352
       438  -8.4490    115.7617     73.0868   6.9529364482e+01   4.5732229791e+01    0.2249277    0.2014587 -60.28 0.0005020511    1.221    0.181
       439  -9.2203     95.1350     71.2469   7.5012636323e+01   5.0378882402e+01    0.3716924    0.2204388 -53.22 0.0008765883    1.970    0.492
       440  -8.5912     42.7860     73.0980   9.4301081194e+01   5.8195413921e+01    0.1968442    0.1718478 -62.35 0.0006263484    1.249    0.199
       441  -7.9711    175.4707     72.5265   5.5785913180e+01   3.1695401046e+01     0.148757    0.1406123 -71.60 0.0001363435    1.011    0.011
       442  -8.9917    105.8866     71.6908   7.1890850739e+01   4.8111973030e+01    0.2768564    0.2086349 -48.74 0.0006177208    1.393    0.282
       443  -9.5049     51.5446     69.8979   8.9928117457e+01   5.7812696320e+01    0.4147949    0.2566186 -68.47  0.001452665    2.347    0.574
       444  -9.0714     29.4883     70.1516   9.8768822493e+01   6.0203363854e+01    0.3043144    0.1797747 -17.27  0.001529583    2.070    0.517
       445  -9.2801     16.6656     69.4971   1.0382999248e+02   6.1396997318e+01    0.4734732    0.1855193 -67.12  0.001977554    2.698    0.629
       446  -8.0704    157.0000     70.0137   5.8653096005e+01   3.6621100401e+01    0.2401859   0.08489922 -35.86   0.00035902    2.840    0.648
       447  -8.8067    147.0112     68.4151   6.0299686918e+01   3.9317087075e+01    0.2867834    0.1982654 -53.17 0.0006262177    1.570    0.363
       448  -8.9383    138.5191     66.0655   6.1487772274e+01   4.1755601470e+01    0.3571923    0.2326485 -61.35 0.0008723179    1.988    0.497
       449  -8.9456    121.5671     65.8427   6.5596684325e+01   4.5747154953e+01    0.3749582    0.2298202 -50.61  0.001201767    1.847    0.459
       450  -8.5551     83.7825     65.2054   7.6647135991e+01   5.3687497697e+01    0.3690258    0.2169852  11.76  0.001399144    2.983    0.665
       451  -8.6971     64.6959     63.6198   8.2860188391e+01   5.7218840504e+01    0.4773681     0.270337  -0.16  0.001740966    3.581    0.721
       452  -9.0484     37.4425     64.5510   9.3892897404e+01   6.0602183785e+01    0.2527192    0.1974701  68.81 0.0009702787    1.976    0.494
       453  -8.9113    110.1619     63.8664   6.8036565056e+01   4.8627994532e+01    0.2600347    0.2286809 -55.67  0.000680992    1.260    0.206
       454  -8.0105    158.1793     62.1041   5.6056199266e+01   3.7639373384e+01    0.2035304    0.1662308 -67.28 0.0004481734    1.318    0.241
       455  -9.5390     97.5646     60.7308   7.0657839821e+01   5.1832601113e+01    0.2939082    0.2759708  63.76 0.0008176324    1.216    0.177
       456  -9.6355     73.3599     59.6242   7.8293727557e+01   5.6573595953e+01    0.3912089    0.2449689 -53.40  0.001128357    1.905    0.475
       457  -8.4747     88.8775     60.0164   7.3143882311e+01   5.3682679887e+01    0.2069407    0.1954373 -65.07 0.0007235937    1.259    0.206
       458  -8.0942    146.6687     58.8225   5.7403773519e+01   4.0978256827e+01    0.2104487    0.1284775 -44.02 0.0004739094    1.679    0.404
       459  -9.8354     23.5360     56.5834   9.7358404784e+01   6.3595244239e+01    0.4305176    0.2852477 -85.78  0.002128902    2.761    0.638
       460  -8.7008    130.7400     57.7242   6.0626698234e+01   4.4979784237e+01    0.2822702    0.1912857 -45.89 0.0005464559    1.560    0.359
       461  -9.6535      7.2928     56.9211   1.0463694843e+02   6.4705580037e+01     0.314349    0.2021899 -77.45  0.001315311    1.906    0.475
       462  -9.2983    119.0480     55.6350   6.2822943472e+01   4.8031154048e+01    0.4447272    0.2184452 -44.15  0.001691147    2.193    0.544
       463  -8.2287    140.1667     56.2044   5.7977126044e+01   4.2966719587e+01    0.2027252    0.1685244 -65.68 0.0005041287    1.340    0.254
       464  -9.2486     54.0993     55.0224   8.3919693455e+01   6.0430128288e+01    0.3198177    0.2113821 -57.27 0.0009895704    1.883    0.469
       465  -8.8470     43.9488     55.5056   8.8233966938e+01   6.1675697966e+01    0.2773016    0.1836397 -55.65  0.001135718    1.668    0.400
       466  -8.4269    105.6402     53.1362   6.5578879643e+01   5.1413440350e+01    0.2291579    0.1992254  68.09 0.0007098636    1.323    0.244
       467  -9.5738     92.3785     50.5627   6.8588087405e+01   5.4600221749e+01    0.4077362      0.22968 -44.53  0.001119539    1.939    0.484
       468  -8.3764     74.4547     51.8479   7.5048959216e+01   5.7774234108e+01    0.2659137     0.166973   6.22  0.001178646    2.279    0.561
       469  -8.6261    144.4098     49.2381   5.4848219052e+01   4.2984111913e+01    0.2589669    0.1859906  -8.26 0.0009498384    1.788    0.441
       470  -8.5270    129.8443     49.3692   5.8057615662e+01   4.6479213296e+01     0.194224    0.1787775 -60.38  0.000407092    1.168    0.144
       471  -7.5170    150.2965     48.6790   5.3496676175e+01   4.1621004082e+01    0.1478697    0.1083107 -69.10 0.0003679977    1.617    0.382
       472  -8.6432    120.9631     47.4910   5.9530002986e+01   4.8841354766e+01    0.2068168    0.1913924 -23.65 0.0004987924    1.116    0.104
       473  -8.9587     82.1671     46.6883   7.0420278313e+01   5.7220321602e+01    0.2899701    0.2186956 -62.72  0.001035813    1.944    0.486
       474  -8.3955    112.1817     46.9659   6.1579647988e+01   5.0924194464e+01     0.207832     0.190455 -61.85 0.0004720482    1.248    0.199
       475  -8.6287     44.9903     44.5598   8.3770282407e+01   6.3574820482e+01    0.2274699    0.1663235 -50.42 0.0005908308    1.550    0.355
       476  -9.1740     16.5352     44.4769   9.6681453394e+01   6.6578768780e+01     0.242788    0.1971671 -63.56 0.0008401891    1.481    0.325
       477  -9.0367    132.8107     43.5081   5.5424483503e+01   4.6609690129e+01    0.2638154    0.2094003 -70.45  0.001096591    1.502    0.334
       478  -8.7963     92.8265     42.7151   6.5486133912e+01   5.5723448112e+01    0.2941343     0.195251 -10.50  0.001427691    1.796    0.443
       479  -9.0471     58.1696     42.6536   7.7581476420e+01   6.2018944423e+01    0.3067077    0.2003897 -55.74  0.001175363    2.198    0.545
       480  -9.2602     69.5238     41.4368   7.2768306250e+01   6.0349236030e+01     0.365801    0.2257335 -49.29  0.001101681    2.040    0.510
       481  -9.7187      5.1261     41.7017   1.0129879434e+02   6.7912110281e+01    0.3969855    0.2028121 -69.79  0.001978907    2.622    0.619
       482  -8.5457    105.9770     41.4731   6.1237425972e+01   5.3100074504e+01    0.2437663    0.1889971 -47.32 0.0005814771    1.469    0.319
       483  -7.6290    140.2778     41.6361   5.3236675008e+01   4.5057755021e+01    0.1464254    0.1055248 -64.54  0.000627067    1.673    0.402
       484  -8.4718     36.7797     40.8396   8.5922753124e+01   6.5253504881e+01    0.2101507      0.16368 -52.73 0.0006538993    1.542    0.352
       485  -8.6791     95.4466     38.2285   6.2974541491e+01   5.5822654691e+01    0.2464462    0.1969161 -58.53 0.0007921535    1.630    0.387
       486  -8.1098     80.8076     36.8424   6.6980698506e+01   5.8969103806e+01    0.1708062    0.1597562 -51.08 0.0004596097    1.330    0.248
       487  -9.4283     26.2266     35.3144   8.8653705244e+01   6.7385850072e+01    0.3218063    0.1843997 -47.79  0.001004498    1.675    0.403
       488  -8.0292    125.9741     35.7229   5.4264928886e+01   4.9278307667e+01    0.1918662    0.1695587  54.15  0.000332179    1.061    0.058
       489  -8.6826    111.7649     34.4891   5.7149426685e+01   5.2742420226e+01    0.3090667    0.1657339 -47.76  0.001262958    2.337    0.572
       490  -8.9176     48.4752     33.3306   7.7686805094e+01   6.4964989852e+01    0.2492413     0.200989 -39.78 0.0008158745    1.392    0.282
       491  -8.2346    119.1610     33.1752   5.4900933141e+01   5.1203217024e+01    0.1843618    0.1602121 -62.56 0.0004342818    1.332    0.249
       492  -8.8113     60.6662     32.6617   7.2445009434e+01   6.3179689382e+01    0.2298005    0.1832315 -43.14 0.0006368467    1.498    0.332
       493  -9.0105     72.0559     30.9093   6.7493905729e+01   6.1442001838e+01    0.2706062    0.1645777 -47.75 0.0008021439    2.188    0.543
       494  -7.5979    139.3176     31.6797   5.0159812533e+01   4.6562362253e+01    0.1423226    0.1034325 -69.83 0.0007041866    1.662    0.398
       495  -9.0048     12.8890     30.0869   9.3263283051e+01   6.9521988761e+01    0.2951955     0.158876 -58.86  0.001375115    2.307    0.567
       496  -8.7405    101.3302     29.4104   5.7908727761e+01   5.5707950291e+01    0.2114979    0.1544411 -48.03 0.0006674259    1.651    0.394
       497  -8.9884    128.0188     28.0102   5.1151233024e+01   4.9726601804e+01    0.3312776    0.2007833  40.65  0.001600416    1.682    0.405
       498  -8.7688     81.3894     27.4984   6.2933096921e+01   6.0109382478e+01    0.2499126     0.201888 -74.58 0.0007406708    1.949    0.487
       499  -8.9553      3.8089     27.5085   9.7087502814e+01   7.0640457899e+01    0.2405245    0.1510212 -57.49  0.001408343    1.697    0.411
       500  -8.8297     91.8548     26.2887   5.9279301991e+01   5.8120453229e+01    0.2635411     0.174461 -42.70 0.0008282181    1.778    0.438
       501  -7.5599    145.6747     25.3575   4.6960110173e+01   4.5737695118e+01    0.1454472   0.09824275 -66.68 0.0007044638    1.775    0.437
       502  -8.0863    104.1755     23.1231   5.4738070415e+01   5.5807614574e+01    0.1722076     0.157944 -82.51 0.0005799491    1.306    0.234
       503  -7.9525     34.7401     23.5132   7.9462392388e+01   6.8317889968e+01     0.151312    0.1093539  37.80 0.0009400863    1.658    0.397
       504  -9.0009     63.5517     20.9368   6.6145333744e+01   6.4263500962e+01    0.2919607    0.1970109 -44.91 0.0009755479    1.942    0.485
       505  -8.8463     48.4602     21.7808   7.2496319736e+01   6.6642762449e+01    0.1963178    0.1846628 -21.61 0.0006757122    1.384    0.278
       506  -8.1781    120.9879     21.0491   5.0145587446e+01   5.2163355775e+01    0.1588601     0.150067  38.23 0.0008290534    1.057    0.054
       507  -7.9443     19.5134     21.4959   8.6138640324e+01   7.0355804928e+01    0.1165493   0.09266984 -17.01 0.0001768439    1.059    0.056
       508  -8.4853    232.9296     19.7992   3.5152280986e+01   2.5649617545e+01    0.1731039    0.1554057  82.97 0.0005498284    1.245    0.197
       509  -8.7533     74.0186     19.5323   6.1874489049e+01   6.2499109921e+01    0.2220362    0.1691405 -39.90 0.0007102612    1.576    0.365
       510  -8.3163     87.9641     17.5001   5.6749646163e+01   5.9920725454e+01    0.2252453    0.1705775 -40.29 0.0005949308    1.562    0.360
       511  -8.4786     38.6722     17.8288   7.4919773171e+01   6.8598668350e+01     0.248472    0.1332908 -37.32  0.001367942    1.874    0.467
       512  -7.8495    112.8325     16.8336   5.0330683136e+01   5.4495989684e+01    0.1691111    0.1523003 -76.34 0.0003724904    1.290    0.225
       513  -8.0711     30.1703     16.1859   7.8161437969e+01   6.9943249818e+01    0.1458495    0.1290215 -17.53 0.0005547598    1.330    0.248
       514  -8.5848     96.9764     15.2867   5.3435596834e+01   5.8216566674e+01    0.1838597    0.1570661  42.87  0.000567077    1.046    0.044
       515  -7.9792      7.4955     15.5459   9.0002250264e+01   7.2382039025e+01    0.1115378   0.08699569 -20.43 0.0001086333    1.079    0.073
       516  -8.1248     17.2144     14.1881   8.3904094983e+01   7.1697630080e+01     0.139821    0.1249021 -13.77 0.0005279298    1.364    0.267
       517  -9.1655    175.6782    247.7754   9.3647242969e+01  -1.3859369254e+00    0.2815364    0.2338618  85.10  0.001220621    1.921    0.480
       518  -7.7648     47.5721     10.4913   6.7359395633e+01   6.8177070243e+01    0.1192173    0.0986236   6.57 0.0001306903    1.061    0.057
       519  -8.8916    132.6025    248.4174   1.0215094996e+02   5.1120472521e+00    0.3242518    0.1644537  57.28 0.0008436725    2.517    0.603
       520  -8.2358    113.1189    248.6592   1.0602157283e+02   8.0208344576e+00    0.2010996    0.1555094 -88.00  0.001051616    1.517    0.341
       521  -9.3254    103.9131    246.9681   1.0764964017e+02   9.6866661600e+00    0.4074989    0.2200026 -80.30  0.001989349    2.747    0.636
       522  -9.0216    242.9728    246.4550   8.1175839702e+01  -1.0639241620e+01    0.3169999    0.1446982 -28.12  0.001751268    2.147    0.534
       523 -10.0426    223.9676    244.2889   8.4137645568e+01  -7.8794238857e+00    0.4449211    0.2307486 -45.39  0.002362213    2.642    0.621
       524  -8.6512    218.5439    247.3636   8.5596427034e+01  -7.5388012958e+00    0.2589775    0.1065408 -34.65  0.001295197    2.573    0.611
       525  -8.5720    156.0917    248.1277   9.7495326559e+01   1.5491563193e+00    0.1826166    0.1376082  63.26 0.0006368175    1.681    0.405
       526  -8.0262     62.6583    248.6993   1.1578089772e+02   1.5104200663e+01    0.1004805   0.09268658  -5.67 0.0003858808    1.673    0.402
