#   1 NUMBER                 Running object number                                     
#   2 MAG_AUTO               Kron-like elliptical aperture magnitude                    [mag]
#   3 X_IMAGE                Object position along x                                    [pixel]
#   4 Y_IMAGE                Object position along y                                    [pixel]
#   5 X_WORLD                Barycenter position along world x axis                     [deg]
#   6 Y_WORLD                Barycenter position along world y axis                     [deg]
#   7 A_WORLD                Profile RMS along major axis (world units)                 [deg]
#   8 B_WORLD                Profile RMS along minor axis (world units)                 [deg]
#   9 THETA_WORLD            Position angle (CCW/world-x)                               [deg]
#  10 FWHM_WORLD             FWHM assuming a gaussian core                              [deg]
#  11 ELONGATION             A_IMAGE/B_IMAGE                                           
#  12 ELLIPTICITY            1 - B_IMAGE/A_IMAGE                                       
         1 -10.9886    110.7559     39.7615   1.6217785327e+01   5.2148504233e+01     1.047663    0.8388199 -75.35   0.00556359    1.267    0.210
         2 -11.6301      3.7327     36.2175   6.8672229923e+01   7.3106220179e+01     1.271094    0.4656633 -33.05  0.004813432    2.971    0.663
         3 -12.0138    104.6479     12.8999   7.0110750808e+00   5.7105678750e+01    0.6743481     0.390147 -18.27  0.002621921    2.185    0.542
         4 -12.6015    105.8572     19.9897   9.6511104167e+00   5.6016184733e+01    0.4346851    0.3067548 -75.38  0.000419236    1.468    0.319
         5 -12.0460    113.9413     24.7787   9.9667348083e+00   5.3369164303e+01    0.9343612    0.2617821  58.62  0.002436228    2.996    0.666
         6 -12.1412     58.3984     29.0511   2.8349627687e+01   6.6430982884e+01    0.5298616     0.372961  -7.09  0.000479166    2.025    0.506
         7 -11.2231      5.4900      9.7885   5.5368549997e+01   7.8724920740e+01    0.8071975    0.4387638   5.32  0.003988642    2.002    0.500
         8 -11.8406     26.5921     27.8130   4.6464025866e+01   7.2611906124e+01    0.5250695    0.4395454 -73.80  0.002325256    1.560    0.359
         9 -11.5789     20.4279     21.7170   4.7981873224e+01   7.4672233724e+01    0.5976056    0.3819198 -31.19  0.001778213    1.681    0.405
        10 -10.9618      9.4969     19.3900   5.6650022054e+01   7.6418939481e+01    0.4089797    0.2753357 -14.25  0.001230307    1.531    0.347
        11 -12.1383     16.0175     14.2423   4.7335962891e+01   7.6671715231e+01    0.9051603    0.5197526 -40.71  0.004686075    1.779    0.438
        12 -12.2310     22.6326     10.9002   3.9167738443e+01   7.6273078506e+01    0.6019365    0.4329603  12.93  0.002735659    1.469    0.319
        13 -12.6335    163.0536     27.6916   3.9667211284e+00   4.0878956158e+01    0.6857527    0.3434744  62.82  0.002250985    2.008    0.502
        14 -11.1087    121.3065     11.9162   4.0057114351e+00   5.2920787795e+01    0.9589046    0.1905968  70.95  0.002893999    4.203    0.762
        15 -11.1697    134.9862     22.1498   5.6726880567e+00   4.8341201397e+01    0.5646635    0.3603051 -53.06  0.002694532    1.481    0.325
        16 -11.6016    127.8670     16.4070   4.6982543900e+00   5.0779748537e+01    0.5123898    0.3662474  62.54  0.001405741    1.371    0.271
        17 -11.3902    135.9510     14.5068   3.0161698166e+00   4.8947555135e+01    0.5172619    0.2653499  67.43  0.001974478    1.775    0.437
        18 -11.5461     36.3201     18.1583   3.4029134396e+01   7.2696198113e+01    0.6657266    0.4696065 -33.00  0.002581291    1.539    0.350
        19 -12.0253    164.9756     17.8664   1.0096050330e+00   4.1567949611e+01     0.552178    0.2884525  49.40  0.002612269    2.543    0.607
        20 -11.2083     85.8828     14.7414   1.1773422841e+01   6.1731308725e+01    0.5889044    0.3532405   2.53  0.002539236    2.760    0.638
        21 -10.8061     89.0475      8.2760   8.0368401135e+00   6.1590737714e+01    0.3445793    0.2595451 -47.84  0.001124214    1.414    0.293
        22 -11.0294    190.7849     12.0207   3.5751075817e+02   3.6458274745e+01    0.3968856    0.1324105 -39.53  0.001863847    2.246    0.555
        23 -11.5156    192.6127      8.1997   3.5646859739e+02   3.6467455161e+01    0.4341715    0.2161733 -25.17  0.002047901    2.240    0.554
        24 -11.7545    241.9749     15.1410   3.5551587994e+02   2.6360392595e+01    0.2718183     0.190562  75.61 0.0004309166    1.709    0.415
        25 -11.9790    227.6120     14.7244   3.5608809113e+02   2.8926186523e+01    0.3916317    0.1816195 -67.13  0.001606952    1.933    0.483
        26 -11.2959    186.8330     14.8346   3.5846974623e+02   3.7003652102e+01    0.4332742    0.2690965 -75.70  0.002558512    1.428    0.300
        27 -12.2760     48.6748     12.7747   2.3674811461e+01   7.0930747505e+01    0.7279405    0.2695539  53.19  0.002894261    2.364    0.577
        28 -10.6976    223.6647      2.4167   3.5368736874e+02   3.0908186178e+01    0.2141866    0.1511292 -56.76 0.0006573372    1.007    0.007
        29 -11.7572    212.2053      9.0971   3.5563041470e+02   3.2409679844e+01    0.4535958    0.3160156  -6.92  0.002095965    2.308    0.567
        30 -10.8788    218.5513      3.3574   3.5409181122e+02   3.1771922201e+01    0.2476978    0.1770682  85.91 0.0007803409    1.454    0.312
        31 -11.8537    168.6677      9.5103   3.5838748229e+02   4.1601306044e+01    0.4926172    0.2315021  70.16  0.001915066    2.038    0.509
        32 -11.6832     63.9666      9.0704   1.5200544510e+01   6.7809724310e+01    0.4408471    0.3121063 -49.46 0.0003751042    1.627    0.385
        33 -10.4446      1.8313      2.1946   5.4639862095e+01   8.0509625767e+01    0.2676126    0.1521924 -40.04  0.001038473    1.693    0.409
        34 -11.6117    185.1188      5.2737   3.5618300804e+02   3.8360321982e+01    0.5007766    0.2661433 -33.86  0.002808825    1.741    0.426
        35 -10.8617    157.6581      6.2210   3.5831151387e+02   4.4494005515e+01    0.5755217    0.3181808   0.27  0.002461695    3.650    0.726
        36 -10.9692    153.9797      6.4664   3.5868270592e+02   4.5345276233e+01    0.2916231    0.1839203  79.14  0.001630099    1.441    0.306
        37  -9.4812     77.9357      7.1739   1.0073238601e+01   6.4532723081e+01    0.2103133    0.1670054 -80.23 0.0007516117    1.309    0.236
        38 -11.2865    243.6855      3.9476   3.5326531485e+02   2.7212491926e+01    0.2812254    0.1179663 -54.74  0.001014356    1.671    0.401
        39  -9.9447    145.0484      9.8712   5.3142359936e-01   4.7172036168e+01    0.1914343    0.1442093  47.61  0.000578933    1.639    0.390
        40 -10.8949    235.8063      4.1946   3.5359309532e+02   2.8545057830e+01    0.2034778    0.1771094 -51.46 0.0008369692    1.317    0.241
        41 -11.6494    137.9126      3.9953   3.5934743574e+02   4.9495555203e+01    0.5927122    0.2271142  68.04 0.0003749004    2.283    0.562
        42 -11.7685    133.5271      2.4882   3.5927318213e+02   5.0723948980e+01    0.6378369    0.2551146  77.06  0.002781153    2.190    0.543
        43  -9.5625    122.4487      4.9922   1.3457513041e+00   5.3295615028e+01     0.177813     0.129475 -31.00 0.0004199574    1.511    0.338
        44  -9.2180     70.3617      5.3103   1.1114110193e+01   6.6614871700e+01    0.1466623   0.08805568  41.03 0.0007040795    1.746    0.427
        45 -10.7477     41.4599      3.8579   2.1315282992e+01   7.3594378047e+01    0.4064069    0.2045237  36.37  0.001844581    2.132    0.531
        46 -10.0049    165.4808      3.5168   3.5696487271e+02   4.2924735784e+01    0.1867169    0.1233449 -11.32 0.0009317746    2.118    0.528
        47 -10.7994    113.4701      2.2452   1.4321643367e+00   5.5835940118e+01    0.4902512    0.2338937 -88.63  0.001694468    2.108    0.526
        48  -9.3307     30.4850      4.4718   2.8337043269e+01   7.5801767493e+01     0.130209    0.1132292  33.42 6.195729e-05    1.014    0.014
        49 -10.0066     28.9070      1.4413   2.7006455895e+01   7.6494556336e+01    0.1882017    0.1636026  57.47 0.0003695708    1.255    0.203
        50 -11.3909    206.1974      2.0701   3.5434002143e+02   3.4296723204e+01    0.4435409    0.1706217 -87.43  0.002196595    2.606    0.616
        51  -9.6008     75.3002      2.9632   8.5525932527e+00   6.5588785471e+01    0.4118462    0.1700432  77.05  0.001608302    2.565    0.610
        52 -10.0586    105.1987      1.7236   2.3458290559e+00   5.8010640630e+01    0.2356715    0.1563655 -87.77 0.0007284013    1.376    0.273
        53  -9.3923     12.3382      2.0096   4.1920060005e+01   7.9278143278e+01    0.1726894    0.1494643  -2.29 0.0006040067    1.079    0.073
        54  -9.5955    152.4171      1.3167   3.5727490500e+02   4.6202604475e+01    0.2080658    0.1023635  82.77 0.0005268438    1.815    0.449
        55  -9.5572    123.8354      1.3675   3.5988373563e+02   5.3263717819e+01    0.2496402    0.1113569  80.87  0.001107951    1.996    0.499
        56  -9.6019     82.2307      1.2479   6.1055512579e+00   6.3971294321e+01    0.1869932     0.102749  77.42 0.0005005579    1.657    0.397
        57  -8.7574     52.3222      1.6923   1.4922057084e+01   7.1345177644e+01    0.1300949    0.0984611 -75.73 0.0004013335    1.644    0.392
        58  -9.1381     34.0184      1.5126   2.3736791530e+01   7.5449881497e+01    0.1836171   0.08863948  35.11 0.0008033494    2.255    0.556
        59 -10.7297     12.6847    111.3295   7.6223519918e+01   5.2589399224e+01    0.5233079    0.2362473 -84.07  0.001446528    2.226    0.551
        60  -9.1018    249.3519    250.3097   3.6003476301e+01  -4.5933538880e+00    0.1026541   0.05103216  -9.07 0.0007044206    1.719    0.418
        61 -10.6395     16.3161    109.3773   7.4400213737e+01   5.2885309688e+01    0.3376879     0.277992  35.48 0.0009039956    1.222    0.182
        62 -11.5991      3.2927    105.7502   7.9888950074e+01   5.4705660204e+01    0.5266207    0.4784767  18.77  0.002535526    1.171    0.146
        63 -11.4538      7.9355    114.9612   7.8627583197e+01   5.1863540280e+01    0.3519805    0.2313317 -49.31 0.0002887655    1.553    0.356
        64 -12.0564      3.0160    111.7146   8.0483324476e+01   5.3044856616e+01    0.4765199    0.3357212  38.34  0.001409897    1.418    0.295
        65  -9.9253     79.2053    114.7821   4.9620061267e+01   4.3233530289e+01    0.2880986     0.247503 -21.66 0.0007601464    1.347    0.258
        66 -10.3523     58.5967    114.9841   5.7383861331e+01   4.6543240544e+01    0.2798978    0.2141713  43.88 0.0002783138    1.280    0.219
        67 -10.9019     35.2086    103.0658   6.4933910728e+01   5.2909603692e+01    0.6058132    0.2963022   6.52  0.001418513    2.828    0.646
        68 -12.1538     25.5719    107.5723   7.0021297516e+01   5.2628074733e+01    0.9918789    0.5959437 -74.01  0.002820281    1.621    0.383
        69 -11.6472     22.3877    114.0115   7.2304786127e+01   5.1089562831e+01    0.6013423    0.3360409  -2.73  0.001898618    2.261    0.558
        70 -11.2753     28.5201    112.7854   6.9486047198e+01   5.0877360922e+01     0.413215    0.3066543  29.37  0.001289634    1.342    0.255
        71  -8.7082     67.3352    114.6458   5.3941370632e+01   4.5277761194e+01    0.1723807    0.1174914  67.01 0.0007044035    1.794    0.443
        72 -10.0364     48.8821    111.8958   6.0685886156e+01   4.8766360184e+01    0.3255305    0.2122066  33.34 0.0007075678    1.492    0.330
        73 -12.0937     79.6962    107.8319   4.7783642497e+01   4.4930023338e+01    0.5166846    0.3613599  22.79 0.0007171012    1.643    0.391
        74  -9.9460    106.1494    107.8274   3.9062264006e+01   3.9794219453e+01    0.2131609    0.1909133 -12.52 0.0009255214    1.295    0.228
        75  -9.1381     45.5925    105.2682   6.0763534444e+01   5.1032169540e+01    0.2193139    0.1377932 -54.53 0.0009414706    1.568    0.362
        76 -11.0861     50.7771    100.2126   5.7434804461e+01   5.1699574422e+01    0.6661018    0.3864747 -37.05  0.002186903    2.099    0.524
        77  -9.7439     85.9235    103.4748   4.4472275491e+01   4.4859020475e+01    0.2510279     0.220603 -23.79 0.0007666281    1.299    0.230
        78 -10.5543     91.9947    102.3311   4.2100677208e+01   4.3951597442e+01    0.4352368    0.3652152 -12.85  0.002079498    1.481    0.325
        79 -10.5945     17.1048    100.1397   7.2870591081e+01   5.5432032324e+01    0.3044797     0.204676 -74.14 0.0006199525    1.421    0.296
        80 -10.5805     30.1825     97.2174   6.6191960175e+01   5.5080410755e+01    0.4941049    0.3861801 -50.88  0.002330287    1.270    0.213
        81 -11.4475      9.3135     96.7986   7.6187243246e+01   5.6893555620e+01    0.4897417    0.3609672  25.54 0.0007582319    1.395    0.283
        82 -10.5415    210.4155     98.0658   1.5527605136e+01   2.1039490028e+01    0.1885753    0.1803721 -84.46 0.0003215864    1.216    0.178
        83 -11.6141     79.2457     92.9917   4.4037155464e+01   4.8729591867e+01    0.9039723     0.684514 -57.36  0.004116113    1.347    0.258
        84 -12.2800     75.9157     79.2882   4.1214913037e+01   5.2665308772e+01    0.9725843    0.6212179  66.34   0.00140774    2.128    0.530
        85 -10.0263     67.4975     81.4778   4.5284676062e+01   5.3773098473e+01    0.4011495    0.3015606 -25.64  0.001818761    1.658    0.397
        86 -11.6374     68.1812     95.1665   4.8906945012e+01   5.0234437321e+01    0.6054553     0.404677  26.12  0.001550758    1.633    0.388
        87  -9.0076    140.7115     95.5915   2.6813214262e+01   3.5109743559e+01    0.1507809    0.1176566  -6.74 0.0003576077    1.814    0.449
        88  -9.8704     37.4393     85.5175   6.0220795926e+01   5.7453925685e+01    0.3525282    0.1901267  15.58  0.001166254    2.136    0.532
        89 -11.0659     23.2273     94.2234   6.9020391243e+01   5.6584399865e+01    0.4420726    0.3190876 -33.60  0.001544933    1.491    0.329
        90 -10.6470     18.9624     88.1386   7.0138686995e+01   5.8634281684e+01    0.6865177    0.4001305 -66.16  0.003086344    1.606    0.378
        91 -11.1061     43.3355     91.6648   5.8824160698e+01   5.5040913969e+01    0.6156538    0.2748603 -60.73  0.001382647    2.153    0.536
        92 -11.1813     36.6258     90.9717   6.1856944981e+01   5.6080085638e+01    0.6877665    0.5146703  30.81  0.003036813    1.328    0.247
        93 -10.5867     52.1521     86.8727   5.3546160939e+01   5.5037847497e+01    0.4617823    0.2856406 -56.30  0.000359422    1.603    0.376
        94 -11.7969     45.2134     83.9806   5.6034453721e+01   5.6824152176e+01     1.208622    0.7095167  73.42  0.003798016    2.755    0.637
        95 -11.4847     27.9855     85.2172   6.4938207912e+01   5.8608884500e+01    0.5599402    0.4570316  -7.89  0.001355697    1.329    0.247
        96  -9.2701    125.7218     93.9350   2.9924223362e+01   3.8708887722e+01    0.2076166    0.1880841 -55.82 0.0002170274    1.077    0.071
        97 -10.5778     98.2055     90.6183   3.6808070541e+01   4.5419993229e+01     0.280464    0.2579027  65.81 0.0006129863    1.071    0.066
        98 -10.6258      1.8377     71.2016   7.7012321981e+01   6.4296157199e+01     0.443074    0.2178577 -69.64  0.001955811    1.831    0.454
        99 -10.7998      2.6505     81.7700   7.7863911498e+01   6.1397947524e+01    0.3808008    0.2822486 -85.86 0.0006334932    1.311    0.237
       100  -9.7012      1.4943     77.5476   7.8007839613e+01   6.2597084559e+01    0.2490218    0.1982525  85.49 0.0007047842    1.262    0.207
       101  -9.9836     11.0016     90.0281   7.4506057862e+01   5.8679589752e+01    0.2001487    0.1873226 -88.19   0.00044736    1.045    0.043
       102 -11.3612      6.0750     88.0493   7.6786369737e+01   5.9508145865e+01    0.7466331    0.3995092   3.73  0.003264954    2.053    0.513
       103  -9.9940     66.3885     88.5697   4.7826368155e+01   5.2223784318e+01    0.4052455    0.2737171   4.93  0.001144728    2.245    0.555
       104  -8.8762    199.2569     88.3299   1.4854372678e+01   2.4532082311e+01    0.1201727   0.09548677 -14.38 0.0004251962    1.561    0.359
       105  -9.0803    112.6795     88.2817   3.1793799325e+01   4.2778682940e+01    0.1557292    0.1197379  87.74 0.0006994084    1.586    0.370
       106  -9.5666    104.2203     86.8404   3.3830092016e+01   4.4958762725e+01    0.2101936    0.1902284  -5.30 0.0009565175    1.325    0.246
       107 -10.0728     90.9567     85.5384   3.7686469723e+01   4.8116322508e+01    0.4277803    0.2837156  52.39  0.001869628    1.523    0.343
       108 -10.3722    143.2077     84.1389   2.3186294879e+01   3.6766091783e+01    0.2327716    0.2115865 -55.62  0.000554801    1.050    0.047
       109 -10.4566    113.0961     83.3120   3.0212833625e+01   4.3731136741e+01    0.4870731    0.3086644  77.83  0.001887195    2.383    0.580
       110 -11.7422     60.8616     83.2587   4.8644845439e+01   5.4529055298e+01    0.3273454    0.2883489  51.76 0.0004248696    1.135    0.119
       111  -9.6768    119.3744     79.0396   2.7254818487e+01   4.3167070173e+01    0.4339074    0.2368543 -62.78  0.001558725    2.533    0.605
       112  -9.6549    103.0210     79.4797   3.1952203092e+01   4.6807284824e+01    0.2447031    0.2002738 -49.56 0.0005470802    1.236    0.191
       113 -10.7980     89.1372     77.2378   3.5715902690e+01   5.0364421784e+01    0.5168359    0.3213071  50.49  0.001684858    1.587    0.370
       114 -10.5295     94.2581     75.0906   3.3303490653e+01   4.9701891472e+01    0.5205584    0.3454105 -64.83  0.002035731    1.814    0.449
       115 -10.9115     53.3653     76.3800   4.9991634416e+01   5.7513535527e+01    0.4666318     0.381095 -75.59   0.00231416    1.352    0.261
       116 -10.3700     58.0513     77.7593   4.8248219605e+01   5.6380775235e+01    0.2626237     0.224363 -58.17 0.0005732644    1.193    0.162
       117 -11.8183    246.7819     76.3345   7.2349949913e+00   1.8272300573e+01    0.3416483    0.1847843 -63.35  0.001978251    2.177    0.541
       118  -9.8635     46.6518     75.0087   5.2830125459e+01   5.8920264004e+01    0.3897414    0.2177321 -36.26  0.001160248    2.195    0.544
       119 -10.8854     14.2010     74.1913   7.0257089861e+01   6.2799871668e+01    0.4202463    0.2979612 -76.81  0.001775962    1.409    0.290
       120  -9.7090     65.3684     74.6736   4.4043751934e+01   5.5802330457e+01    0.3848906    0.2461722  14.09  0.001494966    2.361    0.576
       121 -11.2882     27.6807     73.2598   6.2388813024e+01   6.1839906720e+01      0.45307    0.3306354 -13.38 0.0002654754    1.548    0.354
       122 -11.9869     40.4762     69.4865   5.4348209463e+01   6.1214006327e+01    0.5417161    0.4481759 -61.01  0.001688153    1.232    0.188
       123 -10.8354     35.2491     71.5925   5.7775872505e+01   6.1384181453e+01    0.5136846    0.2291386  39.59  0.001644147    2.239    0.553
       124  -9.5658    103.7231     74.4478   3.0149486243e+01   4.7694198163e+01    0.3033215    0.1474885  54.51  0.001139093    2.105    0.525
       125 -10.2116     80.7340     71.6039   3.6860057268e+01   5.3407783958e+01    0.3881653    0.2748582 -46.40  0.001789614    1.461    0.316
       126 -10.1429     77.9692     67.0271   3.6320713964e+01   5.4990008522e+01    0.3035657    0.2088853 -79.84   0.00125379    2.128    0.530
       127 -10.7501    122.5114     68.5092   2.3237708597e+01   4.4449917238e+01    0.4763061    0.2546271  49.01   0.00174478    1.913    0.477
       128  -9.7673     13.7957     67.4237   6.9163298368e+01   6.4630287378e+01    0.5070719    0.1440292  13.50  0.001584596    3.847    0.740
       129 -10.2739     96.9319     65.2680   2.9152953670e+01   5.1107006712e+01    0.2628536    0.2228299 -45.08 0.0006356003    1.228    0.185
       130 -11.0887     92.3995     62.5044   2.9621635618e+01   5.2701343731e+01     0.412633    0.2791948  67.32 0.0008635369    1.660    0.398
       131 -13.4269      6.5907     61.7284   7.2555565867e+01   6.6581776676e+01    0.7577571    0.5239597 -34.74  0.003235002    1.410    0.291
       132 -10.3400     50.7508     56.4249   4.4457077114e+01   6.2673135528e+01    0.6353482    0.2856432 -56.61  0.002375658    2.528    0.604
       133 -10.8855     40.2771     56.5725   5.0160461196e+01   6.4367064850e+01    0.4133062    0.2312429  37.49  0.001163935    1.730    0.422
       134 -11.6676     43.1803     61.0311   5.0140088982e+01   6.2873348735e+01    0.4454898    0.2710955 -56.35  0.001262378    1.687    0.407
       135 -11.4915     46.4910     59.4425   4.7801941198e+01   6.2715693060e+01    0.6781284    0.3033259  48.81  0.002436456    2.680    0.627
       136 -10.1633    158.9591     62.7462   1.4360444541e+01   3.6910878890e+01    0.2575907    0.1707729  52.27 0.0006802212    1.667    0.400
       137  -9.5973    105.4427     63.5136   2.6034183328e+01   4.9443377681e+01     0.152255    0.1416782  87.53 4.567868e-05    1.025    0.024
       138  -9.8018     58.1730     62.4154   4.3057921963e+01   5.9982568175e+01    0.3109008    0.2309365  67.56   0.00144015    1.672    0.402
       139 -10.0127    113.5440     60.7488   2.2934426998e+01   4.8009432806e+01    0.2923468    0.2365821 -67.09  0.001047257    1.271    0.213
       140 -11.9047     75.2808     55.1461   3.2944877220e+01   5.8025686233e+01    0.7395884    0.4328246 -49.83  0.003190215    1.830    0.453
       141  -9.8774     65.0275     60.5225   3.9247355173e+01   5.9073422066e+01    0.3564768    0.2075806 -60.07  0.001456762    2.080    0.519
       142  -9.1641    150.9454     60.5254   1.5059736747e+01   3.9104942404e+01    0.1939066     0.134987  64.32 0.0003553968    1.452    0.311
       143 -11.4821     25.6950     57.2851   5.9140583713e+01   6.6130196379e+01    0.7585018    0.5083084  38.54  0.002448175    1.529    0.346
       144 -10.3248    124.7222     56.5753   1.8917698477e+01   4.6017771711e+01    0.3733169    0.2673481  31.64  0.001376823    1.920    0.479
       145 -10.5737    118.5307     56.1782   2.0187485952e+01   4.7596260366e+01    0.6296511    0.3500359 -76.17   0.00217534    3.259    0.693
       146  -9.9539    122.9068     44.4986   1.5278097436e+01   4.8391638281e+01    0.4195564    0.2934705  83.07 0.0009864469    1.475    0.322
       147  -9.5106    113.3949    248.7816   6.0624513890e+01   8.4607958459e+00    0.1537755    0.1044222 -35.74 0.0009517824    1.684    0.406
       148 -10.2010    112.2326     50.4073   1.9707245093e+01   5.0111227073e+01    0.3578429    0.2629217  69.75  0.001520593    1.324    0.245
       149 -11.3872    116.7699     48.0070   1.7805021992e+01   4.9375481654e+01    0.5515869    0.3892945 -21.20  0.001383927    1.840    0.457
       150 -11.2637    119.9821     40.5297   1.4504273943e+01   4.9713962102e+01    0.4897312    0.2340095  45.81  0.000792417    2.500    0.600
       151 -11.6362    119.5200     36.9832   1.3348488655e+01   5.0339659095e+01    0.4167081    0.2788926 -42.03 0.0008576973    1.505    0.336
       152 -10.1508    106.5126     58.2527   2.3927204634e+01   5.0156733161e+01    0.2736225    0.1956204  59.03 0.0004975504    1.344    0.256
       153 -10.7853     88.1936     54.9623   2.8233215058e+01   5.5125746181e+01    0.6141482    0.2667178 -31.78  0.002037877    3.308    0.698
       154  -9.5680     88.1497     49.1891   2.6021081002e+01   5.6187800444e+01    0.2862521     0.212153 -45.51 0.0007085706    1.414    0.293
       155 -11.5856     72.7497     46.7565   3.0530083240e+01   6.0191281776e+01    0.5935923    0.3889245 -70.25  0.002504462    2.260    0.558
       156 -10.4395    237.9907     55.7629   3.8782466048e+00   2.2319738530e+01    0.1914396    0.1262188 -41.99 0.0003824426    1.164    0.141
       157 -10.2175    157.3312     54.6604   1.2358799446e+01   3.8537917111e+01    0.4272379    0.2661651 -62.69  0.002076627    1.654    0.395
       158 -10.5775    155.0657     48.7465   1.1013254655e+01   3.9944172707e+01    0.2766856    0.1914907 -29.47 0.0005625859    1.606    0.377
       159 -10.8936     31.6236     52.8172   5.3933880533e+01   6.6481635416e+01    0.5050818    0.2689088  15.45  0.002063411    2.242    0.554
       160  -9.2575     67.3530     55.1801   3.6184758416e+01   5.9721038813e+01    0.2028259    0.1408449 -56.78 0.0005619646    1.604    0.377
       161  -9.8498     60.6599     53.3142   3.8406942175e+01   6.1473542982e+01    0.2671059     0.218176  70.95   0.00086708    1.423    0.297
       162  -9.9906     60.6722     50.3237   3.7176734046e+01   6.2083741103e+01    0.4655394    0.2997572  77.41  0.001782834    2.829    0.646
       163 -10.2082     61.5035     46.5018   3.5176044139e+01   6.2670488212e+01    0.4476162     0.369405  17.61  0.002322258    1.379    0.275
       164  -8.9130    201.6842     52.6603   6.3684329165e+00   2.9297460239e+01    0.1133071   0.09763724   8.99 0.0007048149    1.704    0.413
       165  -9.8652    126.7795     50.2723   1.6420032591e+01   4.6539236513e+01    0.3742302    0.2005527 -26.94  0.001524602    2.383    0.580
       166 -10.7003    243.9814     51.2610   2.5410073224e+00   2.1900739868e+01    0.1514738    0.1143839 -56.90 0.0004256447    1.112    0.101
       167 -10.2918    145.0202     50.0315   1.2973262829e+01   4.2136081847e+01    0.2399076     0.202437 -29.70 0.0003974685    1.351    0.260
       168  -9.5674     97.5059     49.9392   2.3441446161e+01   5.3805875868e+01    0.2094948    0.1476965 -41.50 0.0003722689    1.486    0.327
       169  -9.3691    189.0017     49.0917   6.8211372987e+00   3.2355575421e+01     0.206518    0.1218984 -60.88 0.0005285517    1.600    0.375
       170 -10.3390     83.3676     46.4809   2.6528732040e+01   5.7797304304e+01    0.4144764    0.2844552  -5.90  0.001726677    2.480    0.597
       171 -12.4754     40.6814     44.4351   4.5098349414e+01   6.7006662765e+01     1.082346    0.3734656  36.23   0.00200641    2.757    0.637
       172 -10.7449     20.2644     45.8941   5.9005695280e+01   6.9468901872e+01    0.3682927    0.2855403 -28.49  0.001362478    1.284    0.221
       173 -11.1915     26.0590     42.5717   5.3686613244e+01   6.9563072425e+01    0.4473705    0.3269645  46.32  0.001073642    1.513    0.339
       174 -10.1947     23.1346     37.1388   5.3511053630e+01   7.1136048294e+01    0.5409913    0.1745898  35.56  0.001976685    2.894    0.654
       175  -9.0105     91.6095     48.2157   2.4544628826e+01   5.5530353133e+01    0.1912567    0.1461724 -27.09 0.0004666821    1.549    0.355
       176  -9.8638     51.9348     47.9190   4.0410079225e+01   6.4282644819e+01    0.2233592    0.1943154   2.65 0.0005411506    1.265    0.210
       177  -9.3350      2.0019     48.3174   7.3063847286e+01   7.0238567763e+01    0.1880131    0.1750885  -7.80  0.001159312    1.087    0.080
       178  -8.8411    161.6554     47.2713   9.6550507728e+00   3.8624548017e+01    0.1432156   0.09155791 -69.83 0.0006696198    1.617    0.381
       179  -9.3511     27.4859     47.4815   5.4629841883e+01   6.8262330843e+01    0.1428972     0.129778 -13.64 0.0004875225    1.065    0.061
       180 -10.0416     13.0426     46.5355   6.4430630569e+01   6.9988652305e+01    0.2924852    0.1617505 -47.79  0.001375347    1.683    0.406
       181  -9.9623    146.0013     43.7411   1.0910786708e+01   4.2822793645e+01    0.3745599    0.1434025 -49.76  0.001412016    2.634    0.620
       182  -9.7196    233.9967     44.7263   1.9242127077e+00   2.4364209824e+01    0.1247625   0.09328973  88.63 0.0005509031    1.472    0.321
       183  -9.5941    139.0937     43.7792   1.2040921658e+01   4.4495125810e+01    0.2303065    0.1502923  41.21  0.001077127    1.995    0.499
       184 -10.0525    155.9792     42.3009   9.0199632073e+00   4.0645540118e+01    0.2465878    0.1976553 -30.16 0.0009550855    1.400    0.286
       185  -9.8693     99.0509     41.6009   1.9814869567e+01   5.4799040153e+01    0.3105511     0.202015 -85.45  0.001336526    2.049    0.512
       186  -9.9054     56.7945     41.7406   3.5264163170e+01   6.4552072443e+01    0.2592694    0.1882444  60.43 0.0006668504    1.531    0.347
       187  -9.4995     91.0711     41.1104   2.1881301907e+01   5.6846309286e+01    0.2157481    0.1926186  40.53 0.0004572443    1.200    0.167
       188  -9.9528     18.1161     40.4389   5.8587676660e+01   7.0963987580e+01    0.2515385    0.1689413 -40.86  0.001033032    1.449    0.310
       189 -10.9590     50.4885    248.9462   7.5020799587e+01   1.5069845205e+01    0.4250481   0.09880801  36.98  0.001743533    2.688    0.628
       190 -10.6670     79.0001     37.7391   2.4335407086e+01   6.0306579912e+01    0.4535064    0.3332303 -77.61  0.002077899    1.740    0.425
       191 -10.6745     78.4934     34.1287   2.2905611532e+01   6.0998786167e+01    0.5877352    0.4565151  18.40  0.002963904    1.665    0.399
       192 -10.0380    249.5512     38.9837   3.5978385662e+02   2.2468247918e+01     0.197963    0.1170844 -67.24 0.0007742767    1.589    0.370
       193 -10.5191     61.1749     36.1415   3.0614987158e+01   6.4643945745e+01    0.4699008    0.2882016 -26.96  0.001613974    2.071    0.517
       194  -9.1373    206.2247     37.1757   2.3712940784e+00   3.0406244096e+01    0.1631026    0.1092019 -60.85 0.0003138076    1.249    0.199
       195 -10.5117    153.3731     35.7340   7.4501535776e+00   4.2150012585e+01    0.2480949    0.2083788 -80.55 0.0005793145    1.055    0.052
       196 -10.6470    177.3522     28.9137   2.8583472442e+00   3.7473670567e+01    0.2410379    0.2274379 -25.87 0.0009825984    1.353    0.261
       197 -10.6958    175.2965     34.2685   4.4757607531e+00   3.7269756221e+01    0.3149076    0.1835856 -58.26 0.0007183558    1.541    0.351
       198 -10.8265    172.8629     30.7069   3.7742054163e+00   3.8260010194e+01    0.3806682    0.2390749  73.93  0.002097332    1.575    0.365
       199  -9.5505    216.9688     31.9816   4.0293092581e-01   2.8963855060e+01    0.1647914    0.1246681 -54.34 0.0003407942    1.016    0.016
       200 -11.4377    126.1759    241.1128   5.6987602049e+01   8.3143544079e+00    0.3124649    0.1593208  36.97  0.001669248    1.821    0.451
       201 -11.1361     67.7992    240.5287   7.0362603045e+01   1.4884683003e+01    0.3163116    0.2044112 -10.84  0.001276483    2.049    0.512
       202 -11.7722    107.5086     30.9792   1.3630007104e+01   5.4215441534e+01    0.7591923    0.4117308  39.13  0.003109282    2.495    0.599
       203 -11.1355     74.2889    238.6690   6.8663662950e+01   1.4541090540e+01    0.5801826    0.2184554  34.53   0.00267377    1.996    0.499
       204 -10.3560    239.7843     32.2901   3.5903243042e+02   2.4848608565e+01    0.2523132    0.1564914  59.33   0.00144453    2.164    0.538
       205  -9.9439     69.1797     32.6586   2.5613668338e+01   6.3424734239e+01     0.472452    0.2378524  61.54  0.001761665    2.148    0.534
       206  -9.7318     58.9535     20.4708   2.3533082268e+01   6.7590031213e+01    0.3110363     0.224228  66.94 0.0007520866    1.443    0.307
       207 -11.1048    146.9878    238.0835   5.2192608433e+01   6.4863076413e+00    0.3615317    0.2968937  60.33  0.002367245    1.950    0.487
       208 -11.5506     49.5774     29.5893   3.2929271390e+01   6.8209402809e+01    0.7542742    0.3930159  35.13  0.003213653    2.061    0.515
       209 -10.7129    131.7050    240.5426   5.5723661890e+01   7.7904337920e+00      0.23014    0.1007335  21.57   0.00102117    1.996    0.499
       210 -10.3870      4.6799     22.1271   6.2738871240e+01   7.6251908808e+01     0.434651    0.2158944  27.69  0.002111272    1.951    0.488
       211  -9.4464     15.5220    233.0690   8.2578003656e+01   2.1421027794e+01    0.1696594    0.1155381 -89.89  0.001038675    1.612    0.380
       212  -9.7705    122.6151    232.2084   5.6731776996e+01   1.0227239972e+01    0.1646126    0.1075025 -36.37 0.0009500453    1.683    0.406
       213  -9.2159    246.6589    230.3339   3.3654113376e+01  -2.1646790816e+00   0.08270236   0.07313322 -18.52 0.0007051129    1.754    0.430
       214  -8.8371    189.7137    229.6553   4.2745450221e+01   3.1633704543e+00     0.118186   0.06939141 -11.26 0.0004343633    1.648    0.393
       215  -9.1064     75.3521    224.2925   6.7139075285e+01   1.7240063654e+01    0.1305995   0.09379932  -9.96 0.0007029864    1.678    0.404
       216  -9.2129    248.6922    223.6729   3.2416038320e+01  -1.5561791662e+00    0.1056016    0.0559631 -12.40 0.0007037907    1.655    0.396
       217  -9.3107     36.2883     30.9035   4.1368311196e+01   7.0469445424e+01    0.1818105    0.1701523 -22.98 0.0005796705    1.109    0.098
       218  -9.0658     22.3095     31.2939   5.1477126830e+01   7.2493833433e+01    0.1391468   0.09798739 -15.82 0.0002624547    1.588    0.370
       219 -10.8366    189.3558     27.1279   1.3440898702e+00   3.5076877915e+01    0.3383246    0.2743352  31.03  0.002100218    1.875    0.467
       220 -10.9597    183.3186     25.6896   1.4869855049e+00   3.6545143819e+01    0.3808357    0.1873736 -59.33   0.00173238    1.844    0.458
       221  -9.5008    135.5262     30.4885   8.3441727353e+00   4.7189010003e+01    0.2316346    0.1726707 -59.69  0.000778058    1.257    0.205
       222 -11.9830    126.7004     28.1130   8.9386959676e+00   4.9706007478e+01    0.7216885    0.3625023  78.46  0.002454465    2.044    0.511
       223 -10.7233    229.9040     27.3315   3.5859130402e+02   2.7130553637e+01    0.2215328    0.1753399  59.12  0.001004855    1.728    0.421
       224 -11.3506    148.0299     22.3658   4.0865836340e+00   4.5093820286e+01    0.4682055    0.1858128  67.71  0.001996329    2.304    0.566
       225 -10.3464    151.1867     27.0770   5.1429354114e+00   4.3769682929e+01    0.3551186     0.194875  60.07  0.001733966    1.850    0.460
       226 -10.7676    143.8011     25.4618   5.5701538709e+00   4.5763112297e+01    0.5436147    0.2195816  81.18  0.002091457    2.778    0.640
       227 -10.0884    155.8005     24.5892   3.8658388542e+00   4.2960895466e+01    0.2448742    0.1715312 -73.41 0.0006543768    1.292    0.226
       228 -10.1549    154.9135     21.2192   2.9684819416e+00   4.3564231133e+01    0.3414155    0.2073333  31.13  0.001348593    2.951    0.661
       229  -9.3837     97.7671     25.8170   1.3776708485e+01   5.7377978750e+01    0.2011418    0.1554625 -78.36 0.0004622942    1.347    0.258
       230 -10.0992     45.7164     24.6874   3.2330543920e+01   6.9808884239e+01    0.2639475     0.181737 -31.54  0.001007592    1.612    0.380
       231 -10.6580      9.8246    217.4019   8.3459896243e+01   2.5225209149e+01    0.2192336   0.08965371 -89.81 0.0009740255    2.631    0.620
       232  -8.9457    164.4638    211.4361   4.4923034977e+01   8.7563601097e+00    0.1235547     0.101358   0.51 0.0002005168    1.006    0.006
       233  -9.7274     40.2520    207.2768   7.4917117849e+01   2.4741902957e+01    0.2029291    0.1031356  81.81 0.0008960778    2.392    0.582
       234  -9.3186     79.5144    205.2636   6.4137884212e+01   2.0753845209e+01    0.2023321    0.1372211 -84.78  0.001024574    1.887    0.470
       235 -10.3073    169.7433     23.0309   1.9981609684e+00   3.9885407587e+01    0.2753676    0.1679706  78.21 0.0008485985    1.573    0.364
       236 -11.6209      5.9870    198.7570   8.3848178259e+01   2.9780181941e+01    0.4062856    0.1889121 -70.05  0.001906857    2.292    0.564
       237 -11.0328    178.7985     20.6278   5.5916741801e-01   3.8121136671e+01    0.4912687      0.24606  52.05  0.002361709    2.619    0.618
       238 -10.6619     68.3087     20.0260   1.9647109794e+01   6.5457893866e+01    0.3502342    0.2928674 -69.60  0.001461147    1.362    0.266
       239  -9.9529    216.4571     19.9286   3.5779001888e+02   3.0437068575e+01    0.1893554    0.1259191 -66.88  0.000499736    1.249    0.199
       240 -10.1758     16.0358    190.5436   8.0689626422e+01   3.0960023270e+01    0.2778749    0.1593419  68.65  0.001067237    1.682    0.406
       241  -9.8342     46.5393     19.9562   2.9149447210e+01   7.0383323895e+01    0.2626542    0.1830476  60.31  0.001077313    1.544    0.352
       242  -9.7302     74.8829     19.1374   1.6984393033e+01   6.3973322764e+01    0.2191193    0.1544864  33.50 0.0007399526    1.629    0.386
       243 -12.6002      4.9882    183.5829   8.3590793909e+01   3.3536231692e+01    0.6865076    0.4971013  62.39  0.003896988    1.214    0.176
       244  -9.7093     27.9154    175.8440   7.6244975008e+01   3.3607892302e+01    0.2092393    0.1930609 -39.06 0.0007424585    1.257    0.204
       245 -10.5062     16.0725    173.7016   7.9783666542e+01   3.5196323352e+01    0.3360455    0.1702859  72.36  0.001469508    2.008    0.502
       246 -12.3938      8.9592    166.6570   8.1644087492e+01   3.7578617430e+01    0.6245302    0.3369088  38.00   0.00227452    1.618    0.382
       247 -12.8397     12.4577    160.5330   8.0174835237e+01   3.8941647406e+01    0.9321083    0.4631761 -40.77  0.003816261    2.585    0.613
       248 -11.1608     21.3104    150.3603   7.6444784982e+01   4.0988491202e+01     0.333809    0.2486656 -57.37 0.0006210101    1.412    0.292
       249  -9.5585    211.2682     15.9905   3.5721482993e+02   3.1865991213e+01    0.1612687     0.117115 -51.00 0.0001797282    1.090    0.082
       250  -9.9708    147.2336     15.8915   2.1797762447e+00   4.6011864966e+01    0.2589559    0.1444794  51.60  0.001251465    2.107    0.525
       251 -11.4426     24.2314    148.0015   7.5210634007e+01   4.1382969268e+01    0.3843193    0.2836446  83.04 0.0009676986    1.331    0.249
       252 -12.1252     16.7455    148.5370   7.7908798854e+01   4.1862468726e+01    0.7661518    0.3439037  89.96  0.002582605    2.323    0.570
       253 -10.0973    218.6090     13.6497   3.5630596255e+02   3.0707135984e+01    0.1428914    0.1351557  32.48 0.0009663852    1.603    0.376
       254  -9.8512    196.0465     14.3108   3.5773353148e+02   3.5111155306e+01    0.1695144    0.1280379 -69.71 0.0004467735    1.091    0.083
       255 -10.9311     18.2947    165.2056   7.8555333677e+01   3.7237520390e+01    0.4116499    0.2283752 -58.14  0.001876716    1.914    0.477
       256  -9.9556    205.0641    163.0839   2.9262058909e+01   1.1464324592e+01    0.2158576    0.1499586 -32.41 0.0007635807    1.212    0.175
       257 -10.8700     28.3539    160.6970   7.4902927046e+01   3.7551394539e+01    0.3109599    0.2289458 -84.65  0.001588169    1.356    0.263
       258 -10.8678      9.3056    154.7445   8.0893659333e+01   4.0725499850e+01    0.3337959    0.1996755  75.67   0.00157693    1.613    0.380
       259  -9.6708    104.7349    154.2509   4.9681300906e+01   2.8950379734e+01    0.2667706    0.1908304 -60.05  0.001264679    1.492    0.330
       260 -10.2133     13.5731     22.1901   5.4253806704e+01   7.5421320306e+01    0.2711559    0.1926109  28.89 0.0004817084    1.365    0.267
       261 -11.0990      4.4367    153.3214   8.2469532606e+01   4.1436004353e+01    0.2932894    0.1987814  29.14 0.0008763864    1.415    0.293
       262  -9.4624     55.4018    152.6880   6.4888361642e+01   3.6712125887e+01    0.2028269     0.138294 -57.48 0.0009319067    1.512    0.339
       263 -11.3663     47.5773    147.1817   6.6842650836e+01   3.9170156307e+01    0.7263916    0.4525428 -39.64   0.00313438    1.908    0.476
       264  -9.4458    214.9252    161.4883   2.7401218365e+01   1.0414669650e+01    0.1508897    0.1145164  30.08 0.0004009455    1.500    0.333
       265  -9.8320    104.1069    147.2670   4.8536931403e+01   3.0726639250e+01    0.2374419    0.2014733 -43.46            0    1.215    0.177
       266 -12.2985      3.6742    142.3884   8.2175237261e+01   4.4458225693e+01    0.8796296    0.4624489  36.51  0.002164759    1.749    0.428
       267 -12.0754     12.1182    135.8924   7.8642739824e+01   4.5710037188e+01    0.7705486     0.581436 -77.66  0.004012527    1.272    0.214
       268 -10.6341     33.0408    144.0339   7.1650533912e+01   4.1644336043e+01    0.3263379    0.2815536 -88.33 0.0008530041    1.137    0.120
       269 -10.4813     40.8104    138.4754   6.8132494213e+01   4.2357283821e+01    0.4728483    0.3284122 -76.75  0.001559131    1.451    0.311
       270  -9.3282     79.5013    137.9874   5.4377646437e+01   3.7142929769e+01    0.2276168    0.1548265 -62.56 0.0006270143    1.519    0.342
       271 -11.2183     30.3249    132.5536   7.1350277434e+01   4.5119891884e+01    0.6731754    0.3887909 -70.99  0.002495422    1.680    0.405
       272 -11.2335     24.3573    136.4590   7.4062138536e+01   4.4580164343e+01    0.4915871    0.3711921 -10.87  0.002333931    1.565    0.361
       273 -10.6708     20.6934    134.0216   7.5216236198e+01   4.5578080886e+01    0.3497763    0.2974593 -42.48  0.001347938    1.280    0.219
       274  -9.1364    103.7963    130.6287   4.5195576702e+01   3.4805228324e+01    0.2037707    0.1402071  46.75 0.0002254072    1.465    0.317
       275  -9.1310     50.6088    129.7630   6.3180730887e+01   4.3589291062e+01    0.2181647    0.1460956 -86.25 0.0006105773    1.660    0.398
       276 -11.0650     11.1405    125.2339   7.8172762074e+01   4.8766045543e+01    0.6229999    0.2743909 -53.77  0.002227531    2.266    0.559
       277  -9.5892     26.6930    127.2937   7.2149216724e+01   4.6947565362e+01    0.2234478    0.1812236 -79.50 0.0002386261    1.199    0.166
       278  -9.3841     27.3059    123.7247   7.1469247250e+01   4.7898965105e+01    0.2284177    0.1986283  67.64 0.0002616915    1.117    0.105
       279 -10.1269     22.9991    126.5457   7.3538566489e+01   4.7489050786e+01    0.2202765    0.1909464 -83.12 -4.644787e-05    1.112    0.101
       280  -9.8259     25.9918    131.6450   7.2923549422e+01   4.5785225989e+01    0.3050181    0.2008728 -77.61 0.0004692422    1.483    0.326
       281  -9.7093      2.1133    125.4555   8.1793927978e+01   4.9239675479e+01    0.3052619    0.1590281  72.41  0.001307892    1.911    0.477
       282 -10.6499    104.8283    122.3864   4.3026873296e+01   3.6601959577e+01      0.34674    0.3030822  53.76 0.0009906641    1.155    0.134
       283  -8.9815     67.2038    122.9651   5.5735478185e+01   4.3071784011e+01     0.197368    0.1253639 -63.66 0.0003955269    1.605    0.377
       284  -9.7542     49.3627    122.6905   6.2472336932e+01   4.5712134110e+01    0.3472441    0.2425935  -4.42  0.001503724    1.839    0.456
       285 -10.5033     43.7506    117.2508   6.3780291320e+01   4.7939677093e+01    0.4923581    0.2735321 -79.73  0.001645386    2.018    0.504
