#   1 NUMBER                 Running object number                                     
#   2 MAG_AUTO               Kron-like elliptical aperture magnitude                    [mag]
#   3 X_IMAGE                Object position along x                                    [pixel]
#   4 Y_IMAGE                Object position along y                                    [pixel]
#   5 X_WORLD                Barycenter position along world x axis                     [deg]
#   6 Y_WORLD                Barycenter position along world y axis                     [deg]
#   7 A_WORLD                Profile RMS along major axis (world units)                 [deg]
#   8 B_WORLD                Profile RMS along minor axis (world units)                 [deg]
#   9 THETA_WORLD            Position angle (CCW/world-x)                               [deg]
#  10 FWHM_WORLD             FWHM assuming a gaussian core                              [deg]
#  11 ELONGATION             A_IMAGE/B_IMAGE                                           
#  12 ELLIPTICITY            1 - B_IMAGE/A_IMAGE                                       
         1  -9.1255     76.1811     16.5970   8.9072025342e+01   6.1222609506e+01    0.1732113   0.09498469  34.57 0.0003474331    1.649    0.394
         2 -13.6102    147.9037    169.3694   1.1321789807e+02   1.7892700930e+01     1.144292    0.5519844  50.83  0.004392865    2.132    0.531
         3 -10.1752     94.7622    173.4071   1.2642287865e+02   2.6932967009e+01    0.1905983    0.1376884  30.79 0.0009541353    1.664    0.399
         4 -11.3000     93.2111    165.7915   1.2551720092e+02   2.8973040531e+01    0.3483495    0.2423126   9.01  0.001528792    2.566    0.610
         5 -13.2175    124.8924    173.6313   1.1938397871e+02   2.1498958395e+01    0.7832059    0.4996912  36.85  0.003582645    1.670    0.401
         6 -11.2569    175.3709    160.4025   1.0514486709e+02   1.4027077682e+01    0.4341356    0.1909177 -44.61  0.001587483    2.312    0.568
         7 -11.4729    161.6427    157.6832   1.0761880057e+02   1.7566236986e+01    0.3458258    0.2693003   3.04  0.001567637    1.788    0.441
         8 -12.9006    125.8158    153.9813   1.1530817893e+02   2.5834543722e+01     0.691994    0.4794469 -32.20  0.003076521    1.846    0.458
         9 -11.1983    105.7280    152.7902   1.2004846533e+02   2.9894028270e+01    0.2905619    0.2305272 -32.28   0.00129293    1.547    0.354
        10  -9.9267     92.4907    152.4818   1.2331844374e+02   3.2245031970e+01    0.1461742    0.1311137 -86.30 6.082495e-05    1.038    0.037
        11 -11.5487    137.9408    149.0781   1.1130540396e+02   2.4510497104e+01    0.4025573    0.2134229  53.77  0.001554868    2.063    0.515
        12 -10.2524     75.1571    155.1639   1.2813968619e+02   3.4303943609e+01    0.2032375    0.1545075  80.73    0.0010883    1.365    0.267
        13 -12.1077    176.6615    145.3205   1.0147527775e+02   1.6927903962e+01    0.5344899     0.366106  25.31  0.002263501    1.892    0.471
        14 -11.3325    169.1862    153.7832   1.0505608459e+02   1.6774442897e+01    0.3708842    0.2498396  68.82   0.00154561    1.951    0.487
        15 -10.2972     92.4830    142.0046   1.2129829616e+02   3.4739665699e+01    0.2363835    0.1348011 -56.18  0.001047611    1.638    0.390
        16 -10.4335     91.4878    146.0060   1.2234367180e+02   3.3951908235e+01    0.3541698    0.1262374  49.27  0.001180041    3.325    0.699
        17 -12.0693    149.1507    144.2810   1.0753819941e+02   2.3221779233e+01    0.4072237    0.3546011  -3.58  0.002012072    1.408    0.290
        18 -10.9426    154.3287    137.6714   1.0477641352e+02   2.3561618522e+01    0.3064388    0.2114884 -87.74  0.001206434    2.232    0.552
        19 -11.2289    111.8668    141.3446   1.1613687295e+02   3.1469901233e+01    0.3856898    0.2342289 -79.08   0.00147035    2.527    0.604
        20 -11.4913    122.9842    135.5319   1.1199595976e+02   3.0675730735e+01    0.5115197    0.2738157 -29.96  0.001718975    3.176    0.685
        21 -10.8137    117.1025    134.0417   1.1316982106e+02   3.2178720340e+01    0.3861818    0.1937623 -32.63  0.001268954    3.260    0.693
        22 -11.3538    103.0010    133.8768   1.1682889630e+02   3.4849314406e+01    0.4172319     0.217237  27.09  0.001545107    2.810    0.644
        23 -10.2755     79.4964    130.9886   1.2253310644e+02   3.9413012349e+01    0.2265145    0.1294802 -57.79 0.0005753516    1.596    0.374
        24 -11.7836     91.0621    128.9640   1.1896109896e+02   3.8061095471e+01    0.4095154    0.2975104 -42.23  0.002047206    1.414    0.293
        25 -10.5626    182.9886    128.9869   9.6227206221e+01   1.8914419838e+01    0.2562856    0.2011994   3.84  0.001148173    1.727    0.421
        26 -11.8572    154.0480    127.8961   1.0248854468e+02   2.5775262674e+01    0.3978507    0.3613051  27.69  0.002017726    1.194    0.163
        27 -10.2747    138.8196    125.9568   1.0571721175e+02   2.9563524438e+01    0.2582006    0.1857324 -16.83 0.0009953409    2.004    0.501
        28  -9.9107     84.4115    125.7645   1.2009008419e+02   3.9885521383e+01    0.2131391    0.1226707 -46.83 0.0009543757    1.671    0.402
        29 -10.6089    116.1546    127.2806   1.1185127186e+02   3.3927443763e+01    0.2436768    0.2026336  18.81  0.001205994    1.445    0.308
        30  -9.5934     66.9828    122.0000   1.2415793943e+02   4.3315543796e+01    0.2095663   0.07985905  33.73 0.0006135913    2.955    0.662
        31  -9.4980    184.6825    115.3187   9.2488017570e+01   2.1312913257e+01    0.1616748    0.1228464 -79.66 0.0002523331    1.658    0.397
        32  -9.2536    137.6522    115.6874   1.0342919857e+02   3.2087804558e+01    0.1596398    0.1261172   2.63 0.0007046348    1.716    0.417
        33 -10.2299    188.8215    106.1664   8.9321603373e+01   2.2143616985e+01    0.3341873    0.1941382  75.86  0.001169466    2.804    0.643
        34  -9.8962    119.6129    105.8299   1.0554749781e+02   3.8046981503e+01    0.2228407    0.1405209 -56.29 0.0008796048    1.714    0.416
        35 -11.2296     53.7538     89.4759   1.2081180327e+02   5.2288228858e+01    0.3008688    0.1857456 -39.24  0.001471641    1.508    0.337
        36  -9.4575     75.4878     88.0150   1.1354757113e+02   4.9695696939e+01    0.2012487    0.1037368 -31.10 0.0008093769    2.451    0.592
        37 -10.1914     48.7980     74.0068   1.1841957037e+02   5.6058187774e+01    0.1708719    0.1422473  55.52  0.001054391    1.611    0.379
        38 -10.2966    102.2125     69.9151   1.0005796069e+02   4.8690618285e+01    0.2100838     0.193582 -61.49 0.0006720361    1.258    0.205
        39  -9.5169     61.6860     70.3203   1.1299530033e+02   5.5202291225e+01    0.1207785    0.1042223 -88.28 0.0004889435    1.654    0.395
        40 -10.5535     94.9150     52.9821   9.6699852927e+01   5.2959954729e+01    0.3382273    0.2655852 -45.11  0.000945547    1.421    0.296
        41 -10.4747     95.6194     46.3560   9.4217687130e+01   5.3852204189e+01    0.2532695    0.2057468  11.61  0.001472543    1.203    0.168
        42  -9.6075     84.8634     21.0987   8.8180569036e+01   5.9173402320e+01    0.1752713    0.1660948  -9.04 0.0005291386    1.258    0.205
