#   1 NUMBER                 Running object number                                     
#   2 MAG_AUTO               Kron-like elliptical aperture magnitude                    [mag]
#   3 X_IMAGE                Object position along x                                    [pixel]
#   4 Y_IMAGE                Object position along y                                    [pixel]
#   5 X_WORLD                Barycenter position along world x axis                     [deg]
#   6 Y_WORLD                Barycenter position along world y axis                     [deg]
#   7 A_WORLD                Profile RMS along major axis (world units)                 [deg]
#   8 B_WORLD                Profile RMS along minor axis (world units)                 [deg]
#   9 THETA_WORLD            Position angle (CCW/world-x)                               [deg]
#  10 FWHM_WORLD             FWHM assuming a gaussian core                              [deg]
#  11 ELONGATION             A_IMAGE/B_IMAGE                                           
#  12 ELLIPTICITY            1 - B_IMAGE/A_IMAGE                                       
         1 -12.6670     74.9497     50.9565   9.7514214471e+01   5.6924577011e+01     1.185072     0.836249 -48.36  0.006579319    1.691    0.409
         2 -12.6315     60.2791     44.8817   1.0039557000e+02   6.0151042014e+01    0.8844442    0.4707632 -37.73  0.004639765    1.792    0.442
         3 -13.7198    118.1065     41.5417   8.1906796813e+01   4.9916361525e+01     1.236066    0.9885387  29.62   0.00457934    1.241    0.194
         4 -12.7141    128.9857     13.2105   7.0401710225e+01   5.0652857548e+01     1.609675     0.769056  80.60  0.006299241    3.383    0.704
         5 -11.8183    108.8152      1.9402   7.0651928645e+01   5.6018705531e+01      1.54942    0.2112762  61.86   0.00423489    6.397    0.844
         6 -12.2034    139.7328     24.5484   7.1896297547e+01   4.7055417018e+01      1.30798     1.035388 -16.19  0.007763504    1.479    0.324
         7 -12.2205    124.3536     26.8771   7.5694764654e+01   5.0312351150e+01    0.7790157    0.5695161 -29.67   0.00329809    1.513    0.339
         8 -12.0285    105.7477     33.0146   8.2115476000e+01   5.3626490178e+01     1.018206    0.5202172  12.17  0.003444686    4.642    0.785
         9 -11.8875    105.9981     20.0728   7.7555981914e+01   5.5011626956e+01    0.4314209    0.2524513 -16.49 0.0004833511    1.978    0.494
        10 -10.7785     60.7945     23.7120   9.2134186490e+01   6.2971611152e+01    0.7216204    0.2549176 -26.73  0.003086442    3.152    0.683
        11 -10.1409    146.2401     16.8316   6.8452328732e+01   4.6337341690e+01    0.4827507    0.2866606 -83.95  0.001501393    2.332    0.571
        12 -11.9599     26.3099     27.5569   1.0717285615e+02   6.6938198458e+01    0.4807098    0.3713085  20.38  0.003068142    1.391    0.281
        13 -12.6574     18.8941     22.7895   1.0853618817e+02   6.8344565275e+01    0.7415537    0.4799643  37.30  0.001976345    2.116    0.527
        14 -11.8057     22.8152     11.1961   1.0190007735e+02   6.9481493469e+01    0.5602512    0.3652347  -6.42  0.003941976    1.278    0.217
        15 -11.3573     14.0124      9.5038   1.0519351378e+02   7.0575524663e+01    0.3927562    0.2446155  18.85  0.002520812    1.502    0.334
        16 -11.4954    178.0776     21.5216   6.4964122689e+01   3.8285219955e+01    0.7663776    0.4744572   4.45  0.003458702    3.087    0.676
        17 -11.6056    154.0965     24.4672   6.9349446878e+01   4.3687082965e+01    0.6276519    0.4949628   5.28  0.003408309    1.641    0.391
        18 -10.2112     87.2216      7.3886   7.7618951418e+01   5.9976095175e+01    0.5550791    0.2727701  47.94  0.002554615    1.675    0.403
        19 -11.7612     90.3759     20.2026   8.1591303246e+01   5.8154470684e+01    0.4929354    0.4281255   4.97  0.002372778    1.129    0.115
        20 -11.5560     86.1159     13.9724   8.0415986390e+01   5.9595234439e+01    0.4814716    0.2840177  -2.68  0.001849066    2.015    0.504
        21 -10.1178     31.9954     12.2138   9.8360417810e+01   6.8316070826e+01    0.1744401    0.1393519  24.35 0.0005896352    1.386    0.279
        22 -12.4744     47.9191     13.1001   9.2396206813e+01   6.6112742415e+01    0.9416732    0.2979827  39.84  0.004351595    2.888    0.654
        23 -11.6654     35.6124     18.8009   9.9687994839e+01   6.7079150169e+01    0.4593396    0.2064283 -26.92  0.002371347    2.125    0.529
        24 -12.3579     69.3657     18.5319   8.7180701719e+01   6.2161940233e+01    0.6460223    0.3969971  42.95  0.003842206    1.505    0.336
        25 -12.1784    237.1983     16.0916   5.7384763388e+01   2.5320426195e+01    0.7239854    0.5813195 -29.55  0.004426133    1.653    0.395
        26 -11.4085    245.0590     15.8602   5.6689350581e+01   2.3670495372e+01    0.3547424    0.2829159 -39.78   0.00239248    1.488    0.328
        27 -10.4697    236.3070      9.2112   5.6092151588e+01   2.6313483714e+01    0.3322707    0.1753414 -71.44  0.001733682    1.767    0.434
        28 -11.4435    245.7866      7.4737   5.5024716234e+01   2.4500882191e+01    0.3498918    0.2904137 -51.10   0.00175209    1.347    0.258
        29 -10.9496    241.5004      3.8225   5.4647325013e+01   2.5811704041e+01    0.5375569     0.150131  67.68  0.002351954    3.035    0.671
        30 -10.2057    206.8531     18.3414   6.0748967198e+01   3.1857460427e+01     0.394578     0.180115 -55.03  0.001841291    2.237    0.553
        31 -11.1485    165.5292     17.1859   6.5570232077e+01   4.1744608294e+01     0.380604     0.240877  43.76  0.001236796    1.723    0.420
        32  -9.9843    115.7823     17.1109   7.4322427039e+01   5.3214634860e+01    0.2465686    0.1896854 -21.62  0.001102282    1.456    0.313
        33 -10.6218    222.6317     11.6754   5.7754265367e+01   2.9029778035e+01    0.4262143    0.2177442  73.88  0.001635783    1.712    0.416
        34 -11.5006    204.6251      2.7021   5.7482533783e+01   3.4049416690e+01    0.7239802    0.3019021  63.54  0.003559052    2.069    0.517
        35 -10.2455    191.8271     16.2969   6.1945698094e+01   3.5597057597e+01    0.2703876    0.2352381 -15.99  0.001731507    1.518    0.341
        36 -10.6032    186.5556     15.0993   6.2278894052e+01   3.6969915689e+01    0.3107784    0.1986015  61.23 0.0007715956    1.425    0.298
        37 -11.8669    192.2694      7.8626   5.9896866139e+01   3.6380196127e+01    0.6596883    0.4328237  13.07  0.003345828    2.840    0.648
        38 -10.8684    185.9478      8.9302   6.0851415198e+01   3.7751280273e+01    0.5300134    0.2408275 -67.97  0.002196953    3.032    0.670
        39 -12.2217    105.0108     12.7158   7.5213608775e+01   5.5924766560e+01    0.4513141    0.3884921  -9.59  0.002146282    1.270    0.213
        40  -9.5596     61.6932     13.1557   8.7516619863e+01   6.3999891642e+01    0.3368859    0.1242296 -21.70  0.001495948    3.149    0.682
        41 -10.7758     66.4030     10.3704   8.4820758656e+01   6.3494323810e+01     0.335296     0.177946  42.17  0.001646858    1.631    0.387
        42 -10.3621     62.8309      6.1951   8.4230729866e+01   6.4482882189e+01    0.2964682     0.171111   3.67   0.00126191    1.906    0.475
        43 -11.6172    211.6193     10.0166   5.8420945475e+01   3.1693447058e+01    0.3579065    0.3031473  18.65  0.001344375    1.816    0.449
        44 -10.0926    157.5830     10.5750   6.4917437918e+01   4.4278836212e+01    0.2989831    0.1349316 -34.65  0.001429312    2.396    0.583
        45  -9.4102      4.5562     10.3816   1.1012929371e+02   7.1278112331e+01    0.3142959    0.1592867 -22.79  0.001975866    1.669    0.401
        46  -9.4076      5.3416      5.7380   1.0770803852e+02   7.1815983701e+01    0.1676233    0.1120174 -27.53 0.0008773717    1.263    0.208
        47 -10.0863    169.0083      9.7864   6.3135844772e+01   4.1659231554e+01    0.3220757    0.1523966  49.04  0.001522754    2.151    0.535
        48  -9.3841    162.7859     10.1993   6.4081184492e+01   4.3088538627e+01     0.175355    0.1326184  47.16 0.0006049757    1.365    0.267
        49 -10.2392    151.7535      7.4075   6.4887781457e+01   4.5935396825e+01    0.4312813    0.1799331  60.82  0.001660567    1.923    0.480
        50 -11.1101     77.1962      5.2064   7.9485494741e+01   6.2050805723e+01    0.4283525    0.2757583 -18.38  0.002520238    1.645    0.392
        51 -10.5400     72.2491      3.0061   8.0016894187e+01   6.3129699718e+01    0.4076524     0.233065  23.70  0.002378148    1.699    0.412
        52 -10.6619    157.7739      2.5076   6.2692523455e+01   4.4957818337e+01    0.3355797    0.2161784  67.62  0.001316159    1.284    0.221
        53 -10.0030    162.7094      5.7519   6.2903744854e+01   4.3518536627e+01    0.2859344    0.1936622   3.30   0.00157609    2.185    0.542
        54  -9.0880    162.6813      1.2956   6.1728270536e+01   4.3916467001e+01    0.1276274    0.1049347  74.81 0.0001842587    1.004    0.004
        55 -10.4770     38.6455     21.4382   9.9551399616e+01   6.6370983045e+01    0.3927708    0.1621309 -30.58  0.001906939    2.279    0.561
        56 -10.7096     42.3325      3.4609   9.0264954219e+01   6.7895971111e+01    0.4079698    0.2039104   7.28  0.002113417    2.577    0.612
        57 -11.2849    225.7635      2.4107   5.5583234517e+01   2.9349498390e+01    0.5964895     0.263024 -87.38   0.00283056    2.357    0.576
        58 -11.0211    218.9031      2.6144   5.6191855735e+01   3.0842109767e+01    0.2874538    0.2237546 -77.17  0.001421929    1.057    0.054
        59 -10.1177    174.9463      4.6824   6.1087933817e+01   4.0743553806e+01     0.271576    0.1762879  77.78 0.0009043872    1.319    0.242
        60  -9.6286    170.9983      4.0000   6.1391803406e+01   4.1732134880e+01    0.2031491    0.1299587 -77.17 0.0007907413    1.658    0.397
        61 -10.4833    142.0876      3.7428   6.5297847873e+01   4.8489378682e+01    0.3463567    0.1974544  66.34  0.001851531    1.475    0.322
        62 -12.0966    133.8909      2.6393   6.6276087420e+01   5.0449484978e+01    0.3600848    0.2276587  64.57 0.0004924564    1.329    0.248
        63 -11.5638    182.4546     25.2864   6.5334132709e+01   3.6809857538e+01    0.7628825    0.3251263  46.45  0.003109925    2.846    0.649
        64 -11.4882      2.7612      1.8552   1.0723512795e+02   7.2509240913e+01    0.3396082    0.1473587  15.77  0.002044285    2.355    0.575
        65  -9.9339    183.0934      1.7944   5.9449489455e+01   3.9106070240e+01    0.2260082    0.1432563 -88.92   0.00128274    1.462    0.316
        66 -12.4642     16.3536     14.4243   1.0624012055e+02   6.9724382702e+01    0.7366679    0.3636452 -24.13  0.002440601    1.807    0.447
        67 -10.1311      1.2993      7.2337   1.1038928976e+02   7.1944122588e+01    0.1618242   0.07149185 -37.56 0.0002699721    1.836    0.455
        68  -9.6559     93.3234    135.6446   1.1560421560e+02   3.6252243309e+01    0.1575987     0.114929  83.79 0.0007046143    1.764    0.433
        69 -10.7284    242.9555    127.9839   8.0648864997e+01   6.4184238542e+00     0.252864    0.1966438 -85.53  0.001241363    1.621    0.383
        70 -11.4220    240.3478    122.6571   7.9894838458e+01   7.9115151278e+00    0.7173058    0.3561122 -43.70  0.003147359    1.769    0.435
        71  -9.7043    187.3369    128.3139   9.0773795279e+01   1.8210732090e+01     0.156552    0.1253758   4.66 0.0007046721    1.692    0.409
        72  -9.9570    223.9922    125.9814   8.3319745477e+01   1.0639991099e+01    0.3592833    0.1762747 -54.55  0.001380091    2.332    0.571
        73  -9.9748    221.7086    120.8198   8.2534120429e+01   1.2111824487e+01    0.3683162    0.2354758 -76.43  0.001392065    2.415    0.586
        74 -10.5546     18.4561    124.6846   1.3465614087e+02   4.8239447559e+01    0.3514732    0.1462205 -56.38  0.001021333    1.862    0.463
        75 -10.8865     55.2966    123.2101   1.2379899724e+02   4.4874193329e+01    0.6016524    0.3692558  22.61   0.00236538    2.037    0.509
        76 -10.5550     45.7998    120.4699   1.2604839822e+02   4.6639676744e+01    0.3373019    0.2458715  80.15  0.001418453    1.700    0.412
        77  -9.6520      2.0904    125.5942   1.3925962857e+02   4.9191883488e+01    0.2536878    0.1320627 -73.44  0.001404007    1.527    0.345
        78  -9.7227    178.3309    125.3310   9.1933959607e+01   2.0883254936e+01    0.1592459    0.1270097   2.82 0.0007051954    1.720    0.419
        79 -11.7241    104.7856    121.3023   1.0909338725e+02   3.7617483956e+01    0.5180075    0.4944842  75.11  0.001704197    1.091    0.083
        80  -9.7555      4.2622    121.3705   1.3811284956e+02   5.0021136894e+01    0.2460718    0.1936541  65.20  0.001663087    1.463    0.316
        81  -9.5247      7.2403    119.2592   1.3699208858e+02   5.0310695432e+01    0.1557168    0.1202243 -89.21 0.0007028557    1.286    0.223
        82  -9.8563    148.6284    119.5822   9.7231095553e+01   2.8888803815e+01    0.2815204    0.2374952  17.22 0.0008789725    1.435    0.303
        83  -9.5159     72.8740    119.8417   1.1791085697e+02   4.3299912666e+01    0.2160068    0.1814569 -31.32 0.0005572699    1.262    0.208
        84 -11.7719     35.0524     93.1934   1.2366367084e+02   5.3974012063e+01     1.533973     1.081931  83.84  0.008219157    2.129    0.530
        85 -12.2715      9.9703     96.9559   1.3258490464e+02   5.5147928241e+01     0.899323    0.6508744 -89.50  0.005648617    1.601    0.376
        86 -12.3232      7.2557     88.8365   1.3195184648e+02   5.7079852833e+01     0.470322     0.430383 -61.00  0.000937631    1.190    0.159
        87 -11.5586     37.3010     85.9641   1.2119233567e+02   5.5311188835e+01    0.3967818    0.2806249  14.37   0.00082333    1.633    0.388
        88 -11.2959     44.2524     85.3560   1.1866807124e+02   5.4713219761e+01    0.4679597    0.4091005 -12.51  0.002537243    1.171    0.146
        89 -12.1165     28.7040    113.0262   1.2973543979e+02   5.0089935577e+01     0.793338    0.4823744  68.51  0.003912515    2.439    0.590
        90 -11.3124     21.4884    114.2124   1.3209687006e+02   5.0427607822e+01    0.3005616     0.232346  -6.46  0.001034911    1.637    0.389
        91 -12.8100     25.7478    107.4003   1.2958953901e+02   5.1636627525e+01      1.16939    0.6349275 -32.75  0.005588897    2.147    0.534
        92 -12.2172     18.7690    106.2244   1.3151584521e+02   5.2463892112e+01    0.3683567    0.2242249 -49.48  0.000254593    1.368    0.269
        93 -12.6600     20.2697     95.5201   1.2901028755e+02   5.4737438409e+01    0.5552405     0.390745  16.43  0.001649336    1.724    0.420
        94 -12.4630     18.4815     90.2756   1.2852578637e+02   5.6015623131e+01    0.4634529    0.2588666 -43.12 0.0004533012    1.527    0.345
        95  -9.2896     81.4988    117.5143   1.1483785971e+02   4.2531494912e+01     0.146147    0.1338449 -49.03 -5.342977e-07    1.021    0.021
        96  -9.7121    114.0097    115.9820   1.0521232490e+02   3.7065834594e+01    0.2288654    0.2196805 -32.45 0.0003567205    1.060    0.057
        97  -9.5356    126.8318    113.9255   1.0124651547e+02   3.4901164436e+01    0.2313461     0.209682 -12.64 0.0004560426    1.231    0.187
        98 -10.5056    108.0985    112.4304   1.0592820002e+02   3.9024794305e+01    0.4361353    0.3155993  89.60  0.001749728    2.042    0.510
        99 -11.0521    102.4446    109.2597   1.0669693149e+02   4.0809848032e+01    0.5540333    0.4678894  -6.66  0.002842796    1.392    0.282
       100 -10.6700     67.0031    111.8924   1.1784594395e+02   4.6001060098e+01    0.4713337    0.2787349 -59.70  0.001732011    1.615    0.381
       101 -11.6537      2.4483    112.1907   1.3733051980e+02   5.2217561685e+01     0.394112    0.3223879 -81.70  0.001926162    1.184    0.156
       102 -10.6787      5.6860    108.6830   1.3586177473e+02   5.2810374353e+01    0.1884308    0.1366098 -53.03 0.0005759581    1.158    0.136
       103 -11.9457      4.5012    105.0997   1.3565117709e+02   5.3684543992e+01    0.3736323    0.3165016  -1.34  0.002124951    1.481    0.325
       104 -11.3383    170.8303    110.0645   8.9708999950e+01   2.5804548941e+01    0.5317544    0.4316867  40.70  0.001695196    1.326    0.246
       105  -9.8102     48.9077    112.1547   1.2342667111e+02   4.8238380394e+01    0.2043311    0.1767353 -89.23    0.0012254    1.287    0.223
       106 -11.2806     79.3193    108.5674   1.1331362261e+02   4.4942252714e+01    0.6073956    0.4126838  48.66  0.002525646    1.681    0.405
       107  -9.7564    120.0317    109.0285   1.0175908784e+02   3.7402326575e+01    0.1922948    0.1756431 -47.13 0.0007109094    1.066    0.062
       108 -11.2816    245.6505    102.1322   7.4621138097e+01   1.0539782523e+01    0.5208823    0.2490721 -59.33  0.001843045    2.639    0.621
       109 -10.5352    157.7225    105.8948   9.1529954813e+01   2.9724715577e+01    0.3521954     0.286306 -17.81  0.001080236    1.493    0.330
       110 -10.2677    181.9609    103.8260   8.5794301917e+01   2.4442619705e+01    0.5956563    0.3032037 -62.84  0.001940934    3.195    0.687
       111 -10.4373    143.7730    105.9981   9.4850077465e+01   3.2906115211e+01    0.3600189    0.3037685  49.54  0.001272405    1.198    0.165
       112 -11.1863    145.6279    100.3380   9.2870390255e+01   3.3659013192e+01    0.5522776    0.3540561 -33.69  0.002364908    1.704    0.413
       113 -11.0063     85.9836    104.7242   1.1032887202e+02   4.4732913140e+01    0.3728942    0.2718762 -34.47  0.001074412    1.400    0.286
       114 -10.8247     48.0827    103.1684   1.2171337797e+02   5.0391802269e+01    0.2294618    0.1993445 -34.28 0.0003467903    1.122    0.109
       115 -10.5518     51.9763     98.8957   1.1947307787e+02   5.0896532044e+01    0.6282534    0.1623129 -47.90  0.002159906    3.216    0.689
       116  -9.3125     82.0483    102.6965   1.1098909625e+02   4.5829116131e+01    0.1926392    0.1837959 -17.37 0.0004725985    1.067    0.063
       117  -9.9247     57.7281    102.4459   1.1848924242e+02   4.9394000913e+01    0.2558846    0.1580925 -63.96  0.001246397    1.682    0.405
       118  -9.8533    194.7626    101.6925   8.2781135743e+01   2.1847969409e+01    0.2594519    0.2475709   3.52  0.001257254    1.226    0.184
       119 -10.5018     67.3466     99.6703   1.1476378515e+02   4.8724122431e+01    0.3340403    0.2527203  70.85  0.001710608    1.861    0.463
       120 -11.0353     68.4051     95.7882   1.1342467243e+02   4.9426028067e+01    0.4561957    0.3274843 -16.58   0.00233151    1.679    0.404
       121  -9.7725    236.5080    100.0032   7.5465848507e+01   1.2811142117e+01    0.2254989    0.1265024 -41.68  0.001037289    1.603    0.376
       122 -10.2088     96.0796    100.0373   1.0607614105e+02   4.4012527440e+01    0.2123612    0.2002265 -22.16 0.0003231189    1.049    0.047
       123 -10.2897    211.0376     97.1651   7.8801862987e+01   1.8933040872e+01     0.453892    0.3120217  28.81  0.002007112    2.197    0.545
       124 -10.1358     57.3787     97.6203   1.1742363143e+02   5.0513882993e+01    0.2497338     0.202194 -56.55 0.0007958142    1.170    0.145
       125  -9.6070     77.9703     97.1919   1.1078792971e+02   4.7686930618e+01    0.2145301    0.1930324 -41.45 0.0004148498    1.028    0.027
       126 -11.3092     81.5059     92.7106   1.0846698406e+02   4.8085066065e+01    0.6536466     0.466863  52.37   0.00312432    1.680    0.405
       127 -11.1864     89.3904     90.0577   1.0529241539e+02   4.7314551935e+01    0.4988155    0.2975577 -38.15  0.001612337    1.650    0.394
       128  -9.6059     92.9412     85.6831   1.0294773312e+02   4.7579307727e+01    0.2669927    0.1995908  33.62 0.0005916461    1.389    0.280
       129 -11.4950     79.5070     82.8007   1.0626441653e+02   5.0455019336e+01    0.9157376    0.6210508 -68.17  0.004276919    2.152    0.535
       130 -11.3005     66.4760     81.8893   1.1022964776e+02   5.2626238763e+01     0.497143    0.3694128   9.66  0.002720831    1.529    0.346
       131 -11.1480     72.3573     78.6777   1.0735196555e+02   5.2399871200e+01    0.6459933      0.30159 -34.47  0.002668116    2.349    0.574
       132 -10.1732     42.4783     95.2542   1.2169457182e+02   5.2772054005e+01    0.2699917    0.2317668 -31.67  0.001394492    1.121    0.108
       133 -10.6297    117.4206     93.0691   9.8062662934e+01   4.1328651315e+01    0.4610254    0.2760678  34.97  0.001649148    1.861    0.463
       134 -11.0046    122.5865     93.7840   9.6875269322e+01   4.0098075258e+01     0.361192     0.265441 -55.94   0.00116167    1.468    0.319
       135 -10.4562    126.3167     93.1479   9.5710433925e+01   3.9427399304e+01     0.372169     0.301122  48.92 0.0009894725    1.250    0.200
       136  -9.9410    138.0141     93.5022   9.2835589260e+01   3.6770473910e+01    0.3969599    0.2637444  22.24  0.001333273    2.187    0.543
       137 -10.5773    236.4644     92.0435   7.3700254389e+01   1.4222343504e+01    0.3788992    0.2626851 -78.38  0.001902637    1.660    0.398
       138  -9.6041    160.2547     93.4388   8.7626337096e+01   3.1624821270e+01    0.2210486    0.1477906  65.64 0.0009539474    1.669    0.401
       139 -10.6384    152.3425     92.0850   8.9031329017e+01   3.3751514109e+01     0.348222    0.2863568 -59.11  0.001044435    1.265    0.210
       140 -11.2530    101.9567     90.0736   1.0155547727e+02   4.5020288418e+01    0.5917643    0.4420833  18.79   0.00201662    1.584    0.369
       141  -9.9435     51.9968     87.9857   1.1673527757e+02   5.3266486364e+01    0.1933847    0.1571351 -42.78 0.0006012372    1.066    0.062
       142 -10.7175    183.9702     86.2836   8.0894071899e+01   2.7294807519e+01    0.6676992    0.3040251 -46.62  0.002548274    2.182    0.542
       143  -9.8475    211.8483     87.5244   7.6363667779e+01   2.0490078119e+01    0.2916731    0.2292123  12.38  0.001043676    1.963    0.491
       144 -11.1166    113.3234     84.6320   9.6736582208e+01   4.3856333663e+01    0.7085822    0.3083475 -35.79  0.002598397    2.536    0.606
       145 -11.2547    108.5640     80.8947   9.6951766229e+01   4.5542727916e+01    0.3923448    0.3428786 -26.06  0.001386626    1.140    0.123
       146  -9.3994     67.5182     88.0231   1.1161740425e+02   5.1212127972e+01    0.2144122    0.1222224 -46.14  0.001021566    1.581    0.367
       147 -10.6518    165.4462     83.1693   8.3725290996e+01   3.2318887332e+01    0.4320945    0.3321866 -60.05  0.001659406    1.375    0.273
       148 -11.3141    143.3714     83.4126   8.8682035770e+01   3.7494146033e+01    0.4741312    0.3560455 -29.64  0.001625551    1.450    0.310
       149 -10.6600    120.1508     85.0257   9.4995451854e+01   4.2354979954e+01    0.4460272    0.1899572  41.03  0.001624717    2.489    0.598
       150 -10.6389    127.7178     83.5175   9.2568556725e+01   4.1009688051e+01    0.3517874    0.2446566  31.05  0.001615203    1.644    0.392
       151  -9.6411     59.4382     83.5569   1.1304662052e+02   5.3253698937e+01    0.2440233    0.1851576  -8.31  0.000821903    1.466    0.318
       152 -11.7380     52.9218     76.7718   1.1335197868e+02   5.5466131122e+01    0.7656509    0.3259546 -49.89  0.003407544    2.108    0.526
       153  -9.4535     37.7075     79.0380   1.1928981491e+02   5.6716315129e+01     0.185275     0.142437 -40.65  0.001148039    1.082    0.076
       154 -11.9492     13.8476     74.4160   1.2663166197e+02   5.9676319368e+01    0.4745285    0.3496915 -46.75  0.002101193    1.056    0.053
       155 -12.0276      2.0058     71.4028   1.3020919588e+02   6.1007488937e+01    0.7318594    0.1270658 -59.43  0.002787041    3.584    0.721
       156 -11.0863     14.4054     66.6973   1.2454918730e+02   6.1182978506e+01    0.3253776    0.2372354 -64.58 0.0008538999    1.456    0.313
       157 -11.7054      6.4973     63.0265   1.2660789562e+02   6.2412954185e+01     0.723047    0.1650655 -49.30  0.003153793    2.729    0.634
       158 -11.8104     12.4088     62.1890   1.2414372441e+02   6.2197773792e+01    0.3586047    0.2971043   5.82 0.0008438337    1.365    0.267
       159 -11.6066    242.1904     76.7876   6.9580883019e+01   1.5583286021e+01    0.6571206    0.3285129  79.24  0.002695677    2.832    0.647
       160 -10.0950    230.2796     73.1711   7.0331481330e+01   1.8763819793e+01    0.3275088    0.1952211 -70.88  0.001479955    1.964    0.491
       161 -10.2165    104.3012     76.7915   9.6920230721e+01   4.7163992927e+01    0.3549129    0.2520563 -25.12  0.001743966    1.531    0.347
       162 -10.9516     93.9581     76.0389   9.9736953947e+01   4.9272265335e+01     0.465001    0.4346035  12.20  0.001596567    1.052    0.049
       163 -10.2841    142.9481    249.5066   1.2365063141e+02   2.1245025714e+00    0.2066453    0.1106935  41.47  0.001034635    1.595    0.373
       164 -11.7407     85.5148     73.8155   1.0164591442e+02   5.1194852541e+01     0.611095     0.582678 -50.49  0.003719529    1.186    0.157
       165 -11.3315     78.8061     67.2302   1.0170249457e+02   5.3539088566e+01    0.6002994    0.5088679  60.87   0.00334486    1.540    0.351
       166 -11.1027     91.5347     62.5040   9.6165405658e+01   5.2140584386e+01    0.3788814    0.3605429 -61.42  0.001308924    1.265    0.209
       167 -10.9707     91.1739     57.8429   9.4731364485e+01   5.2981420563e+01    0.3619857    0.2667979  46.40  0.001096572    1.414    0.293
       168 -11.0549     87.5588     56.7234   9.5462635572e+01   5.3824042976e+01    0.5467134    0.2256467 -32.09  0.001439767    2.663    0.625
       169  -9.4441    170.2487     77.4444   8.1198319495e+01   3.2184822753e+01    0.2132226    0.1419512  70.69  0.000950151    1.651    0.394
       170  -9.2231    134.4839     77.4632   8.9091648377e+01   4.0622623282e+01    0.1471197    0.1426673  82.21 6.696591e-05    1.059    0.055
       171 -11.0300     58.6337     78.2701   1.1182053365e+02   5.4434878076e+01    0.2886092    0.2746904  14.76 0.0008081257    1.183    0.155
       172  -9.5084    126.5547     76.5136   9.0792720364e+01   4.2565480752e+01    0.1447217    0.1419119  18.43 4.946216e-05    1.008    0.008
       173 -10.1917    184.1856     60.8889   7.4249770318e+01   3.1542620090e+01    0.2673139    0.2425789  76.93  0.001058351    1.052    0.049
       174 -12.4788    186.1997     69.9115   7.6249539056e+01   2.9603745382e+01    0.9687571    0.6449608 -57.19  0.003988207    1.564    0.361
       175 -10.2578     66.5374     72.6366   1.0746286067e+02   5.4441103609e+01    0.4288863    0.2248113 -41.34  0.001631831    1.749    0.428
       176 -10.4238    192.1422     65.6142   7.4150256277e+01   2.8869410311e+01    0.3949887    0.2586172 -88.30  0.001772389    1.849    0.459
       177 -11.2768     33.2004     71.6844   1.1893092327e+02   5.8644018186e+01    0.5141264    0.2612187  19.91  0.002652301    2.296    0.564
       178 -10.6074     38.2413     73.4335   1.1759159903e+02   5.7796057153e+01    0.2825409    0.2053706  16.45  0.001175617    1.516    0.340
       179 -11.4233     41.7003     70.8764   1.1562779241e+02   5.7935914398e+01    0.4553433    0.3040074 -54.37  0.002383246    1.483    0.326
       180  -9.5230     60.8069     72.8116   1.0946625106e+02   5.5216520483e+01    0.1608706    0.1553274  58.16 0.0004410937    1.311    0.237
       181 -10.6697     21.6869     71.9910   1.2320430422e+02   5.9588803288e+01    0.3215842    0.2093613  37.27  0.000646574    1.954    0.488
       182 -10.9606    161.9980     70.5004   8.0941649212e+01   3.5370710748e+01    0.4342096    0.3308195  87.35  0.001559773    1.515    0.340
       183 -11.8542    122.6620     68.4603   8.9344785981e+01   4.4836646851e+01    0.6151983    0.4521772  51.09  0.002057128    1.343    0.256
       184 -10.3711    129.0715     65.0052   8.6674877016e+01   4.3998528797e+01    0.5610582    0.2590672 -51.23  0.002066185    2.863    0.651
       185  -9.9589    234.1897     76.1646   7.0480353122e+01   1.7410812604e+01    0.2895544    0.1894514 -78.59  0.000778715    1.732    0.423
       186 -11.9863    219.9437     66.2442   7.0149812426e+01   2.2214531772e+01    0.7661229    0.3752598  58.23  0.002635862    2.061    0.515
       187  -9.8168    228.4726     59.5015   6.7505136199e+01   2.1336488477e+01    0.2242736    0.1872921 -70.07 0.0007191006    1.026    0.025
       188 -10.3969    208.7975     67.9952   7.2149950174e+01   2.4518695923e+01    0.3680826    0.1903873  51.55  0.001601895    2.076    0.518
       189  -9.0757     69.7640     66.9444   1.0459618984e+02   5.5025389632e+01    0.1667259    0.1026992 -39.75 0.0002763374    1.512    0.338
       190 -10.6734    172.1052     67.9186   7.8261365562e+01   3.3352680722e+01    0.3875482    0.3236455 -50.73  0.001419009    1.203    0.169
       191 -10.7922     58.3107     61.7062   1.0686286125e+02   5.7625025765e+01     0.467478    0.3156591 -48.39  0.002075071    1.537    0.349
       192  -9.4432    174.9859    246.5034   1.1689480289e+02  -2.7661966600e+00    0.1878396    0.1026603  21.05  0.000810531    2.580    0.612
       193  -9.6757     25.9116     65.2993   1.1986372371e+02   6.0557367904e+01     0.161134    0.1285762 -32.04 0.0004143073    1.034    0.033
       194  -9.8709     21.0502     65.0064   1.2161210993e+02   6.1017116590e+01    0.1834829     0.140112 -34.70 0.0009284476    1.059    0.055
       195 -10.0822    204.7200     63.7109   7.1719988714e+01   2.6166151296e+01    0.2708848    0.2025852  39.37  0.001381021    1.712    0.416
       196  -9.9691    198.3539     63.2988   7.2583395815e+01   2.7746835650e+01    0.3051781    0.1958899 -57.58  0.001462715    1.584    0.369
       197 -10.3289     98.0674     62.8930   9.4340696130e+01   5.0844513569e+01     0.357537    0.2570233   5.76  0.001763467    1.713    0.416
       198 -11.0601    159.3366     61.6630   7.8995164747e+01   3.7452596457e+01    0.6575319    0.4753543   0.46  0.003036928    2.076    0.518
       199 -10.9379    157.4044     56.7637   7.7986445436e+01   3.8675143440e+01    0.4132408    0.3059942  15.62  0.001198107    1.893    0.472
       200 -11.2962    155.6732     51.2773   7.6754883095e+01   3.9903042563e+01    0.5489132    0.4012365 -36.42  0.001992435    1.455    0.313
       201 -11.9869    119.2614     58.4145   8.7073512635e+01   4.7224153632e+01     1.114694    0.6378193  50.85  0.004195509    1.685    0.407
       202 -10.0970    199.0532    244.5017   1.1189279146e+02  -6.4132546189e+00    0.1989513    0.1105475  37.76  0.001032622    1.590    0.371
       203 -11.3058    127.6560    242.6383   1.2576703970e+02   5.9511693010e+00    0.3586666    0.2026545 -75.47  0.001647186    2.604    0.616
       204 -10.8405    245.8012    238.9178   1.0226877687e+02  -1.2680675871e+01    0.2373431    0.2028045  34.98 0.0007489314    1.429    0.300
       205 -11.8917     26.1429     55.5848   1.1694994054e+02   6.2359948440e+01    0.8481031    0.6086839   1.52  0.005568759    1.433    0.302
       206 -10.0107     52.0319     47.8970   1.0447262516e+02   6.0822215608e+01    0.3794748    0.2417615   0.76  0.002073651    1.816    0.449
       207 -11.2550     33.7557     42.0344   1.0946138011e+02   6.3948386161e+01    0.8535399    0.4804408  26.12  0.005026111    1.847    0.458
       208 -11.3710     40.3040     55.8215   1.1156078328e+02   6.0900808333e+01    0.4227331    0.3996839 -54.83  0.002164396    1.403    0.287
       209 -10.6761     26.0003     48.0111   1.1462027909e+02   6.3716685961e+01    0.2700462    0.1631039   1.14  0.001297667    1.832    0.454
       210 -10.6847     21.2699     47.6101   1.1640690425e+02   6.4203587059e+01    0.3268085    0.2393325 -34.65    0.0014659    1.095    0.086
       211 -11.8201     45.9141     48.9289   1.0712567720e+02   6.1431216474e+01    0.5079885     0.328206 -22.75  0.001362094    1.454    0.312
       212 -11.8855     41.6967     45.4263   1.0752143920e+02   6.2511349133e+01    0.2980629    0.2297025   1.31 0.0003232624    1.198    0.165
       213  -9.8616    147.3457     60.6136   8.1165019388e+01   4.0483839970e+01    0.3451892    0.1386746  60.00  0.001237227    2.632    0.620
       214 -10.2187    139.7681     43.7788   7.7736917439e+01   4.4718361486e+01    0.4326329    0.2850009  76.33  0.001971665    1.808    0.447
       215 -11.0578    136.4682     56.2313   8.2249127654e+01   4.3703787369e+01    0.6849609     0.591918 -14.31   0.00283507    1.282    0.220
       216 -10.4511    145.5077     52.0115   7.9013257384e+01   4.2219176356e+01    0.3322889      0.27294 -25.75  0.001616219    1.344    0.256
       217 -11.6069    146.0459     46.2405   7.7187583618e+01   4.2908922906e+01    0.6868759    0.3889917 -25.37  0.002977545    2.101    0.524
       218 -10.4423    218.9305     57.0158   6.8157589771e+01   2.3884142196e+01    0.4067082    0.1944912  74.42   0.00170942    2.360    0.576
       219  -9.4158      1.5281     56.4405   1.2687473025e+02   6.3957780417e+01    0.1141761   0.08374102 -40.27 5.697366e-05    1.024    0.023
       220  -9.4717    187.4904     55.3194   7.2270533368e+01   3.1593321292e+01    0.2503649    0.1230838  62.63  0.001063944    1.936    0.483
       221  -9.2603     13.7953     54.2033   1.2141788485e+02   6.3605497328e+01    0.1607192    0.1014943 -33.71 0.0003367331    1.282    0.220
       222 -10.8414    249.7114     53.0325   6.3694691671e+01   1.7698032408e+01     0.323912    0.1891171 -76.70  0.001251354    1.833    0.455
       223 -11.2809    240.1307     50.3209   6.4152234962e+01   2.0139883446e+01    0.5214392    0.3602972  57.27  0.002780276    1.648    0.393
       224 -10.2529     67.1097     54.9977   1.0155450798e+02   5.7514305932e+01    0.2652061    0.1975502 -46.90 0.0008416847    1.503    0.335
       225 -11.1395    202.3337     47.9665   6.8243636749e+01   2.9105577934e+01    0.5830137    0.3574702 -33.85  0.002892343    1.783    0.439
       226 -10.2907    194.4188     46.4179   6.8974393926e+01   3.1216045665e+01       0.5041    0.2372914  85.24  0.001774412    3.399    0.706
       227 -11.0000     60.7582     36.7425   9.7219743717e+01   6.1278932307e+01    0.3046272    0.1934579 -28.07 0.0009962377    1.486    0.327
       228 -11.3663    174.2210     47.7178   7.2432815792e+01   3.5920398363e+01    0.6681788    0.3762447  66.90  0.002421481    1.708    0.415
       229 -10.3854    176.6098     43.2677   7.0857043968e+01   3.5955559609e+01     0.369747     0.249564  75.82   0.00134735    1.450    0.310
       230 -10.2099    150.3932    237.7880   1.2049396130e+02   2.9520767198e+00    0.1756251    0.1252379 -38.65 0.0009543188    1.689    0.408
       231  -9.2242    221.5138     49.0444   6.6016696186e+01   2.4474341736e+01    0.2903659    0.1633006  34.37  0.001102196    3.897    0.743
       232  -9.7989     90.9471     48.3598   9.1570819885e+01   5.4497459315e+01      0.21752     0.180987 -43.89  0.001268484    1.379    0.275
       233  -9.5463      2.6659     49.0480   1.2445490250e+02   6.5263992202e+01    0.2203236    0.1507618   6.73   0.00155013    1.606    0.377
       234 -10.0142      4.2739     44.2951   1.2242335329e+02   6.6018986561e+01    0.3839884    0.1839635 -20.50  0.001650023    2.226    0.551
       235 -11.4733      4.2520     36.1253   1.1989875658e+02   6.7421770090e+01    0.3297461      0.19283 -31.57 0.0004256759    1.327    0.246
       236  -9.9025      7.1623     30.8793   1.1684056990e+02   6.8082535868e+01    0.3622962    0.1479216  20.76  0.002034442    2.613    0.617
       237 -10.2050     14.1866     46.0820   1.1883226654e+02   6.5034438205e+01     0.356444    0.1413669 -33.52  0.001778308    2.321    0.569
       238  -9.9618     18.0827     41.9408   1.1587611986e+02   6.5439695773e+01    0.2940724    0.1569487  -1.04  0.001612707    2.229    0.551
       239  -9.5925     15.2951    233.9425   1.4629391741e+02   2.3706913752e+01    0.1641138    0.1154486  89.23    0.0011485    1.131    0.116
       240 -10.1895    162.1931     43.5732   7.3361346623e+01   3.9407222319e+01    0.3960666     0.187204  65.67  0.001655308    2.086    0.521
       241 -11.6296    156.0236     41.8765   7.3992116971e+01   4.1119214020e+01    0.3868078    0.3652191 -82.56  0.001014851    1.080    0.074
       242 -10.9378    153.3751     36.0496   7.2798260058e+01   4.2501321692e+01    0.2806719     0.259587  33.05 0.0003550554    1.180    0.153
       243 -10.6773    100.8259     43.3808   8.7005160912e+01   5.3291114893e+01      0.37346    0.2913136  62.31  0.001790186    1.501    0.334
       244 -11.3513     93.8122     41.3267   8.8271756466e+01   5.4952552127e+01    0.5433018    0.2599016  44.25  0.001865353    1.941    0.485
       245 -10.9970     69.7665     32.6496   9.2560532386e+01   6.0414266832e+01    0.4865349     0.273006  42.89  0.001022342    1.751    0.429
       246 -11.3194     81.4653     39.5447   9.1344643166e+01   5.7487149390e+01    0.5179206     0.332667  47.82  0.002074842    1.621    0.383
       247 -11.0389     77.7652     34.2197   9.0550367145e+01   5.8850995433e+01     0.388097    0.2449117  43.22  0.001547476    1.530    0.346
       248 -10.8927     82.1854     31.5480   8.8181945817e+01   5.8402251483e+01    0.5304151    0.3292972  50.23  0.002908143    1.670    0.401
       249 -12.1432     48.9355     60.0370   1.0969974795e+02   5.9139553161e+01    0.6943958    0.5349122  64.13  0.003931135    2.227    0.551
       250 -10.4639    188.9888     41.3612   6.8488680141e+01   3.3219247102e+01    0.3991606    0.1780151 -34.43 0.0005668585    2.375    0.579
       251 -10.2415    231.2660     38.9050   6.2677060952e+01   2.3703282904e+01    0.3332779    0.1746168 -45.10   0.00169259    1.736    0.424
       252  -9.3333    184.5994     39.7183   6.8709571048e+01   3.4497553074e+01    0.1850642    0.1187795 -49.17 0.0005837056    1.579    0.367
       253 -10.3094    133.4999     37.4266   7.7098605310e+01   4.6994400182e+01    0.4274493    0.3009242 -66.05  0.002168304    1.889    0.471
       254 -10.0382    218.1973     39.0325   6.4155416452e+01   2.6640426324e+01    0.2296056    0.1758798  82.31 0.0007822957    1.178    0.151
       255 -11.0161    176.7326     37.0012   6.9182086077e+01   3.6753649473e+01    0.3446836    0.2987169 -33.20  0.001408143    1.313    0.238
       256 -11.2564    171.4329     33.7237   6.9127017110e+01   3.8447879527e+01     0.403539    0.2175074  55.09  0.001924178    1.708    0.415
       257 -10.6530    206.2963     37.1134   6.5140776691e+01   2.9664674616e+01    0.3211469    0.2381413  87.99  0.000935466    1.230    0.187
       258 -10.8357     22.6059     36.6718   1.1215631970e+02   6.5910765288e+01     0.330247    0.2040405  38.70  0.001670291    2.220    0.550
       259 -10.2659    226.3287     36.7324   6.2737119654e+01   2.5102438422e+01     0.282609    0.2030529  78.68 0.0009897624    1.276    0.216
       260 -10.0320    198.2619     34.9516   6.5642092809e+01   3.1846902798e+01    0.1639472    0.1114122 -41.36 0.0007780088    1.514    0.339
       261 -10.7874    242.9038    231.7782   1.0152762112e+02  -1.1265262817e+01    0.2204687    0.1698673  44.53  0.001380928    1.624    0.384
       262 -10.7342    197.4968    231.8841   1.1009042994e+02  -4.1446092174e+00    0.2277739    0.1694748  15.73  0.001291361    1.374    0.272
       263 -11.7252    115.6748     24.5550   7.6839272266e+01   5.2479017726e+01    0.4679064    0.2129099  47.66  0.001536155    1.905    0.475
       264 -11.3968    110.2118     23.3915   7.7704964671e+01   5.3778007054e+01    0.3363592     0.254669  57.76  0.001175537    1.265    0.209
       265  -9.7674    248.8578     33.3290   5.9795478633e+01   2.0650665996e+01    0.2335813    0.1370297 -53.68  0.001321111    1.444    0.307
       266 -11.1451    159.8030     29.7822   6.9907154386e+01   4.1721676401e+01    0.5850711    0.3137079 -40.92  0.002276123    1.986    0.496
       267 -10.8965    164.1645     27.6867   6.8625068644e+01   4.0920302686e+01    0.4737597    0.2663998 -28.74 0.0006181674    2.042    0.510
       268 -10.5701    240.3157     31.5373   6.0227205095e+01   2.2709203598e+01    0.3926705     0.346336 -40.76  0.002629184    1.404    0.288
       269 -10.6403    211.2591     31.0824   6.3154934773e+01   2.9290689035e+01    0.4356443    0.2452989 -52.16  0.002239593    1.692    0.409
       270 -10.8526    189.3775     29.3190   6.5423129691e+01   3.4673150556e+01    0.5390015    0.3119403 -34.66  0.002742007    1.872    0.466
       271  -9.4051     23.4746    231.5391   1.4469143798e+02   2.3299085817e+01    0.1193846   0.08596046  77.53 0.0003990511    1.026    0.026
       272 -11.2159     56.1613     31.0034   9.6673108043e+01   6.2747733397e+01    0.2855085    0.2268039  23.14 0.0002629165    1.191    0.160
       273 -11.9633     47.9619     30.4865   9.9532971208e+01   6.3966819566e+01    0.6783602    0.2719878  33.01  0.003290406    2.480    0.597
       274 -10.0212    182.6753     32.0552   6.7025902066e+01   3.5943906428e+01    0.2277496     0.167811  83.19 0.0004754318    1.266    0.210
       275  -9.6226    221.6728     30.5057   6.1878349967e+01   2.6974524092e+01    0.2564395    0.1468569 -42.47  0.001357332    1.688    0.408
       276 -11.1380    197.8946     28.8283   6.4217310907e+01   3.2707409371e+01    0.4197102     0.303023  54.12  0.001681604    1.473    0.321
       277 -10.2239    199.5264     24.5303   6.2999514429e+01   3.2843196349e+01    0.2312654    0.2045662  80.67 0.0006146824    1.121    0.108
       278  -9.5498      9.0942    227.3082   1.4694571079e+02   2.5719941072e+01    0.1557584    0.1128542  73.16 0.0003336517    1.087    0.080
       279  -9.4685     99.7995     30.4079   8.2754311251e+01   5.5156172891e+01    0.3051047    0.1814455  38.63  0.001305054    1.552    0.356
       280 -10.0652     98.2931     26.8543   8.1889382804e+01   5.5869442389e+01    0.2541635    0.2184175 -29.83   0.00124362    1.304    0.233
       281  -9.9766    234.2625    222.7845   1.0147292013e+02  -8.6398741352e+00    0.1785124    0.1319971   2.88  0.001053879    1.325    0.245
       282  -8.7370    209.3095    223.3311   1.0628418827e+02  -4.7137053604e+00    0.1362341   0.09569865   1.01 0.0006073287    1.668    0.401
       283  -9.7077      9.7649    217.9677   1.4621031668e+02   2.7607915027e+01    0.1536665   0.07612567 -78.95  0.000879683    1.625    0.385
       284  -9.3835    152.5169    207.5483   1.1517917569e+02   8.4543322776e+00    0.1427249     0.133048  50.07 0.0001598836    1.004    0.004
       285 -10.1923      4.3016    204.9126   1.4631372443e+02   3.0941649536e+01    0.2190783    0.1202153 -67.85  0.001325547    1.620    0.383
       286  -9.9918    245.4910    201.0076   9.5348713891e+01  -6.9474373223e+00    0.1946896    0.1159091 -36.21 0.0006053793    1.548    0.354
       287  -9.4182    158.4943     20.4518   6.7512618128e+01   4.3075595460e+01    0.1956325    0.1686974 -70.84 0.0006476385    1.211    0.174
       288  -9.8033    250.4993     25.1897   5.8052156720e+01   2.1370936643e+01    0.1975269    0.1116275 -37.50 0.0004250585    1.845    0.458
       289 -11.2367    214.4984     23.8485   6.1171919429e+01   2.9444677311e+01     0.355939    0.3317699  73.42  0.001626846    1.280    0.219
       290 -10.2524    234.2221    197.2596   9.6647836334e+01  -4.5026738370e+00    0.3087172    0.2390518  -4.35  0.001346726    1.315    0.240
       291 -10.2455     81.3444     19.3706   8.3829327790e+01   5.9950530168e+01    0.3418756    0.1823157  42.88  0.001103188    1.633    0.388
       292  -9.3419     17.0373    192.4743   1.4283640266e+02   3.2484890155e+01    0.1530478    0.1139905  44.65 0.0004092536    1.504    0.335
       293 -12.2867      4.8838    184.7225   1.4466664278e+02   3.5367709167e+01    0.6179655     0.428019  79.24  0.004097821    1.199    0.166
       294 -10.3589    230.0494     27.6421   6.0408784364e+01   2.5461704285e+01    0.3212826    0.1635434 -42.39  0.001340916    1.844    0.458
       295  -9.8638    169.0526    191.5474   1.0862774990e+02   8.5989754060e+00    0.2227398    0.1407087  41.93 0.0004679679    1.538    0.350
       296 -10.9240     47.1366     18.8342   9.5124780520e+01   6.5570453164e+01    0.3149988    0.2449578  15.85  0.001421335    1.115    0.103
       297  -9.0086     57.2565    175.0327   1.3195418812e+02   3.1994154905e+01    0.1729139    0.1037594 -67.39 0.0004940255    1.468    0.319
       298  -9.9243    247.7679    173.8927   8.9559559924e+01  -2.7525953351e+00    0.3295088    0.1683184  25.28  0.001329978    3.033    0.670
       299 -11.0203    222.6645     21.1144   5.9747018685e+01   2.7921355934e+01    0.4208429    0.2239354 -73.70  0.002094754    1.967    0.492
       300  -9.8468     51.4286    173.1961   1.3309190380e+02   3.3186875279e+01    0.1973987    0.1140851 -81.05 0.0006405743    1.691    0.409
       301  -9.9056     39.5925    173.2495   1.3588979413e+02   3.4588230700e+01    0.1890486    0.1014406 -61.24 0.0009300094    1.633    0.388
       302 -10.3505     35.8436    170.7183   1.3645690225e+02   3.5612817267e+01    0.3407354    0.1519268 -85.53  0.001390306    2.667    0.625
       303 -12.0068      9.9444    165.7403   1.4186503481e+02   3.9291654331e+01    0.5781153    0.3451151 -64.36  0.002718391    1.411    0.291
       304 -11.7267     13.1459    157.3030   1.4024378428e+02   4.0995498670e+01    0.4645839    0.3249467  63.13  0.001348735    1.479    0.324
       305  -9.0044    197.7665    167.9912   9.7684668964e+01   7.7173200140e+00    0.1957595    0.1208779 -42.59  0.000546642    1.573    0.364
       306  -9.5534     39.6801    166.6892   1.3504251677e+02   3.6155677257e+01    0.1288159   0.09174358 -45.06 0.0003168199    1.646    0.392
       307  -9.0239      1.4645     20.5276   1.1570970549e+02   7.0069474534e+01    0.1081716   0.07564369 -23.22 0.0001385317    1.031    0.030
       308 -10.3944     18.7677    165.5179   1.3982959675e+02   3.8567357927e+01    0.2556583    0.2187694 -70.03 0.0009978418    1.194    0.163
       309  -9.9608    188.8472    164.3901   9.8752904973e+01   1.0288100706e+01    0.2992361    0.1976437 -26.57 0.0009747779    1.823    0.451
       310  -9.8035    225.3361     16.3573   5.8487711560e+01   2.7889502525e+01    0.2630408     0.169635 -71.22   0.00153971    1.378    0.274
       311 -10.4810     28.1939    162.8349   1.3730938806e+02   3.8300263109e+01    0.3653853     0.154269 -66.79  0.001708726    1.898    0.473
       312  -9.6867    205.0229    163.0701   9.5157502244e+01   7.2428073699e+00    0.2237781    0.2124042 -15.85 0.0005943464    1.042    0.040
       313  -9.8269     79.9576    160.1204   1.2398752039e+02   3.2412172636e+01    0.2736343    0.2086779  54.89  0.001316299    1.353    0.261
       314  -9.0622    223.6961    156.6667   9.0195937697e+01   4.7871739771e+00    0.1465931    0.1108963  -6.11 0.0005717538    1.661    0.398
       315 -10.4911    104.7335    154.1306   1.1645660934e+02   2.9737310486e+01    0.3922993    0.2050389 -58.10  0.001584126    1.870    0.465
       316 -10.8282     30.5908    149.1108   1.3494759958e+02   4.1355164297e+01    0.3212981    0.2297145  89.10 0.0005900365    1.337    0.252
       317  -8.6663     55.3023     17.3090   9.1464464639e+01   6.4558710121e+01     0.120761   0.07564589  10.29 0.0007014669    1.604    0.377
       318 -10.3826     22.9526    155.1436   1.3763763138e+02   4.0640673058e+01    0.2388998    0.1841056   9.38  0.001468581    1.847    0.459
       319 -10.8464     10.5539    127.3652   1.3721740581e+02   4.8212673287e+01    0.6276226    0.1019213 -58.19  0.002271335    3.436    0.709
       320 -11.9982     12.8681    139.4313   1.3820163586e+02   4.5220837718e+01    0.6702929    0.3380247  81.15  0.003114893    2.555    0.609
       321 -12.2093     23.2743    149.0044   1.3678517463e+02   4.2074855780e+01     0.545503     0.324961 -27.37  0.002703469    2.679    0.627
       322 -11.1050     16.2601    148.1083   1.3842482255e+02   4.2901520992e+01    0.3637887     0.244446  56.60  0.001417501    1.632    0.387
       323 -10.2222      3.3439    152.6688   1.4205913658e+02   4.2850026902e+01    0.2415052    0.1562801  74.38  0.001472251    1.532    0.347
       324  -9.1182     94.5173     12.4691   7.7648990638e+01   5.8093550624e+01    0.1220996    0.1044126  36.26 0.0008093031    1.039    0.038
       325 -11.8594      5.2145    147.1290   1.4102227207e+02   4.3999047785e+01    0.4538937    0.3625312 -43.71  0.002484357    1.463    0.316
       326 -11.3293      3.2325    141.9175   1.4092721985e+02   4.5350901090e+01    0.3733169    0.3329257  55.75  0.002387115    1.343    0.256
       327 -11.6654      3.9380    136.5481   1.4012931824e+02   4.6546197746e+01     0.256845    0.1881364 -65.37  0.000375798    1.115    0.103
       328 -10.2764    214.6164    151.8148   9.0823434999e+01   7.5390677642e+00    0.2178264    0.1298627 -50.64 0.0007625472    1.709    0.415
       329 -11.3468     62.4864    149.8170   1.2674703032e+02   3.7476399429e+01    0.4704613    0.4123414  57.78  0.002219428    1.214    0.177
       330  -9.7249     44.3429    150.6961   1.3164237397e+02   3.9510609313e+01    0.2742527    0.1821213  77.67    0.0007848    1.693    0.409
       331  -9.7347     42.2877    148.3429   1.3181979795e+02   4.0314633466e+01    0.2041665    0.1907512 -17.21 0.0009890908    1.349    0.259
       332 -10.9648     47.1963    146.4124   1.3022992206e+02   4.0226808770e+01    0.5117282    0.3224449 -70.84  0.001940778    1.404    0.288
       333  -9.6216     48.3035    151.5846   1.3075230878e+02   3.8833861014e+01      0.22034    0.1868346 -16.59 0.0007275287    1.571    0.363
       334 -11.0227    249.7208    143.6170   8.2932233888e+01   2.2914804630e+00    0.6780787    0.2362077 -41.86  0.002575551    2.482    0.597
       335  -9.6816    239.8158    146.8243   8.5235667237e+01   3.5458221433e+00    0.2098915    0.1823744 -19.52 0.0007003344    1.177    0.151
       336 -10.3954     31.4270    154.1568   1.3541922355e+02   4.0057483856e+01     0.345392    0.2505709  68.23  0.001755971    1.434    0.303
       337 -10.7847     33.1923    144.3296   1.3359816083e+02   4.2247583985e+01    0.2722336    0.2242681 -85.97  0.000782051    1.115    0.103
       338 -10.0933    133.5897    139.2955   1.0579516788e+02   2.7668456898e+01    0.3657923    0.2745583 -49.02   0.00169992    1.302    0.232
       339 -12.0641     29.8847    132.8884   1.3275697061e+02   4.5312393667e+01    0.5905911     0.351836 -78.24 0.0004111107    1.610    0.379
       340  -9.7947     26.6958    139.6931   1.3463454179e+02   4.3984898981e+01     0.191686    0.1509439 -59.66 0.0004231925    1.143    0.125
       341 -12.0551     22.8835    135.5951   1.3505844566e+02   4.5301824938e+01    0.6881747    0.3984694  47.69  0.003733913    2.003    0.501
       342 -10.6625     46.9669    135.2843   1.2843805755e+02   4.2959117174e+01    0.4070887    0.1987184 -49.41  0.001464141    1.900    0.474
       343 -11.1034     71.7126    134.1022   1.2129217428e+02   4.0043423560e+01    0.5071768    0.3363288 -12.35  0.002178866    2.572    0.611
       344 -10.5950     81.1217    135.4994   1.1894914670e+02   3.8285916515e+01    0.5426152    0.3626994   0.39  0.002268873    2.620    0.618
       345  -9.8574     62.2966    131.5701   1.2344503231e+02   4.1966022635e+01    0.2662208    0.1484673 -44.10  0.001205804    1.823    0.451
       346 -10.1397     92.5114    128.9470   1.1433462025e+02   3.8005525209e+01    0.2903334    0.2305944  43.02  0.001061175    1.339    0.253
