#   1 NUMBER                 Running object number                                     
#   2 MAG_AUTO               Kron-like elliptical aperture magnitude                    [mag]
#   3 X_IMAGE                Object position along x                                    [pixel]
#   4 Y_IMAGE                Object position along y                                    [pixel]
#   5 X_WORLD                Barycenter position along world x axis                     [deg]
#   6 Y_WORLD                Barycenter position along world y axis                     [deg]
#   7 A_WORLD                Profile RMS along major axis (world units)                 [deg]
#   8 B_WORLD                Profile RMS along minor axis (world units)                 [deg]
#   9 THETA_WORLD            Position angle (CCW/world-x)                               [deg]
#  10 FWHM_WORLD             FWHM assuming a gaussian core                              [deg]
#  11 ELONGATION             A_IMAGE/B_IMAGE                                           
#  12 ELLIPTICITY            1 - B_IMAGE/A_IMAGE                                       
         1 -10.0757     60.0035     24.4370   9.4074937741e+01   3.9268101152e+01  0.001346725 0.0005909789 -81.59  0.002035107    2.212    0.548
         2 -12.4107     60.7394     44.9427   9.4074956671e+01   3.9282226975e+01  0.002758098   0.00129552 -83.90  0.004609771    2.080    0.519
         3 -11.6159     25.5696     55.9436   9.4043711746e+01   3.9289953609e+01  0.002962027  0.001961248 -31.87  0.004891686    1.465    0.317
         4 -11.8052    105.7479     32.7868   9.4114874201e+01   3.9273651348e+01  0.002442515 0.0007394583 -55.30  0.002786707    3.014    0.668
         5 -11.3124    105.7394     19.9605   9.4115254223e+01   3.9264813546e+01  0.001435902 0.0005821656 -87.39  0.001056225    2.429    0.588
         6 -11.8332    110.5302     23.8034   9.4119347013e+01   3.9267439406e+01  0.001318275 0.0008661496  53.41  0.002581442    1.588    0.370
         7 -11.6881     22.7863     11.2710   9.4042647654e+01   3.9259184559e+01  0.001817634 0.0009813615 -42.11   0.00297823    1.769    0.435
         8 -12.6023     18.3349     22.4999   9.4038389687e+01   3.9266939438e+01   0.00351611  0.001431263  30.86  0.005403914    2.590    0.614
         9 -12.0205     15.5460     12.2055   9.4036258506e+01   3.9259857550e+01  0.002146763  0.001229752  52.97   0.00392169    1.829    0.453
        10 -11.7188    182.5529     25.1935   9.4182580525e+01   3.9268047241e+01  0.001624741 0.0007865928 -32.93  0.001157819    1.989    0.497
        11 -11.5286    178.3205     21.0053   9.4178986127e+01   3.9265182872e+01   0.00170308 0.0006950598 -47.60  0.002681227    2.302    0.566
        12 -10.7663    153.4152     25.3245   9.4156977855e+01   3.9268283196e+01   0.00173408 0.0006673005 -67.76  0.002649847    2.442    0.591
        13 -10.4107    147.0550     16.0440   9.4151667132e+01   3.9261919590e+01  0.001417993 0.0006925261 -19.39  0.002064738    2.016    0.504
        14  -9.9689     86.8917      7.3716   9.4099078658e+01   3.9256224749e+01  0.001608942  0.001003271  -5.29  0.003090553    1.615    0.381
        15 -11.6155     90.7233     20.0194   9.4102060623e+01   3.9264922340e+01  0.001527036  0.001089386 -83.51   0.00237077    1.375    0.273
        16 -11.5402     86.0572     14.4337   9.4098131074e+01   3.9261094531e+01  0.001724789  0.000777905 -69.93   0.00243481    2.106    0.525
        17  -9.9196     32.0669     12.0899   9.4050774846e+01   3.9259710918e+01  0.001023051 0.0004562466  32.34  0.001637055    2.361    0.576
        18 -11.0387     46.9628     18.5846   9.4063660637e+01   3.9264124054e+01  0.001047548 0.0009959535  65.96  0.001924754    1.085    0.079
        19 -12.1767     49.1616     12.9961   9.4065763829e+01   3.9260264120e+01  0.001796854 0.0009338724  11.79   0.00307994    1.979    0.495
        20 -11.5923     35.6333     19.0812   9.4053692311e+01   3.9264513441e+01  0.001756378 0.0008180026 -69.33  0.002799515    2.041    0.510
        21 -12.1578     69.3356     17.9114   9.4083335661e+01   3.9263564470e+01   0.00207986  0.001016496  13.37  0.003526022    2.109    0.526
        22 -10.7695    121.4816     17.5889   9.4129155143e+01   3.9263106333e+01  0.001547396 0.0008578238  58.22  0.002775795    1.885    0.470
        23 -11.7075    133.7371     15.1421   9.4139994787e+01   3.9261362328e+01  0.002485955 0.0008620467 -10.22  0.003573505    2.873    0.652
        24 -11.6791    125.5894     11.3572   9.4132950984e+01   3.9258793054e+01  0.002043181 0.0009071237  23.14  0.003249739    2.351    0.575
        25 -11.0505    165.4098     17.1553   9.4167758254e+01   3.9262594901e+01  0.001094501 0.0005831296 -43.01  0.001297164    1.790    0.441
        26 -11.7365    246.2300      7.6056   9.4239033343e+01   3.9255589938e+01  0.001378981 0.0007145912 -75.64  0.001819608    1.859    0.462
        27 -12.0623    240.3717      6.2223   9.4233927670e+01   3.9254668997e+01   0.00148053 0.0008358253 -83.33  0.002706294    1.732    0.423
        28 -12.2854    237.9839     15.9195   9.4231548506e+01   3.9261364084e+01    0.0013544 0.0009731737 -26.06  0.001798855    1.361    0.265
        29  -9.7960    191.6022     16.3984   9.4190789939e+01   3.9261940495e+01 0.0009580064 0.0004548356 -66.24  0.001610478    1.997    0.499
        30 -11.5520    192.1041      8.1448   9.4191473913e+01   3.9256250696e+01  0.001801495  0.000773419 -57.68  0.001914592    2.187    0.543
        31 -10.0179    193.9740      1.4539   9.4193313432e+01   3.9251630583e+01 0.0005142674 0.0003430237  -0.18  0.000431797    1.521    0.342
        32 -12.2097    104.9853     12.8912   9.4114805324e+01   3.9259946022e+01  0.001345275  0.001070825 -81.87  0.001817397    1.231    0.188
        33 -11.5489    211.4685      9.8446   9.4208433776e+01   3.9257320679e+01  0.001550535 0.0006890622 -60.09  0.001959962    2.118    0.528
        34  -9.5447      4.5491     10.7609   9.4026643259e+01   3.9258905790e+01  0.001017282 0.0006060593 -60.32  0.001861571    1.597    0.374
        35 -10.6172    169.1305      9.8827   9.4171242457e+01   3.9257565084e+01 0.0009567032 0.0005422962 -39.47  0.001754439    1.691    0.409
        36 -10.7644     66.4706     10.5391   9.4081043951e+01   3.9258497160e+01 0.0009467654 0.0006270714  -7.76  0.001868166    1.516    0.340
        37 -10.1172    157.8339      2.8466   9.4161528671e+01   3.9252773025e+01  0.001078551 0.0005433625 -29.76  0.001866096    1.923    0.480
        38 -10.7003    162.9581      5.5835   9.4165948249e+01   3.9254633496e+01  0.001162679 0.0004998988 -67.89  0.001455303    2.200    0.545
        39  -9.5588    162.7378      1.3450   9.4165880643e+01   3.9251714073e+01 0.0005744583 0.0002996871 -19.17  0.000260494    1.889    0.471
        40 -10.3311    151.0184      7.6192   9.4155399982e+01   3.9256095135e+01  0.001026888 0.0006134668  -8.37  0.001134186    1.678    0.404
        41 -10.4337     62.6583      6.5241   9.4077817893e+01   3.9255747166e+01 0.0009004826 0.0005290353 -53.17  0.001455941    1.618    0.382
        42  -9.9770      1.2656      7.3336   9.4023865484e+01   3.9256557160e+01  0.000532512 0.0003004485 -89.38 0.0001815719    1.755    0.430
        43 -10.4343    199.8225      6.1551   9.4198312250e+01   3.9254839616e+01 0.0009760155 0.0005222081   9.36 0.0008723201    1.918    0.479
        44 -11.0014     77.6004      4.9078   9.4090992126e+01   3.9254568326e+01  0.001618435  0.000816025 -72.72  0.002809479    1.900    0.474
        45 -10.7362     71.4594      3.6965   9.4085634965e+01   3.9253760672e+01   0.00104221 0.0006796599 -72.44  0.002046632    1.478    0.323
        46  -9.1191     51.1765      6.6830   9.4067727450e+01   3.9255905749e+01 0.0004937077 0.0002960747 -18.30 0.0004736657    1.648    0.393
        47 -10.6030     42.4428      3.5041   9.4060153497e+01   3.9253752111e+01   0.00148211 0.0005173007 -50.43   0.00216796    2.656    0.623
        48 -11.3308    173.6851      4.3002   9.4175408619e+01   3.9253695556e+01  0.001715129 0.0005857393   6.01  0.002427719    2.997    0.666
        49 -11.3476    223.5048      1.9685   9.4219236399e+01   3.9251829350e+01  0.001880531 0.0005614517  21.59  0.002463371    3.535    0.717
        50 -10.5984    141.9840      3.7166   9.4147580841e+01   3.9253449946e+01  0.001135008 0.0006416296  -0.59  0.002069484    1.792    0.442
        51 -12.2523    133.8940      2.6432   9.4140507008e+01   3.9252749233e+01 0.0009652066 0.0007613984 -10.70 0.0005496694    1.269    0.212
        52  -9.7142    123.0499      1.4423   9.4131018114e+01   3.9251973223e+01  0.001382906 0.0003394669   1.04  0.001656076    4.139    0.758
        53 -10.9581    114.0531      2.0642   9.4123097109e+01   3.9252443891e+01  0.001543239 0.0006125259  10.12  0.001801876    2.591    0.614
        54 -11.1253    105.7122      1.9113   9.4115775435e+01   3.9252377109e+01  0.001660276 0.0006539578  12.55  0.001912728    2.619    0.618
        55 -10.9974    205.3766      2.3004   9.4203303936e+01   3.9252154366e+01  0.001157342 0.0005630804  19.81  0.001182151    2.136    0.532
        56 -11.2372     42.3836     14.2524   9.4059770969e+01   3.9261158237e+01  0.001315787 0.0006980869  -6.47  0.001618931    1.894    0.472
        57 -11.0581      2.7855      1.8128   9.4025372249e+01   3.9252747331e+01  0.001305001 0.0005366614 -14.96  0.002037177    2.408    0.585
        58 -10.7132    218.6629      3.2191   9.4214946952e+01   3.9252717036e+01 0.0008867306 0.0007152411 -45.56  0.000906415    1.189    0.159
        59  -8.8736     53.0000      1.9941   9.4069472944e+01   3.9252667199e+01 0.0005594722 0.0001961659 -87.70 0.0005637335    2.811    0.644
        60  -9.3770     72.7920    119.7292   9.4083264235e+01   3.9333705126e+01 0.0005701354 0.0003802424 -35.88 0.0005227659    1.447    0.309
        61 -11.0413     34.4336    119.4220   9.4049542345e+01   3.9333655471e+01 0.0008357943 0.0005372507 -50.03 0.0008177087    1.484    0.326
        62  -9.3802     37.4956    115.4922   9.4052356251e+01   3.9330935219e+01 0.0005231354 0.0003091893 -21.01 0.0008153963    1.665    0.399
        63  -9.5716    113.9343    115.9009   9.4119559310e+01   3.9330882680e+01 0.0005199304 0.0004284963 -44.02 0.0003438948    1.165    0.142
        64 -12.1269     34.8226     91.9249   9.4050733378e+01   3.9314707776e+01  0.005232409  0.002470463  59.56  0.008645174    2.229    0.551
        65 -11.2045     37.6938     85.9497   9.4053441824e+01   3.9310578889e+01  0.001794523 0.0007569095  23.82  0.001156829    2.478    0.596
        66 -11.4053     44.8321     85.1825   9.4059740528e+01   3.9310020636e+01  0.002353347  0.001047146  46.60  0.003662581    2.385    0.581
        67 -12.2025      7.3201     88.8572   9.4026650305e+01   3.9312704512e+01  0.001835878  0.001452974 -14.61  0.001163973    1.258    0.205
        68 -11.3001     21.3946    114.3057   9.4038234755e+01   3.9330183113e+01  0.001238942   0.00062991 -13.51   0.00208109    1.956    0.489
        69 -11.4400     28.8079    113.0683   9.4044791782e+01   3.9329300590e+01  0.001270564 0.0008249633   1.24  0.001459917    1.565    0.361
        70 -12.5903     26.1492    106.9925   9.4042641983e+01   3.9325125032e+01  0.003389074  0.001132437 -40.66  0.004859215    2.801    0.643
        71 -12.4531     18.7798    106.2803   9.4036184364e+01   3.9324663889e+01   0.00103323 0.0007352477 -37.09 0.0003020215    1.356    0.262
        72 -13.1658     19.6551     95.7075   9.4037281807e+01   3.9317375569e+01  0.001786883  0.001328746   4.55 0.0006073426    1.373    0.271
        73 -12.1858     18.4582     90.4822   9.4036391537e+01   3.9313780047e+01  0.001683187 0.0008787526 -52.79 0.0005754528    1.814    0.449
        74 -10.5114      7.0487    114.5141   9.4025613474e+01   3.9330383568e+01 0.0009468397 0.0006847561  76.94  0.001532583    1.402    0.287
        75 -11.6221      2.4100    112.1464   9.4021608278e+01   3.9328770302e+01  0.001136045 0.0007829029  87.49  0.000911998    1.445    0.308
        76 -10.8458      5.9832    108.5199   9.4024863139e+01   3.9326257629e+01 0.0008180564 0.0006120575  -9.32 0.0009534445    1.340    0.254
        77 -11.7503      3.1285    104.7843   9.4022469390e+01   3.9323694875e+01  0.001296678 0.0008361842  -8.46   0.00140532    1.555    0.357
        78  -9.2407     88.1714    114.4373   9.4096949524e+01   3.9329991154e+01 0.0005321108 0.0003000059  21.68 0.0009496122    1.842    0.457
        79 -10.5884     67.1704    112.1638   9.4078552292e+01   3.9328516705e+01   0.00119404 0.0006518571  79.96  0.002130274    1.855    0.461
        80 -10.3232     45.6642    120.6605   9.4059380035e+01   3.9334462448e+01 0.0008070469 0.0005782631  49.28   0.00123137    1.456    0.313
        81  -9.6366     48.8918    112.1279   9.4062480821e+01   3.9328569718e+01 0.0005626683 0.0004633407  45.22  0.001225347    1.267    0.211
        82 -10.1283    170.3985    110.1675   9.4169380485e+01   3.9326660452e+01 0.0007114777 0.0006210358 -61.25   0.00156868    1.099    0.090
        83 -10.5483     78.5125    108.1887   9.4088646695e+01   3.9325728356e+01  0.001022113  0.000673872 -33.70  0.001364062    1.468    0.319
        84  -9.5741    175.0155    107.6739   9.4173514103e+01   3.9324919092e+01 0.0006842589 0.0003939163 -63.10  0.001256945    1.654    0.396
        85  -9.4808    157.9005    105.6772   9.4158525052e+01   3.9323628368e+01 0.0004775965 0.0004419663  -0.63 0.0006269048    1.103    0.093
        86  -9.2068    143.4610    105.9728   9.4145820394e+01   3.9323902352e+01 0.0005161006 0.0002312145  58.45 0.0008063063    2.357    0.576
        87 -10.3862     85.7399    105.3181   9.4095088972e+01   3.9323718509e+01 0.0008911107 0.0005211344 -64.78  0.001657484    1.631    0.387
        88 -10.3267     48.0946    103.0477   9.4062059120e+01   3.9322316587e+01 0.0005702236 0.0004973419 -11.88 0.0003437368    1.149    0.129
        89 -10.3521     52.0210     97.9702   9.4065667375e+01   3.9318801509e+01  0.001601207 0.0003722539 -73.40  0.001932344    3.913    0.744
        90 -10.4000     66.7221     99.4102   9.4078548299e+01   3.9319731046e+01  0.001108469  0.000581126  30.00  0.001932926    1.996    0.499
        91 -10.6376     68.3599     95.7330   9.4080100721e+01   3.9317190263e+01 0.0008870586 0.0006527195 -37.79 0.0007428803    1.311    0.237
        92 -10.1817     57.7122     97.8380   9.4070675063e+01   3.9318686307e+01 0.0006329507 0.0005676083  45.38 0.0007869601    1.163    0.140
        93 -11.2006    248.4605     96.8692   9.4238404525e+01   3.9317086609e+01 0.0007828816 0.0003904376 -28.10  0.001340702    1.946    0.486
        94  -9.2199     78.0961     97.2018   9.4088615673e+01   3.9318159821e+01 0.0004777311 0.0003812727  44.90 0.0003246271    1.307    0.235
        95 -10.0086     42.4507     94.5229   9.4057359492e+01   3.9316466343e+01 0.0006183704 0.0005963523 -66.82 0.0006261003    1.020    0.019
        96 -11.5178     81.9122     93.0933   9.4092095814e+01   3.9315312116e+01  0.001412261 0.0008915547  39.02 0.0009962608    1.659    0.397
        97 -10.6795     80.3590     83.0969   9.4091034988e+01   3.9308431131e+01  0.002050381  0.001169854  55.22   0.00373743    1.834    0.455
        98 -11.1656     66.8418     81.5212   9.4079200755e+01   3.9307404436e+01  0.001204566 0.0008631122 -26.62  0.002481832    1.364    0.267
        99 -11.6431     72.0768     78.7105   9.4083888366e+01   3.9305445030e+01  0.002022333 0.0009237006 -45.79  0.003360451    2.071    0.517
       100  -9.3039    117.3652     93.1078   9.4123263618e+01   3.9315161349e+01 0.0005142781 0.0004146815 -32.36 0.0009156629    1.205    0.170
       101  -8.9862    152.6720     92.3461   9.4154325889e+01   3.9314468203e+01 0.0003907667 0.0002338565  46.98 0.0007050149    1.752    0.429
       102 -10.9709     89.3816     89.9447   9.4098758192e+01   3.9313109481e+01  0.001001545 0.0006667871 -82.10  0.001027146    1.468    0.319
       103  -9.6949     92.9555     85.6384   9.4102030861e+01   3.9310126269e+01  0.000544984 0.0004339052 -44.24 0.0005147645    1.206    0.171
       104  -9.9358    101.6434     90.8241   9.4109511143e+01   3.9313660122e+01 0.0005857193 0.0004586021 -25.48 0.0005746311    1.251    0.201
       105 -10.1113    126.3193     93.1751   9.4131133486e+01   3.9315165819e+01 0.0006500799 0.0005048296  11.73 0.0007209387    1.325    0.245
       106  -8.7452    212.3034     87.3204   9.4206896784e+01   3.9310702085e+01 0.0003890439  0.000227557 -46.25 0.0003513059    1.631    0.387
       107 -10.5566    113.2126     84.2839   9.4119879256e+01   3.9309100577e+01  0.001480666 0.0004415806 -78.99  0.001985389    3.188    0.686
       108 -12.7900    247.4512     78.4224   9.4238052526e+01   3.9304381038e+01   0.00199494 0.0009523579  89.20  0.003346597    2.080    0.519
       109 -11.2554    144.2948     82.7803   9.4147247443e+01   3.9307917572e+01  0.001059006 0.0005536302 -48.97 0.0008208223    1.815    0.449
       110  -9.6015    165.5699     83.2694   9.4165934650e+01   3.9308150259e+01 0.0006774665 0.0003300451  84.42  0.001130573    2.062    0.515
       111 -11.5273     53.0366     76.8382   9.4067209135e+01   3.9304236708e+01  0.001825761 0.0009456121  88.24  0.003188794    1.922    0.480
       112 -10.8687     58.3662     78.1417   9.4071853900e+01   3.9305112212e+01 0.0008331547 0.0006431866   1.78 0.0009831269    1.318    0.241
       113 -10.7680    107.2919     79.1826   9.4114828839e+01   3.9305612876e+01  0.001757886 0.0006516182  45.53  0.002134525    2.898    0.655
       114 -12.2530      9.8309     97.9137   9.4028576088e+01   3.9318934687e+01  0.003445812  0.001911975  37.17  0.006206647    1.891    0.471
       115 -10.4169     13.8582     54.2880   9.4033470883e+01   3.9288859859e+01  0.001008708 0.0005914866 -40.65 0.0002565446    1.634    0.388
       116 -11.9900     14.0062     74.6042   9.4032970564e+01   3.9302857548e+01   0.00145712  0.001105602 -87.72  0.001768939    1.302    0.232
       117 -11.9071     13.5491     66.1560   9.4032830941e+01   3.9297038408e+01 0.0009089461 0.0007248613  37.89 0.0004897352    1.309    0.236
       118 -12.1172      8.9079     62.3599   9.4028869717e+01   3.9294441139e+01  0.001968164  0.001665413 -20.17  0.004409418    1.168    0.144
       119 -10.5813     93.9966     76.4157   9.4103225938e+01   3.9303766765e+01  0.001032134 0.0006939957  -7.43  0.001215724    1.494    0.331
       120  -9.3532     46.5517     77.4780   9.4061489196e+01   3.9304704867e+01 0.0003443112 0.0003380121  80.38 0.0004694888    1.049    0.046
       121 -10.8346     84.6518     67.3288   9.4095288292e+01   3.9297547338e+01  0.001679051 0.0006848539  85.47  0.002365451    2.465    0.594
       122 -11.5356     85.5719     73.7238   9.4095902486e+01   3.9301949695e+01  0.001485567  0.001226624   5.21  0.002909313    1.239    0.193
       123 -11.5941     78.9126     67.1958   9.4090248033e+01   3.9297481082e+01  0.002369274  0.001081311  60.74  0.003841351    2.307    0.567
       124 -10.4950     74.6847     53.3352   9.4086954861e+01   3.9287949293e+01 0.0007515389 0.0004104826  53.21 0.0008638775    1.921    0.480
       125 -11.6493     73.0627     47.6765   9.4085702093e+01   3.9284057349e+01   0.00315533   0.00197671  57.83  0.004511884    1.662    0.398
       126 -11.2019    187.0901     70.4513   9.4185230595e+01   3.9299209304e+01  0.001617685 0.0008978831 -64.76  0.002947581    1.716    0.417
       127 -11.4216     32.4917     71.9241   9.4049301769e+01   3.9300936311e+01  0.001712632  0.000747197  -2.16  0.002749821    2.316    0.568
       128 -10.3394     38.4989     73.5018   9.4054533238e+01   3.9301998680e+01 0.0006215575 0.0005269487 -51.10 0.0006389761    1.129    0.115
       129 -11.1606     41.3488     70.4913   9.4057130945e+01   3.9299912562e+01  0.001070327  0.000784466  89.89  0.001642862    1.353    0.261
       130  -9.3071     66.4123     72.9946   9.4079084008e+01   3.9301531181e+01 0.0005486902 0.0003338913 -85.66 0.0006593701    1.615    0.381
       131 -12.0647      2.1383     70.7865   9.4022657694e+01   3.9300273726e+01  0.002060301 0.0006355129 -80.11  0.002810604    3.099    0.677
       132  -8.9582    161.6689     70.3304   9.4162890501e+01   3.9299253995e+01 0.0003871044  0.000236003  46.16 0.0007051908    1.719    0.418
       133 -11.1648    122.5159     68.3417   9.4128537271e+01   3.9298072423e+01  0.001289529 0.0008144262  -2.46  0.002245595    1.601    0.375
       134  -9.1862    208.9272     67.9691   9.4204496749e+01   3.9297385576e+01 0.0004183002 0.0003989406 -47.81 0.0004626799    1.010    0.010
       135  -9.4864    172.5077     68.0996   9.4172483355e+01   3.9297662783e+01 0.0005361788 0.0003395374 -86.42  0.001020977    1.555    0.357
       136 -11.1242    219.7857     66.3756   9.4214087044e+01   3.9296230050e+01   0.00137198 0.0007856303   1.69  0.002520357    1.775    0.437
       137  -8.8427     69.7016     66.7215   9.4082166804e+01   3.9297194593e+01 0.0003739608 0.0002326118 -44.11 0.0001979765    1.538    0.350
       138 -10.8679     58.2888     61.8383   9.4072285544e+01   3.9293879041e+01  0.001476669 0.0008612344  73.61  0.002022743    1.754    0.430
       139  -9.8111    242.3115    249.3211   9.4228559782e+01   3.9422170355e+01 0.0003917447 0.0002264573 -45.85 0.0007037413    1.650    0.394
       140 -11.1025     56.5781     30.8449   9.4071732072e+01   3.9272530991e+01  0.001262182 0.0006822606  -5.38  0.001610053    1.862    0.463
       141 -11.8850     47.9866     30.3968   9.4064197291e+01   3.9272258620e+01  0.002207262 0.0008011177 -12.52  0.003246301    2.736    0.635
       142  -9.2907    177.7626    247.9913   9.4171765160e+01   3.9421591626e+01 0.0004606895 0.0002888365 -86.15 0.0006645659    1.569    0.363
       143 -10.8313     60.5616     36.8204   9.4075049032e+01   3.9276631253e+01 0.0009034332 0.0005898381 -85.66   0.00107868    1.506    0.336
       144 -10.3522     20.9413     65.1159   9.4039360262e+01   3.9296292159e+01 0.0005315908  0.000486469 -44.27 0.0007838174    1.051    0.049
       145 -10.4572    204.3423     63.9094   9.4200586375e+01   3.9294612260e+01 0.0006768145 0.0004742766 -36.82 0.0002014683    1.377    0.274
       146 -10.2023     98.3137     62.1685   9.4107452336e+01   3.9293930437e+01  0.001117989 0.0005434449 -46.39  0.001697065    1.950    0.487
       147 -11.1073     91.9387     62.2027   9.4101848527e+01   3.9293982794e+01   0.00102874 0.0007607405  24.78  0.001353179    1.406    0.289
       148 -10.6346     91.2517     57.9612   9.4101373465e+01   3.9291063287e+01 0.0009516919 0.0008267704  -1.80  0.001114563    1.169    0.144
       149 -10.5711     87.5136     56.5452   9.4098131328e+01   3.9290104312e+01  0.001059931 0.0005191271 -87.80  0.001347708    2.014    0.503
       150  -9.2961    167.4910     63.3578   9.4168214882e+01   3.9294420578e+01 0.0003408105 0.0003292869  16.63 -0.0002687743    1.075    0.070
       151 -10.1568    159.4678     61.8258   9.4161209097e+01   3.9293404767e+01 0.0008811552 0.0004530775 -31.97  0.001536526    1.878    0.468
       152  -9.8513    113.5085     61.2353   9.4120834775e+01   3.9293217812e+01 0.0009559463 0.0004652654  85.66  0.001607202    2.058    0.514
       153 -10.2625     52.0236     48.0022   9.4067203935e+01   3.9284372195e+01 0.0008073846 0.0005283346 -71.02  0.001260623    1.470    0.320
       154 -11.4522    127.2721    242.0056   9.4127489829e+01   3.9417712023e+01  0.001220066  0.000585246  73.83  0.002030907    2.145    0.534
       155 -12.0546     49.1957     59.7876   9.4064356903e+01   3.9292504570e+01  0.002335133  0.001151132  40.23  0.003340727    2.139    0.532
       156 -11.3205     40.3103     55.9687   9.4056665499e+01   3.9289910413e+01  0.001506718 0.0008318241  51.22  0.001447209    1.902    0.474
       157 -11.4274     32.8626     42.7952   9.4050526807e+01   3.9280864284e+01  0.001853932   0.00137154  19.66  0.002626656    1.400    0.286
       158 -10.0397     25.9583     48.0629   9.4044297034e+01   3.9284522051e+01 0.0009807725 0.0003920613 -32.96 0.0003037324    2.396    0.583
       159 -10.7891     21.0627     47.1589   9.4040022995e+01   3.9283918974e+01  0.000892701 0.0007976488  61.48  0.001264571    1.156    0.135
       160 -11.8988     46.3381     48.7654   9.4062184296e+01   3.9284922006e+01  0.001530928  0.001134198 -69.59  0.001341773    1.300    0.231
       161 -11.6399     41.8262     45.4561   9.4058321290e+01   3.9282660698e+01  0.000967241 0.0007791531  35.82 0.0003572963    1.296    0.228
       162  -8.7691    146.7186     60.6681   9.4150038854e+01   3.9292669406e+01 0.0003855492 0.0002282471 -48.11 0.0003851385    1.610    0.379
       163 -10.8347    122.6518     58.7688   9.4128944719e+01   3.9291475602e+01 0.0008764829 0.0008300073   5.59  0.001523512    1.087    0.080
       164 -10.6507    117.3866     56.2998   9.4124391832e+01   3.9289799010e+01  0.001102464 0.0005200014   9.30  0.001200787    2.176    0.540
       165 -10.5922    136.9894     56.0371   9.4141627038e+01   3.9289525357e+01  0.001865681 0.0007336687 -36.53  0.002878958    2.418    0.586
       166 -11.1813    145.9330     46.1778   9.4149781401e+01   3.9282688681e+01  0.001340175   0.00067564 -81.95  0.002020499    1.932    0.482
       167 -10.0314    157.4664     56.5338   9.4159607759e+01   3.9289768152e+01 0.0006573463 0.0005233858 -54.14 0.0005050846    1.201    0.168
       168 -10.6075    156.9413     53.4525   9.4159238103e+01   3.9287647516e+01  0.001658886 0.0007083664  55.85  0.002591311    2.486    0.598
       169  -9.3875     34.7766     57.0476   9.4051769110e+01   3.9290676656e+01 0.0004834867 0.0004467862 -89.37   0.00111478    1.081    0.075
       170  -9.6742      2.0205     56.0497   9.4023012893e+01   3.9290120356e+01 0.0005278732 0.0004956407 -39.71 0.0004779744    1.032    0.031
       171  -9.7555     67.1364     54.8845   9.4080274010e+01   3.9289049664e+01 0.0005560563 0.0004534496  49.31 0.0006651591    1.277    0.217
       172 -11.3566    248.9025     53.1282   9.4240061728e+01   3.9286943503e+01 0.0009279638 0.0007533138 -11.46  0.001522261    1.232    0.189
       173  -8.6304     98.0000     52.9636   9.4107455554e+01   3.9287589339e+01 0.0005812717 0.0001961682 -87.75 0.0007992365    2.920    0.658
       174 -11.5922    239.9057     50.7401   9.4232224915e+01   3.9285347416e+01 0.0008409384 0.0007672533 -55.77 0.0009294325    1.050    0.048
       175 -10.9558    112.7295     50.1772   9.4120483809e+01   3.9285601860e+01  0.001843216 0.0006114367 -30.78  0.002615532    2.875    0.652
       176 -12.7696    117.3141     42.7281   9.4124736977e+01   3.9280447807e+01  0.002560692  0.001317042  25.79  0.004444192    2.029    0.507
       177 -12.9706    120.2294     38.9717   9.4127411731e+01   3.9277845897e+01  0.002253497  0.001464246  45.46  0.002614274    1.611    0.379
       178  -9.4532     54.9210     51.2087   9.4069651720e+01   3.9286569275e+01 0.0004914158   0.00035474 -36.58 0.0004702559    1.338    0.252
       179 -10.2470    173.9207     48.3140   9.4174311747e+01   3.9284022325e+01 0.0009142804 0.0005468347   5.12  0.001535345    1.707    0.414
       180  -9.5267      3.2320     49.0029   9.4024296876e+01   3.9285260289e+01 0.0006453298 0.0004946783  -1.90  0.001362311    1.321    0.243
       181 -10.2214    202.1850     47.0056   9.4199187256e+01   3.9282975810e+01  0.000887898 0.0005029443 -85.33  0.001617103    1.733    0.423
       182  -9.2991     90.5325     48.0545   9.4101042155e+01   3.9284240463e+01 0.0005249755  0.000228619  58.92  0.000764425    2.429    0.588
       183  -9.7751     14.1265     46.3951   9.4033951451e+01   3.9283420444e+01 0.0008583372 0.0002882417 -65.38  0.001220943    2.759    0.638
       184  -9.7100      3.1496     44.6121   9.4024361032e+01   3.9282235257e+01 0.0007564552 0.0004037267 -14.40 0.0008056192    1.861    0.463
       185  -9.7780      6.0000     42.9271   9.4026918170e+01   3.9281063095e+01 0.0008124357 0.0003911137 -88.16  0.001358658    2.051    0.512
       186  -9.5750    139.0386     43.7764   9.4143795006e+01   3.9281067304e+01 0.0006091291 0.0003124481 -34.26  0.001051943    1.877    0.467
       187 -10.3813    100.2398     43.2259   9.4109718680e+01   3.9280869521e+01 0.0009399566 0.0005690593  56.24  0.001758565    1.724    0.420
       188 -11.2091     93.7782     41.3771   9.4104096829e+01   3.9279624894e+01  0.001345595 0.0008047646  -6.76  0.001810405    1.680    0.405
       189 -10.4572    153.6882     36.3784   9.4156888269e+01   3.9275898573e+01 0.0007089885 0.0005952467  45.60  0.001027928    1.242    0.195
       190  -9.6467    161.7271     43.4364   9.4163741739e+01   3.9280722309e+01 0.0007147982 0.0003288393   8.20  0.001162199    2.228    0.551
       191 -11.2233    156.1534     41.8270   9.4158891978e+01   3.9279640865e+01 0.0008733886 0.0008103985 -41.52 0.0008727438    1.041    0.039
       192  -9.8569     17.9258     42.1313   9.4037422151e+01   3.9280467426e+01 0.0008085973 0.0003727534 -26.52  0.001331489    2.110    0.526
       193 -11.0550    231.6888     39.4014   9.4225334575e+01   3.9277579009e+01  0.001064304 0.0006398535  52.97  0.001945282    1.739    0.425
       194 -11.0509     81.4239     39.3457   9.4093302980e+01   3.9278280338e+01  0.001234152 0.0008504723  20.30  0.001539908    1.504    0.335
       195 -10.9404     77.7267     34.1657   9.4090212201e+01   3.9274727479e+01  0.001047214 0.0007279108 -17.74  0.001099734    1.424    0.298
       196 -11.2407     82.2694     31.5950   9.4094281751e+01   3.9272936093e+01  0.001283081 0.0009409675  16.70  0.002121995    1.409    0.290
       197 -11.2720      4.3798     36.2057   9.4025703515e+01   3.9276438328e+01  0.001247581 0.0007960837 -50.12 0.0005983087    1.494    0.331
       198  -8.9789      6.5012     30.8841   9.4027732825e+01   3.9272763279e+01  0.001373348 0.0005181134   0.51  0.002044997    2.689    0.628
       199  -9.7176    206.9659     37.1989   9.4203676170e+01   3.9276193298e+01 0.0006290093 0.0005031446 -88.76 0.0009652121    1.238    0.192
       200 -10.5964    176.5889     36.9369   9.4176993245e+01   3.9276169381e+01 0.0008426975 0.0006321784  88.25  0.001765856    1.326    0.246
       201 -10.2613    172.3560     33.0212   9.4173390093e+01   3.9273492570e+01 0.0007285699 0.0005615499  49.63 0.0009771606    1.352    0.260
       202  -9.8042    133.6064     37.3898   9.4139213093e+01   3.9276692640e+01  0.001041599 0.0004463607  43.66   0.00162603    2.480    0.597
       203 -10.9677     22.1294     36.4439   9.4041291887e+01   3.9276531815e+01  0.001462662  0.000672018  19.56  0.001855992    2.260    0.558
       204  -9.9601    100.0827     30.1642   9.4109975995e+01   3.9271870208e+01  0.001713232 0.0007263331  62.52  0.002667469    2.490    0.598
       205 -10.0075     90.0113    250.0000   9.4094440567e+01   3.9423390313e+01 0.0005850948 0.0001988363  -0.68 0.0008077685    2.980    0.664
       206 -10.1465     76.3253    240.6730   9.4082675366e+01   3.9417023772e+01 0.0003843735 0.0002374402  46.32 0.0005865613    1.696    0.410
       207 -11.4736    115.5120     24.5102   9.4123702465e+01   3.9267903303e+01  0.001001254  0.000665982   3.79 0.0008921862    1.532    0.347
       208  -9.9835    130.9993    240.7722   9.4130808458e+01   3.9416844698e+01 0.0006984907 0.0004564724 -21.25  0.001364889    1.506    0.336
       209 -11.0947     69.8163     32.4837   9.4083313191e+01   3.9273603128e+01  0.001254854 0.0007555747  -7.93 0.0007625014    1.666    0.400
       210  -9.7590    160.4993     33.4501   9.4162959855e+01   3.9273847254e+01 0.0008638077 0.0005262789   1.88  0.001630023    1.669    0.401
       211  -9.9267    159.7895     29.4165   9.4162456224e+01   3.9271071433e+01 0.0007119198  0.000551097 -55.82 0.0008607643    1.235    0.190
       212 -11.2735    164.4401     27.5770   9.4166596790e+01   3.9269780815e+01 0.0009851597  0.000735468  50.06  0.001388237    1.396    0.284
       213 -10.1524    138.6223     33.1731   9.4143746634e+01   3.9273763135e+01 0.0005381345  0.000295145 -69.95 0.0009563347    1.745    0.427
       214 -10.7254    240.5857     31.6581   9.4233376906e+01   3.9272194852e+01 0.0007519294 0.0006424006 -53.16  0.001223302    1.121    0.108
       215  -9.9061    190.0096     32.1698   9.4188925870e+01   3.9272816145e+01  0.000792872 0.0005236414  11.31   0.00155484    1.557    0.358
       216 -10.1048    189.5376     27.2820   9.4188655274e+01   3.9269450580e+01 0.0009530543 0.0005205548 -57.78  0.001097654    1.737    0.424
       217 -11.8627    124.9025     27.6112   9.4131859280e+01   3.9269996020e+01  0.001606471  0.001241114 -16.71  0.002474928    1.284    0.221
       218 -11.6049     26.3890     27.7855   9.4045302167e+01   3.9270548749e+01  0.001567073  0.001137623  22.41  0.002621057    1.430    0.301
       219 -10.6592    247.1236    230.6767   9.4233339543e+01   3.9409296799e+01 0.0008454688 0.0004167606  -7.90  0.001434968    2.033    0.508
       220  -9.1908    190.4569    229.5512   9.4183487993e+01   3.9408821183e+01 0.0003532644 0.0003282336 -49.11 0.0001431654    1.032    0.031
       221  -9.0441      9.4268    227.4458   9.4024188591e+01   3.9408185913e+01 0.0003440835 0.0003348599 -65.09 5.165938e-05    1.021    0.021
       222 -10.8663    198.5014     28.8054   9.4196485762e+01   3.9270453924e+01  0.001065774 0.0006584803 -33.51  0.001713566    1.565    0.361
       223 -10.0714    199.7481     24.9653   9.4197693961e+01   3.9267801327e+01 0.0006530317 0.0004990775 -26.34  0.000561501    1.280    0.219
       224  -9.1999    234.6767    222.6601   9.4222616536e+01   3.9403840502e+01 0.0004010347 0.0002216616 -46.01 0.0006818772    1.723    0.420
       225 -10.5741    176.1714     28.3380   9.4176880976e+01   3.9270246389e+01  0.001291338 0.0004127943 -69.25   0.00180322    2.909    0.656
       226  -9.8092    152.4735    207.0604   9.4150723547e+01   3.9393513032e+01 0.0005451515 0.0003395153 -87.81  0.001029409    1.585    0.369
       227  -9.5612    158.2249     20.5421   9.4161345689e+01   3.9264964227e+01  0.001057765 0.0003417092   4.04  0.001448697    3.159    0.683
       228 -10.6563      4.2747    204.7410   9.4020361669e+01   3.9392562050e+01 0.0007548378 0.0004363236 -71.87  0.001219064    1.661    0.398
       229 -10.0223    156.9262     25.0138   9.4160071638e+01   3.9268051874e+01 0.0007611421 0.0005147267  -4.13 0.0005811861    1.492    0.330
       230 -10.3153    250.4670     24.6875   9.4242260415e+01   3.9267337114e+01 0.0006676239 0.0003304215  83.24  0.000808297    2.034    0.508
       231 -11.0598    214.9595     23.6008   9.4211097705e+01   3.9266781080e+01  0.001087772 0.0008190452 -80.87  0.001130572    1.298    0.229
       232 -10.3318    144.3415     24.8973   9.4149018909e+01   3.9268033098e+01  0.001205173 0.0003437322  14.00   0.00154324    3.647    0.726
       233  -9.1912      1.3014    199.6757   9.4017902968e+01   3.9389083457e+01 0.0003763813   0.00024093  47.69 0.0007029065    1.635    0.388
       234  -9.6267    133.7051     23.9687   9.4139702160e+01   3.9267444427e+01 0.0009716464  0.000706229  41.21  0.002000904    1.438    0.305
       235 -11.1095    140.6702     20.4740   9.4145925784e+01   3.9265002963e+01  0.002224018 0.0005836695 -16.76  0.002796964    3.722    0.731
       236  -9.9500     80.8217     19.3500   9.4093382355e+01   3.9264505279e+01 0.0007128892 0.0005140864 -13.89  0.001215091    1.381    0.276
       237  -9.6038    233.6715    196.6856   9.4222490424e+01   3.9385947827e+01 0.0003947424 0.0002250733 -44.72 0.0007044251    1.673    0.402
       238  -9.7791     17.0754    192.2195   9.4032016940e+01   3.9383884315e+01 0.0005558219 0.0004372796 -45.22 0.0004933812    1.219    0.180
       239 -12.7868      5.0538    184.5319   9.4021677602e+01   3.9378634638e+01  0.002591683  0.001550427  68.93  0.004416649    1.722    0.419
       240  -9.6062    169.9710    191.1581   9.4166596786e+01   3.9382469475e+01 0.0009421951 0.0002844527 -30.88  0.001267833    3.141    0.682
       241  -9.8714    167.4032    187.2044   9.4164454833e+01   3.9379757951e+01 0.0005245428 0.0003057079  72.68  0.000950202    1.757    0.431
       242  -9.3285    175.5446    180.0078   9.4171832589e+01   3.9374758451e+01 0.0005357321   0.00033862 -87.72  0.001018785    1.561    0.359
       243 -10.8025     38.5459     21.9939   9.4056161406e+01   3.9266508244e+01  0.001060352 0.0005219981 -69.13  0.001815496    1.934    0.483
       244  -9.6444     28.3154    176.3157   9.4042400865e+01   3.9372881353e+01 0.0003912383 0.0002267299 -45.34 0.0004898945    1.646    0.393
       245  -9.9096    221.0019     19.0278   9.4216539710e+01   3.9263597807e+01 0.0005303144 0.0004884957 -48.20  0.001224981    1.042    0.040
       246 -10.4890     66.1671     21.8723   9.4080431174e+01   3.9266307428e+01 0.0006411308 0.0004859623 -20.26 0.0003908252    1.302    0.232
       247 -12.3766      9.4400    166.1425   9.4026109786e+01   3.9365947003e+01   0.00176538  0.001175123 -55.27  0.002871751    1.433    0.302
       248 -11.3857    246.1192     20.7032   9.4238556278e+01   3.9264615699e+01 0.0006173956 0.0004741936  74.35 0.0005486761    1.324    0.245
       249  -9.5123      1.5967     20.6705   9.4023741475e+01   3.9265745192e+01 0.0005634955 0.0003409962 -45.23 0.0008048383    1.578    0.366
       250 -11.8637     13.2993    157.3981   9.4029777042e+01   3.9359906726e+01  0.001450942  0.001075076  35.90  0.001333448    1.409    0.291
       251  -9.6619    198.0855    167.7001   9.4192029050e+01   3.9366163010e+01 0.0004945036 0.0004463516 -35.79 0.0006661633    1.075    0.070
       252 -10.4184     18.9764    165.4221   9.4034522119e+01   3.9365412918e+01 0.0008221502 0.0006475082 -29.99  0.001127569    1.237    0.191
       253 -10.4853    205.2103    163.4319   9.4198422955e+01   3.9363184888e+01 0.0006480552 0.0006114992 -66.87 0.0006828394    1.028    0.027
       254  -9.3510    188.5072    164.4715   9.4183697787e+01   3.9363987506e+01 0.0003484546  0.000335617 -53.53  0.000121811    1.005    0.005
       255  -9.9994     27.9976    163.4947   9.4042518418e+01   3.9364048729e+01 0.0005790169 0.0004649977 -84.11 0.0007690027    1.224    0.183
       256  -9.3443    226.6918    156.3425   9.4217528368e+01   3.9358186254e+01 0.0003837518 0.0002374751  47.97 0.0004279166    1.692    0.409
       257  -9.7106    170.9056     17.6403   9.4172571770e+01   3.9262901574e+01 0.0004701241 0.0004244725   6.89  0.000372622    1.137    0.121
       258 -10.2710    186.5647     15.0790   9.4186403604e+01   3.9261057272e+01 0.0006844836 0.0004831038 -21.70 0.0007002162    1.394    0.283
       259 -10.4801     31.2697    154.1973   9.4045684653e+01   3.9357629352e+01  0.000944802 0.0007328764  39.51  0.001933342    1.346    0.257
       260 -10.7800     30.4990    149.0021   9.4045167467e+01   3.9354052859e+01 0.0007955059 0.0006228159  40.49 0.0008612733    1.334    0.250
       261 -11.9818     12.7523    139.1316   9.4029863732e+01   3.9347323021e+01  0.001937817 0.0008459053  53.98  0.003064921    2.432    0.589
       262 -10.0286    115.6165     16.8309   9.4124025627e+01   3.9262611459e+01 0.0006376425 0.0004460221  80.31  0.001127657    1.441    0.306
       263 -10.9988     14.3002    133.3326   9.4031405360e+01   3.9343321288e+01 0.0009127713 0.0008258986  82.86  0.001533364    1.114    0.102
       264 -10.9905     10.8249    127.2970   9.4028536523e+01   3.9339176381e+01  0.001870124 0.0005498955 -66.17  0.002353912    3.115    0.679
       265  -9.4588    223.4945     22.4597   9.4218629277e+01   3.9265949222e+01 0.0005066146 0.0003213352  74.68 0.0006539196    1.606    0.377
       266 -12.3053     22.8270    149.3590   9.4038407853e+01   3.9354329786e+01  0.002144198 0.0009749321 -48.97  0.003557336    2.075    0.518
       267 -11.5515     16.0495    148.0085   9.4032488078e+01   3.9353426308e+01  0.001428328 0.0007501625  29.41  0.002498582    1.991    0.498
       268  -9.6477    104.3133    153.6614   9.4109955380e+01   3.9356945363e+01 0.0003841699 0.0002374066  47.53 0.0007046605    1.695    0.410
       269 -12.3486      5.3457    147.3376   9.4023093661e+01   3.9353006092e+01  0.001985296  0.001277852 -59.17  0.003119267    1.481    0.325
       270 -11.3048      2.3582    141.6355   9.4020643577e+01   3.9349088874e+01  0.001205195 0.0009812581 -24.89   0.00237907    1.205    0.170
       271 -11.4954      4.0000    136.5437   9.4022246288e+01   3.9345574205e+01 0.0007186186 0.0006666291 -19.17 0.0004435074    1.074    0.069
       272 -10.6823     47.9231    151.3929   9.4060420599e+01   3.9355628384e+01  0.001286044 0.0006182435   4.43   0.00169806    2.121    0.529
       273 -10.8445     46.8017    146.2375   9.4059592936e+01   3.9352080846e+01  0.001232888 0.0007450712  88.43   0.00120544    1.645    0.392
       274  -9.5374     41.9687    148.5123   9.4055271621e+01   3.9353668352e+01 0.0007708518 0.0005034259 -13.36  0.001369104    1.525    0.344
       275 -10.5855     62.3008    149.8181   9.4073116263e+01   3.9354482522e+01  0.001100163 0.0007488913  54.80  0.001774736    1.530    0.346
       276 -10.7400     33.2064    144.4378   9.4047690042e+01   3.9350896912e+01  0.000728071 0.0006499554  15.27  0.000795759    1.158    0.137
       277  -9.0844    133.4562    141.0307   9.4135970838e+01   3.9348106757e+01 0.0005358885 0.0002096709 -56.38 0.0007364443    2.385    0.581
       278 -11.9340     29.8995    132.9698   9.4045136095e+01   3.9343008684e+01   0.00174531  0.001036197  72.31 0.0005025056    1.726    0.421
       279  -9.9377     26.2748    140.0018   9.4041730491e+01   3.9347868586e+01 0.0005617594 0.0004339955 -51.23  0.000595092    1.238    0.192
       280 -12.0231     22.6066    135.6808   9.4038638048e+01   3.9344906119e+01  0.001794761   0.00122815  28.80  0.003599244    1.523    0.343
       281 -10.3375     47.5047    134.5572   9.4060570883e+01   3.9344029909e+01  0.000752554 0.0004817788 -78.66  0.000809172    1.518    0.341
       282 -10.0562     82.2393    134.8580   9.4091110867e+01   3.9344088034e+01 0.0007773494 0.0004754547 -12.41 0.0008713728    1.630    0.386
       283 -10.3095     71.8134    134.0498   9.4081966009e+01   3.9343576729e+01  0.001115371 0.0004790117 -30.76  0.001785232    2.244    0.554
       284  -9.8714     92.5086    128.9389   9.4100322678e+01   3.9339963915e+01 0.0006847463 0.0004602709  25.61  0.001298926    1.548    0.354
       285  -9.8903     78.7479    128.2778   9.4088240971e+01   3.9339569418e+01 0.0006715592 0.0004264145 -71.01 0.0006587486    1.514    0.340
       286 -10.5458     18.3882    125.4005   9.4035246860e+01   3.9337839654e+01  0.001047103 0.0005163865 -70.86  0.001003527    1.935    0.483
       287  -9.9783      1.9880    124.8268   9.4020842025e+01   3.9337508906e+01 0.0008720326  0.000586418 -81.49  0.001732685    1.452    0.312
       288 -10.5148      3.8019    121.7792   9.4022532148e+01   3.9335402027e+01  0.001105981 0.0005688202  38.98  0.001905711    2.046    0.511
       289 -11.0078     55.7004    123.0930   9.4068131047e+01   3.9336096254e+01  0.001427853 0.0007988796 -17.15  0.001610307    1.768    0.434
       290 -11.3324    105.0228    121.0248   9.4111567912e+01   3.9334454182e+01  0.001160188  0.001117356  50.73  0.002228507    1.081    0.075
