#   1 NUMBER                 Running object number                                     
#   2 MAG_AUTO               Kron-like elliptical aperture magnitude                    [mag]
#   3 X_IMAGE                Object position along x                                    [pixel]
#   4 Y_IMAGE                Object position along y                                    [pixel]
#   5 X_WORLD                Barycenter position along world x axis                     [deg]
#   6 Y_WORLD                Barycenter position along world y axis                     [deg]
#   7 A_WORLD                Profile RMS along major axis (world units)                 [deg]
#   8 B_WORLD                Profile RMS along minor axis (world units)                 [deg]
#   9 THETA_WORLD            Position angle (CCW/world-x)                               [deg]
#  10 FWHM_WORLD             FWHM assuming a gaussian core                              [deg]
#  11 ELONGATION             A_IMAGE/B_IMAGE                                           
#  12 ELLIPTICITY            1 - B_IMAGE/A_IMAGE                                       
         1 -12.8995     49.1375     95.0993   1.1135902025e+02   5.1021433894e+01     3.313335     1.077118 -46.21   0.01207796    3.581    0.721
         2 -12.8481    116.6358     68.8928   8.4103052267e+01   4.5744410774e+01     2.284099     1.871576  40.60   0.01186955    1.253    0.202
         3 -13.1780     16.6430     56.9358   1.1475247222e+02   6.2489212445e+01     1.471359    0.9082241  19.85 0.0008758638    2.020    0.505
         4 -11.6207     50.9325     24.0920   8.9705583158e+01   6.5665936754e+01    0.9159477    0.5345439 -12.50 0.0003071905    2.422    0.587
         5 -11.3040     25.1305      4.9596   9.2861299927e+01   7.2008129194e+01    0.8208588    0.5625189  30.25  0.005387057    1.701    0.412
         6 -11.8499    116.4507     47.4043   7.6791288174e+01   4.9678631485e+01     1.282373    0.6580586 -22.25  0.003861507    2.501    0.600
         7 -13.2568     94.5399     54.1333   8.5645679151e+01   5.3026481821e+01     2.945477    0.8924129  44.04   0.00981035    3.475    0.712
         8 -11.4942     74.5009     46.4661   8.9554590630e+01   5.8039508750e+01     1.250084    0.5914049 -27.86  0.004686057    3.040    0.671
         9 -13.0057     70.1596     30.7552   8.4945449004e+01   6.1595692359e+01     2.089614     1.191608  42.93    0.0104161    1.914    0.478
        10 -10.8100     23.4340     31.3067   1.0487753229e+02   6.7357933270e+01     1.071778    0.4898568 -67.23  0.004778658    2.920    0.658
        11 -12.5582      8.8769     25.8281   1.1000778825e+02   6.9509627153e+01    0.8006256    0.6310273 -29.28  0.005840597    1.224    0.183
        12 -12.4613     54.5258      5.6506   7.9178290250e+01   6.8004576283e+01     1.523528    0.7592211  31.33  0.002541994    2.199    0.545
        13 -12.1830     41.2124     41.0879   1.0043771296e+02   6.3670753884e+01     1.303511    0.7497746   0.72  0.006150143    2.820    0.645
        14 -12.4930     54.2448     36.5779   9.3468471964e+01   6.2949768621e+01    0.9610301    0.6975818  43.01   0.00393859    1.651    0.394
        15 -11.7234     66.5801     21.3354   8.2140101923e+01   6.3736043645e+01     1.010835    0.5878782  15.17  0.003670607    2.469    0.595
        16 -10.9545     67.6857     13.6954   7.8087392616e+01   6.4690465186e+01    0.2802018    0.2434288  54.06 0.0002610588    1.467    0.319
        17 -12.2010     40.9954     18.8976   9.1770173842e+01   6.7861202748e+01     1.797989    0.5375806 -41.51  0.007108931    2.843    0.648
        18 -12.0601     30.7423     19.5149   9.6879657651e+01   6.8918709430e+01     1.517904    0.4572542 -47.30   0.00131346    2.682    0.627
        19 -12.3479      3.2269     17.4020   1.1012092757e+02   7.1498499298e+01    0.3016627    0.1897912 -38.49 0.0003006561    1.302    0.232
        20 -13.4827      3.2690      9.8489   1.0732314820e+02   7.2936202076e+01    0.9856791    0.4403566 -45.17  0.003671471    1.631    0.387
        21 -11.5120     77.7030     62.4469   9.3896420966e+01   5.4348330289e+01       1.5752    0.4931474 -37.31  0.004441023    4.919    0.797
        22 -11.5107     58.4229     49.0834   9.6353603326e+01   5.9939154601e+01     1.608525    0.9742127 -44.68  0.008454091    1.441    0.306
        23 -10.2847     94.5663     14.2178   6.9395884716e+01   5.9383435570e+01    0.3223887    0.2919881 -68.57 0.0004346071    1.424    0.298
        24 -12.1762    112.3142      7.4850   6.1697653907e+01   5.6138881989e+01     1.262991    0.9075694  80.56  0.004898072    1.767    0.434
        25 -10.5074    131.1116     13.4803   6.0077196937e+01   5.0897310742e+01    0.9609064    0.2337575  54.47   0.00307446    3.254    0.693
        26 -11.8152    112.4629     22.5750   6.8125643487e+01   5.4325833715e+01    0.8388636     0.740991  71.59  0.003962575    1.305    0.234
        27 -12.1138     99.9763      7.0416   6.4577902494e+01   5.9035175193e+01    0.7694542    0.4697814 -25.38  0.002381226    1.617    0.381
        28 -10.6805    223.2310      9.6987   4.6030180080e+01   2.7186591197e+01     0.958797    0.6325828  47.35  0.004334795    1.675    0.403
        29 -10.1924    212.5680     12.4796   4.7835410367e+01   2.9598609784e+01    0.3537989    0.3198973  38.67  0.001561132    1.210    0.174
        30 -10.8835    215.6138     23.7200   5.0698144320e+01   2.7618693232e+01    0.6402345    0.5610845 -33.51  0.001860787    1.120    0.107
        31  -9.3934    213.9576     17.0457   4.8987610632e+01   2.8767987867e+01    0.3120643     0.212279 -49.71 0.0008986074    1.445    0.308
        32 -12.0286    129.8797     19.9736   6.2920105243e+01   5.0462352751e+01     1.399826    0.4255077  58.53    0.0040747    3.016    0.668
        33 -12.5986     20.1473     13.6094   9.9651282690e+01   7.1003747652e+01      1.06708    0.6933913  45.84  0.006420614    2.333    0.571
        34 -10.8523    243.3145     10.8239   4.4602722657e+01   2.2210928441e+01    0.8121543    0.5554043  -0.23  0.004244979    1.862    0.463
        35 -10.8617    239.8357     22.0324   4.7770775115e+01   2.1851918993e+01    0.8780358     0.379989 -16.80   0.00346044    2.752    0.637
        36  -9.4940    141.8547      9.9407   5.6622303573e+01   4.8520579892e+01    0.8779079    0.5672919  64.73  0.002264393    1.492    0.330
        37 -10.2415    176.1346     15.0786   5.3000984783e+01   3.8913866283e+01    0.7258933    0.2340171  62.50  0.002255244    2.700    0.630
        38 -11.2189    168.7064     13.2866   5.3465265197e+01   4.1085500371e+01     1.959529    0.9089937 -78.38   0.00576453    4.583    0.782
        39 -11.4729    164.0014      4.5477   5.1133965936e+01   4.3193363071e+01     1.539793    0.8551504  13.24  0.006304863    2.466    0.594
        40 -12.4654    166.7697     23.9981   5.7417098357e+01   4.0420966165e+01     1.201701    0.6669838  80.81  0.001556026    2.236    0.553
        41 -10.8261    147.8794     23.1503   6.0458289999e+01   4.5495053086e+01     1.156219     0.783001  77.89  0.004273077    1.696    0.410
        42 -11.4541    150.2550     15.8753   5.7350265513e+01   4.5706520038e+01     1.183517    0.7120416  32.04  0.005186591    1.884    0.469
        43 -10.9308    132.4898      4.4296   5.6179621762e+01   5.1463754331e+01    0.5674915    0.3133319  47.27  0.001813845    1.669    0.401
        44 -11.1153    138.7871      2.5610   5.4309612474e+01   5.0018122347e+01     0.432148    0.3402546  33.79   0.00232518    1.245    0.197
        45 -11.5918    178.5214     27.0571   5.6575605819e+01   3.6933366919e+01     1.874441    0.9492224  21.84  0.006210613    3.540    0.718
        46  -9.5890    232.0094     20.1943   4.8028209855e+01   2.3930274753e+01    0.4027582    0.3002002  56.14  0.001266981    1.416    0.294
        47 -10.5676    233.1704     10.8693   4.5459372708e+01   2.4625333681e+01    0.3507758     0.249786 -74.90 0.0007567382    1.433    0.302
        48  -9.9803    233.7743      7.2180   4.4453918816e+01   2.4844339074e+01    0.2558753     0.225418  50.52  0.000347254    1.262    0.207
        49 -10.9846     93.7270      7.2721   6.6399037257e+01   6.0387158112e+01    0.6406938    0.3410868  27.09  0.002810563    2.199    0.545
        50 -10.4369    202.6509     18.2157   5.0587340064e+01   3.1559403519e+01    0.6559812    0.3375122  40.36  0.002233107    2.337    0.572
        51 -12.0751     93.6836     22.7484   7.3489632952e+01   5.8431553718e+01      1.24788    0.8870349  -1.82  0.001707843    1.547    0.354
        52 -10.3871    173.5990      8.3266   5.1109758457e+01   4.0272868668e+01      0.47284    0.2635551  -8.77   0.00121294    2.147    0.534
        53 -10.6554    181.3475      4.6011   4.8909122608e+01   3.8555235885e+01    0.4667636    0.3654297  86.21 0.0009091445    1.270    0.212
        54 -10.9069    199.1752      5.4518   4.7174812972e+01   3.3759526386e+01    0.6699334    0.4813709 -45.41  0.002567843    1.374    0.272
        55  -9.7190    189.7200      6.8905   4.8649781714e+01   3.6113958050e+01    0.4900753    0.3818574  34.93   0.00259284    1.407    0.289
        56  -7.9116     82.3168      2.3344   6.7356042801e+01   6.3332659274e+01    0.2157108    0.1337616  23.55  0.001089351    1.677    0.404
        57 -10.7220     77.4872      9.1216   7.2328771473e+01   6.3499390550e+01    0.2825795    0.2395369  -5.93 0.0007650246    1.056    0.053
        58  -8.5187     78.4498      4.0381   6.9450216454e+01   6.3921189814e+01    0.3148429    0.1620294  30.43  0.001436588    2.134    0.531
        59  -9.3068    250.4201      7.7246   4.3283971720e+01   2.0876659763e+01      0.30862    0.1676017 -55.01  0.001316988    1.773    0.436
        60  -9.7881    249.0447      2.2680   4.2046946943e+01   2.1725941451e+01    0.4118029    0.1820007 -44.14   0.00118075    1.960    0.490
        61  -9.3795    223.9915      1.4802   4.3742913043e+01   2.7792882960e+01    0.4293368    0.1573419  56.55  0.001693011    2.691    0.628
        62 -10.1154    207.6715      3.2865   4.5691855948e+01   3.1755465643e+01    0.6774632    0.3492344 -52.74  0.002986059    2.020    0.505
        63 -10.6063    217.9877      4.9839   4.5213993253e+01   2.8963417229e+01    0.3373897     0.233068  38.73 0.0004404311    1.697    0.411
        64 -10.5964    214.5179      5.4192   4.5652305221e+01   2.9800442755e+01     0.426993    0.3082899 -74.44   0.00169944    1.405    0.288
        65 -12.1462    111.7139     31.0258   7.1788776682e+01   5.3324402286e+01     0.807468    0.5599532  82.99  0.003603028    2.257    0.557
        66 -10.3338    244.6477     33.6808   5.0305986627e+01   1.9414156764e+01    0.7460827    0.2558383  54.07  0.002639578    3.002    0.667
        67  -9.0914    212.6167    250.1742   1.0047703986e+02  -1.9051396072e+00    0.1297897   0.08971959  -4.32 0.0009427194    1.686    0.407
        68  -8.9786    124.7653    249.8189   1.1472492911e+02   1.1006691491e+01    0.1561219    0.1072336  12.14 0.0009449034    2.757    0.637
        69 -10.4797     39.4794    121.9587   1.1833494604e+02   4.5974249267e+01    0.2809022     0.185941  83.23 0.0009547738    1.468    0.319
        70  -9.2084     22.4376    128.4843   1.2344246598e+02   4.6126403335e+01    0.2064767    0.1648486 -57.18 0.0007002142    1.391    0.281
        71  -9.3150     25.8014    126.8231   1.2243067203e+02   4.6196897751e+01    0.2520381     0.186585  74.50  0.000764907    1.213    0.175
        72  -9.7846     72.7458    129.1924   1.1073267443e+02   4.0364635299e+01    0.2336852    0.1959076  87.15 0.0003990278    1.102    0.092
        73  -8.2504     35.3071    130.3256   1.2042750203e+02   4.4537824822e+01    0.1157403   0.08250912 -48.57 0.0007036323    1.650    0.394
        74 -11.3617     67.5806    122.4509   1.1097192345e+02   4.2566106831e+01    0.9974109    0.2777289 -52.40  0.003581725    3.449    0.710
        75  -9.1302     75.0535    124.6469   1.0937620231e+02   4.1049616802e+01    0.2146547    0.1674133 -87.65 0.0005307848    1.260    0.206
        76 -10.5288     59.6953    121.2088   1.1286606393e+02   4.3859747445e+01    0.3422321    0.2781112 -65.48  0.002139791    1.152    0.132
        77  -8.9907    235.3477    248.6972   9.6748164529e+01  -4.9893941354e+00   0.09391586   0.07329008  46.91 0.0005998918    1.692    0.409
        78 -12.9070    145.8544     53.6344   7.1680457458e+01   4.1694934959e+01     1.342147    0.7646272  59.26 0.0008047239    1.840    0.456
        79  -8.7954     62.6839    248.3185   1.2467649321e+02   1.9392270178e+01    0.1069823   0.05244172  62.07 0.0003141945    1.654    0.396
        80  -8.7383      3.5025    245.9866   1.3357645681e+02   2.5981076469e+01    0.1237286   0.06964694 -88.45 0.0009964396    1.597    0.374
        81  -9.3892    205.9921    244.9919   1.0085721706e+02  -4.3074745788e-01    0.1382279   0.09470384  33.59 0.0007297804    1.057    0.054
        82  -9.8004    189.5694    243.7283   1.0335631004e+02   2.1495128507e+00    0.1721901    0.1062224 -29.62  0.001150049    2.152    0.535
        83 -12.3024     10.2307    111.4624   1.2488766421e+02   5.0810920005e+01      1.07683    0.6878825 -32.77  0.006597889    2.239    0.553
        84 -10.1304    142.2894    243.4894   1.1118770976e+02   9.2871094371e+00    0.2989715    0.1442754  32.24  0.001444977    2.200    0.546
        85 -11.8533     26.9748     65.9345   1.1283110959e+02   5.9736519224e+01     1.083952    0.4362317 -35.39  0.003571722    3.657    0.727
        86  -8.5015    211.2210    240.2297   9.9384626529e+01  -7.2422623715e-01    0.1351286   0.08593806 -45.85 0.0008751401    2.449    0.592
        87  -9.6207     14.6496    236.1302   1.3158539142e+02   2.6450280049e+01    0.1679223    0.1160719 -69.17 0.0008808777    1.862    0.463
        88 -12.1425     42.6775     50.1191   1.0276040305e+02   6.1658209000e+01     0.745156    0.5497974   8.02  0.002699995    1.650    0.394
        89  -9.6808     12.9322    232.2079   1.3170398100e+02   2.7234685576e+01    0.2097008    0.1048474  62.20  0.001069685    1.391    0.281
        90  -8.8625    180.4926    234.5117   1.0369522966e+02   4.5813855694e+00    0.1150183   0.08593776  35.32 -4.243903e-05    1.032    0.031
        91  -9.1955    227.2171    231.5670   9.5602149342e+01  -2.2372902912e+00    0.1948075     0.100975  33.89    0.0005241    1.467    0.318
        92  -8.8189    136.6747    231.3123   1.1084209761e+02   1.1763337985e+01    0.1143909    0.0725834  61.98 0.0007040947    1.661    0.398
        93 -12.3386     18.8957     99.6463   1.2112827795e+02   5.2809255606e+01     1.484403     0.672399 -65.57  0.007949154    1.734    0.423
        94  -9.0517    202.1082    229.0160   9.9331845125e+01   1.8505300126e+00     0.171683    0.1293243  32.81 0.0004235787    1.031    0.030
        95  -9.0428     50.1804    227.6509   1.2546658741e+02   2.4058890027e+01    0.1697326    0.0893705  57.51 0.0008805139    1.418    0.295
        96  -8.9024    110.7917    224.6156   1.1469913393e+02   1.6603695769e+01    0.1718794   0.07926112  49.33 0.0009540694    1.708    0.415
        97  -8.7958     40.7098    221.6410   1.2670553257e+02   2.6113417425e+01   0.08512618   0.07668332 -62.75 0.0003370778    1.689    0.408
        98  -8.4093    234.0494    219.2230   9.2646055464e+01  -2.0289715909e+00    0.1480026   0.07380818  37.89 0.0003369744    1.593    0.372
        99  -9.3210      3.3916    213.7059   1.3253732080e+02   3.1152555653e+01     0.177779   0.07140853  89.70 0.0009774794    2.122    0.529
       100  -8.6455    225.5163    211.9967   9.2892871177e+01   5.1734834592e-02    0.1538018    0.1092441 -23.23 0.0005894263    1.570    0.363
       101  -8.8190    123.9987    205.9904   1.1022113589e+02   1.7539953044e+01     0.173372    0.1405658  52.84  0.001180529    1.005    0.005
       102 -10.1372     92.1766    118.9283   1.0381197893e+02   3.9717225641e+01    0.6170337    0.3200872 -51.82  0.002809945    1.876    0.467
       103  -8.7907    132.3399    119.6849   9.3804543045e+01   3.2212439244e+01    0.1990018    0.1341703 -39.62 0.0006164176    1.587    0.370
       104  -9.4882     50.2404    118.2598   1.1494825530e+02   4.5646456767e+01    0.2671734    0.2052906 -61.15  0.001119637    1.233    0.189
       105  -8.7743     53.9663    118.0004   1.1390140446e+02   4.5274269313e+01    0.1799952    0.1541039 -84.05 0.0004965541    1.009    0.009
       106  -9.7762    104.0486    116.5350   1.0020416697e+02   3.8232387881e+01    0.2930529    0.2188649  68.93 0.0009504109    1.516    0.340
       107 -12.9495     23.6451     82.4757   1.1713255179e+02   5.6306855372e+01     1.236139     1.092131 -11.36  0.008788881    1.428    0.300
       108 -10.0535     82.2257    114.7722   1.0564856575e+02   4.2199399932e+01    0.4164493    0.2717804  18.30  0.001602109    2.308    0.567
       109  -9.9557     58.4513    113.6000   1.1196018979e+02   4.5727531514e+01    0.4499617    0.2227368 -39.98  0.001918182    2.918    0.657
       110  -9.0526     97.8713    113.4861   1.0117532067e+02   3.9965877610e+01    0.2816808    0.2017906  -1.63  0.001271694    2.426    0.588
       111  -8.9558     63.8778    113.7849   1.1049179700e+02   4.5000463543e+01     0.187355     0.173756 -49.50 0.0006517901    1.213    0.175
       112  -9.1966    133.3559    112.5157   9.1874071449e+01   3.3464723848e+01     0.290835    0.2392951 -77.76  0.001480047    1.416    0.294
       113 -10.0859    107.8543    110.8363   9.7945458945e+01   3.8781522915e+01    0.5196769    0.2252005 -51.63  0.002050488    2.276    0.561
       114 -10.8333     68.1972    106.4450   1.0792036553e+02   4.6086316281e+01    0.6209107    0.4007267 -23.84  0.002865214    2.617    0.618
       115  -9.9438     74.5395    107.2407   1.0627778486e+02   4.5021539849e+01    0.3712016    0.2599043  35.01 0.0009262675    1.587    0.370
       116 -10.8926     77.3153    101.9506   1.0438431888e+02   4.5805571297e+01    0.7293986    0.3333983  36.63  0.002956201    2.380    0.580
       117  -9.1065    149.3865    106.5059   8.6560944414e+01   3.1239116825e+01    0.3670785     0.145013 -36.51  0.001242881    2.850    0.649
       118  -8.9697    113.8119    107.2435   9.5542812720e+01   3.8440778083e+01    0.1943306    0.1739607 -10.19 0.0005791871    1.319    0.242
       119  -9.4981     53.1673    104.0578   1.1180413367e+02   4.8524581196e+01    0.2992251    0.1678353 -65.75 0.0009839891    1.577    0.366
       120  -9.8529    141.6062    103.0921   8.7517035545e+01   3.3609945234e+01    0.3449234    0.2673124 -38.45  0.001019573    1.317    0.241
       121  -9.6221    133.9955    103.1404   8.9382446143e+01   3.5232094723e+01    0.3072439    0.1546622 -49.29  0.001217146    2.068    0.516
       122  -9.4713    171.4706    102.5302   8.0629974622e+01   2.6978318678e+01    0.3230989    0.2536086  18.17  0.001220956    1.475    0.322
       123  -8.3854    105.4114    102.8567   9.6723372190e+01   4.0947737906e+01    0.2002569    0.1299388 -39.72 0.0004522912    1.654    0.396
       124 -11.4480     36.9294     90.6925   1.1431776260e+02   5.3290632267e+01     1.409705    0.6442034 -44.03   0.00656831    2.448    0.591
       125 -10.7355      4.4375     99.6826   1.2528238506e+02   5.3786320623e+01    0.4121889    0.2172649 -63.31  0.002492814    1.550    0.355
       126 -13.1572     54.7548     69.4350   1.0377762167e+02   5.6118215088e+01     2.622437     1.062447  37.09   0.01146471    2.731    0.634
       127 -10.1526    116.4896     99.9164   9.3028761999e+01   3.9472891089e+01    0.4718906    0.3077608  -2.72  0.001723165    3.335    0.700
       128  -9.2605     87.4682    100.5760   1.0117055443e+02   4.4539947769e+01    0.2509255    0.2084642  57.64  0.000501666    1.264    0.209
       129  -9.9470     89.1218     97.2503   9.9919595137e+01   4.5005382034e+01    0.4776835    0.2736509  25.22  0.002037918    2.479    0.597
       130 -11.1301     88.3909     89.7907   9.8295265745e+01   4.6765033219e+01    0.7346191    0.3594132 -52.46  0.001885687    1.923    0.480
       131  -9.5369     92.8845     89.1122   9.6801073156e+01   4.6151715644e+01    0.3389409    0.2532418  60.93  0.000865331    1.540    0.351
       132  -8.9892     34.9462     98.6806   1.1626147190e+02   5.1666851649e+01    0.3167248    0.2048172 -81.83  0.001830922    1.441    0.306
       133  -9.3962     38.6632     96.9379   1.1486353979e+02   5.1704491642e+01    0.2528863    0.1844779 -32.97   0.00146895    1.707    0.414
       134  -9.3439    244.3835    204.1591   8.8547157398e+01  -2.0639679262e+00     0.200824    0.1241716  26.68 0.0007194005    1.316    0.240
       135  -9.6250     63.9779     98.3424   1.0752921793e+02   4.8482233832e+01     0.304517     0.242597  47.91  0.001804004    1.352    0.260
       136  -8.6243    147.5725     98.5099   8.4890894641e+01   3.3188733523e+01    0.1482458    0.1468761  -0.99 5.243369e-05    1.012    0.012
       137  -9.5150    159.7428     96.9081   8.1674194948e+01   3.0719213413e+01    0.4487847     0.279962  43.25  0.001281679    1.607    0.378
       138  -9.3264    155.9617     94.4689   8.1858102488e+01   3.2046929618e+01    0.4015786     0.243264  53.04  0.001722925    1.676    0.403
       139  -8.7179     81.0086     97.4349   1.0231053683e+02   4.6257672701e+01    0.1951286    0.1359427  37.67 0.0004822855    1.558    0.358
       140  -9.9128    114.9462     95.3368   9.2253737898e+01   4.0737935426e+01    0.3995515    0.1668986  49.24  0.001466919    2.558    0.609
       141 -10.7317    124.1875     92.6586   8.9094237083e+01   3.9420291744e+01    0.5313595    0.4044431  72.07  0.002551967    1.618    0.382
       142 -10.8453    120.2889     86.7007   8.8467104733e+01   4.1443444995e+01    0.8184613    0.3353791  52.87  0.002851102    2.845    0.648
       143 -10.2554    124.4360     82.7219   8.6224965261e+01   4.1371740867e+01    0.7878935    0.3460285 -56.17  0.002515104    3.444    0.710
       144 -10.7044     82.1525     86.0542   9.9208974307e+01   4.8597629385e+01     1.097406    0.2661324 -51.45  0.003415839    3.722    0.731
       145  -9.0571     77.7087     93.2693   1.0231834269e+02   4.7688986290e+01    0.3209943    0.2006401 -39.87 0.0009912407    1.750    0.429
       146  -9.6018     74.0033     89.3233   1.0250291371e+02   4.9119041303e+01    0.5557401    0.1637297  38.91  0.001961015    3.558    0.719
       147 -10.3029     91.8700     77.4470   9.3912073484e+01   4.8827601188e+01    0.5601533    0.3529346  23.64  0.002506585    2.157    0.536
       148 -11.1570    104.4057     79.3205   9.0748379207e+01   4.6130513243e+01    0.9505048      0.46259 -33.41  0.003561929    2.599    0.615
       149 -10.3787     98.9180     77.4771   9.1810611240e+01   4.7548308524e+01    0.4062504    0.3214927  44.84  0.001080644    1.330    0.248
       150 -10.8401    103.6764     92.2285   9.4526551441e+01   4.3550152294e+01    0.3615536     0.282614  49.22 0.0003180454    1.331    0.248
       151 -11.1922    107.6855     86.4480   9.1843212945e+01   4.4016148471e+01    0.8333643    0.6089517   6.94  0.003831037    2.019    0.505
       152  -7.8471    200.2855     90.3243   7.1738133728e+01   2.2249171326e+01    0.1529636    0.1138562  13.73 0.0005593497    1.602    0.376
       153  -8.1902    153.5095     87.4867   8.0463240205e+01   3.3916129005e+01    0.1535627    0.1469208  12.81 0.0002082047    1.058    0.055
       154 -10.7001    133.8206     79.1000   8.2735171548e+01   4.0022476269e+01    0.6272356    0.4009779 -54.32  0.001904618    1.784    0.440
       155  -9.8813    149.6941     78.4846   7.8712592710e+01   3.6469452138e+01    0.5747731    0.3761372  15.62  0.002259565    2.372    0.578
       156  -9.6733    145.4733     86.2134   8.1972711220e+01   3.6018315622e+01    0.5304641    0.3655568 -41.78  0.002192901    1.451    0.311
       157  -9.2577    140.7715     84.5958   8.2636276162e+01   3.7400376995e+01    0.3180247    0.2522183 -82.50  0.001114343    1.639    0.390
       158  -9.0071    239.3217     86.6659   6.4510191198e+01   1.3822033335e+01     0.143992    0.1041065 -57.62 0.0007050071    1.705    0.413
       159  -9.7882    164.4552     85.7768   7.7542730044e+01   3.1632597173e+01    0.2778078    0.2449097  18.10 0.0005877441    1.206    0.171
       160 -10.6378    100.3903     69.9175   8.9088431271e+01   4.8821503502e+01    0.7018307    0.5470639  28.87  0.003637705    1.422    0.297
       161  -8.8159    186.2404     84.9145   7.2864954886e+01   2.6505350882e+01    0.2874607    0.2111275  -7.86  0.001316278    1.616    0.381
       162 -10.0771    216.8211     80.9099   6.6420755902e+01   1.9768118540e+01    0.5059114    0.2754923 -29.36  0.002177525    1.768    0.434
       163  -9.9082    160.4843     81.7805   7.7253633807e+01   3.3297873230e+01    0.4627233    0.3230586  51.36  0.001988707    1.426    0.299
       164  -8.4726     76.7404     84.3874   1.0044381052e+02   4.9804651346e+01    0.1713815    0.1341053  24.51 0.0004257323    1.506    0.336
       165  -9.0312    179.4293     80.5074   7.2942825190e+01   2.8901404969e+01    0.3075439    0.1511677  55.27  0.001178556    2.056    0.514
       166 -10.6830    150.9955     67.4991   7.5038730460e+01   3.8109339579e+01    0.5838446    0.5269359  -2.18  0.001921994    1.164    0.141
       167  -9.1110    131.9233     67.6742   7.9668018540e+01   4.2596236754e+01     0.305275    0.2438296  31.38 0.0009301791    1.336    0.252
       168 -10.9251    143.5309     75.9637   7.9402347747e+01   3.8382776097e+01    0.7812172    0.5863621  48.33  0.003753402    1.332    0.249
       169  -9.3435    144.0342     71.5067   7.7909611308e+01   3.9075381778e+01    0.3870839    0.1502925  51.89  0.001324539    2.578    0.612
       170 -10.7839    138.1152     68.6833   7.8447994869e+01   4.0978923263e+01    0.7180111    0.3991402  44.69 0.0006127944    1.825    0.452
       171  -9.9021    247.4730     75.2767   6.0549494654e+01   1.3577710457e+01     0.307744    0.2347976 -70.61  0.001203709    1.674    0.403
       172  -8.8619    219.4312     74.7992   6.4381631309e+01   2.0039608392e+01    0.2805625    0.1279712 -34.78  0.001111631    2.032    0.508
       173  -9.1202    214.6430     72.8142   6.4585331270e+01   2.1471442263e+01    0.4233201    0.2363783   4.97  0.001413161    3.412    0.707
       174  -8.3960    193.4901     74.5346   6.8597062217e+01   2.6391900759e+01    0.1494512     0.146635 -33.92 0.0002756261    1.038    0.036
       175  -8.5790    178.8057     69.3502   6.9804214991e+01   3.0881849237e+01    0.2242055    0.1325504  45.80 0.0004812824    1.709    0.415
       176  -9.5225    163.5291     67.7727   7.2391315870e+01   3.4970371213e+01    0.4163683    0.2815458 -78.99  0.001659921    2.333    0.571
       177  -9.8442     84.3910     68.2384   9.3512364487e+01   5.2046813954e+01    0.2727391    0.2357485 -25.82  0.000699743    1.183    0.155
       178 -10.0982    250.4955     65.4803   5.7723175962e+01   1.4192253682e+01    0.5761803    0.1247158 -27.81  0.001698775    4.207    0.762
       179 -10.1482    165.3781     62.5590   7.0387126035e+01   3.5361530588e+01    0.4030344     0.365939 -54.21  0.001319096    1.159    0.137
       180  -8.6434    159.1578     57.0365   6.9913406527e+01   3.7818455789e+01      0.51713    0.2643775 -22.08  0.001918055    2.348    0.574
       181  -9.8597    165.7609     55.1070   6.7946695277e+01   3.6439818530e+01    0.5974511    0.3265852 -32.97  0.002450273    1.808    0.447
       182 -10.4122    160.0689     50.4219   6.7562772289e+01   3.8613853512e+01    0.5281903    0.4486334 -77.47  0.002077691    1.364    0.267
       183  -9.7596    152.7616     43.9691   6.6887767826e+01   4.1447642155e+01    0.3634294    0.2900778 -21.99  0.001117373    1.284    0.221
       184 -10.6076    160.3194     41.3996   6.4496632018e+01   3.9869725130e+01    0.8802664    0.6432533  41.00  0.004018313    1.394    0.283
       185 -10.9595     67.2460     62.4915   9.7468056836e+01   5.5938873005e+01    0.2702891    0.2205894 -37.48 0.0002709941    1.146    0.127
       186  -9.5625    200.8325     59.8287   6.3127511504e+01   2.6760252458e+01    0.4126467    0.2903315   6.67  0.001852514    1.821    0.451
       187  -8.8975    189.0344     49.4771   6.1969592572e+01   3.1250077480e+01     0.313711     0.213203  32.24 0.0007392099    1.707    0.414
       188  -9.9692    185.4134     54.8365   6.4215216334e+01   3.1420497244e+01    0.5781584    0.3087346 -10.76  0.002068335    2.750    0.636
       189 -10.6749    181.9539     51.7414   6.3866089155e+01   3.2763799401e+01     1.012992    0.4786874 -16.19  0.003453332    2.945    0.660
       190  -8.4754    211.7347     59.6660   6.1394633548e+01   2.4055848290e+01    0.1482936    0.1117692  16.07 0.0005006017    1.583    0.368
       191 -10.1317    174.5257     56.4146   6.6668324150e+01   3.3990436486e+01    0.6316984    0.3302619  -9.80   0.00200926    3.171    0.685
       192  -8.6468    234.0000    200.0237   8.9524033365e+01   1.6949481396e-02     0.173633   0.06437248 -31.06 0.0008044117    2.956    0.662
       193 -10.0442    222.7099     56.7697   5.9024312036e+01   2.1759638584e+01    0.4148301    0.3592982  71.72  0.002288282    1.231    0.188
       194  -9.5096    243.6207     54.7024   5.5816434827e+01   1.7102409671e+01    0.3115185    0.2733542 -21.54  0.001824919    1.089    0.082
       195 -10.1822    195.1889     54.3095   6.2419422160e+01   2.8983399612e+01    0.5647656     0.284755  68.05  0.002182425    2.259    0.557
       196  -8.8233    125.5336     45.9412   7.3863510627e+01   4.7841515347e+01    0.4370236    0.3581349 -14.87  0.002244138    1.262    0.207
       197  -9.7183    129.5708     46.4785   7.3042835672e+01   4.6802721034e+01    0.2779788     0.230475   9.67  0.001011307    1.315    0.239
       198 -10.1267    130.5117     41.8860   7.1144592663e+01   4.7298718116e+01    0.5243084    0.2453412 -33.01  0.001073627    2.102    0.524
       199 -11.8023      5.0481     80.1308   1.2280573436e+02   5.8080467268e+01     1.432733    0.6073648 -75.87   0.00749668    1.908    0.476
       200  -9.6492    225.8865     48.9973   5.6486446153e+01   2.2008424293e+01    0.2269113    0.2066714  74.97 0.0003499956    1.153    0.133
       201  -9.3337    126.9863     51.0106   7.5309397432e+01   4.6667817416e+01      0.27344    0.2113902 -23.98  0.000329309    1.317    0.241
       202  -9.1665    174.4852     48.0089   6.4019305320e+01   3.5241615223e+01    0.3873881    0.1843778 -44.47  0.001450099    2.255    0.557
       203  -9.4274    171.0791     47.4298   6.4455479318e+01   3.6211342021e+01    0.4167837    0.2846588 -51.43  0.001739026    1.625    0.384
       204  -9.8730    136.2544     25.3012   6.3612321366e+01   4.8207959750e+01    0.3940575    0.2599138  -3.93  0.001145537    1.799    0.444
       205 -10.7157     96.6394     43.8053   8.1207682320e+01   5.4492287215e+01    0.7674028    0.5063713 -20.22  0.003633677    1.701    0.412
       206  -9.2097     27.6995    194.1552   1.2738901370e+02   3.2316258281e+01    0.2276011   0.07787009 -74.23   0.00120813    2.644    0.622
       207 -10.3509     14.3183    189.5800   1.2959404085e+02   3.4448715309e+01     0.189707    0.1247229  77.83 0.0005652463    1.144    0.126
       208  -9.9788    245.1984    187.1668   8.5446261155e+01  -3.6155348132e-01    0.2263585    0.1794261  18.50 0.0004816966    1.043    0.041
       209 -10.3317    100.7295     37.0381   7.7327214807e+01   5.4792942353e+01    0.4465905    0.2626964  44.87  0.002068498    1.721    0.419
       210 -10.7605    105.8518     35.1198   7.5063026467e+01   5.4006033218e+01    0.5362067      0.38345  72.96  0.002236497    1.945    0.486
       211  -9.0726      1.6383    187.7957   1.3181317101e+02   3.5884206633e+01    0.1857533   0.09742469  83.69  0.001282753    1.484    0.326
       212 -10.5525    110.4538     17.3437   6.6431723561e+01   5.5455886353e+01    0.2639644    0.2080689  53.16 0.0004713918    1.271    0.213
       213  -8.9333     35.5058    185.4381   1.2534471626e+02   3.3143998054e+01    0.1076031   0.08572663  75.12 3.082901e-06    1.083    0.077
       214 -10.1952    230.2355     45.4909   5.4998070265e+01   2.1401754537e+01    0.5058183    0.3147217  80.18  0.001541032    1.914    0.477
       215  -8.9434    224.9742     41.7680   5.4627386023e+01   2.3144399328e+01     0.202197    0.1696594  34.26 0.0006307807    1.315    0.240
       216 -10.0727    219.9460     43.6868   5.5784935207e+01   2.4143993768e+01    0.4569593    0.2571196 -35.90  0.001165766    1.653    0.395
       217  -9.9797    206.8079     46.0816   5.8238598601e+01   2.7138299016e+01    0.3860912    0.2089807  63.11  0.001037305    1.871    0.466
       218  -9.1950      5.8836     40.6757   1.1547246943e+02   6.6628232728e+01    0.1499992    0.1307166   7.96  0.000362043    1.432    0.302
       219  -8.5019     12.0237     34.0000   1.1098238686e+02   6.7657412221e+01    0.2563529    0.1497058  24.68  0.001180775    2.085    0.520
       220 -10.6961     12.5083     41.8573   1.1289851849e+02   6.5992745925e+01     0.552076    0.3982053  20.36  0.001584247    1.712    0.416
       221  -9.6899     21.4547     40.4200   1.0863387669e+02   6.5663558332e+01    0.1966383      0.17085 -80.15 0.0007053018    1.325    0.245
       222 -10.1931     18.3189     37.7395   1.0922791431e+02   6.6455125361e+01    0.3888883    0.2739303  72.85  0.002273396    2.158    0.537
       223 -10.5066     16.2762     31.5793   1.0828643730e+02   6.7861486347e+01    0.3116204    0.2496769  66.80  0.001650939    1.762    0.432
       224 -10.5989    202.7573     39.3008   5.6826549058e+01   2.9053952040e+01    0.5646882    0.2640572 -38.74  0.002264209    2.039    0.510
       225 -10.0744    214.2541     41.7753   5.5985656018e+01   2.5808467879e+01    0.5694954    0.3245524   7.37  0.002140467    2.920    0.658
       226  -9.2651    217.1569     13.2729   4.7595968895e+01   2.8349589831e+01    0.3223436     0.168615  52.69  0.001438929    1.975    0.494
       227 -10.0055      6.0572    182.2503   1.3075227387e+02   3.6545882240e+01    0.2154586    0.1101121 -68.59 0.0005146601    1.928    0.481
       228 -10.5281    217.9160     35.9062   5.3864515451e+01   2.5615319642e+01    0.7211809    0.3841104  64.32  0.003179764    1.888    0.470
       229 -10.6439    211.7807     32.1392   5.3550707127e+01   2.7620690189e+01    0.7614757    0.3773299  41.82   0.00187185    2.419    0.587
       230 -10.9877     19.7072    183.8651   1.2827343400e+02   3.5020020434e+01    0.4148926    0.1713977  33.65  0.001953992    2.535    0.606
       231 -10.0837      1.8591    178.6904   1.3136688668e+02   3.7566069165e+01    0.3834659    0.1119926 -81.13  0.001947462    2.849    0.649
       232  -9.3389    209.9357     18.0596   4.9713286092e+01   2.9689768578e+01    0.2885436    0.2407371  44.37  0.000740989    1.283    0.220
       233  -8.7814     28.4578    177.5017   1.2617029189e+02   3.5395340768e+01     0.111251   0.08284491  74.89 0.0008091111    1.017    0.017
       234  -9.3741    155.0401     33.6236   6.2839955396e+01   4.2307417064e+01    0.3387686    0.2379487  -7.20  0.001499224    1.643    0.391
       235  -9.3401    142.6907     38.9435   6.7268252883e+01   4.4735202111e+01    0.2525784    0.2151464 -17.93 0.0004821267    1.193    0.162
       236 -10.7461    143.4778     42.9831   6.8533550678e+01   4.3944205739e+01    0.7919095    0.3279988  47.37  0.002868524    2.374    0.579
       237 -10.3494    137.1127     42.1129   6.9662987603e+01   4.5656370745e+01    0.5141982    0.3762931 -31.10  0.002490231    1.363    0.266
       238 -10.2619    148.2881     34.5654   6.4514900019e+01   4.3926161136e+01    0.5505858    0.2951274  63.22  0.001726365    1.929    0.481
       239  -9.5907    143.3914     34.1718   6.5393675334e+01   4.5230194599e+01    0.2933379    0.2106149 -51.55  0.000575055    1.585    0.369
       240  -9.8660    106.6734     44.8249   7.8583705134e+01   5.2247645893e+01    0.3926844    0.2820241  69.27   0.00154347    1.862    0.463
       241  -8.5611     24.8793     46.0000   1.0876460861e+02   6.4223241877e+01    0.1601145   0.06975355  23.37 0.0007800302    2.789    0.641
       242  -8.7269    179.9540     44.5151   6.1948901274e+01   3.4305574720e+01    0.2232479      0.14543  58.47 0.0006071999    1.505    0.336
       243 -10.1800    194.2654     31.2117   5.5583351294e+01   3.2269708256e+01    0.6233699    0.3696544   8.46   0.00246807    2.527    0.604
       244  -9.2147    190.8698     40.6909   5.8988537914e+01   3.1963229293e+01    0.3934013    0.2143179 -14.74  0.001497943    2.226    0.551
       245  -9.4313    192.4881     36.5159   5.7463617786e+01   3.2078172188e+01    0.3010102    0.2602112 -85.10  0.001317997    1.223    0.182
       246  -8.4366    197.0102     41.5179   5.8313692852e+01   3.0255610992e+01    0.2104872    0.1257114 -79.98 0.0008093509    2.462    0.594
       247  -9.1332    182.9832     33.4876   5.7956028405e+01   3.4962763724e+01     0.348676    0.1727579  48.56  0.001142531    2.025    0.506
       248 -10.2720    180.5722     37.8755   5.9736765757e+01   3.5036316487e+01    0.5753736    0.3429666 -58.85  0.002355888    2.120    0.528
       249  -9.7619    174.4136     38.8069   6.1065986830e+01   3.6535613799e+01    0.3941263    0.2727478  60.61  0.001844127    1.418    0.295
       250  -9.2789    235.9115     38.7234   5.2537714445e+01   2.0872871711e+01    0.2379033    0.1866995 -28.67 0.0006028351    1.206    0.170
       251  -9.4946    125.4175     33.3642   6.9187016918e+01   4.9789248814e+01    0.6236998    0.3846709  12.99  0.002535943    2.329    0.571
       252  -9.2497      7.4722    175.2660   1.3013364588e+02   3.7755248374e+01    0.1689802    0.1229429  57.21 0.0007073977    1.237    0.192
       253  -8.8044     45.9164    170.6252   1.2206666494e+02   3.4906670807e+01    0.1591089    0.1217765  64.54 0.0006492262    1.105    0.095
       254 -10.7356    134.8256     33.8531   6.7156760911e+01   4.7424504239e+01    0.3086945    0.2681594   6.03 0.0003029843    1.186    0.157
       255  -8.9860    138.4723     31.4710   6.5457937599e+01   4.6841635170e+01    0.2739021      0.24604 -39.93 0.0008582839    1.165    0.141
       256 -10.1911     18.5122    164.9839   1.2732402310e+02   3.8812954812e+01    0.2868012    0.1569467  62.67  0.001065427    1.551    0.355
       257 -10.9748    236.5637     31.8692   5.0660601814e+01   2.1525240112e+01    0.5484938    0.4462853  38.50  0.003089458    1.392    0.281
       258 -10.7000     13.0359    164.9258   1.2844187752e+02   3.9306662674e+01     0.326297    0.1684924  48.39  0.001767219    1.707    0.414
       259 -10.7216    246.0272     19.1195   4.6471799603e+01   2.0713616576e+01    0.5317883    0.2573401  67.38  0.001663461    2.112    0.527
       260 -10.1103    198.9394     32.4125   5.5301559528e+01   3.0901121467e+01    0.4150915    0.3055323  13.59   0.00199684    1.663    0.399
       261  -9.7657    203.0091     27.4591   5.3286135063e+01   3.0430993928e+01    0.4557271    0.3869109 -44.57  0.002482874    1.156    0.135
       262  -9.4821     32.6032     32.8214   1.0124791610e+02   6.6216681471e+01    0.2524517    0.1415238 -44.96  0.001023062    1.448    0.309
       263 -11.1785      9.5425    159.7124   1.2883667485e+02   4.0644295226e+01    0.4943244    0.1501755 -67.95  0.002271133    2.742    0.635
       264 -10.3525      2.5833    159.8879   1.3027745690e+02   4.1163443768e+01    0.3984883    0.1832782 -89.71  0.002413098    1.764    0.433
       265 -10.0223     15.4959    159.5138   1.2758202415e+02   4.0181803258e+01    0.1799157    0.1474517  70.01 0.0008784922    1.154    0.133
       266 -12.3243     20.9743    147.6415   1.2551125916e+02   4.2150853627e+01    0.6300767    0.5469081  50.27  0.004842481    1.328    0.247
       267  -9.7303     45.9676    149.8349   1.2002375323e+02   3.9196048879e+01    0.2386399    0.1603078 -88.26            0    1.320    0.242
       268 -10.0099     45.9529    144.8961   1.1948747364e+02   4.0252706753e+01     0.318597    0.2818541 -19.65  0.002182544    1.653    0.395
       269 -12.1354     39.3625    147.2487   1.2127890916e+02   4.0458982234e+01    0.7264674    0.5213907 -27.13  0.004301487    2.376    0.579
       270 -10.0022     38.0267    143.2687   1.2118027386e+02   4.1449177259e+01    0.2852113    0.2345032 -16.30 0.0006296756    1.901    0.474
       271  -9.0797     87.3516    149.1398   1.1026411696e+02   3.3939292985e+01    0.2094268    0.1734584  38.40 0.0006611065    1.315    0.240
       272  -9.5722     66.5861    148.1309   1.1501123152e+02   3.7069895269e+01    0.2309897    0.1875327  32.81  0.001459843    1.457    0.314
       273 -10.6733    183.0067     27.2869   5.5975516715e+01   3.5714410333e+01    0.5385127    0.3291844  33.88  0.001386525    1.943    0.485
       274  -9.3285    228.2979     31.0553   5.1324815419e+01   2.3617428232e+01    0.2463064    0.2102722 -44.62 0.0005433985    1.101    0.092
       275  -9.7305    226.1540     27.0972   5.0481559998e+01   2.4599270302e+01    0.3333265    0.3090225 -75.68  0.001414892    1.062    0.058
       276  -9.5394    248.5640     25.9705   4.7973906254e+01   1.9382741632e+01    0.3106105    0.2556339  36.83   0.00182201    1.422    0.297
       277 -10.8986      7.4415    134.2191   1.2756062713e+02   4.6084751481e+01    0.5563283    0.3578558  15.54  0.002827701    2.261    0.558
       278  -9.3313    231.3680     15.2375   4.6772209734e+01   2.4613610946e+01    0.2791988    0.1729353 -38.64   0.00100491    1.477    0.323
       279 -10.1206     13.5098    118.4293   1.2471303607e+02   4.9043150655e+01    0.3803557    0.2698465 -75.41     0.002606    1.154    0.133
       280 -10.4460     18.1168    122.8745   1.2397013126e+02   4.7711647139e+01    0.3518708    0.1895913 -85.37  0.000811548    1.593    0.372
       281  -9.5569     20.1807    118.7987   1.2301961164e+02   4.8441337107e+01    0.2980895     0.173392  89.32  0.001219716    1.542    0.351
       282 -10.3852      4.8466    147.1822   1.2904740802e+02   4.3566598281e+01      0.30474    0.1707822  33.62  0.001953955    1.985    0.496
       283  -9.0275    197.7227     17.3539   5.0914327780e+01   3.2941294495e+01    0.3078126    0.2560573   8.81 0.0009045118    1.370    0.270
       284 -10.9114      5.8021    142.5878   1.2853414064e+02   4.4446660119e+01    0.3614851    0.3025615  55.69  0.001174646    1.300    0.231
       285  -8.4669     82.9606     13.1734   7.2488171592e+01   6.1910012071e+01    0.2152252    0.1289601  27.30 0.0004975105    1.830    0.454
       286 -11.4317     13.2121    130.4866   1.2588802277e+02   4.6445632843e+01    0.6780627    0.3135014  59.27  0.002631008    2.147    0.534
       287 -10.9171     12.3020    125.8085   1.2570310602e+02   4.7525578215e+01    0.3678314    0.2575676  64.58  0.001033211    1.330    0.248
       288 -10.3823     15.0911    143.0053   1.2647118215e+02   4.3628729931e+01    0.3280798    0.1494644 -63.65  0.001858394    1.991    0.498
       289  -8.7607     97.9648    140.9243   1.0641923247e+02   3.4018311299e+01    0.2114136    0.1495958  76.93 0.0005684277    1.610    0.379
       290  -8.3377     80.5176    140.5458   1.1058777369e+02   3.6780524234e+01    0.1294331    0.1153723  82.91 0.0001438768    1.014    0.014
       291  -9.4555     49.6622    138.6471   1.1786571837e+02   4.1188956393e+01    0.4627968    0.1261639  48.99  0.001725005    3.871    0.742
       292 -10.0049     55.6076    137.1493   1.1621707677e+02   4.0821575792e+01      0.28122    0.1601055 -46.31  0.001443037    2.186    0.543
       293  -9.1529     23.3374    133.2818   1.2369063399e+02   4.5005502893e+01    0.1708362    0.1584773 -76.11 0.0006101981    1.278    0.217
       294  -9.7090     27.5056    137.4341   1.2308864537e+02   4.3733055511e+01    0.2051236    0.1396899 -58.99 0.0006615093    1.522    0.343
       295 -10.4687     22.9724    137.1564   1.2414260878e+02   4.4201570057e+01    0.4369157    0.2760471  14.69  0.002620625    2.403    0.584
       296  -9.5187     86.7299    134.3163   1.0804598211e+02   3.7205094753e+01    0.3382486    0.1829745  37.33  0.001618105    1.941    0.485
       297 -11.3049     46.9556    129.1324   1.1733508902e+02   4.3584561948e+01    0.7675944    0.3731706 -68.72   0.00306082    1.806    0.446
       298  -9.9188     28.6229    120.3062   1.2098108730e+02   4.7383883375e+01    0.8722839     0.366361  49.62  0.003842217    2.478    0.596
       299 -11.0446     40.4747    127.0014   1.1871969398e+02   4.4750084345e+01    0.5068861    0.3017787  73.44   0.00280141    1.772    0.436
