#   1 NUMBER                 Running object number                                     
#   2 MAG_AUTO               Kron-like elliptical aperture magnitude                    [mag]
#   3 X_IMAGE                Object position along x                                    [pixel]
#   4 Y_IMAGE                Object position along y                                    [pixel]
#   5 X_WORLD                Barycenter position along world x axis                     [deg]
#   6 Y_WORLD                Barycenter position along world y axis                     [deg]
#   7 A_WORLD                Profile RMS along major axis (world units)                 [deg]
#   8 B_WORLD                Profile RMS along minor axis (world units)                 [deg]
#   9 THETA_WORLD            Position angle (CCW/world-x)                               [deg]
#  10 FWHM_WORLD             FWHM assuming a gaussian core                              [deg]
#  11 ELONGATION             A_IMAGE/B_IMAGE                                           
#  12 ELLIPTICITY            1 - B_IMAGE/A_IMAGE                                       
         1 -14.0090    212.8106      8.4389   4.0799396934e+01   3.0774543951e+01      2.38814     1.515041  40.56   0.01025493    2.033    0.508
         2 -13.1911    174.0302     53.3958   5.8856211396e+01   3.4911711240e+01     1.966617     1.314973  25.19  0.005710501    2.024    0.506
         3 -13.4711    188.8292     39.3921   5.2202230961e+01   3.3121781376e+01     1.061094     1.038233  71.17   0.00383154    1.071    0.067
         4 -12.7144    193.8188     33.3200   4.9732470490e+01   3.2644049347e+01    0.6468397    0.5719827  52.10   0.00143573    1.184    0.156
         5 -10.7255     46.1459      2.3244   7.4241613651e+01   6.9301166923e+01    0.2877284    0.1036595  44.29  0.001302888    2.963    0.663
         6 -10.3242     43.9297    220.6670   1.2331693053e+02   2.3782001717e+01    0.2061936    0.1458729 -81.99  0.001389031    1.331    0.249
         7 -12.7822    247.5784    245.5722   8.8618037616e+01  -1.0646024715e+01      1.05375    0.6691056 -15.36  0.007128716    1.547    0.353
         8 -19.4875     24.7090    147.4803   1.2110330992e+02   4.1503005207e+01     18.99747     4.757851 -75.14   0.06733182    3.768    0.735
         9 -11.1793     58.9098    202.8669   1.1898903393e+02   2.5487040605e+01    0.2992171    0.2188972 -43.61  0.001806892    2.031    0.508
        10  -9.4094     74.8391    250.6522   1.2004516265e+02   1.4473190895e+01    0.1053028   0.08075111  57.05 0.0001995037    1.097    0.088
        11  -9.9885    205.0121    199.4932   8.8412543754e+01   1.9127630488e+00    0.2086759    0.1171938  38.05  0.001034901    1.602    0.376
        12 -11.5946    151.2215    196.1086   9.8688053966e+01   1.2230555341e+01    0.4065322    0.3659155   6.25  0.002447169    1.252    0.201
        13  -9.2131     82.1339    195.0006   1.1334411054e+02   2.3955774224e+01    0.2029332    0.1643593  73.59  0.001266736    1.072    0.067
        14 -10.3474      8.9255    192.8481   1.2802933054e+02   3.2981238111e+01     0.167284    0.1051177  34.53  0.001070773    1.851    0.460
        15 -10.9738     96.5408    190.3395   1.0964321792e+02   2.2761211884e+01    0.4696909    0.4010233  -7.61 0.0005089214    1.739    0.425
        16 -11.6048     60.9232    196.4298   1.1796145246e+02   2.6566121166e+01    0.3378279    0.2530644 -39.74  0.001554795    2.025    0.506
        17 -12.3277     54.5635    211.4554   1.2060404964e+02   2.4297481669e+01    0.5120423    0.2010055  63.48  0.001634083    2.888    0.654
        18  -9.7143    156.6882    190.0488   9.6505654428e+01   1.2360514398e+01    0.1806753    0.1758246 -10.04 0.0003653474    1.119    0.106
        19 -11.0855    150.2843    188.4167   9.7593729564e+01   1.3857920102e+01    0.3398248    0.2614057 -88.24  0.001765005    1.731    0.422
        20  -7.2747     75.5724    247.5101   1.1967431255e+02   1.4904165537e+01    0.1365447    0.1012639 -62.27  0.000959422    1.702    0.413
        21 -10.3355    238.8503    185.2857   7.9471406719e+01  -1.7998758287e+00    0.1934129     0.164784  45.98 0.0008324152    1.463    0.316
        22 -10.6505    151.4250    180.4397   9.5940225928e+01   1.5196845033e+01    0.3930484    0.2492309 -72.71  0.001670017    2.457    0.593
        23 -11.2876    145.3354    180.9500   9.7370175714e+01   1.6243342865e+01    0.3682624    0.3013236  40.21  0.001383301    1.147    0.128
        24 -11.8558    141.8123    175.2587   9.7135889712e+01   1.8058217737e+01    0.6107952    0.4510742 -81.39  0.001760258    1.769    0.435
        25 -10.9231     99.3172    180.8556   1.0770440391e+02   2.4349340949e+01    0.2832472    0.2619211   6.53 0.0007764706    1.403    0.287
        26  -9.8802    189.1573    178.4694   8.7566650938e+01   8.3102692302e+00    0.3883875    0.2703752  63.83  0.001068897    1.996    0.499
        27  -9.8538    187.6653    173.2245   8.6828514519e+01   9.5358546761e+00    0.4713553    0.2831882 -65.58   0.00179872    3.247    0.692
        28  -8.7838     84.0191    177.5603   1.1072626470e+02   2.7444052208e+01    0.1985048    0.1212428  43.08 0.0006253224    1.571    0.363
        29  -9.5550    238.3487    176.3136   7.7771166321e+01  -3.9790499246e-01    0.1408479   0.09247568   6.93 0.0005878042    1.721    0.419
        30  -9.7824     48.3004    217.3301   1.2226342760e+02   2.3907404302e+01    0.2133603    0.1299233  42.57 0.0009741058    1.555    0.357
        31  -9.2066     51.4635    215.4405   1.2152198603e+02   2.3892715276e+01    0.1632063    0.1303983 -89.31  0.000589999    1.191    0.160
        32  -9.6007    240.4686    169.4509   7.5996717400e+01   2.6457756906e-01    0.1344259    0.1150825  -1.74 9.350223e-05    1.003    0.003
        33  -9.4527    184.5282    211.2875   9.4437010598e+01   3.6627353345e+00    0.3494852    0.1302574 -44.44  0.001440777    3.109    0.678
        34  -9.7813    187.3144    152.1104   8.2439084106e+01   1.3525265199e+01    0.3629714    0.2519181 -83.94  0.001436486    2.797    0.642
        35 -10.9888    134.0256    146.5919   9.3345927552e+01   2.5708405858e+01     1.194487     0.343196 -56.18  0.003002984    5.339    0.813
        36  -9.3869    113.4802    151.3880   9.9387857676e+01   2.8525654980e+01     0.300367    0.1975536  89.23  0.001272811    2.192    0.544
        37  -9.6988    174.5694    149.1862   8.4515264041e+01   1.6772197577e+01    0.2792088    0.2092008  44.37 0.0006290909    1.309    0.236
        38 -10.2667    143.8912    146.0229   9.0840860226e+01   2.3845599378e+01    0.4136426    0.1987537 -59.56  0.001443937    2.806    0.644
        39 -11.0489    108.3426    138.0266   9.8039248097e+01   3.2539982740e+01    0.6430882     0.355851 -41.87  0.002676703    2.033    0.508
        40 -10.1962    107.6543    145.6063   9.9738381535e+01   3.0898963856e+01    0.3048396    0.2419249  79.65 0.0005052208    1.391    0.281
        41 -11.7864     96.6395    137.3619   1.0098561298e+02   3.4732366020e+01    0.2930437    0.2778634 -85.33 0.0002523855    1.027    0.026
        42 -10.0375    135.7920    129.5890   8.9105885522e+01   2.9135696348e+01    0.5360597    0.1237049 -49.57  0.001362423    4.620    0.784
        43 -10.0560    115.3164    128.8938   9.4231520168e+01   3.3373290159e+01    0.3258274    0.2566625 -30.72 0.0006340212    1.469    0.319
        44 -10.8458    105.8710    131.0852   9.7229034653e+01   3.4608310530e+01    0.4955702    0.3173148 -52.75  0.002050757    1.508    0.337
        45  -9.3740    160.3343    127.8181   8.2734808603e+01   2.4236538637e+01    0.3264943    0.1379338 -50.30   0.00109412    2.646    0.622
        46 -10.5034    103.0445    124.7156   9.6598582650e+01   3.6609739931e+01    0.3068392    0.2538595 -10.60 0.0007000719    1.559    0.359
        47  -9.5523    120.1320    123.3097   9.1662473559e+01   3.3727272665e+01    0.2735748    0.2039579 -37.65  0.001138879    1.426    0.299
        48  -9.4125    135.0000    120.3392   8.7065397788e+01   3.1359336875e+01    0.3367595    0.0876666 -46.38 0.0009180804    3.801    0.737
        49 -11.4033     39.3102    212.7394   1.2360436942e+02   2.5861395653e+01    0.1748197    0.1389314  69.63 0.0003073684    1.098    0.089
        50  -9.3686    110.4816    118.2495   9.3060311867e+01   3.6754537322e+01    0.2459449    0.2025481  45.03 0.0002865209    1.253    0.202
        51  -8.2467    150.5466    117.4780   8.2468424170e+01   2.8602548705e+01    0.1568974    0.1512022 -79.93 0.0002127656    1.074    0.069
        52 -10.0023    231.2074    113.6891   6.5098660674e+01   1.1116340020e+01    0.2705245    0.2650347  23.94 0.0007494638    1.106    0.096
        53  -9.5026    167.5763    112.4961   7.7184150847e+01   2.5760821766e+01    0.3770146    0.2776104 -88.25  0.001586708    1.995    0.499
        54  -9.9206    134.6968    106.4905   8.3556948554e+01   3.4467426948e+01    0.5436187      0.12802 -43.45  0.001409352    4.227    0.763
        55 -11.1919    118.9599    110.4345   8.8792309676e+01   3.6890683124e+01    0.5438381    0.4524311  71.10  0.002596383    1.377    0.274
        56  -9.6545    205.3418    110.1260   6.8775530312e+01   1.7448959648e+01    0.3220065    0.2280868  45.18 0.0008847867    1.466    0.318
        57  -9.8763     43.9887    211.8031   1.2265484531e+02   2.5506015706e+01    0.2441807    0.1346702 -80.98   0.00103128    1.663    0.399
        58  -9.2212    183.3061     83.0105   6.5764240065e+01   2.7631540597e+01     0.228067    0.2073327 -34.32   0.00117417    1.090    0.082
        59  -8.5094    153.7685     81.9773   7.1809916853e+01   3.5083021842e+01    0.2062804     0.130114 -37.17 0.0003807132    1.581    0.368
        60 -11.0044     71.9079    245.3440   1.2014606095e+02   1.5762302387e+01    0.2754109    0.1622158 -76.04   0.00177846    1.807    0.446
        61  -9.3889    167.7234    231.6249   1.0081560455e+02   3.3768239513e+00    0.2251513    0.1646966  21.05 0.0008600337    1.430    0.301
        62 -11.1445     67.5406    206.5744   1.1760610845e+02   2.3602994998e+01    0.2101541    0.1683573  71.79 0.0002759068    1.009    0.009
        63  -7.9181     63.1125    221.2708   1.1979871753e+02   2.1292004558e+01    0.3382925    0.1388181  62.27  0.001574803    2.591    0.614
        64 -10.7950    193.3594    195.5561   8.9960784484e+01   4.6189803778e+00    0.9103504    0.5097598 -64.73  0.003094556    5.023    0.801
        65  99.0000     73.0498    203.8314   1.1621561703e+02   2.3412854283e+01    0.3538746    0.1993227  67.64  0.001380683    1.801    0.445
