#   1 NUMBER                 Running object number                                     
#   2 MAG_AUTO               Kron-like elliptical aperture magnitude                    [mag]
#   3 X_IMAGE                Object position along x                                    [pixel]
#   4 Y_IMAGE                Object position along y                                    [pixel]
#   5 X_WORLD                Barycenter position along world x axis                     [deg]
#   6 Y_WORLD                Barycenter position along world y axis                     [deg]
#   7 A_WORLD                Profile RMS along major axis (world units)                 [deg]
#   8 B_WORLD                Profile RMS along minor axis (world units)                 [deg]
#   9 THETA_WORLD            Position angle (CCW/world-x)                               [deg]
#  10 FWHM_WORLD             FWHM assuming a gaussian core                              [deg]
#  11 ELONGATION             A_IMAGE/B_IMAGE                                           
#  12 ELLIPTICITY            1 - B_IMAGE/A_IMAGE                                       
         1 -13.7512    242.2503    129.4112   6.8048363521e+01   6.0955313788e+00     4.574867    0.9175777 -40.68   0.01273435    4.728    0.788
         2 -13.4967    226.7110     54.0937   5.1926637996e+01   2.1491375812e+01     2.257582    0.8365411 -42.88   0.00851265    2.456    0.593
         3 -13.3048    245.4885    100.8140   6.0864991499e+01   1.0037552284e+01      3.66795     1.011158 -48.04  0.009120882    6.156    0.838
         4 -13.5248    234.7164     37.8102   4.6875526532e+01   2.1846719209e+01     2.044232     0.748371 -49.63  0.007698722    2.768    0.639
         5 -12.3676    249.0685     56.1088   4.9702463134e+01   1.6058472615e+01     1.924006    0.2654424 -35.13  0.005351754    4.843    0.794
         6 -14.1262    247.2187     22.9569   4.2098931283e+01   2.0845117143e+01     3.449985     1.003188 -34.77   0.01350948    2.830    0.647
         7 -13.2078    232.4593     20.0316   4.2754054073e+01   2.4603300791e+01     2.077491    0.5526799 -40.02  0.007717285    2.987    0.665
         8 -12.8114    241.7897     54.7830   5.0228888271e+01   1.7878124996e+01     1.561644    0.6748452 -39.66  0.006649944    2.006    0.501
         9 -11.0268    212.1895     12.5035   4.2852164217e+01   3.0373289468e+01    0.4520457    0.1826979 -45.44  0.001889833    2.337    0.572
        10 -10.3484    160.5128     13.2516   4.9571549544e+01   4.3510664280e+01    0.3895631    0.1863049 -53.24  0.001130509    2.689    0.628
        11  -9.2193    160.5028      8.9800   4.8189410222e+01   4.3938623189e+01    0.2513751     0.143335 -15.36  0.001118843    2.081    0.520
        12  -9.1687    142.6160     11.7966   5.2063078913e+01   4.8221378977e+01    0.1923681    0.1231146 -37.00 0.0009443068    1.685    0.406
        13  -9.1177    148.4958      8.5118   4.9913525009e+01   4.7053610459e+01     0.245887    0.1099088 -37.03  0.001029035    2.358    0.576
        14 -10.6146    132.3669      7.0008   5.2219428894e+01   5.1231159156e+01    0.4641525   0.09500858 -33.13  0.001465509    4.352    0.770
        15  -9.5017    138.4648      7.9611   5.1446397540e+01   4.9631176888e+01    0.1938906   0.09827168 -48.03 0.0008086561    2.464    0.594
        16 -10.6333    127.9998      7.0004   5.3059622731e+01   5.2299643686e+01    0.2658589    0.1586847 -49.95 0.0005555373    2.120    0.528
        17 -11.3536    116.2053      4.7197   5.4604958892e+01   5.5325790520e+01    0.4249511     0.328192 -41.55  0.001341738    1.507    0.337
        18 -11.2047    110.8669      4.8815   5.5854761160e+01   5.6551315481e+01    0.3657384    0.2553649 -28.85 0.0002707562    1.552    0.356
        19 -10.7985    217.8867      3.5510   4.0032511722e+01   2.9919837918e+01    0.3909834    0.1858844 -30.38  0.001838682    2.109    0.526
        20  -9.5165    189.4547      5.4985   4.3385345635e+01   3.6829253753e+01    0.1359317    0.1218056  85.28  0.000226166    1.016    0.016
        21  -9.7144    153.1338      3.4273   4.7469577401e+01   4.6338944411e+01    0.3654913    0.1458214 -40.96   0.00145816    2.736    0.635
        22 -10.7708     69.8108      4.6152   6.7350633761e+01   6.5101182003e+01     0.216125    0.1592068  48.50  0.001309461    1.466    0.318
        23 -10.6922    121.5171      2.5420   5.2642096606e+01   5.4257939875e+01    0.2997709    0.2121752  -2.86  0.000677089    1.558    0.358
        24  -9.9662     50.9658      3.3905   7.3897143886e+01   6.8402114697e+01    0.2147441    0.1520732 -15.27 0.0003297812    1.237    0.192
        25  -8.8535     19.2745      4.3653   8.9581339189e+01   7.2254910407e+01    0.1199015   0.06676207 -18.80 0.0007004878    1.669    0.401
        26  -9.7204    159.3681      2.4199   4.6235337974e+01   4.4835429376e+01    0.2974382    0.2059603 -66.33  0.001374968    1.639    0.390
        27  -9.2222     14.7384      1.9576   9.0829289928e+01   7.3029850560e+01    0.1546768    0.1098206 -25.69 0.0003017508    1.092    0.084
        28  -9.2525    143.5233      3.4906   4.8998160803e+01   4.8767368071e+01    0.2710382    0.1353298 -21.36  0.001219622    2.204    0.546
        29  -9.0393    184.3354    196.3217   9.2874321617e+01   6.1799200204e+00    0.1396421   0.09959692  10.30 0.0007050249    1.708    0.414
        30  -9.0057    210.8075    249.6376   9.6480550566e+01  -5.7343587283e+00     0.237546    0.1239331 -17.65  0.001233731    2.832    0.647
        31  -9.7721    194.1835    250.3721   9.9495438707e+01  -3.2880724452e+00    0.2613872   0.08937879  43.10   0.00120159    2.393    0.582
        32  -9.7941    247.2383    194.1736   8.0791986222e+01  -4.4647761849e+00    0.2450237    0.2052954  48.08 0.0009785106    1.583    0.368
        33  -8.9791    230.8599    194.3694   8.3695525596e+01  -1.7954079011e+00    0.1891634    0.1042707  30.34  0.000945117    1.729    0.422
        34  -9.9672    224.8337    193.4868   8.4617349841e+01  -6.4009222142e-01    0.1931076     0.187455 -25.13  0.001274084    1.341    0.254
        35  -9.0524    244.2790    188.6394   8.0240709557e+01  -3.2353848416e+00    0.1728607    0.1589229  85.85  0.001088494    1.781    0.439
        36  -9.3253    230.8321    188.1120   8.2505397948e+01  -8.9502565494e-01    0.2341649    0.2067755 -70.28  0.001408951    1.777    0.437
        37  -9.8439    237.0378    187.5527   8.1292973766e+01  -1.8748702114e+00    0.2390947    0.1773641 -42.19  0.001382096    1.628    0.386
        38 -10.1498    215.1446    186.4841   8.5072280431e+01   2.1202056150e+00    0.1984155    0.1873299 -50.12  0.001014795    1.361    0.265
        39  -9.6089    249.7597    185.0741   7.8611178287e+01  -3.6437854828e+00    0.3279172    0.1536286 -38.97  0.001558923    2.266    0.559
        40 -10.1535    248.1446    179.0219   7.7691140920e+01  -2.5376110619e+00     0.284949    0.2173573 -37.68  0.001177462    1.473    0.321
        41  -9.7952     77.6934    185.7672   1.1392470083e+02   2.6661272826e+01    0.2281083    0.1835719  59.61 0.0005417974    1.118    0.105
        42 -10.4023    223.9601    184.4574   8.3042034552e+01   8.4857978554e-01    0.2703297    0.1919503 -52.20  0.001423641    1.957    0.489
        43 -10.2290    235.9885    181.5074   8.0293561678e+01  -8.2557180133e-01    0.2433355    0.1786872 -44.88  0.001364758    1.679    0.404
        44 -10.1722    197.9555    183.6844   8.7837594849e+01   5.7451381552e+00    0.3166014    0.1903498 -56.27  0.001412985    2.466    0.594
        45  -9.7565    210.6889    176.3760   8.3926728310e+01   4.5473203490e+00    0.2408233     0.162545 -45.71 0.0008123823    1.704    0.413
        46  -9.6683    241.7659    181.6095   7.9300969177e+01  -1.8303114990e+00    0.2610341     0.239289 -72.85  0.001429452    1.691    0.409
        47  -8.6583    232.6797    174.7100   7.9519461696e+01   7.6531133003e-01    0.1376745   0.09426098   8.64 0.0006323794    1.602    0.376
        48  -9.8916    223.8379    173.7764   8.0932967752e+01   2.5123801284e+00    0.2437097    0.1740771 -57.28  0.001131321    2.081    0.520
        49  -9.3125    188.4123    172.3094   8.7513812654e+01   9.5472561239e+00    0.2631488    0.1372035 -36.55  0.001131353    2.066    0.516
        50  -9.1780    227.7584    171.5684   7.9765068601e+01   2.1371129497e+00    0.2161107    0.1667928 -53.48  0.001166594    1.735    0.424
        51 -10.3983    237.6029    170.1060   7.7706527275e+01   5.8109523968e-01    0.2545081    0.1944494 -40.00  0.001036539    1.448    0.309
        52 -10.0799    246.6363    169.5317   7.6028212510e+01  -9.2043635983e-01     0.314061    0.2723641  77.15  0.001855307    1.834    0.455
        53  -9.7971    218.9504    168.3574   8.0725009379e+01   4.2886059574e+00    0.2980221     0.189973 -43.29  0.001474296    1.717    0.418
        54  -9.4225    191.2839    165.7234   8.5583124228e+01   1.0157094929e+01    0.2931121    0.1718683 -18.48   0.00117571    2.524    0.604
        55  -9.7065    234.3296    164.8510   7.7192561558e+01   1.9753784457e+00    0.2670525    0.1111046 -42.05  0.001075581    2.579    0.612
        56  -8.5268    240.3218    164.6268   7.6095767010e+01   9.2257809571e-01    0.1287154     0.107011 -64.76 0.0007031299    1.810    0.448
        57 -10.4156    212.8905    163.2300   8.0794366726e+01   6.3015941317e+00    0.3878173     0.189474 -38.36    0.0016656    2.060    0.514
        58  -9.1409    221.5949    161.7902   7.8852696978e+01   4.8532721435e+00    0.1920245    0.1266742 -43.83 0.0009443141    1.654    0.396
        59  -9.5860    205.4972    161.9913   8.1959563453e+01   7.9716336571e+00    0.2165681    0.1378752 -37.26  0.000575014    1.592    0.372
        60  -9.5469      2.5941    159.8034   1.2773922330e+02   4.0620418116e+01    0.1625126   0.08234585  88.50 0.0002966493    1.604    0.377
        61  -9.7886    177.3334    248.4774   1.0223666639e+02  -4.1364592690e-01    0.2444052    0.1659658  46.81  0.001565375    1.313    0.238
        62  -9.1109    185.4947    241.5136   9.9813224702e+01  -7.8597026116e-01    0.2189642   0.09263488  48.02  0.001026985    2.298    0.565
        63  -9.7094    191.6585    237.3318   9.8093578696e+01  -1.2175589370e+00    0.3101448    0.2177703  70.37  0.001678955    2.589    0.614
        64 -12.8092    245.8963     75.8581   5.4826363370e+01   1.3849384114e+01     1.544508     1.016032 -64.17  0.007522178    1.790    0.441
        65  -9.2843    207.6582    237.6889   9.5265638653e+01  -3.8068982953e+00    0.2348652    0.1235678  52.60  0.001155742    2.544    0.607
        66  -9.1667    218.0021    235.1417   9.3038594283e+01  -5.1010580142e+00    0.2912327     0.067728  40.69  0.001081511    3.570    0.720
        67  -9.4631    170.9933    235.5094   1.0163357847e+02   2.4020067953e+00    0.1729793    0.0899723  56.33 0.0008092917    2.457    0.593
        68 -10.2128    226.8532    157.3592   7.6940601683e+01   4.5654065989e+00    0.2376437    0.1840566 -38.27  0.001294714    1.331    0.249
        69  -9.5873    216.0255    156.3461   7.8723702225e+01   6.8454245503e+00    0.2461451    0.2028759 -57.49   0.00129931    1.529    0.346
        70  -9.1527    197.1669    155.6873   8.2256469653e+01   1.0774069905e+01    0.3235551    0.1686833 -18.84  0.001091929    3.435    0.709
        71  -9.8365    233.6011    154.1812   7.5047216273e+01   3.7892291434e+00    0.2686791    0.2260441 -89.58  0.001453337    1.835    0.455
        72  -8.1649    187.6812    155.3195   8.4115487541e+01   1.2803665275e+01    0.1445996    0.1192253 -89.29  0.000642569    1.663    0.399
        73  -9.8182    229.4840    148.0499   7.4433830216e+01   5.5747298325e+00    0.2640343    0.1908036 -14.20 0.0007158022    1.440    0.306
        74 -10.0251    212.0007    151.2575   7.8372339629e+01   8.5241369438e+00     0.202077    0.1889644  -2.40 0.0007439214    1.028    0.027
        75  -8.6782    202.5981    151.2040   8.0187959687e+01   1.0461136060e+01    0.2080499    0.1356152 -25.81 0.0009507868    1.662    0.398
        76 -10.8023    235.3370    147.5673   7.3297235302e+01   4.5173214827e+00    0.4471544    0.3563148 -55.39  0.001732039    1.589    0.371
        77 -10.1360    230.3725    141.6509   7.2847119015e+01   6.4531988934e+00    0.6218244    0.1924594 -40.26  0.002119164    3.118    0.679
        78  -9.3877    215.5798    148.8200   7.7152164233e+01   8.2185357963e+00    0.2076161    0.1301934 -46.34 0.0009517419    1.748    0.428
        79 -10.1406    224.3224    147.3486   7.5206768251e+01   6.7100691144e+00    0.2831206    0.2384771 -75.75  0.001163344    1.681    0.405
        80  -9.1402    207.6341    145.2397   7.7865285340e+01   1.0479972246e+01    0.2132908    0.1336918 -26.88   0.00095393    1.698    0.411
        81  -8.6376    219.3157    144.6634   7.5522960450e+01   8.1722086253e+00    0.1406985    0.1153463 -71.29 0.0007047686    1.696    0.410
        82  -9.0154    214.5408    142.7945   7.5990719935e+01   9.4749890697e+00    0.2043273      0.13252 -47.15 0.0006915887    1.685    0.407
        83  -8.7603    182.3356    142.6897   8.2421927219e+01   1.6345630235e+01    0.1511244    0.1219917 -89.14  0.000411995    1.680    0.405
        84  -9.9392    234.0106    129.8278   6.9517580325e+01   7.6786166369e+00    0.2988958    0.2650683  45.06  0.001709555    1.229    0.186
        85  -9.6273    238.4961    140.5028   7.1184069690e+01   5.0436948833e+00    0.2608503    0.2241094 -59.66 0.0009063248    1.464    0.317
        86 -10.6706    234.9526    135.9582   7.0762585974e+01   6.4790259555e+00    0.5306807    0.2644826 -43.45   0.00194646    2.057    0.514
        87  -9.1754    224.2762    140.0569   7.3572695146e+01   7.9462559332e+00    0.2073071    0.1769916 -29.93 0.0008453536    1.123    0.110
        88  -9.3319    218.5767    138.2950   7.4208804271e+01   9.4193980003e+00    0.2788627    0.1330759 -39.57  0.001131689    2.031    0.508
        89  -9.6740    224.4613    133.7022   7.2079467628e+01   8.9872782617e+00    0.3835486    0.2391074  64.38  0.001665149    2.273    0.560
        90  -9.2552    198.4526    131.9986   7.6593161809e+01   1.4859271842e+01    0.2321659    0.1449256 -38.48  0.001023115    1.578    0.366
        91  -9.1022    220.8131    128.9817   7.1630762498e+01   1.0561941486e+01    0.2373284    0.1579555 -55.52 0.0009263164    1.881    0.468
        92  -9.5479    228.1056    125.4317   6.9504963583e+01   9.6327737487e+00    0.2949377    0.1962227 -42.49  0.001422329    1.479    0.324
        93  -8.8847    179.4695    124.9698   7.8817530938e+01   2.0457652772e+01    0.2223778    0.1311622 -61.62 0.0008095237    2.520    0.603
        94  -8.4497    212.3266    122.6598   7.1671317040e+01   1.3505377216e+01    0.1520438    0.1176323 -70.63 0.0003617586    1.733    0.423
        95  -9.0284    220.2854    120.6394   6.9736016346e+01   1.2121952777e+01    0.1496146    0.1128405 -63.02 0.0006849926    1.682    0.405
        96 -10.4329     18.6455    118.9291   1.2004879613e+02   4.8645931702e+01    0.2099931    0.1647993  56.43 0.0005942842    1.393    0.282
        97  -8.5334    173.6855    114.3470   7.7389211653e+01   2.3896225113e+01    0.1619874    0.1247973 -77.48 0.0007047304    1.719    0.418
        98  -8.8164    183.4923    109.5390   7.4041141106e+01   2.2540583860e+01    0.1547635    0.1508427 -63.48 0.0001881804    1.057    0.054
        99 -12.1766    248.4828    124.4032   6.5906877804e+01   5.6707654885e+00      2.38028    0.2925551 -38.23   0.00574421    6.253    0.840
       100 -10.1901      9.5064    107.9835   1.2123688724e+02   5.1820028010e+01    0.1887076   0.09392253 -72.79 0.0005307409    1.561    0.359
       101  -9.8968    227.3270    106.8927   6.5178224974e+01   1.2940079708e+01    0.2735102    0.2180916  51.49  0.001430171    1.344    0.256
       102  -9.3574    229.7707    103.4239   6.3926723823e+01   1.2985540599e+01    0.3070737    0.1996425 -43.01  0.001046921    1.464    0.317
       103  -9.0931    205.5861    105.2710   6.8585501043e+01   1.8148465412e+01    0.2979797    0.1356016 -41.55  0.001114265    2.116    0.527
       104  -9.0252    222.4759    104.9688   6.5516760611e+01   1.4342892935e+01    0.2317002    0.1368969 -37.18  0.001022597    1.578    0.366
       105  -8.5599    213.6750    105.2998   6.7125864872e+01   1.6277515714e+01    0.1511132    0.1167121 -70.60 0.0006930947    1.633    0.388
       106  -8.4754    218.5179    104.4871   6.6073364801e+01   1.5316778181e+01    0.1495772    0.1389179 -47.37 0.0001837698    1.078    0.072
       107  -9.0511    216.4947     99.4624   6.5154123664e+01   1.6645910290e+01    0.2107818    0.1477604  68.08 0.0006676913    1.697    0.411
       108  -8.9823    212.7101     96.4474   6.5037415391e+01   1.8044163364e+01    0.4294563    0.2131815 -60.21  0.001341349    3.747    0.733
       109  -9.3304    210.9848     92.0191   6.4189598359e+01   1.9214415093e+01    0.3150998     0.181276 -56.67    0.0011856    2.183    0.542
       110 -12.3608    246.2684     85.9907   5.7213390685e+01   1.2208985386e+01     1.388515    0.7872455 -60.37  0.005926838    2.345    0.574
       111  -9.4082    236.5240     90.4839   5.9699321112e+01   1.3619761769e+01    0.3419291    0.2485307 -38.15   0.00103802    1.251    0.200
       112 -10.9907    235.1535     95.2793   6.1081698480e+01   1.3145682386e+01    0.4881369    0.2811474 -51.72  0.001493683    1.908    0.476
       113 -11.2257    231.4919     90.9788   6.0581474539e+01   1.4658795882e+01    0.5045949    0.2805553 -30.32  0.001649103    1.753    0.430
       114  -9.0121    194.7961     97.7895   6.8669714665e+01   2.2053033228e+01    0.2564086    0.1748873 -72.09  0.001042973    2.129    0.530
       115  -9.0168    203.0042     98.7528   6.7375799151e+01   1.9922115564e+01    0.2421604     0.176252 -85.51   0.00105321    1.940    0.485
       116  -8.8949    225.4068     93.1894   6.2087800768e+01   1.5668933416e+01    0.2152555    0.1244833 -45.05  0.000685367    1.677    0.404
       117  -9.1064    158.4958     91.0094   7.4454874142e+01   3.2129036428e+01    0.2346658    0.1300483 -59.32 0.0008105038    2.595    0.615
       118  -9.5225     24.4708     90.6608   1.1409240562e+02   5.4760958976e+01    0.1924282    0.1328197 -29.28 0.0008179914    1.690    0.408
       119 -10.6455    226.0551     87.5755   6.0569757518e+01   1.6448201645e+01    0.3137761    0.1993888 -54.47 0.0009998004    1.729    0.422
       120 -10.6129    225.3030     81.8599   5.9235485306e+01   1.7552981277e+01    0.2754414    0.1833599 -47.65  0.001035879    1.460    0.315
       121 -10.0924     30.5385     86.6698   1.1134437546e+02   5.5184813489e+01    0.2099237     0.177308 -44.70 0.0005713548    1.154    0.134
       122  -9.0510    206.4570     85.4579   6.3246196071e+01   2.1422186567e+01    0.2871425    0.1226798 -45.14  0.001023393    2.371    0.578
       123  -8.6721    170.6903     84.2957   6.9815849747e+01   3.0430711723e+01    0.1582482    0.1233007 -75.39 0.0006896525    1.592    0.372
       124  -8.3302    197.6633     87.3240   6.5318812213e+01   2.3233050681e+01    0.1614027    0.1182202 -70.59 0.0007051092    1.717    0.418
       125  -8.2584    200.6481     83.2966   6.3687221856e+01   2.3204099944e+01    0.1587924    0.1172395 -72.72 0.0007034267    1.687    0.407
       126  -9.3509    159.5549     82.7898   7.1822273046e+01   3.3451254829e+01    0.2275869    0.1438926 -49.62 0.0009412444    1.684    0.406
       127  -9.1444    210.0902     81.0816   6.1463965174e+01   2.1284828739e+01    0.2499327    0.1714269 -62.94  0.001114022    1.738    0.424
       128  -8.8719    201.4417     78.5237   6.2250406743e+01   2.3822351280e+01    0.1542781    0.1412724 -61.42 0.0001456425    1.092    0.084
       129  -8.4749    174.9874     78.5065   6.7243632849e+01   3.0414570086e+01    0.2173625    0.1399922  86.02 0.0008090374    2.444    0.591
       130  -9.2015    166.7599     78.5809   6.8990519602e+01   3.2453384274e+01    0.2239854    0.1524105  67.83  0.000951618    1.691    0.409
       131  -8.7814    211.2136     76.9657   6.0184839383e+01   2.1694825158e+01    0.2073652    0.1162226 -35.14 0.0008697891    1.703    0.413
       132  -8.9187    223.5097     76.5005   5.8136074557e+01   1.8833664698e+01    0.1488706    0.1338395 -55.81 0.0008096055    1.071    0.066
       133  -9.2365    158.2919     76.6637   7.0280292325e+01   3.4900360146e+01    0.1605391     0.122195 -70.49 0.0002476582    1.641    0.391
       134 -10.8765    223.7162     71.9995   5.6946619128e+01   1.9498122799e+01    0.6051109    0.3197907  85.76   0.00206616    3.586    0.721
       135  -9.1795    163.4901     72.4597   6.7866156490e+01   3.4367480373e+01     0.298747    0.1322621 -46.03  0.001038207    2.425    0.588
       136  -8.6889    210.6565     71.8039   5.8896928097e+01   2.2669638641e+01    0.2207947    0.1237689 -43.70 0.0009314384    1.712    0.416
       137  -8.7429    195.2948     72.6678   6.1712556855e+01   2.6329107775e+01    0.1591902    0.1144335 -65.58 0.0004443911    1.638    0.389
       138  -8.7297    157.3129     70.6436   6.8665477807e+01   3.6228808712e+01     0.163884    0.1210584 -70.34 0.0007044109    1.739    0.425
       139  -8.6991    206.4091     74.2148   6.0236537156e+01   2.3317897738e+01    0.2226832    0.1294271 -45.28 0.0009429196    1.687    0.407
       140  -8.4978    187.3437     68.6825   6.2011294673e+01   2.8992118691e+01    0.1624718    0.1166307 -70.70  0.000704889    1.718    0.418
       141  -8.6939    182.3195     68.6509   6.2934344768e+01   3.0270357163e+01    0.1643565    0.1166462 -67.83 0.0007048484    1.737    0.424
       142  -9.1585    203.5870     66.9113   5.8710295395e+01   2.5197269835e+01    0.3058918    0.1658868 -46.78  0.001258497    1.856    0.461
       143  -8.7508    223.2991     66.6728   5.5631869657e+01   2.0425843578e+01    0.1529763    0.1039671 -62.39 0.0004158815    1.636    0.389
       144  -8.7206    212.4971     66.4668   5.7180473384e+01   2.3067496271e+01    0.1497759    0.1367852 -62.09 0.0001074232    1.057    0.054
       145  -8.3335    220.2660     64.6362   5.5539146504e+01   2.1465206701e+01    0.1548371    0.1019333 -58.81 0.0006989433    1.647    0.393
       146  -8.4802    197.3339     64.6373   5.9113504666e+01   2.7125549118e+01    0.1653612    0.1109616 -65.95 0.0007037172    1.815    0.449
       147  -8.8105    194.1791     68.2079   6.0656936781e+01   2.7344328646e+01     0.213495    0.1725582 -65.00 0.0005262648    1.327    0.246
       148  -9.4196    158.0174     62.0217   6.5828496551e+01   3.7540463890e+01    0.2536653    0.1872949 -69.16  0.001132987    1.707    0.414
       149  -9.9072    192.9233     55.9623   5.7390079643e+01   2.9596323705e+01    0.3400584     0.190264 -51.12   0.00139948    1.937    0.484
       150 -10.4386    221.8534     60.0291   5.4112514542e+01   2.1781754106e+01    0.4386779    0.2415192 -68.83  0.001684143    2.689    0.628
       151  -8.6556    153.6333     53.3060   6.3988314845e+01   4.0062865978e+01    0.1592647    0.1181133 -74.90 0.0007036274    1.748    0.428
       152  -8.2849     84.2482     50.7500   8.2077377261e+01   5.5840302559e+01    0.1199092    0.1089512 -70.23            0    1.412    0.292
       153  -8.6755    181.6693     47.3284   5.6749796915e+01   3.3773940217e+01    0.1596276    0.1107248 -67.51 0.0007051473    1.713    0.416
       154  -8.7648    153.4865     59.9869   6.6171614561e+01   3.9016346415e+01    0.2236184    0.1210659 -55.20 0.0008096935    2.476    0.596
       155  -9.5395    237.8887    158.8198   7.5292820645e+01   2.2568316722e+00    0.2798919    0.2499356  59.11  0.001557457    1.443    0.307
       156  -8.8450    173.5046     40.4859   5.6070768543e+01   3.6857901780e+01    0.1483077     0.140122 -87.84 0.0008101337    1.043    0.041
       157  -8.3604    165.2875     40.6004   5.7573398512e+01   3.8969459488e+01    0.1599792    0.1081053 -61.86 0.0006995795    1.786    0.440
       158  -8.3834     22.6993     40.3055   1.0259143928e+02   6.5752774768e+01    0.1045146   0.09150609 -86.79 0.0003427965    1.594    0.373
       159  -8.4578    179.6995     38.3163   5.4368867716e+01   3.5546593906e+01    0.1530265    0.1080656 -65.91 0.0007020652    1.616    0.381
       160  -9.5963    168.7342     37.3174   5.5914319825e+01   3.8526517648e+01    0.2736543    0.1651946 -42.88 0.0007945827    1.709    0.415
       161  -8.5517    229.6408    228.3204   8.9901528944e+01  -6.0595706475e+00    0.1074032   0.09264248  57.28 0.0007043873    1.767    0.434
       162  -8.8550    173.3828     35.1621   5.4445320020e+01   3.7606830524e+01    0.2120163     0.125556 -42.92 0.0008654521    1.731    0.422
       163  -8.8350    149.4692     34.0109   5.8445736664e+01   4.3916994074e+01    0.2122511    0.1456541 -27.34 0.0004071351    1.532    0.347
       164  -8.8462    195.3030     33.6695   5.0650529514e+01   3.2127763995e+01    0.1532665    0.1019384 -63.84 0.0002969812    1.652    0.395
       165  -9.0463    125.9856     30.7917   6.2428757156e+01   5.0133443740e+01    0.2314252    0.1684704 -82.01   0.00107745    1.999    0.500
       166  -8.5506      1.3398     31.2784   1.0956389142e+02   6.8864256311e+01    0.1181945   0.06065099 -35.63 0.0003927698    1.620    0.383
       167 -11.0869    221.0906     29.6349   4.6326739783e+01   2.6166429624e+01    0.2445954     0.172101 -49.37 0.0009628822    1.326    0.246
       168  -8.9235     42.4238     27.5614   8.9066097357e+01   6.6114286714e+01    0.1233891    0.1001084 -20.53 9.909126e-05    1.020    0.019
       169  -8.7493      1.3268     26.7279   1.0817988466e+02   6.9734067266e+01   0.09231892    0.0838367  83.13 0.0001864166    1.581    0.368
       170  -8.9519    199.4930    227.4830   9.5169252202e+01  -1.1625664134e+00    0.1240955    0.1016947  30.23 0.0002321732    1.056    0.053
       171 -10.5657    207.4242     24.2065   4.6470604039e+01   3.0223157853e+01    0.3371439    0.1783395 -29.35  0.001525001    1.943    0.485
       172  -8.9154    172.4534     24.9525   5.1429620291e+01   3.9124653924e+01    0.2084668     0.101009 -50.88 0.0008072996    2.424    0.588
       173  -9.1350    136.8458     24.6986   5.7777246858e+01   4.8254283963e+01    0.2353249    0.1873589  -3.73 0.0002487144    1.382    0.276
       174  -9.7950    118.4675     24.4617   6.1847218249e+01   5.2707149692e+01    0.2664129    0.1361583 -27.26 0.0007195004    2.020    0.505
       175  -9.0960    145.3060     24.6692   5.6061834227e+01   4.6140924794e+01    0.1464475    0.1080597 -65.54 0.0003782378    1.659    0.397
       176  -9.4369    140.4911     21.9903   5.6067815175e+01   4.7663876948e+01    0.2942917    0.0937661 -39.99 0.0009824521    3.408    0.707
       177  -9.7669    140.6620     17.3672   5.4394015134e+01   4.8135488940e+01    0.2298198    0.1946104 -34.91  0.001201569    1.273    0.215
       178  -9.2573     84.8581     21.3597   7.0049355072e+01   6.0306066084e+01     0.220853    0.1692803 -30.68 0.0006184371    1.346    0.257
       179  -8.7153    193.2984     18.3415   4.6562462842e+01   3.4495133873e+01    0.1414338     0.102581  35.13 0.0007034743    1.667    0.400
       180 -11.0511    215.9514     16.4714   4.3493298877e+01   2.9002119820e+01    0.2576077    0.2387151 -49.82  0.001598293    1.139    0.122
       181  -9.1548    206.1983    225.9538   9.3700288484e+01  -2.0517039165e+00    0.1768062    0.1572904  44.19  0.001205964    1.330    0.248
       182  -9.2769    155.7539     16.5395   5.1415805833e+01   4.4391226230e+01    0.3006267    0.1487006 -40.08  0.001285768    2.140    0.533
       183  -9.0743    241.1511    222.1485   8.6876970248e+01  -7.0613310508e+00    0.1539499    0.1326979  29.88  0.001022992    1.351    0.260
       184  -8.6534    227.9631    222.4639   8.9222531225e+01  -5.0773842738e+00    0.1596272   0.09987961  55.94  0.000809513    2.573    0.611
       185  -8.3663      2.6891     15.6731   1.0362962673e+02   7.1680946622e+01    0.1194524   0.05892795 -32.23 0.0002878494    1.662    0.398
       186  -9.0145     29.9284     12.7421   8.8238018845e+01   6.9912512133e+01    0.1570327    0.1252148  -7.72 0.0003257601    1.092    0.084
       187  -9.5092    194.7367    220.4941   9.4943293906e+01   6.0620030949e-01    0.2842782    0.1646716  55.22  0.001401333    2.237    0.553
       188  -9.3155    248.7696    218.9719   8.5034590172e+01  -7.8187229237e+00    0.2579584    0.1845399  51.04  0.001567652    2.037    0.509
       189  -8.5810    170.6830    217.6775   9.9089575533e+01   5.1522329655e+00     0.128341   0.09376295  12.15 0.0004889347    1.666    0.400
       190  -8.3198    239.6560    215.3037   8.5951851978e+01  -5.9977184653e+00    0.1056703   0.09672155  56.13 0.0007040351    1.685    0.406
       191  -8.8678    233.2222    213.8240   8.6814279022e+01  -4.8063067993e+00     0.174518    0.1409886  86.70 0.0009482906    2.813    0.645
       192  -8.9820    217.9842    213.0000   8.9395521007e+01  -2.2329771726e+00    0.2113108   0.06248532  41.36 0.0008078772    2.980    0.664
       193  -9.4436    241.4890    209.7769   8.4657084164e+01  -5.5867936879e+00    0.2206171    0.1943012  73.29  0.001404209    2.020    0.505
       194  -9.1994    229.8044    207.8286   8.6357803044e+01  -3.4722890939e+00    0.1583564    0.1511483  26.27  0.001085896    1.375    0.273
       195  -9.1988    247.2451    207.3857   8.3239133222e+01  -6.1757254814e+00    0.1999836    0.1418414  38.72 0.0009319609    1.467    0.318
       196  -8.4373    124.0490    205.9619   1.0672017477e+02   1.5247357536e+01    0.1507316     0.129497  57.38 -0.001877172    1.010    0.010
       197  -9.5949    235.3626    203.8497   8.4654790041e+01  -3.8424186434e+00    0.2069783    0.1583639  38.43 0.0007902932    1.356    0.263
       198  -9.1937    213.2602    203.9811   8.8677700925e+01  -1.6841058511e-01    0.1533615    0.1086475 -31.10 0.0006055778    1.509    0.337
       199  -8.8829    172.8617    203.8163   9.6449421145e+01   7.0211194196e+00    0.1757924    0.1525892  64.34 0.0007162304    1.316    0.240
       200  -9.0975    250.1899    201.6841   8.1696012767e+01  -5.9081214143e+00    0.1722192    0.1454254  38.51  0.000836231    1.450    0.310
       201  -9.2773    243.9027    202.0388   8.2835120570e+01  -4.9702214342e+00    0.2353401    0.1497896  40.19  0.001356167    1.573    0.364
       202  -8.9318    231.6002    199.8484   8.4586632160e+01  -2.6837305325e+00    0.1656375    0.1150555 -41.34 0.0008689204    1.737    0.424
