#   1 NUMBER                 Running object number                                     
#   2 MAG_AUTO               Kron-like elliptical aperture magnitude                    [mag]
#   3 X_IMAGE                Object position along x                                    [pixel]
#   4 Y_IMAGE                Object position along y                                    [pixel]
#   5 X_WORLD                Barycenter position along world x axis                     [deg]
#   6 Y_WORLD                Barycenter position along world y axis                     [deg]
#   7 A_WORLD                Profile RMS along major axis (world units)                 [deg]
#   8 B_WORLD                Profile RMS along minor axis (world units)                 [deg]
#   9 THETA_WORLD            Position angle (CCW/world-x)                               [deg]
#  10 FWHM_WORLD             FWHM assuming a gaussian core                              [deg]
#  11 ELONGATION             A_IMAGE/B_IMAGE                                           
#  12 ELLIPTICITY            1 - B_IMAGE/A_IMAGE                                       
         1 -14.6543     68.5493    144.1833   1.0885752973e+02   3.7208653149e+01     4.913566      2.41375  68.33  0.003013582    3.600    0.722
         2 -14.4697    212.0841     22.8267   4.3294171045e+01   2.9127263114e+01     1.444501     1.084926  16.03  0.007599114    1.903    0.475
         3 -14.4881    199.9743     35.8807   4.8255108350e+01   3.0522110759e+01     2.201193     1.478169  31.05  0.007656856    2.011    0.503
         4 -12.0682      2.2853     22.4670   1.0471663340e+02   7.0591780974e+01    0.5853331    0.1757948 -51.03  0.002886057    2.259    0.557
         5 -13.2667      3.6449      7.0179   9.7759241365e+01   7.3193010697e+01     1.026754    0.5803694 -37.59  0.006806615    1.309    0.236
         6 -10.9521     52.5246      2.4148   7.0396474738e+01   6.8240318652e+01    0.2503839    0.1975494 -64.57  0.001411068    2.728    0.633
         7 -11.2379    236.4229      1.7050   3.5988675884e+01   2.5707614713e+01    0.5786159     0.155854  74.24  0.002124941    3.477    0.712
         8  -9.1654    107.7110    203.3492   1.0819155456e+02   1.7921101227e+01    0.1375566   0.09239429  71.52 0.0004889026    1.663    0.399
         9 -11.3474    139.7930    248.6444   1.0743965274e+02   4.7300220702e+00    0.4222605    0.2437249 -56.98  0.002448717    2.235    0.553
        10 -10.7352    134.6621    249.0252   1.0844303864e+02   5.4733824455e+00    0.3376556    0.2169306 -89.35  0.001840175    2.569    0.611
        11 -12.9607     70.4972    175.7359   1.1290626070e+02   2.9515928249e+01     1.089624    0.5590008 -34.10  0.003650578    5.189    0.807
        12 -14.3454     87.3390    227.3121   1.1513243574e+02   1.6382369615e+01     2.187433    0.9494566  44.75  0.004121325    1.878    0.468
        13 -14.7974     44.7808    223.3900   1.2287834831e+02   2.2748977981e+01     2.275295     1.456323  14.16  0.001078569    3.286    0.696
        14 -12.9735     14.5143    190.2267   1.2637480153e+02   3.2701554476e+01     0.389018     0.260256  78.10 0.0002709708    1.164    0.141
        15 -15.8234     68.5253    248.0495   1.2041931044e+02   1.5249506216e+01     9.766774     3.037063  30.40  0.007610568   11.463    0.913
        16  -9.1205     95.2023    188.0967   1.0888194717e+02   2.3109598670e+01    0.1857905    0.1406977  73.61 0.0005044184    1.309    0.236
        17 -10.1314    147.6631    184.9976   9.6546337381e+01   1.4611082379e+01    0.1930444    0.1911689 -14.42  0.001009629    1.095    0.087
        18  -9.9357     99.4354    180.8362   1.0687721719e+02   2.4019300625e+01    0.2429514    0.1908786  35.70 0.0006718891    1.344    0.256
        19 -10.5825     39.9775    177.5136   1.2003846752e+02   3.2896514951e+01    0.2889039     0.153668  60.75 0.0008212524    1.818    0.450
        20 -12.8310     88.3366    156.4207   1.0573183067e+02   3.1379213570e+01      1.59498    0.8084409 -71.08  0.005055965    2.283    0.562
        21 -12.6517     81.7442    163.4063   1.0849266626e+02   3.0746797972e+01    0.7907671    0.4268079  58.36 0.0008356836    2.089    0.521
        22 -13.6172     69.5795    159.1241   1.1087536026e+02   3.3495879126e+01    0.6612307     0.489419 -42.25  0.002928605    1.639    0.390
        23 -10.0046    173.5075    245.4871   1.0070783314e+02  -1.5330518111e-01     0.176033    0.1200272 -60.33  0.001030162    2.233    0.552
        24  -9.3526    205.0341    167.4749   8.0834637272e+01   6.7620562102e+00    0.2141265    0.1149265  22.71 0.0008100869    2.623    0.619
        25 -14.4928     43.7876    205.0976   1.2167403752e+02   2.6519098158e+01     1.194614    0.7479523  69.94  0.002547298    1.371    0.270
        26  -9.4365    161.5715    166.5055   8.9894286268e+01   1.5630786465e+01    0.1465641    0.1404524  51.60  9.07357e-05    1.072    0.067
        27  -9.0830    192.5013    164.5656   8.2770289009e+01   9.7646090972e+00    0.1468154    0.1346959  13.23 0.0001800054    1.012    0.012
        28  -9.0477     48.4206    160.4930   1.1625747006e+02   3.5845137689e+01    0.1308795     0.107639  88.79 0.0001088717    1.029    0.028
        29 -11.2543     32.8571    156.9362   1.1959975961e+02   3.8349760363e+01    0.3749066    0.2521571  51.48  0.002237312    1.484    0.326
        30 -10.3550    174.8979    148.8654   8.3102625647e+01   1.6442976830e+01    0.2731938    0.2352285 -57.45 0.0007522875    1.295    0.228
        31 -11.1640    133.6844    143.5211   9.1664489296e+01   2.6216451714e+01     1.110106    0.2836543 -54.44   0.00262564    5.700    0.825
        32 -10.9077     38.7561    146.2619   1.1692387678e+02   4.0264211493e+01    0.2834873    0.2148765  50.10 0.0007985245    1.379    0.275
        33 -10.6002     84.4449    143.8719   1.0457207247e+02   3.4976754975e+01    0.3475007    0.2327656  69.81 0.0008552878    1.791    0.442
        34 -12.4225     89.6770    141.1778   1.0267531462e+02   3.4801349584e+01    0.2887941    0.2543832 -51.36 0.0004298654    1.162    0.139
        35 -10.9521    102.2369    141.1609   9.9312532852e+01   3.2701835385e+01    0.5532823    0.3431256 -29.08  0.002236296    2.457    0.593
        36 -16.8639     12.0124    241.5917   1.2956496119e+02   2.2950803368e+01      3.45535     2.642611  78.03    0.0286959    1.191    0.161
        37 -10.3672    209.9784    199.7491   8.6276722677e+01   5.1781919603e-01    0.1847076    0.1544088  22.98 0.0002373305    1.064    0.060
        38 -10.1887    111.6018    131.0195   9.4645016446e+01   3.3410625849e+01    0.3246127    0.2518811   0.97 0.0008867969    1.789    0.441
        39 -10.2942    106.0546    130.6429   9.6070107277e+01   3.4522247871e+01    0.3217569    0.2789686 -66.98  0.001167485    1.140    0.123
        40 -11.0737    135.6393    124.1715   8.6653462440e+01   3.0178183650e+01    0.4401242    0.1850811 -42.10  0.001508103    2.458    0.593
        41 -11.3004    117.5526    125.7606   9.1825145803e+01   3.3503998420e+01    0.6605757     0.326526 -46.33  0.002557511    1.999    0.500
        42 -10.4517    138.2250    171.6962   9.6273693853e+01   1.9134191440e+01    0.3658386    0.2511228 -89.16  0.001583253    2.241    0.554
        43 -10.7682    132.3676    172.1154   9.7719854824e+01   2.0151551151e+01    0.2642226    0.1962864  32.84   0.00077749    1.388    0.280
        44 -10.3024    160.7879    127.8911   8.1363361814e+01   2.3870020869e+01    0.3052636    0.2242687 -61.76  0.001351101    1.616    0.381
        45 -10.0213    126.2223    127.9279   9.0022733686e+01   3.1277721675e+01    0.3278681    0.1963763  67.62  0.001178287    2.695    0.629
        46 -11.0800     98.7616    127.3087   9.7353348164e+01   3.6613090799e+01    0.3142443    0.2581128 -14.59  0.001572514    1.540    0.351
        47 -11.9818     22.9883    125.5493   1.1850252435e+02   4.6657466214e+01     0.362139    0.1830776  52.38  0.001823823    2.255    0.557
        48 -10.5677     69.3066    199.1448   1.1589110604e+02   2.4539188862e+01    0.3214868    0.2381047 -48.64   0.00191177    1.740    0.425
        49  -9.4656     81.8967    194.8724   1.1270536872e+02   2.3670895422e+01    0.1874005    0.1773109  60.89  0.001230464    1.210    0.174
        50  -9.9434    107.9154    119.8532   9.3077437899e+01   3.6729690208e+01    0.2154268     0.210026 -45.76 0.0003336084    1.037    0.036
        51  -9.8342    168.0518    113.0305   7.5867126121e+01   2.5307932761e+01    0.3786964    0.2621535 -80.67  0.001456372    2.393    0.582
        52 -10.3995    134.7843    111.9902   8.3758968523e+01   3.3078956574e+01    0.3526922    0.1835593 -44.77  0.001350468    1.898    0.473
        53 -11.6375    118.4137    107.5266   8.7011481480e+01   3.7527035788e+01     0.593321    0.2841586 -45.37   0.00223548    2.035    0.509
        54 -16.5348      7.0010    203.6191   1.2858991735e+02   3.0628479683e+01     6.814307     1.284581 -74.35   0.00582116    4.027    0.752
        55 -10.0823    205.4843    110.1644   6.7325959244e+01   1.7144680317e+01    0.3227283    0.2193581  41.14   0.00102542    1.561    0.359
        56 -10.5189    134.7725    104.6590   8.1782774015e+01   3.4688813077e+01    0.5741631    0.1993292 -40.23  0.001759286    3.010    0.668
        57 -11.5235     45.7824    106.0062   1.0870093841e+02   4.9236300427e+01    0.3360879    0.2068166  43.67  0.001737753    1.861    0.463
        58 -11.7008     34.0983    166.1339   1.2025095963e+02   3.6101020874e+01    0.5298058     0.201684  50.42  0.002402744    2.597    0.615
        59  -9.6622     34.0481    100.5127   1.1139343179e+02   5.1694798089e+01    0.1692742    0.1319006  20.66 0.0007387985    1.556    0.357
        60 -10.0408     41.7620     91.9717   1.0716233989e+02   5.2983565568e+01    0.1964326    0.1852123 -33.69 0.0004603176    1.149    0.130
        61 -10.0831     52.9948     90.6869   1.0307242595e+02   5.2069886224e+01    0.2623736    0.1632146 -40.19  0.001317679    1.558    0.358
        62  -9.1294     74.7983     84.7559   9.4150394290e+01   5.0511293266e+01     0.181854    0.1645101 -87.98 0.0003700895    1.310    0.236
        63  -9.6570    158.0248     81.0012   6.9151836439e+01   3.4044392667e+01    0.1890677    0.1876722  -0.34 0.0004090148    1.001    0.001
        64  -8.4819     70.7007     81.7412   9.4690634856e+01   5.1795315086e+01    0.1378844    0.1030451 -19.45 0.0001594378    1.507    0.336
        65  -8.9918     56.5048     66.4932   9.5286255577e+01   5.7054752083e+01    0.1361755    0.1185154 -35.73 0.0002455307    1.026    0.026
        66  -9.8489    234.3399     61.3215   5.0337206987e+01   1.8625373475e+01    0.1383246     0.108756  21.04            0    1.719    0.418
        67 -11.5773     73.8368    188.4570   1.1371151589e+02   2.6212271852e+01    0.4663707    0.2435057  68.43  0.001908084    2.312    0.567
        68 -10.6568     13.3410     59.6903   1.1035383521e+02   6.2525170474e+01    0.2142223    0.1992567 -67.16 0.0005431458    1.245    0.197
        69  -8.8465    100.9924     58.9801   7.7263586536e+01   5.1173524167e+01    0.1706934    0.1579076  12.05 0.0003090113    1.044    0.043
        70 -11.5762    170.7140    233.3983   9.9531704843e+01   2.0568905039e+00    0.2780412    0.2395061  52.24  0.001006194    1.263    0.209
        71 -12.4994    190.8837     42.2917   5.1356100136e+01   3.1972794865e+01    0.7426828    0.5002969  43.87  0.001953868    1.631    0.387
        72 -14.7007     53.0127    195.0842   1.1891455617e+02   2.7517560462e+01     1.725281     1.028622  65.69  0.008966551    1.549    0.354
        73 -10.7547    147.7685     44.0069   5.9698171733e+01   4.2803015441e+01    0.2732367    0.2507193 -66.61  0.000393659    1.188    0.158
        74 -11.6749      2.1201     37.9578   1.0964495265e+02   6.7628536385e+01    0.5354692    0.1337024 -65.37  0.001904239    4.488    0.777
        75 -11.1330      2.2727     29.3738   1.0702807026e+02   6.9298095881e+01    0.2653394    0.1621693 -52.48 0.0009786459    1.290    0.225
        76  -8.8552    130.4434    212.5051   1.0463301494e+02   1.2369884735e+01    0.1332323    0.1135798  53.34 0.0001341368    1.043    0.042
        77  -9.8679    150.5471    187.7446   9.6393593969e+01   1.3528896723e+01    0.1822482    0.1387204 -66.54 0.0008501298    1.596    0.373
        78  -9.5045    189.6896     15.0043   4.3790673926e+01   3.5621980981e+01    0.1870597    0.1719072 -58.01 0.0005381488    1.114    0.102
        79 -11.6245    146.3238     50.6450   6.2226894122e+01   4.2174829531e+01    0.5756987    0.3736672 -81.70  0.002143821    2.598    0.615
        80  -9.1343     67.7611     51.8709   8.6135491011e+01   5.8413869562e+01    0.1694442    0.1633538 -64.21 0.0005488431    1.333    0.250
        81 -12.2319    194.2946    196.0886   8.8683888318e+01   3.8878296037e+00     1.184435    0.7040232 -67.30  0.004086994    4.894    0.796
