#   1 NUMBER                 Running object number                                     
#   2 MAG_AUTO               Kron-like elliptical aperture magnitude                    [mag]
#   3 X_IMAGE                Object position along x                                    [pixel]
#   4 Y_IMAGE                Object position along y                                    [pixel]
#   5 X_WORLD                Barycenter position along world x axis                     [deg]
#   6 Y_WORLD                Barycenter position along world y axis                     [deg]
#   7 A_WORLD                Profile RMS along major axis (world units)                 [deg]
#   8 B_WORLD                Profile RMS along minor axis (world units)                 [deg]
#   9 THETA_WORLD            Position angle (CCW/world-x)                               [deg]
#  10 FWHM_WORLD             FWHM assuming a gaussian core                              [deg]
#  11 ELONGATION             A_IMAGE/B_IMAGE                                           
#  12 ELLIPTICITY            1 - B_IMAGE/A_IMAGE                                       
         1 -14.8807    157.4858     50.3427   8.0839894589e+01   3.9530998586e+01     1.185292     1.103297 -32.22  0.003472773    1.141    0.124
         2 -14.9965    167.8203     19.8915   7.0159676778e+01   4.0859429102e+01     1.528416    0.9827337 -88.00  0.005543538    1.825    0.452
         3 -14.2540    190.2990     14.6901   6.5637897453e+01   3.5936851414e+01    0.7986678    0.4384771  87.72  0.003516158    2.003    0.501
         4 -14.4229    176.5686      5.3686   6.4956950199e+01   4.0201074235e+01     1.709399    0.6906884  87.36  0.005733104    4.168    0.760
         5 -13.2720    196.3815      6.2535   6.2815464629e+01   3.5344405596e+01    0.5650777    0.2699727 -49.67  0.002700707    2.185    0.542
         6  -9.8961     45.3382      1.6968   9.3616733505e+01   6.7413380494e+01   0.09234995   0.08860169 -18.69 0.0006338609    1.670    0.401
         7 -12.2980    192.0057    164.2849   1.0310424832e+02   9.7636760656e+00    0.6893121     0.372032 -58.92   0.00257063    2.652    0.623
         8 -11.5315    209.7672    250.2541   1.1558579844e+02  -8.0963788215e+00    0.2275142    0.1295852  40.47 0.0009883363    1.503    0.335
         9 -20.4995     82.9852    179.4900   1.3051879307e+02   2.7332108548e+01     15.82117     6.805294 -63.69   0.06674256    2.236    0.553
        10 -13.1010    189.2340    154.9464   1.0162503430e+02   1.2232473748e+01    0.5809346    0.5247326   6.04  0.001883999    1.200    0.166
        11 -12.7215    224.5380    173.9225   9.8727228944e+01   1.3708061834e+00    0.3810594    0.2257004 -36.14  0.001790335    1.646    0.393
        12 -11.2052    207.3290    170.8813   1.0141081793e+02   5.3221791005e+00    0.3402646    0.2252869 -62.10  0.001495521    2.111    0.526
        13 -12.0974    240.1702    169.8069   9.4996787086e+01  -8.5805026668e-01    0.2034804    0.1897632 -42.93 0.0008146671    1.193    0.162
        14 -12.6029    230.3579    167.3426   9.6251580358e+01   1.4190791309e+00    0.4524707    0.2210581 -52.13  0.001751251    2.719    0.632
        15 -12.5024    163.0418    168.0434   1.1013877286e+02   1.5084150264e+01    0.3979462    0.2466432  58.94  0.001236069    1.864    0.463
        16 -12.4164    211.3396    239.1788   1.1351390599e+02  -6.8153557220e+00    0.2456589    0.1974741 -52.24  0.001226646    1.676    0.403
        17 -12.6810    167.2417    155.7287   1.0656005275e+02   1.6822655000e+01     0.410241    0.2875622  70.27  0.001470959    1.851    0.460
        18 -10.2421      3.3444    245.4042   1.5157770557e+02   2.3460930646e+01    0.1250114   0.09678011  21.28 0.0009106052    2.514    0.602
        19 -13.4030    196.6214    227.9408   1.1441795120e+02  -2.6219197191e+00    0.4796944    0.2238976 -36.40  0.002187759    2.493    0.599
        20 -12.3069    174.0043    148.4980   1.0343639733e+02   1.6891286086e+01    0.5007596    0.3499823 -58.28  0.001592654    1.590    0.371
        21 -11.5460      7.5145    137.5073   1.4250649391e+02   4.5594292198e+01     0.177432    0.1539343 -54.76 0.0005365606    1.296    0.229
        22 -11.7577     10.9678    135.5434   1.4144785995e+02   4.5780547138e+01    0.3345745    0.2077366  -7.34  0.001886526    2.749    0.636
        23 -11.3520      6.5072    132.0723   1.4211306407e+02   4.6881487246e+01    0.1632416    0.1390162 -77.01 0.0004612601    1.130    0.115
        24 -10.9475     27.7364    228.6030   1.4666533979e+02   2.4042756728e+01    0.1398579   0.09534064  79.24 0.0005699213    1.090    0.083
        25 -12.9113    160.5079    128.0473   1.0162518414e+02   2.4282548619e+01    0.5212522    0.3848667 -59.33  0.001664064    1.463    0.316
        26 -12.4222    207.5716    221.7644   1.1125458980e+02  -3.5682864335e+00    0.2907589    0.1768973 -36.53 0.0009457125    1.781    0.439
        27 -10.7415     15.0809    219.8724   1.4821088035e+02   2.7144393685e+01    0.1587753   0.08482012 -77.57 0.0004261424    1.535    0.348
        28  -9.8930     15.2441    216.2551   1.4793747470e+02   2.7853674654e+01   0.09308942   0.07263386 -73.00 0.0002396158    1.413    0.292
        29 -10.8188    217.4617    217.5228   1.0861840155e+02  -4.6264936145e+00    0.2912624    0.1236658 -45.06  0.001238723    2.762    0.638
        30 -11.2457    231.3137    113.7498   8.4043924586e+01   1.0982101610e+01    0.2603117    0.2563847 -55.55 0.0007950287    1.070    0.065
        31 -11.3156    167.3957    112.5124   9.6131369138e+01   2.5977016938e+01    0.3540593    0.2812659  83.95  0.001164908    1.527    0.345
        32 -11.6896      2.8757    112.5017   1.4054157271e+02   5.1455478553e+01     0.242214    0.1155232 -56.39  0.001259761    1.603    0.376
        33 -10.5569     24.9741    213.6586   1.4604291174e+02   2.7354209058e+01    0.1422175    0.1061574  74.62 0.0002912624    1.083    0.077
        34 -10.9521    205.4517    110.1720   8.7741107532e+01   1.7487516204e+01    0.3236426    0.2191998  44.59 0.0009784193    1.578    0.366
        35 -11.2975    140.3304    249.9187   1.2844325871e+02   3.5892899741e+00    0.3069337    0.1874052  55.39  0.001715789    1.491    0.329
        36 -13.3074     11.4921    206.2839   1.4789746350e+02   3.0263334824e+01    0.4459449    0.3905766 -53.56  0.003440274    1.686    0.407
        37 -10.9090    223.0033    198.7154   1.0403552785e+02  -2.5940029976e+00    0.1866847    0.1625635  19.01  0.000382458    1.059    0.055
        38 -12.4450     14.5851    197.0864   1.4665323939e+02   3.1881910575e+01    0.2369781    0.1689723 -67.96  0.001193454    1.406    0.289
        39 -12.1105    238.0037    186.0569   9.8740060570e+01  -3.1923948949e+00    0.2818861    0.1917229  29.73  0.001351483    1.491    0.329
        40 -12.0454    203.5920    174.4486   1.0290929204e+02   5.4044281352e+00    0.6942691    0.2649077 -53.26  0.002077666    4.279    0.766
        41 -11.1358    142.6128     82.5936   9.3679612250e+01   3.7679024407e+01    0.2875433    0.1851248 -41.71 0.0006547495    1.558    0.358
        42 -11.2072    104.9666     82.0594   1.0343600957e+02   4.5737703661e+01    0.2124049    0.2001001 -14.62 0.0003037983    1.016    0.016
        43 -13.4579    237.1606    174.4424   9.6507508964e+01  -1.0947945650e+00    0.5019363    0.3824595  89.10  0.002442765    2.330    0.571
        44 -12.3502    194.6819    172.3989   1.0428591243e+02   7.6106469696e+00    0.5576345    0.3770636 -63.23  0.001995806    1.990    0.497
        45 -14.5151    146.9605     64.9811   8.7456253656e+01   3.9778065573e+01     1.125339     1.001081  32.75  0.001184847    1.145    0.126
        46 -11.3540     37.6503    248.1781   1.4639000702e+02   1.9140918210e+01    0.1565526    0.1003748  79.74 0.0006176068    1.209    0.173
        47 -13.5975    161.6602     41.5421   7.7441415569e+01   3.9744874766e+01    0.4880123    0.4584404 -28.44 0.0008237591    1.157    0.136
        48 -11.4871     13.4651     59.8792   1.2731002305e+02   6.1788354665e+01    0.1914929     0.166952 -32.64 0.0004070799    1.163    0.140
        49 -11.7133     26.7485     58.6785   1.2214963957e+02   6.1017885114e+01    0.3194495    0.1874443   5.44  0.001516996    2.069    0.517
        50 -10.5253     31.2766    247.4114   1.4736383424e+02   2.0043587900e+01    0.1048511   0.07341233  82.77 0.0001630738    1.104    0.094
        51 -11.3866    161.5468    236.6546   1.2258494249e+02   2.1500689739e+00    0.2872694    0.1985353  49.44  0.001046824    1.282    0.220
        52 -11.1661    157.9276    244.2773   1.2437677167e+02   1.5183385797e+00    0.1988189    0.1786055 -32.84 0.0003786351    1.361    0.265
        53 -10.8162    158.5588    240.4781   1.2371713920e+02   2.0346027411e+00    0.2278309    0.1881308 -35.79  0.001426454    1.483    0.326
