#   1 NUMBER                 Running object number                                     
#   2 MAG_AUTO               Kron-like elliptical aperture magnitude                    [mag]
#   3 X_IMAGE                Object position along x                                    [pixel]
#   4 Y_IMAGE                Object position along y                                    [pixel]
#   5 X_WORLD                Barycenter position along world x axis                     [deg]
#   6 Y_WORLD                Barycenter position along world y axis                     [deg]
#   7 A_WORLD                Profile RMS along major axis (world units)                 [deg]
#   8 B_WORLD                Profile RMS along minor axis (world units)                 [deg]
#   9 THETA_WORLD            Position angle (CCW/world-x)                               [deg]
#  10 FWHM_WORLD             FWHM assuming a gaussian core                              [deg]
#  11 ELONGATION             A_IMAGE/B_IMAGE                                           
#  12 ELLIPTICITY            1 - B_IMAGE/A_IMAGE                                       
         1 -13.6611     47.5257     50.0523   1.0255868766e+02   6.1305458350e+01     1.644085    0.9360607 -27.61  0.007957894    2.257    0.557
         2 -13.1305    199.8927     27.2707   5.4587624718e+01   3.1589475352e+01    0.7249396    0.6753275 -12.78  0.004069363    1.124    0.110
         3 -11.8870    206.7768     19.5773   5.1413947045e+01   3.0654533101e+01    0.4460215    0.2954415  23.61  0.001140477    1.945    0.486
         4 -13.0377      3.7236      8.9660   1.0922617116e+02   7.3224860635e+01    0.8623534    0.6745702 -66.54  0.004917314    1.376    0.273
         5 -12.7704     11.4646      3.9033   1.0253753802e+02   7.3666213648e+01     0.757544    0.4441414  30.05  0.004833498    2.106    0.525
         6 -12.5584    215.8876     11.4271   4.8049109526e+01   2.9151176106e+01    0.6896515     0.413062 -13.08  0.003189675    1.907    0.476
         7 -12.5249    211.7503      9.5807   4.7937963374e+01   3.0408605750e+01    0.6489913    0.3876604 -15.55  0.003014618    1.854    0.461
         8 -12.5338     69.6813      5.2364   7.4777243735e+01   6.5929955063e+01     0.410063    0.3820255  46.61  0.002688405    1.331    0.249
         9 -13.0635     52.2936      9.2126   8.3955117290e+01   6.8242524673e+01    0.8846121    0.4674539  33.53   0.00460349    2.036    0.509
        10 -10.7130    142.9934      2.0000   5.4421178322e+01   4.9498038737e+01    0.2452713    0.0776732  67.05 0.0008085145    2.985    0.665
        11 -13.9407    129.9385    239.5018   1.1355923533e+02   1.1944349146e+01     1.104575    0.6412071  36.86  0.006145506    1.530    0.346
        12 -12.2416    127.0533    214.8328   1.1147018640e+02   1.5935155349e+01     1.062037    0.5717791  32.38  0.005759624    2.052    0.513
        13 -10.9354    110.5779    211.9669   1.1418618591e+02   1.8889912633e+01     1.065319    0.3577046  45.68  0.005031593    2.310    0.567
        14 -12.5188    114.9115    249.6768   1.1698455998e+02   1.2720575167e+01     1.270843    0.2188782  40.49  0.004660612    4.666    0.786
        15 -12.5178    111.7852    238.4128   1.1652796808e+02   1.4709539297e+01    0.8117569    0.5769371  29.67  0.005458073    1.692    0.409
        16 -12.6508    116.4038    228.0946   1.1477148785e+02   1.5540502112e+01      0.65538    0.4351028 -41.16  0.004252859    2.359    0.576
        17 -14.6331    136.0657    226.8366   1.1118970352e+02   1.2778865964e+01     1.469817     1.155223  16.84  0.007744251    1.706    0.414
        18 -13.4972    125.4272    230.6994   1.1345619618e+02   1.3832908046e+01    0.6892302    0.6258931  24.79  0.004735712    1.416    0.294
        19 -10.4088     89.4691    242.8779   1.2061637860e+02   1.7111792375e+01    0.4021174    0.1226205  49.60  0.002087542    2.375    0.579
        20 -11.5145     98.2315    249.3153   1.1966879609e+02   1.5040191487e+01    0.2689746    0.1937513  52.41   0.00111324    1.057    0.054
        21 -12.2999     89.6065    249.6122   1.2108295519e+02   1.6133874943e+01    0.4243329    0.1935795  41.44  0.001826537    1.725    0.420
        22 -12.7513     98.6351    197.3810   1.1489509033e+02   2.3110701781e+01     1.492194    0.5992793  33.08  0.006435589    3.158    0.683
        23 -11.4471     32.3365    207.6914   1.2804784155e+02   2.9599916883e+01    0.8788471    0.3548827 -83.72  0.005157009    2.374    0.579
        24 -14.2597     66.9644    236.2023   1.2386202769e+02   2.0966408534e+01     1.265026    0.9367472  57.68  0.008936205    1.099    0.090
        25 -15.9714     59.0886    203.5918   1.2297046137e+02   2.7311578678e+01     3.176918     2.332096  81.46   0.02359664    1.187    0.158
        26 -15.1213     40.9897    241.8656   1.2835128553e+02   2.3101997720e+01     2.037339    0.4478157  44.96   0.01053175    2.707    0.631
        27  -9.6185    121.9348    205.5075   1.1134880807e+02   1.8200897703e+01    0.1862148   0.09680461  43.90 0.0009506078    1.561    0.359
        28 -11.7181    155.8512    197.1687   1.0383113379e+02   1.3947798211e+01    0.5848302    0.2617327  47.50  0.002834785    1.903    0.475
        29 -10.2753    199.3393    199.3195   9.6183111041e+01   6.1421890225e+00    0.1277139   0.08256183  18.29 0.0007049734    1.712    0.416
        30 -10.0753    133.3817    194.8890   1.0782926181e+02   1.8097492277e+01    0.2520495    0.1620296  39.24  0.001410802    1.395    0.283
        31  -9.4401      9.5102    192.5384   1.3133799572e+02   3.4495788900e+01    0.1037554   0.07139585  70.93 0.0008092723    1.019    0.018
        32 -10.8060     32.6340    186.8479   1.2676753586e+02   3.3340727934e+01    0.4223568    0.2530336  42.95  0.002116583    1.561    0.359
        33 -12.1913      2.6188    182.8066   1.3216715740e+02   3.6867047931e+01    0.3742398    0.1990568 -80.81  0.002625687    1.604    0.377
        34 -10.0454     17.8333    187.1041   1.2956518033e+02   3.4739723653e+01    0.1686165    0.1049679  68.59  0.001225154    1.201    0.167
        35 -16.2768     70.5208    159.5935   1.1648846324e+02   3.4298993514e+01     3.714609     3.153967  80.06   0.01966496    1.043    0.041
        36 -10.3900    132.0958    178.8524   1.0583934897e+02   2.1053016871e+01    0.2968895     0.216351  43.55  0.001752936    1.213    0.176
        37 -11.8918    148.8993    169.7319   1.0095210618e+02   1.9670866862e+01    0.5512075     0.450988  20.01  0.002410269    1.414    0.293
        38 -11.1801      8.2299    172.4474   1.3063619013e+02   3.8360016125e+01    0.3480399    0.1675066  45.46  0.001589967    1.792    0.442
        39 -10.1151     16.0558    169.0245   1.2891016432e+02   3.8352667089e+01    0.1731519     0.123869  75.35 0.0009807519    1.037    0.036
        40 -10.7684    135.2064    161.0300   1.0236991798e+02   2.3741627867e+01    0.4445246    0.2840081  24.14  0.002102538    2.167    0.539
        41 -10.2436     22.1733    158.6310   1.2698304150e+02   3.9878043033e+01    0.2581578    0.1302977  59.63  0.001405297    1.717    0.418
        42 -12.0181    153.0509    155.2343   9.7525470086e+01   2.1462020223e+01    0.7222939    0.3496937  36.91  0.003069058    2.137    0.532
        43 -11.3975    141.9217    155.6748   9.9987823374e+01   2.3499925682e+01    0.2865122    0.2364078  58.24   0.00165285    1.154    0.133
        44 -15.7741      6.9765    244.4409   1.3359665470e+02   2.6133979635e+01    0.9784088    0.4754748  61.96  0.006358773    1.344    0.256
        45 -12.0790    161.4059    146.3729   9.4040635481e+01   2.1411800855e+01    0.6550435    0.4992642 -56.40     0.003491    1.511    0.338
        46 -11.8935     43.2839    139.5004   1.2051898014e+02   4.1817312082e+01    0.5473409    0.3675457  63.25  0.002392299    1.374    0.272
        47 -13.4194     48.6025    130.1544   1.1811509001e+02   4.3280882733e+01     1.086894    0.7612457  46.21  0.005401046    1.448    0.309
        48 -11.5748      8.4239    137.7124   1.2855745723e+02   4.5342342523e+01    0.4722619    0.2584239  49.71  0.002835043    1.708    0.415
        49 -11.5611    164.9245    132.7983   9.0439703275e+01   2.3146175997e+01     0.504622    0.2261984 -40.70  0.002000254    2.386    0.581
        50 -11.3152    107.7442    132.0031   1.0350923294e+02   3.4451944669e+01    0.4954857    0.4070022  82.63  0.002806085    1.256    0.204
        51 -12.9844      3.6390    123.7495   1.2870278023e+02   4.8637147653e+01    0.8329739    0.4718182 -89.17  0.005136683    1.390    0.280
        52 -12.4264      9.6908    120.3278   1.2693764520e+02   4.8958448365e+01    0.5823827    0.3280533  83.68  0.002842099    1.525    0.344
        53 -13.0405     11.1742    112.2094   1.2583875179e+02   5.0624295875e+01    0.8236844    0.5270389  13.23  0.005248522    2.236    0.553
        54 -12.3154     18.1464    109.0665   1.2364995684e+02   5.0811784349e+01    0.5548056    0.3477084  52.40  0.002436476    1.640    0.390
        55 -12.1605     45.4779    116.3054   1.1709905925e+02   4.6707838872e+01    0.3898227    0.2321652  84.47  0.002078765    1.799    0.444
        56 -12.3325     47.3892    110.5742   1.1574036732e+02   4.7796200302e+01    0.4159267    0.2387849 -65.27  0.002085916    1.502    0.334
        57  -9.7180     99.1162    129.4849   1.0518271156e+02   3.6450154975e+01    0.2033036    0.1825739 -31.15 0.0006701097    1.367    0.268
        58  -9.5731    167.6675    112.3552   8.5078719562e+01   2.6299631503e+01    0.1548192    0.1194969 -82.13 0.0007044399    1.789    0.441
        59 -12.4802     94.5798    106.7727   1.0181786565e+02   4.2175792099e+01    0.6345555    0.4835584  73.51  0.003351389    1.487    0.328
        60 -11.8899     51.6270    102.8212   1.1328389352e+02   4.9088144087e+01    0.5384129     0.389332  35.67  0.003216422    1.562    0.360
        61 -12.1487     42.2464    105.8863   1.1648779822e+02   4.9398285787e+01    0.3404712    0.2653179 -60.17  0.001968653    1.219    0.180
        62 -11.3648     32.4852    104.0314   1.1901738461e+02   5.0754372203e+01    0.3802167     0.218612 -75.57  0.001713813    1.481    0.325
        63 -13.0398     47.4834     74.2124   1.0896053939e+02   5.6037656794e+01     1.295473    0.6151927 -71.84  0.005692947    2.403    0.584
        64 -12.5545     36.1351     96.8073   1.1688741859e+02   5.2056231565e+01    0.8757882    0.4286456 -71.89  0.003885772    1.778    0.438
        65 -11.8694     43.0387     85.4172   1.1277253169e+02   5.3973094980e+01    0.6169711    0.4558668  19.99  0.003706658    1.705    0.413
        66 -12.8482     82.5833     90.7596   1.0159248466e+02   4.7671011042e+01      1.73525    0.5741298  51.52  0.005178233    4.912    0.796
        67 -11.5435     12.3789     78.0732   1.2154371368e+02   5.8132430885e+01    0.4758589    0.3191444  12.96   0.00308081    1.987    0.497
        68 -11.4739     18.5902     89.0177   1.2109126021e+02   5.5264402437e+01    0.5801688    0.3278244 -80.15  0.003307862    1.516    0.340
        69 -11.7143     19.9192     80.8445   1.1948500045e+02   5.7007263349e+01    0.5612867    0.3340372  45.14   0.00335366    1.916    0.478
        70 -11.3890      1.5004     92.4259   1.2662910317e+02   5.5576159066e+01     1.010369    0.1148101 -75.71  0.002902857    6.514    0.846
        71 -11.3059     65.7252     65.9382   1.0054819076e+02   5.5617668282e+01    0.4887293    0.3468945 -89.52   0.00246068    2.024    0.506
        72 -12.2875    178.8398    242.3467   1.0568041540e+02   4.2446945947e+00    0.2111313    0.1614828  67.92  0.001505962    1.795    0.443
        73 -11.2900     27.0604     51.4855   1.1109584568e+02   6.2986567798e+01    0.3381801    0.2437833   6.54  0.002072549    1.746    0.427
        74 -11.8548     50.3970     38.0000   9.7375048889e+01   6.3423718177e+01    0.5417406    0.4036556  -3.92  0.003182511    1.578    0.366
        75 -10.9181      1.8627     38.3362   1.1861196818e+02   6.7373887854e+01    0.3758042    0.1257063 -68.10   0.00181276    2.287    0.563
        76 -12.3636    115.5458     35.2781   7.3826687616e+01   5.2238540852e+01    0.7708787    0.4906911  56.36  0.003575969    1.659    0.397
        77 -12.5915    191.7452     34.1441   5.7854153102e+01   3.2907765058e+01    0.6552271    0.3742968  50.52   0.00251923    1.740    0.425
        78  99.0000     91.9032    237.6688   1.1981570057e+02   1.7551686549e+01    0.5058103    0.1667263  49.20  0.002670725    2.221    0.550
        79 -11.4703      2.3142     25.3472   1.1526552147e+02   7.0057554565e+01    0.3758313    0.1755721 -68.39  0.002101391    1.838    0.456
        80 -11.4936     59.3846     22.9134   8.7522115077e+01   6.4979537832e+01    0.3409547    0.2343303 -32.67  0.001704038    1.284    0.221
        81  99.0000     90.4018    230.3354   1.1948729754e+02   1.8857167530e+01    0.3035619    0.1324483  51.83  0.001775607    1.757    0.431
        82  -8.9398    101.3514    232.8498   1.1781764105e+02   1.6980101267e+01    0.4454482    0.1936702  52.20   0.00229066    1.812    0.448
        83 -12.7588    105.1313    224.8804   1.1644662300e+02   1.7652776496e+01     0.496719     0.471235  52.86  0.002682716    1.362    0.266
        84 -12.2817     98.4878    226.5040   1.1776108571e+02   1.8339231651e+01    0.4490573     0.406923 -78.51  0.003438603    1.407    0.289
        85 -12.9764     12.5975    228.5329   1.3223670064e+02   2.8074215141e+01    0.8666999    0.2903412  77.38  0.004937312    2.819    0.645
        86 -13.2354      2.7687    213.2027   1.3327378923e+02   3.1481630375e+01    0.6519727    0.2268523 -80.68  0.004025914    2.514    0.602
        87 -11.5535     11.2349    206.1291   1.3160985935e+02   3.1932319479e+01    0.3083107    0.1890081  35.98  0.001720945    1.810    0.447
