#   1 NUMBER                 Running object number                                     
#   2 MAG_AUTO               Kron-like elliptical aperture magnitude                    [mag]
#   3 X_IMAGE                Object position along x                                    [pixel]
#   4 Y_IMAGE                Object position along y                                    [pixel]
#   5 X_WORLD                Barycenter position along world x axis                     [deg]
#   6 Y_WORLD                Barycenter position along world y axis                     [deg]
#   7 A_WORLD                Profile RMS along major axis (world units)                 [deg]
#   8 B_WORLD                Profile RMS along minor axis (world units)                 [deg]
#   9 THETA_WORLD            Position angle (CCW/world-x)                               [deg]
#  10 FWHM_WORLD             FWHM assuming a gaussian core                              [deg]
#  11 ELONGATION             A_IMAGE/B_IMAGE                                           
#  12 ELLIPTICITY            1 - B_IMAGE/A_IMAGE                                       
         1 -14.5570    195.1419     33.7866   5.4482006714e+01   3.1449369047e+01     2.312622     1.533645  21.45  0.007755273    1.938    0.484
         2 -14.7605    205.8260     20.8995   4.9323881627e+01   3.0157851639e+01     2.057384     1.398728  19.36  0.004586178    1.866    0.464
         3 -12.1737     31.9953      3.5612   8.9330304675e+01   7.4313126329e+01     0.425561    0.2913646  56.00   0.00225832    2.304    0.566
         4  -9.0848    153.4767    195.5236   1.0046479026e+02   1.5178124553e+01    0.1234328    0.0980197  33.66 5.256699e-06    1.022    0.022
         5 -13.8148     74.8410    177.2201   1.1499584035e+02   3.0081999651e+01     2.137825     1.096628 -31.64  0.005681797   10.966    0.909
         6 -13.8218     73.3497    160.3051   1.1356037565e+02   3.3644455334e+01    0.7031486    0.5445932  34.23  0.004362899    1.328    0.247
         7 -15.0848     67.9042    144.1285   1.1302805854e+02   3.7801225198e+01     5.054218     2.285958  58.29   0.01472691    2.473    0.596
         8 -10.1662     77.9278    236.7263   1.1913873607e+02   1.9667267039e+01     0.236007     0.114329  46.80 0.0007424202    1.448    0.309
         9  -9.4963    180.3127    192.6222   9.4916081362e+01   1.1296990267e+01    0.1700014    0.1345011  58.57 0.0007102831    1.675    0.403
        10  -9.8560    167.2435    188.2989   9.6730751562e+01   1.3998109366e+01    0.2144398    0.1716039 -53.38   0.00138536    1.682    0.406
        11 -11.2755    206.2997    180.9963   8.8333713411e+01   8.5868867973e+00    0.3232307    0.2617135 -63.90  0.001974679    2.275    0.560
        12 -10.3156    210.6987    178.9093   8.7209843205e+01   8.1308700802e+00    0.3975897    0.2641234  -6.14  0.002395726    1.591    0.372
        13  -9.8905     99.4869    180.7855   1.0984059144e+02   2.5966841600e+01     0.217982    0.1464592  41.79 0.0005635766    1.240    0.194
        14 -10.7717    144.6437    179.2099   9.9885979343e+01   1.9102025600e+01    0.2878217    0.2069993  20.46   0.00166676    1.512    0.339
        15 -11.4736    183.3525    234.3517   1.0008375518e+02   5.8950328953e+00    0.3436157    0.1578068  48.90   0.00184641    2.570    0.611
        16 -10.9934    189.4765    155.0772   8.6706699618e+01   1.4929453965e+01    0.4219201    0.3728824  18.82  0.002684611    1.053    0.050
        17 -11.1067    195.5643    169.4451   8.8239002193e+01   1.1850026559e+01    0.4524227    0.2773951 -37.58  0.002420062    1.866    0.464
        18 -10.2719    192.5672    162.8116   8.7585399518e+01   1.3277232909e+01    0.3019832    0.1975805 -55.60  0.001521264    2.515    0.602
        19 -14.7847     39.2277    245.8215   1.2644091121e+02   2.2630603811e+01    0.8636457    0.5480583  54.78  0.004189067    1.086    0.079
        20 -10.5448    138.0789    169.6602   9.9812035926e+01   2.1788792016e+01    0.3864956    0.2214495 -33.17  0.001869362    2.439    0.590
        21  -9.8628    231.4943    169.9837   8.2146299525e+01   5.8498587041e+00     0.147112   0.09914511 -48.22 0.0008101031    2.511    0.602
        22  -9.9458     95.1612    200.2831   1.1286274999e+02   2.3170418940e+01    0.2297769      0.13007  58.18 0.0009457818    1.712    0.416
        23 -10.1960    145.9964    168.6905   9.7957003493e+01   2.0593687525e+01    0.1896243    0.1514746  38.88 0.0006520514    1.066    0.062
        24 -10.3278    163.9459    215.6708   1.0116889398e+02   1.0843911948e+01    0.2314365    0.1716596 -33.46  0.001164902    1.714    0.416
        25  -9.8037    164.2388    206.0450   9.9850826755e+01   1.2044766602e+01    0.1675491    0.1315515  22.20 0.0003763618    1.160    0.138
        26 -12.4305    194.2917    195.2416   9.2778818565e+01   8.7561300812e+00     0.802812     0.550182 -60.15   0.00442933    2.982    0.665
        27 -11.0917    133.7590    144.2962   9.6453480509e+01   2.7120498646e+01    0.9274658    0.2538292 -54.42  0.002648019    5.556    0.820
        28 -10.8545    174.3603    148.3113   8.8354828813e+01   1.8765344282e+01    0.3251948    0.2822524 -70.38  0.001189755    1.576    0.365
        29 -10.9561    104.4232    141.7407   1.0317319106e+02   3.2811041488e+01     0.475237    0.3166105 -30.49  0.002267349    2.242    0.554
        30 -12.3199     91.9985    142.2192   1.0644265479e+02   3.4723066923e+01    0.2527958     0.248942 -84.82  0.000379744    1.170    0.145
        31 -10.3088    112.8726    131.4720   9.9173312197e+01   3.3480761235e+01    0.3196103     0.242609  23.67 0.0009740266    1.532    0.347
        32 -10.2792    106.0364    130.9163   1.0085011691e+02   3.4806233221e+01    0.3149739    0.2614756  74.62  0.001242878    1.259    0.206
        33 -11.0392    160.4815    128.3254   8.7118860977e+01   2.4842537975e+01    0.4638314    0.3403059 -34.04  0.002399159    1.462    0.316
        34 -11.3809    118.7458    126.0665   9.6593981142e+01   3.3526107361e+01    0.7761062    0.3507721 -38.57  0.002872519    3.021    0.669
        35 -11.0383    100.2351    127.9529   1.0184782606e+02   3.6440905474e+01    0.2679126    0.2259659 -28.38 0.0005634236    1.483    0.326
        36  -9.7553    125.5015    127.0633   9.5079586446e+01   3.2043828535e+01    0.2059938    0.1431383 -53.30 0.0008042917    1.555    0.357
        37 -14.1520     25.6949    195.4112   1.2693574872e+02   3.2227654124e+01     1.253419    0.1615686  41.74   0.00549688    3.252    0.693
        38 -11.2064     25.2945    120.6918   1.2244214447e+02   4.7832099128e+01    0.3944681   0.08440495  33.09  0.001531092    3.567    0.720
        39  -9.9267    108.9082    120.0214   9.7951944044e+01   3.6622114408e+01    0.2080148    0.1926279  55.47 0.0003668146    1.020    0.020
        40 -11.1412    136.0000    123.9710   9.1824313948e+01   3.0607855942e+01     0.487052    0.1801918 -44.39  0.001750996    2.909    0.656
        41 -10.7703     23.8745    116.6236   1.2250724262e+02   4.8900308325e+01    0.2434409    0.1552214  87.38 0.0007084064    1.377    0.274
        42  -9.5180    109.0034    114.7726   9.6817162359e+01   3.7736701480e+01    0.2670845    0.1958457  72.16 0.0003191302    1.632    0.387
        43 -10.2843    167.8217    112.6775   8.1909417314e+01   2.6042172873e+01    0.3445728    0.2792414  84.89  0.001108508    1.682    0.405
        44 -10.5565    134.4265    104.3926   8.7634954181e+01   3.4818309773e+01    0.6382316    0.1709204 -45.44  0.001871009    3.895    0.743
        45 -11.7855    118.7036    109.9762   9.3099804985e+01   3.6901762050e+01    0.7000454      0.43328  47.25   0.00319748    1.559    0.359
        46 -11.6986     19.9753    111.0341   1.2320903186e+02   5.0527167148e+01    0.3482638    0.1726118  28.61  0.000993278    2.119    0.528
        47 -10.1489    205.5642    110.1525   7.3996974318e+01   1.8361733340e+01    0.2957913    0.1899022  38.49 0.0009770514    1.534    0.348
        48 -11.6377     33.0876    105.7017   1.1847503857e+02   5.0674454484e+01     0.375461    0.2255172 -70.17  0.002039029    1.484    0.326
        49 -16.8587     54.1125    204.1867   1.2161427994e+02   2.7675227503e+01     9.721799     3.035063  46.26   0.04921062    2.238    0.553
        50  -9.5994    121.4237     98.7790   8.9624004507e+01   3.8707590185e+01    0.2065149    0.1437024 -35.80 0.0005496013    1.597    0.374
        51 -15.1244     11.1913    206.4735   1.3019221426e+02   3.1593308252e+01    0.7442183    0.5343471  30.28  0.002799103    1.561    0.360
        52  -9.8091    184.5211     84.8504   7.1302024355e+01   2.6894091608e+01    0.2430772    0.2166754 -87.36  0.001287867    1.334    0.250
        53  -9.4177    156.4700     79.5331   7.5511087571e+01   3.4502143509e+01    0.1521311     0.148775  21.53 8.534398e-05    1.004    0.004
        54  -8.9267    184.3622     77.3057   6.9221957725e+01   2.8113340031e+01    0.1599101    0.1117231  22.25 0.0007038632    1.735    0.424
        55  -9.5008     62.8018     69.7549   1.0092151921e+02   5.5899635739e+01    0.1936915    0.1602825  87.05 0.0006470943    1.324    0.245
        56 -10.8658    157.3167     59.5194   6.9108008884e+01   3.7696785384e+01    0.3494361     0.278458 -88.11 0.0007466737    1.522    0.343
        57 -10.3539    159.4016     53.2166   6.6603745353e+01   3.8159516915e+01    0.3150434    0.2527886 -61.04  0.001191811    1.391    0.281
        58 -13.1740    185.8046     40.7885   5.7966846860e+01   3.3004098676e+01      0.94364    0.6242865  41.46  0.001081584    1.644    0.392
        59 -17.5873      6.3831    239.7151   1.3182947053e+02   2.6642012605e+01     11.49316     1.392634 -83.02   0.01345729    8.273    0.879
        60 -10.2121    173.8100    247.9227   1.0325410119e+02   5.7605045738e+00    0.1617727    0.1350242  50.15  0.001339882    1.531    0.347
        61 -10.4437    170.0021    239.9982   1.0301598048e+02   7.1167463824e+00    0.1628204    0.1041792  16.77 0.0004011397    1.621    0.383
        62 -10.6769    189.9105     15.0419   4.9203482826e+01   3.4914399836e+01    0.2213255    0.2154246 -59.30 0.0007253893    1.028    0.028
