#   1 NUMBER                 Running object number                                     
#   2 MAG_AUTO               Kron-like elliptical aperture magnitude                    [mag]
#   3 X_IMAGE                Object position along x                                    [pixel]
#   4 Y_IMAGE                Object position along y                                    [pixel]
#   5 X_WORLD                Barycenter position along world x axis                     [deg]
#   6 Y_WORLD                Barycenter position along world y axis                     [deg]
#   7 A_WORLD                Profile RMS along major axis (world units)                 [deg]
#   8 B_WORLD                Profile RMS along minor axis (world units)                 [deg]
#   9 THETA_WORLD            Position angle (CCW/world-x)                               [deg]
#  10 FWHM_WORLD             FWHM assuming a gaussian core                              [deg]
#  11 ELONGATION             A_IMAGE/B_IMAGE                                           
#  12 ELLIPTICITY            1 - B_IMAGE/A_IMAGE                                       
         1 -14.4232    106.5021    104.7380   6.2312064429e+01   4.0055394463e+01     1.248513     1.075878 -65.47  0.006046381    1.212    0.175
         2 -15.0762      6.2239     70.5248   8.6512893592e+01   5.9958809868e+01    0.9629464    0.6549948 -59.41  0.005083041    1.123    0.110
         3 -12.6622      8.0411      2.5785   6.4959206240e+01   7.2434674674e+01    0.4166066    0.2918265  28.11  0.003032296    1.826    0.452
         4 -15.9522     10.7390     24.4161   7.2531288197e+01   6.8729803789e+01     1.934937    0.8607877 -31.70   0.01068154    1.985    0.496
         5 -13.7861     25.1188     13.3194   6.1236957340e+01   6.9331181612e+01    0.6133584    0.2472725  28.08  0.003206581    2.620    0.618
         6 -13.6637     29.6825      8.2069   5.6731749586e+01   6.9585409857e+01    0.3466216    0.3127395  39.58  0.001823103    1.784    0.439
         7 -13.7180    148.1695     29.8431   2.8241536171e+01   4.3937127348e+01    0.8480102    0.6428799  63.47  0.003319829    1.250    0.200
         8 -12.8168    120.1015     25.9464   3.3065153651e+01   5.1297105536e+01    0.7292364    0.4539151  23.65  0.003374936    1.880    0.468
         9 -13.2147    189.7842     26.6139   2.0258325949e+01   3.3514870781e+01    0.5850919    0.2476227 -53.84  0.002088283    3.059    0.673
        10 -15.0786     98.6350     11.1578   3.2825059095e+01   5.7770127207e+01     1.458409    0.8753653  52.51  0.004644759    1.541    0.351
        11 -12.2226     60.1741     15.2512   4.7051890331e+01   6.4525660224e+01    0.4402724    0.2682492  15.60  0.002401612    1.721    0.419
        12 -11.8068     46.5822     12.6061   5.1277814204e+01   6.6882486275e+01    0.2278159    0.2054452  -9.75  0.001628041    1.329    0.248
        13 -12.8311    214.1121     10.1627   1.2978609337e+01   2.9192996521e+01    0.4538158    0.3319445  68.67  0.002211071    1.272    0.214
        14 -11.3433    123.8890     11.2599   2.6782040606e+01   5.2013300467e+01    0.2029402    0.1720409  63.54 0.0008746613    1.176    0.150
        15 -11.6290     75.7989      9.2767   3.8820912566e+01   6.2542522150e+01    0.3053013    0.1636778 -29.77  0.001584172    1.906    0.475
        16 -11.7955    187.9076      9.1298   1.5638885910e+01   3.5953973020e+01    0.2267583    0.1761437 -74.60  0.001255399    1.280    0.219
        17 -11.1084    152.3890      8.8921   2.0610556586e+01   4.5154921559e+01    0.3138359    0.1404876  50.49  0.001330673    1.971    0.493
        18 -13.7084     41.9689      3.8957   4.9079636968e+01   6.8618673151e+01    0.5611208    0.4044048  17.02  0.003171357    1.215    0.177
        19 -12.5303    223.9117      5.1059   1.0816474570e+01   2.7332108848e+01    0.2829915     0.205253 -49.75  0.001604066    1.311    0.237
        20 -11.3301    212.5369      4.1102   1.1639787325e+01   3.0223182705e+01    0.1811509    0.1267123 -35.16 0.0004604649    1.513    0.339
        21 -12.6535     85.7111     13.6659   3.7592807756e+01   6.0163080273e+01    0.4510378    0.3045235 -42.06  0.001520572    1.867    0.464
        22 -11.6930     74.8202      2.9253   3.6266831133e+01   6.3378603393e+01    0.2621504    0.1655287  30.92 0.0006229712    1.384    0.277
        23 -11.0706     61.8797      1.3800   3.9947679795e+01   6.5843730622e+01    0.2130715    0.1087212  48.90 0.0008615477    2.045    0.511
        24 -11.8502     76.9524    156.6879   8.0849206317e+01   3.3019444209e+01    0.2971497    0.2401033  52.65 0.0009812827    1.223    0.183
        25 -12.5148      3.0319    249.4552   1.0312288548e+02   2.3197996021e+01    0.3496644    0.2028618  64.41  0.001896275    1.169    0.144
        26 -14.0350      9.6134    245.4385   1.0197023748e+02   2.3214452215e+01    0.7545849    0.3068831  59.47  0.004059714    1.770    0.435
        27 -12.8423     73.4008    153.4978   8.1225971320e+01   3.4273415149e+01    0.5030528    0.3869316  34.58  0.002842315    1.471    0.320
        28 -11.3234    189.3125    156.3223   5.4474620194e+01   1.1357694105e+01      0.15393    0.1151311   8.13 0.0005110172    1.655    0.396
        29 -11.8450    109.8669    153.7715   7.2265651847e+01   2.8245652825e+01    0.2912702    0.1902804 -87.35   0.00125487    2.121    0.528
        30 -12.6923    246.8127    150.4908   4.2261882755e+01   6.1531805944e-01    0.4580002    0.3721743 -45.66  0.002607075    1.401    0.286
        31 -11.0879    103.3902    149.8231   7.3131702224e+01   3.0304811186e+01     0.207562    0.1292662 -46.54 0.0009088232    1.722    0.419
        32 -11.6446     59.9590    147.7090   8.3683065546e+01   3.7454093690e+01     0.186971     0.166152  70.09  0.001172939    1.117    0.105
        33 -11.9330    247.4528    137.4996   3.9290997639e+01   2.5417551910e+00    0.4238664    0.1365376  49.21   0.00150838    3.328    0.700
        34 -12.2869    134.5516    126.1415   6.0149142022e+01   2.9570156430e+01    0.3465458    0.2688026 -31.52  0.001633201    1.446    0.308
        35 -13.8828    104.6050    122.2372   6.7098682700e+01   3.6441389666e+01     1.154522    0.9238634  54.85  0.005914516    1.297    0.229
        36 -13.5273    111.3137    115.9884   6.3797378839e+01   3.6598000763e+01    0.5823843    0.3669819  56.66  0.001975436    1.829    0.453
        37 -12.8766     28.5789    244.9066   9.8998676825e+01   2.1258098436e+01    0.3308384    0.1541563  48.94  0.002149092    1.662    0.398
        38 -12.3986     78.5362    110.1774   7.1713872094e+01   4.3636387488e+01    0.3987071    0.3041478 -80.90  0.001535387    1.498    0.332
        39 -11.2215     86.8744    114.8471   7.0358678938e+01   4.1236689245e+01    0.2458829    0.2056503  17.69  0.001041088    1.417    0.294
        40 -12.5439     81.6841    114.9259   7.1859805320e+01   4.2048454159e+01     0.404306    0.2998117  62.79  0.002060011    1.566    0.361
        41 -12.7942    245.3347    112.3288   3.3888624739e+01   7.0320458926e+00    0.4432094    0.1295617  44.81  0.001415988    3.945    0.747
        42 -13.5085      2.2537     96.8923   9.2008946601e+01   5.4446965309e+01    0.7553698    0.2898108 -76.30  0.003616414    2.309    0.567
        43 -14.0543     18.2463    111.5376   8.9463140127e+01   5.0117625393e+01    0.8394275    0.5099226  12.28  0.004855392    2.293    0.564
        44 -14.5411     12.4782    103.7346   8.9995397410e+01   5.2294542369e+01    0.8547067    0.6455273  27.24  0.005816886    1.654    0.395
        45 -10.9055    121.7795    112.3847   6.0071281297e+01   3.5305609349e+01    0.2103162    0.1462908  34.24 0.0006591865    1.557    0.358
        46 -11.5707     63.4581    110.7494   7.6262292325e+01   4.5649207736e+01    0.2865619    0.1514441  47.68  0.001301177    2.180    0.541
        47 -14.8637     24.2578     93.0621   8.4745639329e+01   5.3830102794e+01     1.378416     1.059455  -2.67  0.008904612    1.651    0.394
        48 -11.3513     41.1480    106.2053   8.1983365822e+01   4.9310284384e+01    0.2561728    0.1861263  62.78  0.001473767    1.628    0.386
        49 -11.8408    137.2756    103.2563   5.3594358627e+01   3.3925403682e+01    0.4922496    0.2385142  61.25  0.001564017    3.174    0.685
        50 -12.1582     61.5770     98.1104   7.4087519417e+01   4.8807030051e+01    0.5670325    0.3489506  82.17  0.002337949    3.009    0.668
        51 -11.8581     46.8671     99.3640   7.8920849028e+01   5.0277250499e+01    0.4592828    0.3167341  70.07  0.002437822    1.920    0.479
        52 -11.6870     52.6313     97.6997   7.6780570532e+01   5.0005082401e+01    0.2936523    0.1896475 -31.66  0.001339335    1.813    0.448
        53 -12.4003     48.9445     93.0151   7.6918623424e+01   5.1490219050e+01    0.3451955    0.2629305  61.53  0.001708342    1.628    0.386
        54 -12.5003     42.5719     90.7371   7.8463252482e+01   5.2688551680e+01    0.3591856    0.2476869 -77.90 0.0006686859    1.612    0.380
        55 -12.6436     29.0204    121.7461   8.7947048547e+01   4.6886993200e+01    0.3027736    0.2366187 -79.92   0.00195546    1.098    0.089
        56 -12.7136    136.6749     94.8177   5.1405794241e+01   3.5818868570e+01     0.510601     0.336683  54.51   0.00220666    1.591    0.371
        57 -10.8528     81.3532     93.3204   6.6776399048e+01   4.7026773242e+01    0.1484792    0.1080638 -17.39 0.0007047121    1.750    0.429
        58 -12.0348     19.0269     86.1530   8.5151538566e+01   5.5763282588e+01    0.2462782    0.1996816 -47.50 0.0004185347    1.139    0.122
        59 -13.0283    163.7180     71.7254   3.8183336780e+01   3.3646870016e+01    0.5520289    0.4739344  -0.29  0.002722997    1.336    0.252
        60 -11.1448    158.0395     83.4937   4.2918689697e+01   3.2941548091e+01    0.3053367    0.2156274  33.06 0.0005044356    1.592    0.372
        61 -12.7645    162.4360     79.3321   4.0709527876e+01   3.2614510323e+01    0.8174616    0.4122685  34.14  0.002729628    2.790    0.642
        62 -13.4557    169.4226     77.2564   3.8586348271e+01   3.1224121767e+01    0.9079477    0.5752047  28.06  0.003088719    2.136    0.532
        63 -13.2919     65.4642     49.8638   5.8927669986e+01   5.8318901181e+01     0.948039    0.5374154 -33.59  0.004721916    1.660    0.398
        64 -13.4101     91.5229     57.9682   5.2867314735e+01   5.2488032485e+01    0.5282832    0.4557662 -21.37  0.002796998    1.093    0.085
        65 -13.8357     54.3847     67.0581   6.8466832524e+01   5.6481555089e+01      1.50036    0.8914376  20.04  0.007630871    2.012    0.503
        66 -12.3609     55.0456     81.3742   7.2151051404e+01   5.3363911193e+01    0.5336434    0.4023724 -54.52  0.003071351    1.197    0.164
        67 -13.9402     61.4396     74.9923   6.8277746022e+01   5.3920865898e+01    0.7619632    0.5032743 -30.88  0.003690739    1.564    0.360
        68 -13.5300     87.0027     65.3006   5.6771881141e+01   5.1933617232e+01    0.9833346    0.6032549   9.04  0.003917836    2.635    0.621
        69 -13.1068     71.1192     75.0637   6.5031725399e+01   5.2544854315e+01    0.5002901    0.3424757  -3.07  0.001184248    1.983    0.496
        70 -12.1373     77.2115     73.4941   6.2545231540e+01   5.1936790224e+01    0.5310317    0.2683769 -33.80  0.001927222    2.209    0.547
        71 -11.3127     43.6958     83.3587   7.6438121786e+01   5.4214507088e+01    0.2345185    0.1645263 -66.68   0.00098294    1.404    0.288
        72 -12.0033     42.5019     79.5015   7.5925677191e+01   5.5184575945e+01    0.2885796    0.1503614 -48.36  0.001077123    1.608    0.378
        73 -10.7225    126.3067     83.3432   5.0796409492e+01   4.0484344229e+01    0.1595323    0.1219526   2.80  0.000196872    1.690    0.408
        74 -11.9363    113.9710     79.8157   5.3151286360e+01   4.3857021455e+01    0.4171262    0.3185479 -51.43  0.002033051    1.384    0.278
        75 -12.1629    135.6690     79.5258   4.7178828100e+01   3.9094444264e+01       0.6788    0.2824914  49.28  0.002346307    2.373    0.579
        76 -13.2700     26.4680    225.8747   9.8243756095e+01   2.4910344549e+01    0.5140505    0.2800259 -62.67  0.003287186    2.127    0.530
        77 -14.3390      4.3220     63.1166   8.5731491912e+01   6.1618312801e+01    0.6777408     0.556477 -21.08  0.003730389    1.339    0.253
        78 -11.8499      4.7096    119.3724   9.4082587968e+01   4.9302946655e+01    0.3929785    0.1577382  18.01  0.001950342    3.489    0.713
        79 -11.7230     26.9314     75.1943   8.0282324766e+01   5.7556551300e+01    0.4441915    0.2348725 -83.98  0.001889012    3.318    0.699
        80 -11.0401    117.5412     72.1403   4.9755722955e+01   4.4594892153e+01    0.2262229    0.2016019  40.95 0.0007634066    1.121    0.108
        81 -12.3204    199.6725     69.2150   3.0527111943e+01   2.4864506115e+01    0.3695906    0.2305735  47.01  0.001519394    1.668    0.400
        82 -12.4869    133.7330     65.9946   4.3456280945e+01   4.2048830943e+01    0.5977947    0.4369107  65.69  0.002762529    1.577    0.366
        83 -10.9185     99.6732     65.1853   5.2743292544e+01   4.9598398894e+01    0.1975537    0.1883967  45.94   0.00111222    1.155    0.135
        84 -13.0410     78.8134     59.9489   5.7713975231e+01   5.4357177267e+01    0.6058845    0.4250201 -40.80  0.003162944    1.346    0.257
        85 -13.0637    178.0225     58.2346   3.1306013045e+01   3.2195893633e+01    0.6086728    0.5129474 -53.49  0.002126428    1.232    0.188
        86 -11.6733     38.8079     59.9770   7.2112517176e+01   5.9674973670e+01    0.2469663     0.178274 -89.40  0.001316311    2.324    0.570
        87 -12.3765     35.0606     59.4935   7.3386261634e+01   6.0139866472e+01    0.8046862   0.08224057 -49.10  0.002387312    5.018    0.801
        88 -11.6751     24.8336     58.9817   7.7124884917e+01   6.1136889175e+01     0.401342    0.1747228 -52.93  0.002044362    1.785    0.440
        89 -11.6299    111.0486     58.6971   4.7192511939e+01   4.8449883382e+01    0.2589068    0.2062223 -16.46 0.0003482538    1.312    0.238
        90 -14.1901    120.1250     54.5472   4.3247078211e+01   4.7162772908e+01    0.7710603    0.5947191  32.09  0.003893885    1.299    0.230
        91 -11.4574     17.7115     55.4551   7.8943522251e+01   6.2386614331e+01     0.306808    0.1381432 -62.17  0.001554073    2.033    0.508
        92 -13.5406    103.4137     50.5977   4.6617859238e+01   5.1434820518e+01    0.9488118    0.4961536 -49.23  0.002616773    2.414    0.586
        93 -13.2979     97.9720     50.0349   4.8064524138e+01   5.2631254882e+01    0.8022182    0.3876405 -40.32  0.003042338    2.087    0.521
        94 -11.3807    135.9648     49.6225   3.7535820754e+01   4.4230063134e+01    0.2468356     0.208719  -1.31 0.0006445384    1.285    0.222
        95 -10.4184     23.6459     49.7482   7.5048386319e+01   6.3082695056e+01    0.1212704   0.07396596 -26.98 0.0003071559    1.600    0.375
        96 -12.7078    204.5713     39.9051   2.1822121719e+01   2.7984137308e+01    0.5500695    0.2644294  84.00  0.001944671    3.026    0.670
        97 -12.9875    220.6460     42.2370   2.0282720879e+01   2.3619329450e+01    0.8863227    0.4494944 -85.68  0.003231439    3.109    0.678
        98 -12.4535    212.1680     43.4020   2.1698700907e+01   2.5575457891e+01    0.6352454    0.2593844  58.14  0.002486835    2.303    0.566
        99 -13.2857      5.9559     42.9092   8.0381207231e+01   6.5607175170e+01    0.7426883    0.3582198  16.49   0.00433866    2.462    0.594
       100 -13.8576     20.2751    224.0717   9.9182351580e+01   2.5917044358e+01    0.5551506    0.3759693  52.70  0.004133365    1.334    0.251
       101 -13.2228     65.7192    223.4321   9.1095207691e+01   2.0523628860e+01    0.4780509    0.4099492  51.83  0.003452827    1.324    0.245
       102 -12.3735     23.6501    216.5811   9.8153012518e+01   2.6969180919e+01    0.4603085     0.170701  55.92  0.002487202    2.203    0.546
       103 -12.0952    249.0468    216.0152   5.4929593112e+01  -8.9643721784e+00    0.1980814    0.1568952  12.81  0.001325664    1.031    0.030
       104 -11.5783    159.1418     43.0731   3.0335211504e+01   3.9363283444e+01    0.3448782    0.2134749  65.46  0.001518206    1.620    0.383
       105 -11.7966    109.6405     41.9212   4.1690776580e+01   5.1488551486e+01    0.3720176    0.1972743  52.71 0.0007526314    1.915    0.478
       106 -11.6833    134.6663     39.1740   3.4301330238e+01   4.6082621131e+01     0.457541     0.283177  71.29  0.001969141    2.004    0.501
       107 -13.7353    122.2268     36.1844   3.6260537313e+01   4.9471531064e+01    0.8368033    0.5164052  30.07  0.003789917    1.802    0.445
       108 -13.2424    113.8080     37.7019   3.9003262758e+01   5.1186047618e+01    0.4309983    0.3386677  41.80  0.001477574    1.190    0.159
       109 -12.5367    131.5967     33.3515   3.2995288281e+01   4.7618784300e+01    0.4526841    0.3376122  35.09  0.001434108    1.316    0.240
       110 -11.3543     35.0400     34.7306   6.5414302429e+01   6.4841721561e+01    0.4667323    0.2099056  13.42  0.002056088    3.282    0.695
       111 -12.6320     33.0765     40.4116   6.8249531835e+01   6.4022259864e+01    0.3543708    0.2293918   5.67  0.001288689    1.717    0.418
       112 -12.7398     40.9138     40.1037   6.4916433470e+01   6.3258864474e+01    0.4959838    0.3224258 -11.40  0.002839234    1.658    0.397
       113 -12.8565     45.6850     33.5433   6.0532031912e+01   6.3840095415e+01    0.6448534    0.5478597  54.73  0.004139449    1.811    0.448
       114 -12.9340    244.1332     37.2451   1.6352954288e+01   1.8677498156e+01     0.844533    0.3934898  89.22  0.003249733    3.138    0.681
       115 -12.1249     75.9636     36.9817   5.0393632986e+01   5.8824577600e+01    0.3501095    0.2048478  39.97 0.0009680578    1.725    0.420
       116 -11.4374     70.5004     35.9870   5.1937621927e+01   5.9894382292e+01    0.2217112    0.2155391  72.64 0.0007308685    1.437    0.304
       117 -13.9109    166.1281     29.9562   2.4943425728e+01   3.9287030373e+01    0.9447355    0.5216738  65.84  0.003878502    1.714    0.416
       118 -12.6360    139.2621     21.4708   2.7207179847e+01   4.7175434592e+01     1.253536    0.3912143  65.64  0.003092143    3.692    0.729
       119 -13.1118     63.4934    213.4919   9.0615161788e+01   2.2738180844e+01    0.2949768    0.1987325 -85.60  0.001864966    1.384    0.277
       120 -12.1983     72.1614    206.7870   8.8266323300e+01   2.2865881696e+01    0.3051049    0.2226406  72.08  0.001600974    1.169    0.144
       121 -11.0242    185.3311    203.3231   6.4560013367e+01   3.8741640219e+00    0.1402041   0.09912331  12.70 0.0007049981    1.700    0.412
       122 -13.1754     55.9893     26.8528   5.3703082487e+01   6.3533887788e+01    0.6984777    0.2898547  38.96   0.00227492    2.517    0.603
       123 -11.8495     62.8514     25.3716   5.0442397936e+01   6.2721981377e+01    0.4308059    0.2326509   8.52   0.00184275    2.893    0.654
       124 -11.8872     30.4170     25.5999   6.3942839932e+01   6.6866407549e+01    0.3041182    0.1845724   3.02  0.001783384    1.810    0.448
       125 -12.9234    142.9857     29.9944   2.9345311261e+01   4.5230148167e+01    0.5485159     0.416004 -80.76  0.002236812    1.680    0.405
       126 -13.0094    248.2538    196.6285   5.1470128484e+01  -6.3603600526e+00    0.5421602    0.2595782 -40.13  0.002600441    2.400    0.583
       127 -11.4084     36.2381     23.2221   6.0404896686e+01   6.6629095598e+01    0.2723056    0.1405552 -34.91  0.001506701    1.645    0.392
       128 -10.9700     51.2524     20.4087   5.2851999789e+01   6.5156020974e+01    0.2268571    0.1127053  39.91  0.001090666    2.177    0.541
       129 -11.5001     46.4781     20.2736   5.4759908388e+01   6.5825389198e+01    0.3302849    0.2085067  14.34  0.001924088    1.614    0.380
       130 -11.5663     71.0867     16.3957   4.3576184824e+01   6.2563937082e+01    0.2318242    0.1719153 -26.80 0.0006760039    1.362    0.266
       131 -11.6453     36.9864    194.2748   9.4052186826e+01   2.9938388716e+01    0.1698337    0.1312242  73.61  0.001058372    1.049    0.046
       132 -12.5556     22.0888    180.8293   9.5906148742e+01   3.4345310057e+01    0.3704393    0.2474498 -72.16  0.002336189    1.356    0.263
       133 -14.8505      7.2243    182.4006   9.8943998553e+01   3.5408729783e+01     1.331441    0.8378997  86.86  0.009115156    1.218    0.179
       134 -10.7375     40.5207     12.5485   5.3846863973e+01   6.7692962954e+01     0.119249   0.09416693  -7.31 -1.311379e-05    1.031    0.030
       135 -13.7543     15.3954    174.5092   9.6758640218e+01   3.6327497891e+01    0.8577711    0.4095072  64.05  0.004760357    1.995    0.499
       136 -10.9610    206.4847    190.5045   5.8012500332e+01   1.9460748995e+00    0.1386956    0.1210726  21.73 5.109019e-05    1.006    0.006
       137 -13.0604    249.4050    182.9725   4.8598495150e+01  -4.6803687371e+00    0.4076785    0.1423582 -36.36  0.001661533    2.822    0.646
       138 -11.1245    218.6669    175.3130   5.2636018620e+01   2.0536961555e+00     0.130372    0.1139884  88.21 0.0007045121    1.681    0.405
       139 -11.7194     27.7471    171.0089   9.3892855781e+01   3.5885054922e+01    0.3428639    0.1843718  88.48  0.001899773    1.717    0.417
       140 -12.1136     31.2115    167.8045   9.2844502764e+01   3.6230245555e+01    0.2961415    0.2493087  66.57  0.002084726    1.181    0.153
       141 -12.1964    124.2325    166.5417   7.1179295071e+01   2.2743931068e+01    0.4522838    0.3407821 -78.78  0.002273417    1.527    0.345
       142 -11.2559     22.3385    165.9892   9.4591471415e+01   3.7513052926e+01    0.1679715    0.1226383 -86.36 0.0004538024    1.086    0.079
       143 -11.6527    206.5112    163.0032   5.2416374932e+01   6.5360932465e+00    0.2000976    0.1254124 -60.52 0.0008104855    2.581    0.613
