#   1 NUMBER                 Running object number                                     
#   2 MAG_AUTO               Kron-like elliptical aperture magnitude                    [mag]
#   3 X_IMAGE                Object position along x                                    [pixel]
#   4 Y_IMAGE                Object position along y                                    [pixel]
#   5 X_WORLD                Barycenter position along world x axis                     [deg]
#   6 Y_WORLD                Barycenter position along world y axis                     [deg]
#   7 A_WORLD                Profile RMS along major axis (world units)                 [deg]
#   8 B_WORLD                Profile RMS along minor axis (world units)                 [deg]
#   9 THETA_WORLD            Position angle (CCW/world-x)                               [deg]
#  10 FWHM_WORLD             FWHM assuming a gaussian core                              [deg]
#  11 ELONGATION             A_IMAGE/B_IMAGE                                           
#  12 ELLIPTICITY            1 - B_IMAGE/A_IMAGE                                       
         1 -12.8846    198.2930     32.7319   6.1220522077e+01   3.0976353346e+01     1.179572     0.823787  34.45  0.005623131    1.496    0.331
         2 -13.6807    213.5194     14.8818   5.3876585897e+01   2.8829921297e+01     1.506509    0.9728267  25.84   0.00660038    1.794    0.443
         3 -12.5500      2.1931      4.5208   1.0939322139e+02   7.2990604801e+01    0.6502028    0.4720184 -65.43  0.004630125    1.560    0.359
         4 -10.4525     16.4345     25.3663   1.1012488807e+02   6.8130904754e+01    0.1807677    0.1396709  23.83  0.000779451    1.607    0.378
         5 -11.0704    185.1463    250.3094   1.1005350872e+02   4.9393764974e+00    0.4186535    0.1040459  44.01  0.001953005    2.834    0.647
         6 -10.4993    192.0683    248.6552   1.0880800472e+02   4.0766946655e+00    0.1939447   0.09665777  43.89 0.0009251962    1.446    0.308
         7 -10.8367    169.5286    248.6930   1.1226412532e+02   7.4008332650e+00    0.2559901    0.1615834  22.80 0.0008011077    1.895    0.472
         8 -11.4532    150.2524    247.6796   1.1513481826e+02   1.0321045807e+01    0.3425586    0.2710148 -36.15  0.002829766    1.831    0.454
         9 -11.8188    143.2842    249.1333   1.1635568966e+02   1.1155551616e+01    0.7363526    0.4201767  76.87  0.004011547    3.716    0.731
        10 -10.5931    142.1960    221.5642   1.1362938006e+02   1.4684143983e+01     0.306422    0.1772289  35.64 0.0003826787    1.609    0.379
        11 -11.3249    143.3724    240.8651   1.1551980900e+02   1.2105155003e+01     0.267045    0.2163745  31.96  0.002131283    1.322    0.244
        12 -10.5766    136.0267    224.8816   1.1502808659e+02   1.5180669459e+01    0.2447664    0.2021395 -40.29  0.001060228    1.669    0.401
        13 -10.3611    132.4679    223.9270   1.1551680063e+02   1.5835816750e+01    0.1968531    0.1789869  46.18  0.001025665    1.232    0.188
        14 -12.2628    135.4451    236.3652   1.1632506699e+02   1.3802188634e+01    0.5166351    0.3407917 -41.84  0.002396408    2.204    0.546
        15 -10.6924    134.6386    231.5430   1.1596256098e+02   1.4525921953e+01    0.2903224    0.2185881 -16.94  0.001456021    2.336    0.572
        16 -11.0660    134.5865    248.8210   1.1766729040e+02   1.2421275437e+01    0.4506757    0.1565229  44.99  0.002032714    2.037    0.509
        17 -11.7414    100.2565    247.8116   1.2285151306e+02   1.7186481592e+01    0.6496381    0.2597609  42.61  0.004047815    1.897    0.473
        18 -10.6438     98.2597    223.4527   1.2115552991e+02   2.0749044563e+01     0.298531    0.2127828  38.36  0.001685561    1.438    0.305
        19 -11.3189     84.7314    230.8435   1.2396615024e+02   2.1459761401e+01    0.4205003    0.1859188 -68.28  0.002663989    2.698    0.629
        20 -12.1837    111.0732    247.1564   1.2114323403e+02   1.5847343731e+01    0.8426627    0.3143454  54.82  0.003454373    2.428    0.588
        21 -12.3158    124.1504    243.5064   1.1879828075e+02   1.4519883640e+01    0.5982028     0.502859 -63.21  0.005191497    1.592    0.372
        22 -11.1389     86.9692    248.0954   1.2488694792e+02   1.8833853535e+01    0.3497161    0.2022744  48.64 0.0007861095    1.251    0.200
        23 -10.8008     83.2557    244.3354   1.2518628512e+02   1.9789380725e+01    0.4483621    0.2514196 -45.12  0.002890127    3.525    0.716
        24 -10.8639    113.4109    231.2376   1.1938139896e+02   1.7596155607e+01    0.2472577    0.1889197 -60.71  0.001971632    1.685    0.407
        25 -12.0218    105.9811    228.3707   1.2032771459e+02   1.9010477928e+01      1.09322    0.4301166  62.48   0.00481965    4.078    0.755
        26 -11.3933     98.6194    232.2280   1.2185492525e+02   1.9468580141e+01    0.4031309    0.2234662 -75.24  0.002733515    2.299    0.565
        27 -11.1890     91.0351    240.6503   1.2372309213e+02   1.9308400586e+01     0.449143    0.2390777  85.82  0.002170438    2.590    0.614
        28 -10.8548     96.9442    239.5651   1.2271898909e+02   1.8693556896e+01     0.222041    0.2180489 -64.48  0.001382299    1.553    0.356
        29  -9.2637     62.7926    250.3879   1.2862145051e+02   2.1402618373e+01    0.1596784   0.07457739  40.00 0.0007868098    1.903    0.475
        30 -11.2688     60.5149    245.8309   1.2869476085e+02   2.2273451920e+01    0.3914536    0.2273124  46.60  0.001735267    1.359    0.264
        31  -9.6651     66.3584    244.2703   1.2773282823e+02   2.1817672047e+01    0.1935176    0.1257014  32.86   0.00110082    1.964    0.491
        32 -13.6571      3.0558    190.6367   1.3486898453e+02   3.6421481926e+01     3.574235    0.2446815 -77.70    0.0107014   10.687    0.906
        33 -12.1063      3.0427    171.6189   1.3397879264e+02   3.9698374249e+01    0.7220296    0.2152849 -85.17  0.003081692    3.061    0.673
        34 -12.3785     18.5817    216.9733   1.3354833064e+02   3.0823881405e+01     1.040794     0.751943   1.68  0.006420265    3.862    0.741
        35 -13.1297     11.8652    207.5589   1.3418048519e+02   3.2908506823e+01      1.49018     0.766261 -68.02   0.01120793    2.097    0.523
        36 -13.4868     28.5262    246.7109   1.3336238946e+02   2.5532327315e+01     1.331121    0.5582151  46.07   0.01004281    1.723    0.419
        37 -13.1319      3.6718    244.7025   1.3673598607e+02   2.8116352170e+01    0.8227573    0.3728693  81.84            0    1.814    0.449
        38 -12.6302     13.9344    238.6618   1.3511081965e+02   2.8044681440e+01    0.5794319    0.2959394  55.76  0.002831857    1.327    0.247
        39 -12.7040     31.3531    227.1267   1.3206851901e+02   2.8053308874e+01    0.3508256    0.2233683 -83.87 0.0008091083    1.517    0.341
        40 -13.7842     37.6996    218.6244   1.3064333667e+02   2.8693304639e+01     0.977105    0.6673436  44.60  0.008129211    1.434    0.303
        41 -11.7305    166.3113    242.3684   1.1206758098e+02   8.5514951188e+00    0.3402553     0.159126  43.98  0.001831517    1.537    0.349
        42  -9.7138     53.8173    240.7753   1.2940239318e+02   2.3718147005e+01    0.1444118    0.1058075  73.74 0.0007516839    1.169    0.145
        43 -11.1143    116.6192    238.4450   1.1952545455e+02   1.6202842950e+01    0.3361148    0.2522112 -15.72  0.001605788    2.793    0.642
        44 -11.1905    128.6333    235.0644   1.1728881254e+02   1.4946897059e+01    0.3805825    0.2144991  65.53   0.00238216    2.110    0.526
        45 -11.0125    122.5611    233.6548   1.1812969267e+02   1.5993009957e+01    0.3035944    0.2380695  54.61  0.001322322    1.073    0.068
        46 -11.1021    105.5625    237.6042   1.2120287811e+02   1.7816882023e+01    0.2897349    0.2328659 -40.94  0.002347018    1.968    0.492
        47  -9.2126     61.5608    238.9581   1.2813152968e+02   2.3102830427e+01     0.151519    0.1033583  46.44 0.0007944267    1.324    0.245
        48  -9.2019    173.0840    236.1427   1.1028337809e+02   8.2103197457e+00    0.1391048     0.102565  52.15            0    1.283    0.220
        49 -10.1882    166.0094    235.5157   1.1133722379e+02   9.3566473799e+00    0.1491121    0.1364863  36.96  0.001255932    1.256    0.204
        50  -9.4557     54.9923    235.7214   1.2893598009e+02   2.4300848779e+01    0.2172433    0.1145257  55.87  0.001073869    1.366    0.268
        51  -8.5561     70.5659    235.4399   1.2652608772e+02   2.2547594785e+01   0.09799747   0.06898579  60.21 0.0002806176    1.012    0.012
        52 -10.4567    156.7543    231.9843   1.1241989352e+02   1.1170742524e+01     0.192209    0.1627034  21.17 0.0005559811    1.364    0.267
        53  -9.5807     93.0649    232.7956   1.2279026094e+02   2.0118580649e+01    0.2280697   0.07598883  54.19  0.001171937    2.689    0.628
        54  -9.3674    250.3230    231.3226   9.7725493713e+01  -3.0626550677e+00    0.1135349   0.05928838  21.62 0.0007046642    1.680    0.405
        55  -9.8315    141.2353    231.4133   1.1487591789e+02   1.3570443839e+01    0.1512076    0.1102495  41.97 0.0004112964    1.127    0.112
        56  -9.2827    142.1422    227.2564   1.1427644461e+02   1.3959086907e+01     0.187464    0.1271326  78.42 0.0009017658    2.083    0.520
        57  -8.1183     57.4593    231.4361   1.2829993268e+02   2.4639983718e+01   0.09762397   0.06740957  61.96 0.0004768705    1.027    0.026
        58  -8.9348     45.8817    231.1430   1.3006444073e+02   2.5956899541e+01    0.1517056   0.08643275  62.40  0.001188478    1.298    0.230
        59 -10.4114     79.6631    225.9011   1.2440035790e+02   2.2805521839e+01    0.3112502    0.2067195 -88.50  0.001482702    1.584    0.369
        60 -10.7546    117.0708    224.5952   1.1814606923e+02   1.7984265397e+01    0.2602357    0.1814224  45.74 0.0005347776    1.157    0.135
        61  -9.3301     65.0703    224.5826   1.2665387642e+02   2.4767870044e+01    0.1590355    0.1216189 -53.99  0.001281327    1.942    0.485
        62  -9.1483     87.9865    223.8112   1.2287806605e+02   2.2051847499e+01    0.1733227    0.1130334  79.73 0.0009249693    1.583    0.368
        63  -9.4416    111.0000    220.9573   1.1880146259e+02   1.9351268207e+01    0.2354121   0.06043315 -57.59  0.001040694    4.838    0.793
        64 -10.8651    245.7696    219.6369   9.6650571340e+01  -1.4324736918e+00    0.2778396    0.1265074 -21.01   0.00161219    2.553    0.608
        65 -10.3222     70.3474    218.6365   1.2536921820e+02   2.5029730573e+01    0.3619481    0.2040648  88.27  0.002478919    1.934    0.483
        66  -8.7606     88.9944    218.5300   1.2226513067e+02   2.2696302166e+01    0.1545579   0.08038882  45.99 0.0005045659    1.510    0.338
        67 -10.1258    247.9805    244.2381   9.9903082520e+01  -3.7107784554e+00     0.143386   0.06286927  40.30 0.0008908861    1.649    0.394
        68  -9.9480     92.5865    226.0354   1.2231075680e+02   2.1132385612e+01    0.1987672    0.1130826  51.67 0.0008793669    1.324    0.245
        69  -9.4967    137.3049    214.6578   1.1366174074e+02   1.6354446908e+01    0.2203775    0.1520085  77.86  0.001353282    1.918    0.479
        70  -8.8302     77.0261    220.9421   1.2444705770e+02   2.3864141721e+01    0.1404028    0.1031815  59.67 0.0004403008    1.014    0.014
        71  -9.4425     88.1585    212.8816   1.2191095439e+02   2.3655186398e+01     0.192924    0.1242526  88.20 0.0009552341    1.707    0.414
        72 -10.4140    102.0390    211.9125   1.1943887932e+02   2.1923163706e+01    0.3106232    0.1248902  61.91  0.001364276    3.650    0.726
        73 -10.4844     62.8906    210.3029   1.2598735945e+02   2.7208062365e+01    0.6188817    0.3838753  26.46    0.0039991    2.467    0.595
        74 -10.5861     55.5490    208.4609   1.2708972727e+02   2.8349477963e+01    0.3249402     0.207962  71.54  0.002460405    1.304    0.233
        75 -10.3711     54.9478    205.3623   1.2696975429e+02   2.8914257144e+01    0.3562091    0.1849937  31.49  0.001598772    2.462    0.594
        76  -8.4482    130.7237    211.3536   1.1441287777e+02   1.7819414878e+01    0.1099442   0.07492889  69.27 0.0002407348    1.646    0.392
        77  -9.6494    156.1069    208.1383   1.0960933593e+02   1.4267283908e+01    0.1656184    0.1462155  46.74 0.0003140268    1.126    0.112
        78  -9.6228    112.4594    208.2310   1.1724934926e+02   2.0992562067e+01     0.189343    0.1487158  43.47 0.0006112016    1.204    0.170
        79  -9.0782     74.5618    208.2806   1.2384158309e+02   2.6111492892e+01    0.1415102    0.1013199  59.85 0.0004806575    1.075    0.069
        80 -11.7859    176.9072    242.5960   1.1043675935e+02   6.9418913382e+00    0.3824188    0.1988887  50.03  0.002170086    1.627    0.385
        81  -9.1316    125.6734    206.5053   1.1473393718e+02   1.9283749767e+01    0.1635364    0.1048905 -58.18   0.00106135    1.907    0.476
        82  -9.8772     91.2141    204.7210   1.2062479143e+02   2.4509722774e+01    0.3582266    0.1647086  38.10  0.001561841    2.092    0.522
        83  -8.9240     32.9025    207.0090   1.3076316823e+02   3.1006607697e+01    0.1201681    0.1045709 -72.12 0.0004614736    1.559    0.358
        84 -10.3600    246.7813    206.0988   9.4349921201e+01  -4.0734256566e-01    0.2450028    0.1073661  26.97   0.00126014    2.187    0.543
        85  -9.2369    103.9361    203.0664   1.1820470291e+02   2.3004253611e+01    0.1550172    0.1328633  11.79   0.00098443    1.733    0.423
        86 -10.0659     84.2017    201.2433   1.2153359031e+02   2.5996091668e+01    0.2332796     0.202122 -42.31  0.001311327    1.710    0.415
        87  -8.7569     64.2781    201.6501   1.2507849988e+02   2.8429923274e+01    0.1352932   0.08584975  38.75 0.0008580119    1.614    0.380
        88  -9.5317    250.5810    200.2288   9.2793777986e+01  -4.7951483233e-01    0.1531379   0.09354525  -2.29 0.0007110148    1.669    0.401
        89  -9.5432     44.3926    199.1744   1.2834175780e+02   3.1090402769e+01    0.2424236    0.1951887  23.52  0.001912728    1.889    0.471
        90  -8.1582    127.6898    199.7025   1.1356112719e+02   1.9979904591e+01    0.1059469   0.08466657  21.00 0.0003794045    1.597    0.374
        91 -10.1778     27.9440    196.2961   1.3097291035e+02   3.3249245631e+01    0.2727949    0.2136537  86.30  0.001546454    1.201    0.167
        92  -9.2217     25.5422    192.5283   1.3116342566e+02   3.4112132540e+01    0.1809421    0.1123671  66.46 0.0008158477    1.234    0.190
        93  -8.5897    145.2104    198.0060   1.1018735539e+02   1.7438567822e+01     0.128262   0.09636927 -50.53  0.000341982    1.638    0.390
        94 -10.9985    103.1345    196.0835   1.1759465886e+02   2.4217942639e+01    0.2195662    0.1895503  37.10 0.0003702329    1.332    0.249
        95  -9.2821     96.8657    196.2084   1.1875105988e+02   2.5087383710e+01    0.2664238    0.1308387  43.33  0.001134021    1.725    0.420
        96  -9.5686     53.7479    198.4178   1.2666541157e+02   3.0185188837e+01    0.2351378     0.112986  49.39 0.0009992814    1.667    0.400
        97 -11.6381     58.8143    194.2538   1.2544550917e+02   3.0298474929e+01    0.2775612    0.2514682 -66.48  0.001153356    1.482    0.325
        98 -10.2961    249.5893    194.3867   9.1949241997e+01   2.1654571938e-01    0.2749571     0.174281  33.49   0.00176806    1.240    0.193
        99  -8.4050     85.7130    195.6742   1.2072447572e+02   2.6699469409e+01   0.09188312   0.08648611  -6.49 0.0003265446    1.608    0.378
       100  -9.5989     20.9773    194.9388   1.3207648391e+02   3.4137256794e+01    0.2063529    0.1003384 -69.04  0.001097958    2.042    0.510
       101 -12.3632     44.2099    208.1049   1.2896212753e+02   2.9657587399e+01       1.1243    0.4183954  68.28  0.005798754    3.190    0.686
       102  -8.8646    119.0242    194.0000   1.1443919891e+02   2.2188758460e+01     0.187341   0.05526083  42.57 0.0007861282    2.831    0.647
       103 -10.4514     15.6310    192.0492   1.3282730754e+02   3.5108269100e+01    0.1858252    0.1209259  78.45 0.0003563796    1.166    0.142
       104  -9.4790    191.4822    191.4689   1.0100252580e+02   1.0436305592e+01    0.2094183    0.1673787  35.25 0.0005585114    1.014    0.013
       105  -8.5315     72.6197    192.7619   1.2282683295e+02   2.8878591174e+01   0.09310403   0.08097107  24.22 0.0002735138    1.630    0.387
       106  -9.0200     38.5704    192.2337   1.2888168873e+02   3.2866582803e+01    0.1191236   0.08287773 -75.40 0.0002961553    1.442    0.307
       107  -9.3291     32.1929    190.1236   1.2986154378e+02   3.3872425651e+01    0.2659141     0.108674  51.26   0.00166067    1.950    0.487
       108 -10.4600    249.9342    187.7229   9.0728179058e+01   7.9037192255e-01    0.2792219    0.1577323 -11.24  0.001618693    1.872    0.466
       109  -8.8474    114.4519    189.4570   1.1472882626e+02   2.3606773914e+01    0.1160874   0.09533731  57.15 5.898492e-05    1.008    0.008
       110  -9.1645     77.0099    188.5178   1.2161681057e+02   2.9036650930e+01    0.1504854    0.1229772  74.90 0.0001683331    1.071    0.066
       111  -9.2459     41.1204    188.5816   1.2817565855e+02   3.3224027853e+01    0.2006359    0.1085537  57.34  0.001079934    1.509    0.337
       112 -11.4427     65.4971    186.4985   1.2356245521e+02   3.0824223080e+01    0.2929373    0.2042603 -67.91  0.000698964    1.518    0.341
       113  -9.8623      9.9687    187.6700   1.3356782452e+02   3.6343040898e+01    0.1797581     0.111331 -89.41  0.000531795    1.316    0.240
       114  -9.9089     83.6008    186.8614   1.2021931413e+02   2.8452999826e+01    0.1871917    0.1295503  54.52 0.0003409394    1.203    0.169
       115  -8.5565     45.2793    186.6744   1.2728649452e+02   3.3110351038e+01    0.1078431   0.06019721  69.03 0.0004906218    1.592    0.372
       116  -9.3999     29.0674    184.4673   1.3005019485e+02   3.5152819071e+01    0.2026762    0.1782164  14.64  0.001310846    1.826    0.452
       117  -9.3065     24.2976    183.9709   1.3086877197e+02   3.5694200365e+01    0.1473035    0.1216335  61.39 0.0005518017    1.245    0.196
       118  -8.6675    140.1566    183.1623   1.0904665794e+02   2.0490118985e+01    0.1580187    0.1254024  64.56 0.0002721097    1.279    0.218
       119 -10.5371    127.8165    182.6982   1.1132151352e+02   2.2595554760e+01    0.1986293    0.1724702  62.42 0.0002813207    1.078    0.072
       120  -9.2743     36.6626    182.6499   1.2855606562e+02   3.4714751656e+01    0.1685551    0.1028489 -68.46  0.001202224    1.657    0.396
       121  -8.4065    107.6045    182.4687   1.1515752284e+02   2.5788460245e+01    0.1150785   0.09689706  62.52 0.0001328384    1.023    0.023
       122  -9.6490     86.1003    180.2929   1.1903679944e+02   2.9244728331e+01    0.1899295    0.1458776 -89.94 0.0002933792    1.273    0.214
       123 -13.0883     40.1205    243.6654   1.3156795696e+02   2.4781761169e+01    0.8412285    0.5585468  69.73  0.006769904    1.130    0.115
       124  -8.7721     27.1179    180.1640   1.3012109694e+02   3.6092658820e+01    0.1429359   0.08788312  68.98 0.0006102673    1.307    0.235
       125  -8.6810     47.7447    179.6459   1.2627863614e+02   3.4074212166e+01    0.1426496   0.07825407  49.88 0.0006229206    1.553    0.356
       126  -8.4528     92.5535    178.3989   1.1757058211e+02   2.8677785300e+01    0.1136039    0.0946945  62.28 -1.22716e-05    1.025    0.024
       127  -8.5670     12.5000    178.4741   1.3264744863e+02   3.7712497169e+01   0.09796427   0.07246631  76.57 -1.757959e-05    1.031    0.030
       128 -11.8044     65.3191    175.7202   1.2257403011e+02   3.2741662869e+01    0.2180567    0.1748041  55.87 0.0003408284    1.155    0.135
       129 -10.8419     62.1590    172.4857   1.2287027659e+02   3.3707586840e+01     0.238472    0.1795378  53.49  0.001726486    1.201    0.167
       130  -9.7974    102.9965    176.0333   1.1523876314e+02   2.7571998027e+01    0.1723584    0.1464502  63.21  0.001208369    1.008    0.008
       131 -10.7412     75.8132    174.8196   1.2043540378e+02   3.1580569630e+01     0.222684    0.1719028  69.46 0.0004897336    1.104    0.095
       132 -10.1136     19.0362    173.1196   1.3114797936e+02   3.8089407019e+01    0.3012384     0.148793  69.26  0.001974257    1.767    0.434
       133 -11.0943    240.4138    150.4057   8.5062466654e+01   6.3996172756e+00    0.3289489    0.2307664  14.68  0.001327966    1.318    0.242
       134 -11.7686    248.1620    172.5734   8.8223521162e+01   2.5930597548e+00    0.5348338    0.3377576  14.08  0.003136307    1.492    0.330
       135 -11.8906    245.3646    163.5181   8.6917461186e+01   4.0360911139e+00    0.5762935    0.3024283 -39.70  0.002876594    2.534    0.605
       136 -10.8120    249.2410    161.5011   8.5909461472e+01   3.5593846604e+00    0.3987323    0.2591295 -25.69  0.002347717    1.607    0.378
       137 -11.2642    245.5014    156.3716   8.5471451582e+01   4.7877007860e+00    0.7671511    0.3640543  58.67  0.003144676    3.445    0.710
       138 -10.2410     12.0262    173.5394   1.3245672356e+02   3.8623806691e+01     0.230274    0.1196906 -59.04  0.001543848    2.261    0.558
       139  -9.3020    107.6526    172.9112   1.1391064881e+02   2.7409173315e+01    0.1588064    0.1372745  83.87  0.000567772    1.143    0.125
       140  -9.4400     45.9372    172.1394   1.2599386659e+02   3.5618958042e+01    0.1554345    0.1268059  75.69 0.0004102353    1.063    0.059
       141  -8.9261     47.9870    168.5008   1.2527576420e+02   3.6061847846e+01    0.2430703    0.1057242  48.19  0.001397114    2.002    0.500
       142 -10.6438     44.8098    165.7660   1.2565790445e+02   3.6910838693e+01    0.4595273    0.1751552 -54.47  0.001828441    3.152    0.683
       143  -8.3911     52.6326    170.7704   1.2457159349e+02   3.5129264750e+01   0.08923982   0.08440008   3.11 0.0006891413    1.592    0.372
       144 -11.5834     83.7912    166.1161   1.1783980056e+02   3.2090339389e+01    0.5205099    0.3845023  40.32  0.003444267    1.390    0.281
       145 -11.0511     14.4552    167.0688   1.3162349341e+02   3.9580428262e+01    0.2919886    0.2143163  42.39  0.001834313    1.492    0.330
       146  -8.6190     60.8696    164.6548   1.2233284320e+02   3.5301450102e+01    0.1524478   0.08360982  51.16 0.0003607437    1.628    0.386
       147  -8.5135     36.5705    162.5167   1.2701202588e+02   3.8370347483e+01    0.1082098   0.08149687  76.98 0.0002273627    1.060    0.056
       148 -12.1538      2.8068    142.3378   1.3234508640e+02   4.5120290675e+01    0.5934404    0.2784944 -79.10  0.003843005    1.691    0.409
       149  -9.9898     12.4152    161.2555   1.3164678005e+02   4.0815891207e+01    0.2089127    0.1153616 -87.57  0.001380366    1.479    0.324
       150 -12.5783     10.9535    152.4289   1.3135812778e+02   4.2581067825e+01    0.6741969    0.2335034 -75.84  0.003742215    2.367    0.577
       151 -11.8104      9.3551    142.9541   1.3102915675e+02   4.4513270393e+01    0.3751804    0.1548732 -66.83  0.002247641    2.068    0.516
       152  -9.9500     16.1270    158.3198   1.3073284549e+02   4.1048903956e+01    0.1557371    0.1132594 -82.02 0.0003633285    1.204    0.169
       153  -9.8368     27.7625    171.4993   1.2941230841e+02   3.7577974843e+01      0.23755     0.144251 -66.79  0.001330824    1.656    0.396
       154  -8.6356     81.6521    156.3017   1.1704411914e+02   3.4209618835e+01    0.1922236    0.1079798  45.59 0.0007279933    1.646    0.392
       155 -10.2898     84.9096    155.2666   1.1621496122e+02   3.3954223966e+01    0.2381289    0.1508537 -64.50 0.0002746242    1.588    0.370
       156 -10.8989     31.9255    155.2851   1.2733617967e+02   4.0191459708e+01    0.2689123    0.1984982 -52.70  0.001214917    1.704    0.413
       157  -8.6985    228.3520    155.2858   8.8041389258e+01   8.1088917687e+00     0.162022    0.1155077 -31.33 0.0004906044    1.563    0.360
       158 -10.5773    243.8306    120.8895   7.8059680705e+01   9.2057809567e+00    0.4304067    0.2030177 -42.63  0.001787329    2.777    0.640
       159 -12.5869    247.7418    100.9809   7.2758326206e+01   1.0789107372e+01    0.9284862    0.5892669 -23.20  0.004761704    1.473    0.321
       160 -11.9166    247.8497    142.5583   8.2234000149e+01   5.8913106744e+00    0.6392636    0.5052308  18.75  0.003953539    1.060    0.056
       161 -12.5779    248.8172    132.4418   7.9890609960e+01   6.8599930438e+00     1.215857    0.6164541 -23.13  0.005886547    1.916    0.478
       162 -11.2996    248.3578    112.9265   7.5517380538e+01   9.2360216765e+00     0.516925    0.3607697  31.51   0.00282087    1.349    0.259
       163  -8.9743     99.9794    146.2366   1.1163007103e+02   3.3450769446e+01    0.1886869    0.1481888   1.34   0.00106637    2.016    0.504
       164  -8.7592    113.6125    150.7984   1.0940332934e+02   3.0419120475e+01    0.1778726    0.1167674 -69.39 0.0009564927    1.779    0.438
       165 -10.8961     23.0544    150.0611   1.2872583294e+02   4.2010429422e+01    0.2256559    0.1644099 -25.47  0.001350057    2.474    0.596
       166  -8.4656     86.0000    149.9536   1.1524735251e+02   3.4812407047e+01    0.1859782   0.06529995 -59.92 0.0007639498    2.876    0.652
       167 -12.0201     68.3871    144.3801   1.1836207659e+02   3.8264174193e+01    0.5722907    0.3746417  80.23  0.002288435    1.629    0.386
       168 -11.0561     24.5334    155.0438   1.2881866444e+02   4.0927583672e+01    0.3353899    0.1651858  39.66  0.002140879    1.996    0.499
       169  -9.1240     18.3368    148.2977   1.2956147748e+02   4.2758151279e+01   0.09505086   0.07276315 -52.81 0.0002986525    1.655    0.396
       170  -9.7304    235.8582    145.9101   8.4860768500e+01   7.7900279847e+00    0.2110553    0.1502469  17.78 0.0004945769    1.295    0.228
       171 -10.0683     32.5619    145.1156   1.2629406522e+02   4.2093364250e+01    0.1852717    0.1261647 -38.49  0.001182723    2.264    0.558
       172  -9.6773    133.3908    141.1062   1.0343205178e+02   2.8751604941e+01    0.3804482    0.2250423 -57.02  0.001867966    1.960    0.490
       173 -10.2855      9.3763    136.7881   1.3057180057e+02   4.5708508213e+01    0.1509432    0.1231316 -40.18 0.0006217557    1.736    0.424
       174 -11.9616     16.8147    139.2595   1.2916561212e+02   4.4638306213e+01    0.4127725    0.1808701  60.26  0.002354207    2.266    0.559
       175 -10.3866     13.1306    137.1831   1.2979302144e+02   4.5341326556e+01    0.1813054    0.1220882 -87.43 0.0005975476    1.172    0.147
       176  -9.9041     41.4562    147.5114   1.2461869153e+02   4.0741151003e+01    0.1872417    0.1547837  74.49 0.0006945486    1.070    0.066
       177 -10.0026    249.6904    117.9281   7.6480845683e+01   8.3759565447e+00    0.2832215    0.2239263  -4.79  0.000688937    1.135    0.119
       178 -11.1414     60.0094    136.4382   1.1920952950e+02   4.0877440488e+01    0.2620185    0.1969946  86.03 0.0005334183    1.238    0.192
       179  -9.5944    108.9579    136.1495   1.0792419963e+02   3.3944886457e+01    0.3274404    0.2357268   1.17  0.001609063    2.490    0.598
       180 -11.9987      2.7553    131.3478   1.3160375576e+02   4.7254614662e+01     0.515945    0.2361406 -72.77  0.002938977    1.734    0.423
       181 -11.3328      2.0000    121.9427   1.3106655917e+02   4.9167274603e+01    0.4918726    0.1136735 -75.68  0.002172471    3.334    0.700
       182 -10.6771     32.7760    140.6705   1.2582145198e+02   4.2947373866e+01    0.2431488    0.1412722  75.11  0.001369283    1.671    0.402
       183 -10.4974     44.7028    130.2545   1.2197417330e+02   4.3847107518e+01    0.2660586     0.155117  70.29 0.0009895324    1.849    0.459
       184  -8.7150    115.2729    129.3370   1.0521052594e+02   3.4184241781e+01    0.1262633    0.1046019 -13.01 0.0002883141    1.604    0.376
       185 -10.1177     66.3520    127.4066   1.1644561862e+02   4.1931561041e+01    0.3605089     0.120566 -57.79  0.001565987    2.691    0.628
       186  -9.8794    209.9551    125.7443   8.4830696338e+01   1.5645131462e+01    0.2372418    0.1963884 -26.95 0.0004867526    1.267    0.211
       187  -8.6606     48.3016    126.3153   1.2062336911e+02   4.4269073990e+01    0.1100912   0.08327866 -44.11 0.0003819338    1.616    0.381
       188 -11.4832     22.9241    121.2137   1.2609948833e+02   4.7747863376e+01    0.2823645    0.1300027  35.17  0.001389505    2.337    0.572
       189 -10.0048     59.3615    128.1802   1.1823235100e+02   4.2630272057e+01    0.2512508    0.1594111  61.43  0.001167333    1.636    0.389
       190  -9.7317    238.9236    121.5829   7.8989255513e+01   1.0120654782e+01    0.2690655    0.1740056  -1.38  0.001348771    1.646    0.392
       191  -9.9457    231.6852    116.0592   7.8859460002e+01   1.2316681053e+01    0.2288016    0.2078767 -84.17  0.001326397    1.534    0.348
       192 -11.4407     11.4008    115.8105   1.2832374199e+02   4.9752350660e+01    0.2084304    0.1576195 -73.35  0.000839883    1.151    0.131
       193 -11.5904      9.1814    112.3378   1.2852996625e+02   5.0619949311e+01      0.21802    0.2000681 -69.21  0.001219864    1.286    0.222
       194  -9.9515    167.9906    113.1228   8.9928121073e+01   2.6699612138e+01    0.3271815     0.264569  83.69  0.001071168    1.655    0.396
       195 -11.4978      2.2078    112.3569   1.3022882300e+02   5.1082853855e+01    0.3925919    0.1403732 -76.73  0.002099182    2.185    0.542
       196 -11.1389      5.0319    108.2901   1.2916829135e+02   5.1729050390e+01     0.187845    0.1602502  38.90 0.0006383407    1.451    0.311
       197  -8.8386    203.4834    111.4895   8.2601304830e+01   1.9079715109e+01    0.1474422    0.1294016  18.17 0.0008098574    1.050    0.048
       198  -9.2144     89.8209    153.3851   1.1490613416e+02   3.3611909501e+01    0.1524197    0.1099795  35.84 0.0001299416    1.505    0.335
       199 -11.3236     15.0076    104.7576   1.2626957914e+02   5.1766942981e+01     0.231979    0.1869759 -81.31 0.0008376205    1.035    0.034
       200 -10.3123     96.6003    150.9857   1.1309735291e+02   3.3065572352e+01    0.3411992    0.2651037 -41.46  0.001337443    1.594    0.373
       201  -8.3107     71.6912    100.2361   1.1032616927e+02   4.6889771943e+01     0.120299   0.09171636  73.46 0.0002192301    1.491    0.329
       202 -10.1374     16.9877     99.0121   1.2506664115e+02   5.2820801941e+01    0.1653344    0.1305474 -80.21  0.001215322    1.010    0.010
       203 -10.8852    249.5018    150.9032   8.3725489273e+01   4.6553704588e+00    0.3696549    0.2727764 -25.04  0.002246682    1.433    0.302
       204 -11.7168    199.4606    246.7995   1.0746094370e+02   3.1552469650e+00    0.4078013    0.1967069  43.07  0.002624451    1.488    0.328
       205  -8.6128     68.9704    247.0000   1.2751055733e+02   2.1145141483e+01    0.1601193   0.04007461  41.26 0.0008176493    3.049    0.672
       206  -9.8569     73.6023    244.4337   1.2665508838e+02   2.0945247154e+01    0.2684253     0.119991 -64.30  0.001849944    2.685    0.628
