#   1 NUMBER                 Running object number                                     
#   2 MAG_AUTO               Kron-like elliptical aperture magnitude                    [mag]
#   3 X_IMAGE                Object position along x                                    [pixel]
#   4 Y_IMAGE                Object position along y                                    [pixel]
#   5 X_WORLD                Barycenter position along world x axis                     [deg]
#   6 Y_WORLD                Barycenter position along world y axis                     [deg]
#   7 A_WORLD                Profile RMS along major axis (world units)                 [deg]
#   8 B_WORLD                Profile RMS along minor axis (world units)                 [deg]
#   9 THETA_WORLD            Position angle (CCW/world-x)                               [deg]
#  10 FWHM_WORLD             FWHM assuming a gaussian core                              [deg]
#  11 ELONGATION             A_IMAGE/B_IMAGE                                           
#  12 ELLIPTICITY            1 - B_IMAGE/A_IMAGE                                       
         1 -13.6366     58.7953    135.9626   9.3879796502e+01   4.0905547827e+01      2.86318     1.079074 -67.62  0.006265735    3.037    0.671
         2 -12.9015    200.0132     46.0459   3.5962656178e+01   2.9838883915e+01    0.8881272    0.7651775 -52.29  0.003155032    1.113    0.101
         3 -13.1142    208.9688     38.0061   3.3148867801e+01   2.8961205408e+01    0.6543321    0.6203431  78.16  0.001310312    1.254    0.203
         4 -13.0061    234.8351     12.6269   2.5740040449e+01   2.6690280400e+01    0.7961637    0.6027887 -60.36  0.004504712    1.053    0.051
         5 -11.3889     47.7958      4.2986   5.3766085919e+01   6.9041376529e+01    0.3475199    0.2015837  64.48  0.001711723    2.566    0.610
         6 -10.0426     77.4330    232.9667   1.0209858736e+02   1.5059695936e+01    0.5097571    0.1948158 -52.16  0.002167673    2.976    0.664
         7 -11.6277    140.0775    248.7136   9.0043070786e+01   3.6359132818e+00    0.3514191     0.299909  50.16  0.001775487    1.393    0.282
         8 -14.0842     53.2790    229.0404   1.0724639940e+02   1.8870271439e+01    0.8692279    0.6876814  42.65  0.002981039    1.116    0.104
         9 -17.9437      9.8284    239.7091   1.1732312646e+02   2.1211817649e+01     9.734286     4.970597 -79.80   0.01979814    1.912    0.477
        10  -9.7506    164.1686    202.1732   7.7629574593e+01   8.5160752029e+00     0.179399     0.168857  52.46 0.0005896723    1.335    0.251
        11 -10.8722    192.7437    194.6346   7.0252376916e+01   5.5014337665e+00    0.8642092    0.4419003 -61.28  0.002543191    6.500    0.846
        12 -10.2177     71.7109    243.5272   1.0440626900e+02   1.3669970795e+01    0.3052477    0.2092541 -85.79 0.0008458813    1.707    0.414
        13  -8.6519    167.6172    228.2803   8.1235031806e+01   3.2951441591e+00    0.1248658   0.09651015  50.68  0.000393184    1.723    0.420
        14  -9.8096     56.6524    193.0268   1.0285031308e+02   2.6638453667e+01    0.2610269    0.1983809  71.71  0.000725562    1.333    0.250
        15  -8.6889     88.9884    191.2238   9.4113252958e+01   2.2684926968e+01    0.1894719    0.1801003  50.13 0.0004973264    1.011    0.011
        16 -12.5328     56.0750    180.9801   1.0156378907e+02   2.9661170331e+01     0.909619    0.7207373 -42.82  0.003412647    1.410    0.291
        17 -10.9000     99.1339    181.1415   8.9851739193e+01   2.3528576784e+01    0.3437743    0.3124668 -38.62  0.001171974    1.149    0.130
        18  -9.0308     74.9913    182.5243   9.6594810806e+01   2.6786978430e+01    0.2132561    0.1383502  30.42 0.0005087265    1.527    0.345
        19  -9.2433     74.0623    179.0583   9.6349291819e+01   2.7769594358e+01    0.2883537    0.1857574 -87.49 0.0006595731    1.932    0.482
        20 -10.9434    120.5660    180.1417   8.4055322850e+01   2.0271897376e+01    0.3338722    0.2467571  74.99 0.0008880139    1.922    0.480
        21  -9.1831     41.1273    181.1139   1.0565693836e+02   3.1370086905e+01    0.1984596    0.1760056 -48.66 0.0004190094    1.246    0.197
        22 -10.2309    115.5881    185.2980   8.6243000378e+01   1.9920149228e+01    0.2733926    0.1470476 -59.68   0.00113056    2.100    0.524
        23 -10.0744     39.3424    176.3694   1.0562743464e+02   3.2751398965e+01    0.5838078    0.2503295 -45.50   0.00226758    2.870    0.652
        24 -10.9801     43.0027    175.7565   1.0454495216e+02   3.2505482719e+01    0.7178881    0.2404662  38.92  0.002725111    2.693    0.629
        25  -9.5364     85.3048    174.3490   9.2509551354e+01   2.7302872900e+01    0.2548053    0.2489804 -18.95 0.0007634594    1.075    0.069
        26  -9.7972     88.3207    172.7112   9.1402220331e+01   2.7249016658e+01    0.2827843    0.2010268  49.95 0.0006959194    1.451    0.311
        27 -13.1250     98.7336    168.9339   8.7857861987e+01   2.6532749751e+01     2.532974    0.6956328  46.07  0.006629805    4.801    0.792
        28 -13.9126     69.5559    147.4610   9.2543318716e+01   3.6437329503e+01     2.153236     1.018872 -72.89  0.007601304    2.772    0.639
        29 -10.1691     34.7341    171.6017   1.0638693121e+02   3.4440224367e+01    0.2757459    0.1975583  71.96 0.0003887808    1.404    0.288
        30 -11.0014     81.8665    156.0125   9.0356644010e+01   3.2419908754e+01    0.4061147    0.3118814 -43.43 0.0004708255    1.342    0.255
        31  -9.2382    110.4907    167.4301   8.4361719270e+01   2.4941393963e+01    0.3027413      0.15099 -55.82  0.001181697    2.083    0.520
        32  -9.3948    101.9535    163.5949   8.5982882923e+01   2.7305097898e+01    0.2617929    0.2092687 -83.44  0.000487972    1.491    0.329
        33 -15.4920      8.4543    207.9973   1.1599094316e+02   2.8130247905e+01     2.065142     1.194666 -31.84   0.01022718    2.895    0.655
        34 -10.5342     29.7143    158.4971   1.0636595975e+02   3.8295413644e+01    0.2635164    0.2050025 -51.20 0.0008306993    1.312    0.238
        35 -10.3969     33.6645    156.1449   1.0490937748e+02   3.8518739327e+01    0.4022532    0.2497809  31.32  0.001993575    1.665    0.399
        36 -11.4127     73.6121    163.7114   9.4110521693e+01   3.1684738443e+01    0.4329887    0.2974929 -33.99 0.0008557217    1.733    0.423
        37 -11.4910    133.8071    145.5442   7.3612382700e+01   2.5836109583e+01     1.273095     0.331657 -53.97  0.002965117    5.757    0.826
        38 -11.5601     89.0172    149.6335   8.7025232339e+01   3.2906003752e+01    0.6827911     0.452763 -19.25  0.002808278    2.162    0.537
        39  -9.4337    174.8692    149.0951   6.4747715109e+01   1.7204739363e+01    0.2192918    0.1996206 -63.39 0.0007381875    1.266    0.210
        40  -9.8605    152.1625    221.2043   8.3454903183e+01   6.7762779379e+00    0.1781166    0.1566891  49.92  0.001067176    1.377    0.274
        41 -11.8835    236.2879    172.1580   5.8093501928e+01   2.9428852268e+00    0.3214053    0.2506201 -15.49  0.002055888    1.118    0.106
        42 -10.8105    139.8419    216.4943   8.5483589731e+01   9.5033748646e+00    0.2833261     0.211141  65.96  0.001452773    1.965    0.491
        43 -11.0928    104.4425    133.5720   7.8999673538e+01   3.4222164222e+01    0.9545884    0.4578855 -35.70  0.003026722    2.728    0.633
        44 -11.5342     90.1817    135.8266   8.3812518936e+01   3.6187028096e+01    0.3028286    0.2803797 -35.45 0.0004084564    1.079    0.073
        45 -10.6945    135.6102    129.0864   6.9300436984e+01   2.9196503559e+01    0.5437769    0.1546299 -49.08  0.001530418    3.693    0.729
        46 -11.0936     27.7015    128.9666   1.0315607650e+02   4.6191332483e+01    0.3975546    0.2736609 -88.44  0.001501024    1.526    0.345
        47 -11.1141     38.3999    120.9726   9.8121918779e+01   4.7240464650e+01    0.3133993    0.2520356  87.43 0.0003160279    1.357    0.263
        48 -11.5430     43.8048    129.4563   9.7735023840e+01   4.4438773430e+01    0.4377029    0.2607504  38.39  0.001068822    1.760    0.432
        49 -10.1194    111.8517    128.0590   7.5535295489e+01   3.4151529856e+01    0.3601527    0.2725433  12.13  0.001047654    1.610    0.379
        50  -9.2299    143.9325    126.9206   6.6678626375e+01   2.7970628802e+01    0.2284426    0.2189901 -72.08 0.0005160526    1.117    0.105
        51  -9.3838    126.4881    126.4911   7.1067516502e+01   3.1627872583e+01    0.1543179    0.1526452 -51.85 -4.278984e-06    1.043    0.041
        52 -10.5882     98.8558    123.8858   7.8391941013e+01   3.7599597429e+01    0.3684688    0.2904732  -2.55  0.001196074    1.551    0.355
        53 -10.4430     58.9616    216.6002   1.0477567218e+02   2.0889442784e+01    0.2153165    0.1819448 -77.79 0.0005470741    1.229    0.187
        54 -10.1967    117.7175    122.7083   7.2546615537e+01   3.4254326391e+01    0.3596606    0.2536215   7.69  0.001490885    2.003    0.501
        55  -8.9165    163.0593    120.8397   6.0746922873e+01   2.5275454967e+01     0.213882    0.1604095 -61.93 0.0004284847    1.542    0.352
        56 -11.6667     33.1985    117.9373   9.9448694601e+01   4.8554992721e+01    0.5529963    0.2352859 -60.13  0.001752672    2.006    0.502
        57  -9.2345    107.9941    117.5364   7.4051231559e+01   3.7376169807e+01    0.2260668     0.206519 -44.48 0.0003383682    1.082    0.076
        58 -11.4194     69.3660    167.9413   9.6010856065e+01   3.1206689590e+01      0.42714    0.2749573 -31.49  0.001883598    2.013    0.503
        59 -10.4644    135.0000    113.0884   6.5426093092e+01   3.2831610262e+01    0.5985075   0.08717761 -44.51  0.001236063    6.758    0.852
        60 -11.9221     34.3738    109.2340   9.7410622584e+01   5.0682848234e+01    0.4240834    0.4127659 -88.32  0.002116924    1.109    0.099
        61  -9.4595    205.5128    110.2502   5.0201182235e+01   1.8666175565e+01    0.2238975    0.1935568  53.19 0.0006614497    1.299    0.230
        62 -10.8413    115.7372    108.8031   6.9501884058e+01   3.7814475520e+01    0.4387351    0.3389472  54.88  0.002066927    1.408    0.290
        63 -11.2977     41.9175    103.9844   9.3452878006e+01   5.1214977151e+01    0.4276583    0.3115803  39.24  0.001372702    1.503    0.335
        64 -10.6946    119.1210    103.8472   6.7196421325e+01   3.8197449459e+01    0.3476068    0.2355727 -33.06  0.001181574    1.593    0.372
        65 -10.4677    120.8764     98.5693   6.5239456082e+01   3.8951121021e+01    0.3512591     0.220632 -49.08 0.0008666944    1.636    0.389
        66 -10.3837    112.2408    103.6595   6.9108525789e+01   3.9675408773e+01     0.272274    0.2296749 -40.84 0.0006987585    1.178    0.151
        67 -10.1487     33.9143    100.1366   9.5744280708e+01   5.3034171240e+01    0.2103007      0.18848  78.41 0.0005911952    1.277    0.217
        68  -9.8920    105.5966     98.0889   6.9518839697e+01   4.2262653571e+01    0.3114256    0.2339666  70.54  0.001389702    1.775    0.437
        69 -10.1867     31.9919     86.5257   9.3453343186e+01   5.6574431472e+01    0.3580609     0.253159  67.13  0.001753787    2.018    0.504
        70  -8.8605    159.4676     84.4616   5.2122849938e+01   3.3040367536e+01    0.1452642    0.1395421 -68.58 0.0001343323    1.008    0.008
        71 -12.2538    187.9584     54.9807   3.9634762002e+01   3.1266325123e+01    0.6196387    0.3993812  48.62 0.0008760042    1.777    0.437
        72 -11.2582     48.8207    243.3984   1.0937960445e+02   1.6431217325e+01    0.3839501    0.1897726  58.40 0.0007400778    1.998    0.500
        73  -8.8196     95.8105    236.7943   9.8327173501e+01   1.1857888513e+01    0.1756053    0.1351037  52.56 0.0004718669    1.276    0.217
        74  -9.3972     60.3092     21.0218   5.7104741001e+01   6.4843737878e+01    0.1779691    0.1557085   8.27 0.0004817542    1.091    0.083
        75 -10.2117     32.7759     20.9631   6.9652124045e+01   6.9537362974e+01    0.1618922   0.09474183 -32.97 0.0008818085    1.689    0.408
        76  -9.0599     62.0256    235.1433   1.0580188201e+02   1.6548492411e+01    0.3429702    0.1783141  59.66  0.001302555    2.080    0.519
        77  -8.8940     86.5836    204.8179   9.6621162478e+01   1.9892857692e+01    0.1813169    0.1329052 -84.40 0.0004456408    1.601    0.375
        78  -9.7904     75.6040    245.5070   1.0373452107e+02   1.2796575875e+01    0.3787473    0.1451685 -60.57  0.001728388    2.870    0.652
