#   1 NUMBER                 Running object number                                     
#   2 MAG_AUTO               Kron-like elliptical aperture magnitude                    [mag]
#   3 X_IMAGE                Object position along x                                    [pixel]
#   4 Y_IMAGE                Object position along y                                    [pixel]
#   5 X_WORLD                Barycenter position along world x axis                     [deg]
#   6 Y_WORLD                Barycenter position along world y axis                     [deg]
#   7 A_WORLD                Profile RMS along major axis (world units)                 [deg]
#   8 B_WORLD                Profile RMS along minor axis (world units)                 [deg]
#   9 THETA_WORLD            Position angle (CCW/world-x)                               [deg]
#  10 FWHM_WORLD             FWHM assuming a gaussian core                              [deg]
#  11 ELONGATION             A_IMAGE/B_IMAGE                                           
#  12 ELLIPTICITY            1 - B_IMAGE/A_IMAGE                                       
         1 -12.7826    156.5083     68.0011   4.5172283627e+01   3.6498357472e+01     2.145161     1.382118 -75.15  0.008736609    2.379    0.580
         2 -10.3856     75.5565     20.8386   4.7943300497e+01   6.4158024835e+01     0.398017    0.3168554 -55.38 0.0007200168    1.455    0.313
         3  -9.9629     75.9384     13.6232   4.3811211516e+01   6.5065048079e+01    0.4270169    0.2343738 -19.46  0.001598947    2.101    0.524
         4  -9.6020     71.2450      7.6840   4.1986794347e+01   6.6933094094e+01    0.4954203     0.314953 -82.91  0.002082632    2.587    0.613
         5 -12.3256    163.5090     42.4872   3.5937500045e+01   3.8581527367e+01    0.6848264    0.4267568 -66.23 -3.506669e-05    1.936    0.483
         6 -11.7535    153.9075     35.5365   3.5151336757e+01   4.1955269787e+01     1.139552    0.6349376 -70.16  0.004472644    2.469    0.595
         7 -11.7043    126.3182     35.4935   4.0250887289e+01   4.9185863920e+01     1.363549    0.6776433 -41.31  0.001868097    2.012    0.503
         8 -12.3820    140.4820     38.1469   3.8388614995e+01   4.5099204663e+01    0.6137707    0.4226214 -73.17 0.0004122929    1.740    0.425
         9 -12.2470     45.9805      9.2586   5.4596275986e+01   7.2305132927e+01    0.3754629    0.3265289  27.07  0.000324508    1.086    0.079
        10  -9.9041     48.1189      2.4818   4.8521633048e+01   7.2821225619e+01    0.2343965    0.1847899 -18.18 0.0002663791    1.276    0.216
        11 -11.7488     17.8155     26.3367   8.4426528414e+01   7.3042534634e+01     1.973699    0.8047148  11.70    0.0077461    3.139    0.681
        12 -11.2281     35.7726      2.9140   5.6326567857e+01   7.5192154210e+01     1.016414    0.5278307  39.72  0.004853132    1.876    0.467
        13 -10.4641     35.4673     10.1161   6.1893394215e+01   7.4086378272e+01    0.5683017    0.3584298  47.32  0.001984694    1.764    0.433
        14 -11.1113     38.3078     16.5966   6.4229683758e+01   7.2461278012e+01    0.7296413    0.3506181  48.63  0.002772197    2.531    0.605
        15 -11.2289     29.3468     16.9462   7.0779240365e+01   7.3759016203e+01    0.7542425    0.3338051 -35.16   0.00305597    2.588    0.614
        16 -10.4087    226.9960     17.8617   2.2440863021e+01   2.6656741440e+01    0.3062639     0.207546  21.25  0.001686407    2.176    0.541
        17 -10.3304    231.2372     14.7167   2.1414542689e+01   2.6093102201e+01    0.2462966    0.2277957 -28.79  0.001753218    1.197    0.165
        18 -11.5747    238.8672     21.0985   2.2478157117e+01   2.3941603781e+01    0.6462132    0.5280896  17.81  0.003373652    1.610    0.379
        19 -10.8769    236.2666     16.8102   2.1621590004e+01   2.4877426308e+01    0.2941691    0.2494954  73.42   0.00115802    1.378    0.274
        20 -10.3421    179.5192     21.5849   2.7330610243e+01   3.7098290474e+01    0.4633852    0.2307204 -52.68  0.002033005    2.000    0.500
        21  -9.7811     51.3606     23.4276   6.0440074408e+01   6.8903117553e+01    0.4801255    0.2467262 -43.03  0.002026154    1.959    0.490
        22 -11.3383     55.3909     19.4545   5.6013938558e+01   6.8806362378e+01    0.5129264    0.3464427  13.81  0.001557055    1.943    0.485
        23 -10.9687     62.2598     14.2407   4.9593278215e+01   6.8159216749e+01    0.3426599    0.2976505  41.01 0.0009743756    1.099    0.090
        24 -11.4800     57.3051     13.0763   5.1160927168e+01   6.9408538068e+01     0.599362    0.3811555  45.55  0.002542092    1.503    0.335
        25 -10.5126    164.4679     22.1077   2.9182477987e+01   4.0841251062e+01    0.4357977    0.3275315  39.51  0.001763398    1.545    0.353
        26 -12.1781    111.2663     19.1288   3.6750678063e+01   5.5323579167e+01    0.6096445    0.4745407  -6.47  0.002624339    1.477    0.323
        27 -10.0458    116.8316      8.6731   3.1022016887e+01   5.4964722668e+01    0.2992662     0.228831 -62.38 0.0005318703    1.379    0.275
        28 -10.2857    138.6183      2.2380   2.5234327659e+01   4.9640680244e+01    0.8986573    0.2686861  77.68  0.002916479    3.385    0.705
        29 -11.9761    122.4166     11.4573   3.1254420403e+01   5.3173297015e+01    0.6830382    0.3301872  47.40    0.0012831    2.136    0.532
        30 -12.1883    127.8387      4.6891   2.7592615115e+01   5.2347726641e+01    0.4702387    0.3748138 -71.31  0.001318762    1.252    0.202
        31 -10.5712      7.2810     22.2383   9.1447427896e+01   7.4761604293e+01    0.4319826    0.2736411 -50.14  0.001668748    1.349    0.259
        32 -10.4411     18.5581      4.9862   7.1995901996e+01   7.7489825088e+01    0.6398053    0.4581642  61.18  0.003356034    2.294    0.564
        33 -10.7857     24.2582     12.2451   7.1892251660e+01   7.5369419111e+01    0.3919943    0.2981277   4.47 0.0003348151    1.361    0.265
        34 -11.6961      8.5759      8.3788   8.4095821904e+01   7.7799397184e+01    0.6999885    0.2784302 -43.50  0.003150005    2.202    0.546
        35 -11.6719      3.1506      3.6853   8.7391819128e+01   7.9182042937e+01    0.4933095    0.3795106  17.96  0.003127656    1.391    0.281
        36 -10.8043      9.9796     15.4746   8.6311162605e+01   7.6138807157e+01    0.3601982    0.2628522   0.05  0.001369079    1.416    0.294
        37 -12.3328     15.9292     13.5284   7.9876324049e+01   7.6055686607e+01    0.3545741    0.2531501   2.37 0.0003252005    1.468    0.319
        38 -11.1439    151.8672     17.7344   2.9282661306e+01   4.4604615582e+01    0.6404453    0.4997833  43.18  0.003377642    1.416    0.294
        39 -10.2560    152.8568      3.3516   2.4097915754e+01   4.5738380592e+01    0.4891333    0.3648721  11.56  0.002558924    1.671    0.402
        40 -10.4355    156.5933      9.7487   2.5933269115e+01   4.4168184528e+01    0.3489816    0.2202792 -34.39 0.0009003003    1.522    0.343
        41 -10.7080    153.0739      9.5328   2.6248777135e+01   4.5116375091e+01    0.3883147    0.2474326  70.56 0.0007537814    1.493    0.330
        42 -10.3040     81.0310     19.5252   4.5276997900e+01   6.3036417084e+01    0.3386942    0.2212694 -34.59   -0.0001373    1.574    0.365
        43  -9.2414    103.8465      8.0245   3.3217252166e+01   5.8528043988e+01     0.307053    0.1889509  67.69   0.00057014    1.519    0.342
        44 -11.0872    100.9241     16.2081   3.7810280432e+01   5.8408718624e+01    0.5518692    0.4645942  42.46  0.001695708    1.181    0.153
        45  -9.6128     97.9671      7.5302   3.4259299109e+01   6.0143091732e+01    0.2806117    0.2009595  63.91 0.0008450081    1.294    0.227
        46 -11.0709     93.0255      9.8168   3.6613139741e+01   6.1203160992e+01    0.6713747    0.4291493  75.59   0.00211984    1.651    0.394
        47 -11.3264     89.6300      3.1036   3.3911881322e+01   6.2770800791e+01    0.4986053    0.3471681  70.63  0.002510014    1.382    0.276
        48  -9.9634    188.9871      8.0051   2.2440451638e+01   3.6148341480e+01    0.5086411     0.402096 -60.50  0.003022814    1.130    0.115
        49  -8.7955    176.3212     12.1606   2.4745476169e+01   3.8865263571e+01     0.446343    0.2678788 -55.95  0.001383362    1.597    0.374
        50 -12.5132    187.1069     13.6761   2.4249268355e+01   3.6056989915e+01    0.3236376    0.2709827 -81.45 0.0003776567    1.145    0.127
        51 -11.8240    182.5115     12.5197   2.4300711030e+01   3.7293143972e+01    0.4189681    0.3088214 -15.44  0.001294347    1.489    0.328
        52  -9.4752    143.1375     11.3413   2.8111972422e+01   4.7587585536e+01    0.5144171    0.2676065 -51.26  0.001676313    1.990    0.497
        53 -10.2174    131.3906     13.2000   3.0506528876e+01   5.0565009701e+01    0.3425505    0.2192697  66.51  0.001154361    1.462    0.316
        54  -8.9103    201.4446     12.3654   2.2750750602e+01   3.2793992363e+01    0.2355873    0.1329814 -68.65  0.001172646    1.812    0.448
        55 -10.8081    208.5023     10.2768   2.1699287243e+01   3.1388798341e+01     0.412513    0.2508084  52.56 0.0008981713    1.956    0.489
        56 -11.2953    217.0049      6.2358   2.0129019975e+01   2.9888998869e+01    0.5023841     0.321059  -2.11  0.001467345    2.056    0.514
        57  -9.9468    212.1221      5.8513   2.0310379013e+01   3.0994676663e+01    0.2828168    0.2244348 -59.84  0.001765784    1.098    0.089
        58 -10.0431    238.3333      7.0304   1.9211380389e+01   2.5391373079e+01     0.385914    0.1332853 -47.30  0.001832439    2.240    0.554
        59  -8.9709    226.7768      7.8003   1.9982512012e+01   2.7666762252e+01    0.1855999    0.1134703 -52.93  0.001078983    1.387    0.279
        60 -10.6781    168.0679      5.8093   2.3483670254e+01   4.1556933688e+01    0.4252713    0.3060809 -19.19  0.002098971    1.486    0.327
        61  -9.5128     77.9156      6.1347   3.8838998320e+01   6.5467531683e+01      0.33857    0.2692685 -59.62  0.001797257    1.471    0.320
        62 -10.3937      1.8118     21.0594   9.5811064827e+01   7.5299124254e+01    0.4244626    0.1518829 -66.81  0.001652622    2.302    0.566
        63  -9.3571    175.4787      4.4936   2.2437646262e+01   3.9795672716e+01     0.242649    0.1485307 -27.82 0.0005522266    1.582    0.368
        64 -10.3208    244.5083      2.0404   1.7787676866e+01   2.4634977499e+01     0.615967    0.2399278 -86.20   0.00295023    3.027    0.670
        65 -10.0401    198.5239      3.4939   2.0502102188e+01   3.4299296227e+01    0.4405286    0.1911328 -58.04  0.001965672    2.224    0.550
        66  -9.4631    195.2520      1.5969   2.0178242033e+01   3.5234355837e+01    0.2426239     0.180855  80.78 0.0009209422    1.349    0.259
        67 -10.7952    105.7240      3.1440   3.0502092873e+01   5.8485330033e+01    0.6525817    0.3430865 -80.40  0.002546869    2.556    0.609
        68  -9.3410    204.2832      3.4106   2.0126400729e+01   3.2978162538e+01    0.2259394    0.1763376  36.19 0.0007445735    1.642    0.391
        69  -9.7458     85.5958     14.2482   4.1002967901e+01   6.2597818135e+01     0.461047    0.2803797  89.40  0.001869479    2.471    0.595
        70  -8.2357    160.7003      3.3659   2.3346645761e+01   4.3678097323e+01    0.1544833   0.08689721 -55.08 0.0007033395    1.729    0.422
        71  -9.2914    230.2407      2.0668   1.8418783878e+01   2.7470353842e+01    0.2188106    0.1232458 -57.60 0.0005139332    1.546    0.353
        72 -10.7742    118.0203      1.4919   2.7669970188e+01   5.5295373737e+01    0.3395106    0.1640834  78.01 0.0007355624    2.027    0.507
        73  -9.2732     64.1251      1.7787   4.0842665194e+01   6.9303103567e+01    0.1994512    0.1924382 -67.67 0.0007721607    1.177    0.150
        74  -9.6892     58.7503    106.7958   8.5129512034e+01   4.8203771667e+01     0.203247    0.1590929  63.21 0.0003880085    1.325    0.245
        75  -8.1186    152.4850    106.4937   5.6845598415e+01   3.0602385055e+01    0.1449963    0.1422041  -5.47 0.0001924154    1.033    0.032
        76  -9.5030    127.0237    106.0214   6.2970099205e+01   3.6081195890e+01    0.2191049    0.2162925  -8.38  0.001207433    1.022    0.022
        77 -11.3455    107.9558    103.2166   6.7636390678e+01   4.0601269168e+01    0.3645293    0.2781532  48.45            0    1.301    0.232
        78  -9.7446    112.7733    101.2064   6.5684296286e+01   4.0067822844e+01    0.2802286    0.2051616  43.69 0.0004667639    1.339    0.253
        79 -11.5772     80.8045    103.1500   7.6410532033e+01   4.5697726576e+01    0.3310052    0.2772516  21.22 0.0003882738    1.305    0.234
        80 -10.6183     68.4420    104.2652   8.1054999262e+01   4.7433375368e+01    0.5205926    0.2603602  23.41  0.001972453    2.468    0.595
        81  -9.9410      1.6792    104.3793   1.0681477897e+02   5.4081669714e+01    0.3499487    0.1312876 -74.36  0.001482455    2.296    0.564
        82  -8.7179    131.4694    104.5677   6.1426074625e+01   3.5444826622e+01    0.1502425    0.1443643  17.60 5.274857e-05    1.037    0.036
        83 -10.2142     45.8362    102.7082   8.9290448752e+01   5.0912071090e+01    0.4025434     0.237254  84.91  0.001102547    2.090    0.522
        84  -9.7934     68.0732     99.1910   8.0067376132e+01   4.8764169031e+01    0.2835887    0.2474889 -16.06 0.0004295645    1.336    0.252
        85  -9.4092     70.6773     96.7817   7.8537994623e+01   4.8953871329e+01    0.3846155    0.2665142  65.16  0.001510141    1.733    0.423
        86  -8.6848     53.2401    100.6183   8.6019040963e+01   5.0530764901e+01    0.1913435    0.1416231  14.15  0.000708402    1.571    0.364
        87 -11.5095    101.6408     97.8826   6.8174595126e+01   4.3064312097e+01    0.3126689    0.2705418  38.05 0.0002306902    1.149    0.130
        88  -9.9140     97.4810     95.4800   6.8856539403e+01   4.4436911430e+01    0.2832129    0.2138423  25.72  0.001110909    1.486    0.327
        89  -9.7136     38.6996     98.6784   9.1439736008e+01   5.2766856340e+01    0.2582929    0.1975384 -47.73  0.001163528    1.363    0.266
        90  -9.6704     36.1721     96.1459   9.2052900265e+01   5.3695549127e+01     0.323754    0.2306488  85.06  0.001426211    1.459    0.314
        91  -9.4619     26.9732     96.9913   9.5984699733e+01   5.4342192612e+01    0.2464756    0.1910405  37.62 0.0004176793    1.311    0.237
        92 -10.1527     23.0090     96.5285   9.7565592345e+01   5.4792432212e+01    0.3945799    0.2192235 -51.48  0.001851799    1.806    0.446
        93 -11.0866    117.0834     96.9289   6.3287045975e+01   4.0093120954e+01    0.5085816    0.4281866  23.96  0.002548819    1.291    0.226
        94  -9.8882     60.7338     96.4519   8.2239904716e+01   5.0562359315e+01    0.3460381    0.2353601 -37.06  0.001016844    1.717    0.418
        95  -8.8178     11.4847     98.0074   1.0247116306e+02   5.5207590363e+01    0.1924415    0.1195965 -80.04 0.0009823818    1.445    0.308
        96  -8.3290     51.0218     97.0619   8.6188091111e+01   5.1737533022e+01    0.1668203    0.1606346  69.52 0.0003573938    1.033    0.032
        97  -9.8097     16.7421     96.2357   1.0013183667e+02   5.5333064263e+01     0.342394    0.2062663  68.56  0.001674687    1.697    0.411
        98  -9.9621    145.9674     96.1029   5.5596240038e+01   3.3964649075e+01    0.4620234    0.2050328  46.13  0.001738949    2.253    0.556
        99  -9.2982    109.4850     96.4865   6.5387677616e+01   4.1781897456e+01    0.1522412     0.149664  29.29  3.26169e-06    1.024    0.024
       100 -11.3832    138.3075     91.6377   5.6185860817e+01   3.6523564470e+01     1.423161    0.3704764 -37.38  0.003834214    4.373    0.771
       101 -10.3199    126.3212     91.3467   5.9169648177e+01   3.9254586639e+01    0.3928106     0.298275  57.99  0.001539144    1.398    0.284
       102 -12.1963    131.2596     86.0371   5.6336251703e+01   3.9206613230e+01    0.4191647    0.3323203  18.81 0.0003292707    1.514    0.340
       103 -10.8992    122.0208     86.9244   5.9052205703e+01   4.1112358815e+01    0.6520258    0.3878632  33.45  0.001216563    1.983    0.496
       104 -10.6584    120.8391     82.5079   5.8054887211e+01   4.2276997845e+01    0.3102838    0.2865322 -31.07 0.0003083514    1.112    0.101
       105  -9.2362      1.3550     94.3172   1.0632898454e+02   5.6690615069e+01    0.2173239    0.1076768 -78.80  0.000323015    1.758    0.431
       106  -9.9764     88.4509     85.9513   6.9232564964e+01   4.8405797354e+01    0.5099912    0.2891154  38.88  0.002108932    1.772    0.436
       107  -9.3071     86.9585     94.1782   7.2030127856e+01   4.6757286918e+01    0.5211691    0.3143353   5.09  0.001656745    3.885    0.743
       108  -9.0319     87.4763     90.4777   7.0849993502e+01   4.7534482874e+01    0.2782214    0.1497191 -64.49  0.001015669    2.377    0.579
       109  -8.9374     78.4072     94.0308   7.5018931840e+01   4.8334046530e+01    0.2336036    0.1961867  39.70  0.000337644    1.185    0.156
       110  -8.6811      5.0460     93.7793   1.0476489556e+02   5.6660924909e+01    0.1655216    0.1631717  28.24 0.0004724391    1.158    0.136
       111  -8.6147     94.3058     92.3229   6.9035990458e+01   4.5787627292e+01    0.1549768    0.1228812 -10.34 0.0007033029    1.641    0.391
       112 -10.2380     42.9522     91.0452   8.8303389014e+01   5.4289663245e+01     0.510627    0.2844412  17.84  0.002206282    2.101    0.524
       113 -12.4393     34.8298     89.5626   9.1493335867e+01   5.5561285389e+01    0.3632281    0.2913287  62.24 0.0002672809    1.276    0.216
       114  -9.9737     30.1527     85.4023   9.2820236340e+01   5.7109359086e+01     0.323274    0.2390235  61.21 0.0009134893    1.419    0.295
       115  -9.7004     55.7295     88.6017   8.2452465517e+01   5.3279970821e+01    0.4487863     0.263998  36.92  0.001586732    1.691    0.409
       116  -9.5142     51.7983     90.7728   8.4560079204e+01   5.3259993304e+01    0.3761315    0.2078325  65.81  0.001435863    2.609    0.617
       117  -9.0870     33.5514     83.1064   9.0873348203e+01   5.7384234747e+01    0.3505723    0.1455361 -64.11 0.0002479758    2.142    0.533
       118  -9.4535     62.9104     89.4456   7.9751505676e+01   5.2011762661e+01    0.3322928    0.2499324   6.97 0.0008755134    1.671    0.402
       119 -12.4782    110.7012     64.9758   5.5245954175e+01   4.8111141381e+01    0.7511678    0.6508496  26.57  0.003794211    1.257    0.205
       120 -11.5082    113.3127     81.3817   5.9855229964e+01   4.4199498060e+01    0.9600019    0.4946957  29.58  0.003224501    3.006    0.667
       121 -11.7206    103.8043     79.1615   6.2060159536e+01   4.6761345203e+01      1.36342    0.5905814 -39.04  0.004749513    2.554    0.608
       122  -9.5835     71.6198     83.5922   7.4786470125e+01   5.2051364577e+01    0.3521874       0.1928  39.15 0.0008243168    1.815    0.449
       123 -10.7258     79.1678     81.5205   7.1304599957e+01   5.1205188148e+01    0.8216525    0.5017694 -17.72  0.002852367    3.230    0.690
       124 -10.8644     77.3338     75.1711   7.0080305054e+01   5.3039951040e+01    0.5778462    0.2840012  35.89  0.001862518    2.127    0.530
       125 -10.5974     83.2185     74.1620   6.7529808303e+01   5.2143899345e+01    0.3704531    0.3277374  -2.39 0.0007123594    1.294    0.227
       126  -8.7598      9.7298     88.2934   1.0228566014e+02   5.7851406173e+01    0.1965984    0.1706469  64.82 0.0001969794    1.128    0.114
       127 -10.6532    156.7864     85.0018   5.0112567702e+01   3.3550321357e+01    0.3191693    0.2882231  -7.05  0.001283132    1.166    0.142
       128  -9.1846     59.1911     82.9542   7.9632187286e+01   5.4208573253e+01    0.2746797    0.1962925 -55.37 0.0009028108    1.357    0.263
       129  -9.5052     19.9160     82.8353   9.7053736366e+01   5.8636204977e+01    0.2548884    0.2077636 -59.67 0.0005878293    1.164    0.141
       130  -9.4130      1.8754     82.9637   1.0529021742e+02   5.9617789630e+01    0.1938998    0.1712416 -84.46 0.0004714221    1.013    0.013
       131 -11.1020     54.0716     80.9560   8.1290316290e+01   5.5459558394e+01    0.3040793    0.2835433 -54.03 0.0003009878    1.058    0.055
       132 -10.5835     42.9114     62.8684   8.1547207648e+01   6.1520177234e+01    0.7374692    0.4426734 -54.89  0.002374128    1.553    0.356
       133 -11.6405     46.3951     73.2296   8.2734590789e+01   5.8463698389e+01    0.6146507     0.398562  70.49 0.0007719968    2.069    0.517
       134 -10.1854     56.2708     73.4105   7.8297028953e+01   5.7031711068e+01    0.6249155     0.345754 -30.76  0.001786636    2.639    0.621
       135  -8.9999     92.2107     79.9769   6.6142468066e+01   4.9024319014e+01    0.2767439    0.1995538  27.02 0.0009246838    1.594    0.373
       136  -9.0708     45.1144     79.4067   8.4856388283e+01   5.7047973693e+01     0.352975    0.1983073  53.87  0.001484724    2.111    0.526
       137  -8.9527      6.7710     80.0263   1.0278689946e+02   6.0169778392e+01    0.1956998     0.154438  74.04 0.0003774645    1.218    0.179
       138  -8.9188     40.9463     78.6322   8.6570100343e+01   5.7750188144e+01    0.1949413    0.1804094  44.79 0.0006680237    1.118    0.106
       139  -9.0157    187.4828     76.4526   4.2130442106e+01   2.8011560422e+01    0.1396243    0.1297293 -35.33 6.532249e-05    1.016    0.016
       140 -11.0828    151.9774     73.4861   4.7754055665e+01   3.6666784264e+01    0.3850919    0.2522332 -36.46 0.0009347516    1.494    0.331
       141  -9.4744     60.9712     76.0570   7.7008429362e+01   5.5653053238e+01    0.2119098    0.2047044  77.72            0    1.048    0.045
       142  -8.3883     36.4957     76.5191   8.8165336293e+01   5.8797159685e+01    0.1430657    0.1316915 -53.53 0.0008095224    1.065    0.061
       143  -8.4016    178.9679     74.9465   4.3109220982e+01   3.0140111144e+01    0.1708736    0.1570491 -32.44 0.0004147354    1.028    0.027
       144 -11.6083    140.0796     72.6027   5.0098897907e+01   3.9666556889e+01     0.563419    0.4849859  19.78  0.001913717    1.312    0.238
       145 -10.3400    136.4395     74.1054   5.1425048749e+01   4.0264485824e+01    0.3646559    0.2383724 -35.86 0.0009199248    1.543    0.352
       146 -10.4136    136.5494     69.4981   4.9940590607e+01   4.1072186305e+01    0.3492516    0.2649078  36.16  0.001033452    1.439    0.305
       147 -11.1070    136.8268     66.1453   4.8792865926e+01   4.1598887430e+01    0.5221162    0.3601733  69.36 0.0004144901    1.657    0.397
       148 -10.7069      8.8828     74.1759   1.0112935205e+02   6.1597181322e+01    0.3510726    0.2283667  32.84  0.001109971    1.627    0.385
       149  -9.3183     92.2252     74.0438   6.4256566038e+01   5.0342663940e+01    0.3251779    0.2037919  16.92  0.001189946    2.692    0.628
       150  -9.7805     12.8541     88.1742   1.0090480137e+02   5.7702046750e+01    0.2933148    0.1718533 -70.41  0.001132303    1.515    0.340
       151 -10.1752     11.3479     66.8903   9.8901595205e+01   6.3370597114e+01    0.5184349    0.2669374  25.23  0.002036765    2.043    0.511
       152  -9.2243     22.1262     70.1320   9.3889398093e+01   6.1803500698e+01    0.2383589      0.18641 -67.85 0.0005848735    1.164    0.141
       153 -10.4185     17.4435     70.6900   9.6362395264e+01   6.2001429494e+01    0.3106538    0.2671518 -82.47 0.0008777071    1.087    0.080
       154  -8.3500     83.5184    249.4389   9.4856443106e+01   1.5327349168e+01    0.1112263   0.08078592  33.95 0.0001863745    1.035    0.033
       155 -11.5641    164.2299     70.3168   4.4391247842e+01   3.4280166483e+01    0.5095525    0.4083348 -57.39  0.002625639    1.322    0.244
       156 -10.1445    161.0430     64.8125   4.3336975473e+01   3.5916952883e+01    0.3064148    0.2497174 -74.49 0.0005946752    1.390    0.281
       157 -11.1784    154.5185     50.7231   4.0101588144e+01   3.9684635094e+01    0.7258512    0.5565926  80.06  0.002623904    1.414    0.293
       158 -10.7139    147.0444     61.7110   4.5112088461e+01   3.9838019944e+01    0.2455297    0.2411867 -48.03 0.0004242569    1.018    0.017
       159 -13.0021    150.7836     57.6953   4.3064509988e+01   3.9555641665e+01    0.3855832    0.3729325  67.87 0.0004824052    1.046    0.044
       160  -9.5983     64.2110     70.6116   7.3997827578e+01   5.6451933738e+01    0.3615324    0.3033337  31.73 0.0009399056    1.227    0.185
       161 -10.3409     59.9922     65.9110   7.4355518505e+01   5.8277334731e+01    0.6286958    0.4052902  17.94  0.002277368    1.964    0.491
       162  -8.6755    129.0370     70.9812   5.2254322386e+01   4.2609137988e+01    0.1790336    0.1775718 -75.17 0.0003547594    1.005    0.005
       163  -8.9843     96.4981     71.3321   6.1902106317e+01   5.0022793299e+01    0.2729114    0.1911787  67.22  0.001041308    1.792    0.442
       164  -8.3815     70.6877     71.7526   7.1646290966e+01   5.5058099975e+01    0.1451428    0.1182425  -5.83 0.0003273209    1.513    0.339
       165  -8.9372    124.4875     70.0094   5.3111480783e+01   4.3877976724e+01    0.2241405    0.1520751 -39.01 -9.223321e-05    1.482    0.325
       166 -10.6921     25.2861     49.4832   8.7312257275e+01   6.6815657399e+01    0.6847172    0.3172825 -36.92  0.002774981    2.471    0.595
       167 -11.3458     18.0361     48.7790   9.1538244687e+01   6.7598274455e+01    0.5058072    0.3080181 -39.11 0.0006970512    1.632    0.387
       168 -10.3953     18.7500     42.8041   8.9466527037e+01   6.9032174324e+01      0.30662    0.2303465  36.29  0.001041261    1.456    0.313
       169 -11.3884     30.2802     52.7817   8.5348598207e+01   6.5503158246e+01    0.5808046    0.3672429  88.29  0.001225294    2.122    0.529
       170 -10.8068     35.1558     67.7133   8.6765309475e+01   6.1213750746e+01    0.4119049    0.3058015  83.37 0.0007997853    1.539    0.350
       171 -10.4180     33.5754     63.2711   8.6450579943e+01   6.2517625192e+01    0.5262749    0.3132476  -9.32  0.001864007    2.391    0.582
       172 -11.1841     82.2860     64.0611   6.4469933094e+01   5.4587295568e+01    0.5187357    0.3709664 -13.84 0.0009593724    1.995    0.499
       173  -8.5656     77.5452     66.4643   6.7144467593e+01   5.4999068952e+01    0.2513342     0.148019 -47.68 6.233675e-05    1.689    0.408
       174  -8.8745     26.5764     66.3657   9.0839341558e+01   6.2409077244e+01    0.3364676    0.1357694 -75.48   0.00124457    2.685    0.628
       175 -10.1503     94.5505     56.6541   5.7322130677e+01   5.3483056368e+01    0.7047092    0.4522847  44.14  0.003108652    1.555    0.357
       176  -9.5299     91.3012     67.4337   6.2359279000e+01   5.1974186613e+01    0.4538632    0.2201261  59.12  0.001448363    2.989    0.665
       177  -9.9011     89.0108     62.7836   6.1528502925e+01   5.3453154860e+01    0.4535024     0.244706 -49.43   0.00148849    1.921    0.479
       178  -9.0705     49.0012     67.0085   7.9782448498e+01   5.9674449697e+01    0.3434357    0.1846704  44.17   0.00142928    1.989    0.497
       179  -9.4045    201.2877     49.9223   3.3049306127e+01   2.8609143336e+01    0.2568088    0.2076334  68.60  0.001222794    1.346    0.257
       180 -10.8024    195.8219     61.0176   3.6739801307e+01   2.8368832829e+01    0.6762034    0.4403518  -5.91  0.002466628    2.011    0.503
       181 -11.0942    200.5479     54.9566   3.4495244684e+01   2.8127164679e+01     1.041615    0.4181481  38.88  0.003429178    4.477    0.777
       182 -10.2689    209.4903     43.8257   3.0520993790e+01   2.7553069144e+01    0.3702733    0.2342651 -37.18  0.001139715    1.362    0.266
       183 -10.1060    180.5430     64.4264   3.9901054865e+01   3.1357830745e+01    0.4159037    0.2745722 -15.20  0.001951371    1.769    0.435
       184 -10.0837    177.0098     63.9991   4.0338632514e+01   3.2242656937e+01    0.3121388    0.2324035 -38.71 0.0003726461    1.259    0.206
       185 -10.9630    104.1557     58.7111   5.4979654419e+01   5.0862131927e+01    0.4297331    0.3204678  14.75 0.0001882414    1.807    0.447
       186  -8.8293     71.4567     66.2446   6.9525632412e+01   5.6203429894e+01    0.3225065    0.1887435  25.36  0.001288368    2.160    0.537
       187  -9.0746      1.7643     64.1344   1.0359696383e+02   6.4517145729e+01    0.2007197    0.1602944  78.25 0.0006630652    1.218    0.179
       188  -9.1672    203.8624     63.1602   3.6257611399e+01   2.6321999989e+01    0.1985875     0.161063 -46.72 0.0005104237    1.159    0.137
       189  -9.6142    171.8539     62.8626   4.0851666041e+01   3.3626932488e+01    0.2753913    0.2209477 -62.78   0.00123427    1.336    0.251
       190 -10.0909    167.9902     61.0649   4.0969446382e+01   3.4820213147e+01     0.322115    0.2490098  -4.36  0.001285034    1.559    0.359
       191  -9.3019     66.9710     63.0996   7.0341892763e+01   5.7743934135e+01    0.2179989    0.2127137 -54.29 0.0003783621    1.019    0.019
       192 -10.7627     21.7113     61.1455   9.2295910076e+01   6.4166953711e+01     0.372303    0.2413656 -17.05 0.0004496261    1.847    0.459
       193 -10.5698    218.9833     59.2750   3.3469318042e+01   2.3656854234e+01    0.3221025    0.2266693 -29.60  0.000533281    1.247    0.198
       194  -9.6467    222.3304     55.4286   3.2154921232e+01   2.3451909242e+01    0.2246394    0.1863168 -52.72 0.0005031909    1.163    0.140
       195 -10.0891    110.3372     87.9027   6.2699832327e+01   4.3470437916e+01    0.2755879    0.2542606  47.41 0.0002580512    1.071    0.066
       196 -10.6502     60.1303     57.8271   7.1536194585e+01   6.0155723912e+01    0.4830469    0.3504557  31.13  0.002357869    1.436    0.303
       197 -10.6388    184.6675     54.7916   3.6540668182e+01   3.1762276732e+01    0.6519018    0.2562041 -38.05  0.001664066    2.241    0.554
       198  -9.2251      4.4788     59.5059   1.0156302182e+02   6.5613529377e+01    0.2461147    0.1325291   7.51 0.0009756222    2.111    0.526
       199  -9.7468      7.8459     57.1596   9.9319702489e+01   6.6072825261e+01     0.364266    0.2596656 -47.41  0.001184449    1.322    0.244
       200 -10.9599    161.1553     56.4991   4.0758623417e+01   3.7170455019e+01    0.4236321    0.3519654 -66.14 0.0007460409    1.271    0.213
       201  -9.1034    162.0112     52.4830   3.9353217029e+01   3.7553485631e+01    0.2049927    0.1882986  71.84 0.0003852326    1.107    0.097
       202  -9.9669     35.0108     51.2742   8.2184691193e+01   6.5350761157e+01    0.2230203    0.2213441  53.84  0.000382493    1.081    0.075
       203  -9.0320     26.9496     56.9678   8.8397653134e+01   6.4781830918e+01    0.2981754    0.1696056 -58.16  0.001409416    1.569    0.363
       204  -9.8189     78.7630     44.1140   5.7999984622e+01   5.9447381251e+01    0.4673674    0.2700067  57.37  0.001553927    1.987    0.497
       205 -10.4184     84.6997     38.7943   5.3401388453e+01   5.9101007050e+01    0.3785154     0.262334 -46.84 0.0001749958    1.520    0.342
       206 -10.3424     77.9825     55.4784   6.2965636987e+01   5.7313224402e+01    0.3322234    0.2381921 -33.32 -0.000101576    1.501    0.334
       207  -9.7430     72.7963     25.7501   5.1629477420e+01   6.4036339027e+01    0.5460787    0.2398716  38.50  0.001980298    2.667    0.625
       208  -8.7698    106.9313    246.3470   8.9928727981e+01   1.3102889351e+01    0.1654084    0.1362074  52.66 0.0008109978    1.351    0.260
       209  -8.3207    116.6989    237.2821   8.7124131700e+01   1.3242653244e+01    0.1113087   0.07043582  46.90 0.0001828149    1.549    0.355
       210 -11.4350     76.6431    219.8754   9.4064938121e+01   2.0876412017e+01    0.7337461     0.385431  27.85  0.003123267    1.616    0.381
       211  -9.8422     81.5229     51.9600   6.0194942932e+01   5.7299869300e+01    0.5865859    0.2318539 -47.09  0.002036106    2.629    0.620
       212 -10.3856     84.9714     49.0259   5.7702541486e+01   5.7132376728e+01    0.6225265     0.324916 -50.98  0.002034853    2.158    0.537
       213 -10.2164     82.4350     31.2424   5.0706446603e+01   6.0918851994e+01    0.4381025    0.3122292   6.14 0.0005909065    1.913    0.477
       214 -10.2085     81.5025     26.7417   4.8830136258e+01   6.1858741055e+01    0.4277408    0.3411587  61.66  0.002112961    1.288    0.223
       215  -9.7276    245.9656     55.8066   2.9996771078e+01   1.8875032178e+01    0.1890033     0.141362 -31.12 0.0002885415    1.092    0.084
       216  -9.2207    239.0972     55.9945   3.0654523655e+01   2.0118737525e+01    0.1907065     0.153612 -34.02 0.0007359725    1.023    0.022
       217 -11.5533    174.6022     53.8686   3.7747843401e+01   3.4277236994e+01    0.6380045    0.5090819 -43.08 0.0004520075    1.182    0.154
       218 -10.8540     73.6517    214.0477   9.4259432793e+01   2.2260774630e+01    0.6755987    0.3336855  24.98  0.003517986    1.884    0.469
       219  -8.9825     91.2530    214.5551   9.0330508429e+01   2.0028137273e+01    0.2327664   0.09004841  34.94 0.0008031378    1.954    0.488
       220  -9.5239    123.9768    205.9987   8.2101019616e+01   1.7164515436e+01    0.1741608    0.1413632  28.35            0    1.002    0.002
       221 -11.0925    127.9457     53.1923   4.6471443457e+01   4.6026253288e+01    0.5758907    0.4395527  37.32 0.0004103169    1.429    0.300
       222 -12.9680    137.9691     47.2567   4.2129288784e+01   4.4420727328e+01    0.5813357    0.5024878 -47.50 0.0007038568    1.150    0.131
       223  -8.9591     90.4953    206.1766   8.9673123500e+01   2.1608981562e+01    0.2045766    0.1382058  47.89  0.000963478    1.331    0.249
       224 -10.8735    211.6067     49.4089   3.1758128660e+01   2.6420144685e+01    0.2984859    0.2492817 -77.99 0.0006580445    1.290    0.225
       225 -11.4086    122.3141     49.5570   4.6520726330e+01   4.8053414418e+01    0.5229087    0.3386509 -38.58  0.002336261    1.545    0.353
       226  -9.2075     11.1908     60.6741   9.8008405901e+01   6.4994363300e+01    0.2929943    0.1640879 -33.35 0.0009360116    1.941    0.485
       227 -10.8511    116.9623     52.2925   4.8912685993e+01   4.8932868139e+01    0.3815046    0.2820933  64.77 0.0006891071    1.409    0.290
       228  -9.5147     65.0144     52.4248   6.7272540051e+01   6.0504763528e+01    0.2599536    0.2028325 -64.83 0.0003702136    1.448    0.309
       229  -9.7837     44.4008     51.3476   7.7034470508e+01   6.4121873101e+01     0.483819    0.2873248 -78.14  0.001954473    2.537    0.606
       230  -8.9500    101.4925     51.9047   5.3231281564e+01   5.2777155297e+01    0.2258082    0.1520133 -38.15 0.0003941299    1.510    0.338
       231  -9.9475      9.5312     50.0625   9.7072334261e+01   6.7807983463e+01    0.3000454    0.2278718  63.45  0.001147852    1.458    0.314
       232 -10.5109      5.5376     48.3079   9.9225769882e+01   6.8441120628e+01    0.6489116    0.2968585 -43.01  0.002963442    2.070    0.517
       233  -9.5695      8.9698     43.7414   9.6129033964e+01   6.9435421325e+01    0.2254227    0.1880702 -39.98  0.000814534    1.144    0.126
       234  -8.8028    111.3070     49.2458   4.9299987799e+01   5.0865577428e+01    0.2108425    0.1793308 -85.51 0.0001967526    1.328    0.247
       235 -10.3304    107.4375     48.0906   4.9949377913e+01   5.2022192938e+01    0.5638403    0.3469634  38.19  0.002371288    1.822    0.451
       236  -8.7475     55.0813     49.6382   7.0878508027e+01   6.2873057943e+01    0.2005339    0.1810582  10.77  0.001098814    1.152    0.132
       237 -10.1760    246.4467     47.7669   2.8124066771e+01   1.9689053734e+01    0.2370777    0.1819209 -19.35   0.00155268    1.256    0.204
       238 -11.0326    233.0291     48.2300   2.9369230248e+01   2.2176062743e+01    0.2161674    0.1872815 -41.51 0.0002728533    1.047    0.045
       239  -8.7651    194.4408     49.2631   3.3691900285e+01   3.0237600825e+01    0.2824893    0.1104538  61.09  0.001132901    2.623    0.619
       240  -8.9202     38.4979     45.0613   7.8013552690e+01   6.6405081225e+01    0.4691679    0.1762727 -46.64  0.001462948    2.538    0.606
       241  -9.5790    228.0203     44.7129   2.8965688798e+01   2.3571223810e+01    0.3273101     0.134874 -28.40  0.001493556    2.063    0.515
       242 -11.6473     90.9341     43.9424   5.3451596074e+01   5.6729532252e+01     0.349186    0.2822223  43.12  0.000299265    1.226    0.184
       243 -10.3352     91.2835     40.2959   5.1764416454e+01   5.7295154648e+01    0.2832457    0.2202058  52.95            0    1.263    0.208
       244  -9.6533     72.5871     43.7165   6.0342880838e+01   6.0837247103e+01    0.4211072    0.3610283  85.41   0.00217219    1.429    0.300
       245  -9.1422     67.1200     44.8636   6.3214974020e+01   6.1710638770e+01    0.2435181    0.2147333  36.46 0.0003348427    1.134    0.118
       246  -9.7614    177.2580     43.4675   3.4246118294e+01   3.5045236812e+01    0.4591533    0.2415666  89.56  0.001782716    2.779    0.640
       247 -10.6517    107.2701     43.4393   4.8142646285e+01   5.2857668676e+01    0.5135207    0.2705255  57.05  0.001280474    1.879    0.468
       248  -9.8317     33.9216     43.4831   8.0129971272e+01   6.7352641495e+01    0.2925571    0.2592766 -20.28  0.001310647    1.131    0.115
       249  -9.9323     56.4334     41.8512   6.6964665926e+01   6.4341414878e+01    0.3086852    0.2424707 -11.39 0.0004019694    1.496    0.332
       250 -11.8467     62.7715     37.1673   6.1740811595e+01   6.4111824006e+01    0.7091885    0.4447019  36.11  0.002395067    1.645    0.392
       251 -11.7887     54.2425     34.4116   6.4650007679e+01   6.6269717961e+01     0.515443    0.2642524 -49.72  0.001354616    2.033    0.508
       252  -8.8660    217.9654     41.6355   2.9119508193e+01   2.5995026143e+01    0.1769876    0.1563514 -58.34 0.0005390212    1.099    0.090
       253  -9.2101     99.2647     41.9906   4.9914800206e+01   5.5079621525e+01    0.3578934     0.217385  65.76  0.001094767    1.894    0.472
       254  -9.2881     28.1932     41.6440   8.3007367724e+01   6.8439765908e+01    0.2237892    0.1773392 -71.47 0.0005773149    1.321    0.243
       255 -10.2410    230.6810     39.4312   2.7449160547e+01   2.3634014830e+01    0.2536493    0.1763263 -40.21 0.0005667722    1.190    0.160
       256  -9.7215    113.2894     40.1697   4.5188206367e+01   5.1867037323e+01    0.3002256    0.2358847  39.83 0.0009899281    1.331    0.249
       257 -10.7149    201.9739     37.5877   2.9623621732e+01   2.9960985043e+01    0.2900795    0.2446547 -51.71  0.000662817    1.074    0.069
       258  -9.8349      3.1021     38.0484   9.8923936596e+01   7.1117638689e+01     0.398261    0.2080369   9.88  0.001625663    2.114    0.527
       259 -10.4900    194.5340     36.4914   3.0105212161e+01   3.1796572362e+01    0.3828435    0.2363642 -33.74 0.0005051031    1.451    0.311
       260  -8.6369    181.7437     38.0705   3.2046468718e+01   3.4641871037e+01    0.1976583    0.1634749 -41.70 0.0006931288    1.118    0.105
       261 -10.4031     39.3017     35.2744   7.3511166110e+01   6.8519650175e+01    0.6194001    0.2694041 -35.90  0.001925007    2.921    0.658
       262  -8.8078     43.0000     30.9812   6.9251380144e+01   6.8880814290e+01    0.3471347    0.1564522 -42.70 0.0009110665    2.179    0.541
       263  -9.9798     47.2192     28.6794   6.5610459681e+01   6.8652273790e+01    0.3270652    0.2297003  38.44 0.0009292844    1.441    0.306
       264  -9.9782     32.9837     37.2547   7.8294590486e+01   6.8918124472e+01    0.2290428    0.1875728 -60.46  0.000195263    1.235    0.190
       265 -11.2817    246.7177     32.7967   2.4683432581e+01   2.1246310489e+01    0.4972757    0.2348285 -45.67  0.001919953    1.751    0.429
       266 -10.9216    170.2323     31.9496   3.1629169394e+01   3.8233488142e+01    0.5587638    0.3536337  -6.87  0.001658751    2.053    0.513
       267  -9.6877     73.3835     35.5792   5.6296735714e+01   6.2215691824e+01    0.5494109    0.3385305  -7.76  0.002043313    2.942    0.660
       268  -9.9417    114.9440     34.0942   4.2298973457e+01   5.2361567497e+01    0.5242879    0.1862921 -36.90  0.001589244    2.708    0.631
       269  -8.9873     27.8957     36.5269   8.1302191066e+01   6.9680747940e+01    0.1975114    0.1346589  19.21  0.001017482    1.561    0.359
       270  -8.9142    185.3234     34.9962   3.0707915603e+01   3.4152870051e+01     0.202314    0.1725983 -39.14  0.001163183    1.093    0.085
       271 -10.0254    148.9442     37.9128   3.6785426358e+01   4.2926661914e+01    0.3201482    0.2727387 -18.59 0.0004190834    1.264    0.209
       272  -9.5964    106.9090     34.9211   4.4708423641e+01   5.4309998695e+01    0.2187548    0.2071488  40.06 0.0003298835    1.064    0.060
       273 -10.7381     96.7369     33.5316   4.7020990124e+01   5.7089668058e+01    0.3796557    0.2656979  31.41  0.001736104    1.647    0.393
       274 -11.1017      5.2496    202.4121   1.0937130588e+02   3.1275335323e+01    0.2916145    0.1294034  61.89  0.001643086    1.842    0.457
       275  -9.7593      1.3486    184.8831   1.0987455076e+02   3.5113045128e+01    0.3261989   0.09756728 -85.93  0.001340972    3.263    0.694
       276  -9.2003     25.0330    173.9512   1.0340181429e+02   3.5553634704e+01    0.1857978    0.1543743  55.00 0.0003063771    1.020    0.020
       277  -9.0546      6.9048    168.4695   1.0798598631e+02   3.8248407093e+01    0.1783971    0.1077584  26.50 0.0007845027    1.590    0.371
       278  -9.5022     28.1568    165.8312   1.0206801183e+02   3.7088764106e+01    0.1978313    0.1416463  57.35 0.0004507366    1.195    0.163
       279 -11.4878     30.8322     31.6195   7.7294402343e+01   7.0459716458e+01     0.402325    0.2978483 -76.36 0.0005547741    1.699    0.411
       280 -12.4669     34.8865     27.4550   7.2608821245e+01   7.0831522565e+01     0.473816    0.3051583  23.40 0.0002988834    1.655    0.396
       281 -11.0411     34.4539     19.7959   6.8770170287e+01   7.2459693957e+01    0.3462152    0.2842957  16.26 0.0008738343    1.220    0.180
       282 -10.3388      9.1604    163.6840   1.0720058389e+02   3.9156431815e+01    0.2608374    0.1425738  17.79   0.00100609    1.971    0.493
       283 -10.1131     26.0605     20.5129   7.5288243976e+01   7.3458278260e+01    0.1842999    0.1287867  22.25 0.0003346938    1.475    0.322
       284 -12.2481     16.8649    157.7376   1.0477279124e+02   3.9926149130e+01    0.8465238    0.2885449  54.75   0.00355444    2.608    0.617
       285  -8.3499     69.3167     56.7236   6.7029063927e+01   5.8753596936e+01    0.1472569    0.1186081  77.49 0.0002899502    1.569    0.363
       286  -9.4447     86.8992     33.6685   5.0276041935e+01   5.9463581691e+01    0.3677467    0.2264042  29.75 0.0007711192    2.070    0.517
       287  -9.5721      5.9206    159.5614   1.0793893226e+02   4.0328444881e+01    0.1705529    0.1142027  21.09 0.0005711266    1.571    0.363
       288 -10.9124      3.1428    153.2606   1.0849901169e+02   4.1969941907e+01    0.3260676     0.315971  43.72  0.001175143    1.226    0.184
       289 -11.1792    236.2116     29.2808   2.4586798761e+01   2.3629424524e+01    0.4683109    0.3316027 -11.64  0.001454221    1.567    0.362
       290  -9.5782    221.8237     15.8863   2.2281409680e+01   2.7936438919e+01    0.2444131    0.1661105 -62.96 0.0007435012    1.378    0.274
       291  -9.8860    224.9680     23.0187   2.3852693507e+01   2.6558105449e+01    0.2714275    0.2152951  49.78 0.0004532489    1.541    0.351
       292 -10.0847    222.3294     19.9862   2.3277958865e+01   2.7420660681e+01    0.3045972    0.2153655 -32.18  0.001244251    1.236    0.191
       293 -12.2396      3.3772    140.6862   1.0796453587e+02   4.4928778461e+01    0.8052533    0.5892721  81.36  0.004176711    1.198    0.165
       294  -9.7155      4.5673    131.5261   1.0719693829e+02   4.7085149691e+01    0.2522506    0.1771448  60.67 0.0004757012    1.243    0.196
       295 -11.5880    131.9528     29.5317   3.6806355172e+01   4.8507552835e+01    0.3932734    0.2955326 -31.60   0.00195515    1.354    0.262
       296  -9.2169     59.7629     31.6674   6.0500920261e+01   6.5761925794e+01    0.2840031     0.190969 -48.73  0.001298496    1.576    0.365
       297  -8.9400     16.6144     32.5097   8.7672711738e+01   7.1697742711e+01    0.2463183    0.1299057  18.11 0.0008949186    2.025    0.506
       298  -9.5182     66.0007     30.9245   5.7198249618e+01   6.4633348312e+01    0.2106851    0.2064167  19.12 0.0003229138    1.045    0.043
       299  -8.7092    224.0270     30.5288   2.5794191209e+01   2.5964865673e+01    0.1668371    0.1220612  75.40 0.0007620851    1.521    0.342
       300  -9.9844    215.9909     29.2745   2.6122078517e+01   2.7801997617e+01    0.2843381    0.2257445 -80.61 0.0008688041    1.307    0.235
       301  -8.6752    201.1382     29.6468   2.7530600189e+01   3.1060511724e+01     0.190203    0.1396957 -44.57 0.0003288269    1.198    0.165
       302  -9.4535    180.0297     29.1536   2.9574155347e+01   3.6127079519e+01    0.2872655    0.2128728 -71.75   0.00108692    1.378    0.274
       303  -9.2791    110.4546     29.5397   4.1490073765e+01   5.4182326547e+01    0.3497045    0.2228353  39.64  0.001541343    1.718    0.418
       304  -9.6478    206.8495     26.0613   2.6043549105e+01   3.0159691706e+01    0.2608259    0.1721487 -20.92  0.000806209    1.531    0.347
       305  -8.6375    189.4600     26.2144   2.7695425530e+01   3.4173617832e+01     0.187026    0.1096779 -41.48 0.0004474922    1.515    0.340
       306  -9.9797    183.9494     25.3603   2.8007785115e+01   3.5597796352e+01    0.3395419    0.2209245 -70.79  0.001355413    1.628    0.386
       307 -10.9762      7.1564    148.0963   1.0713317527e+02   4.2912627772e+01     0.387307    0.1887044  28.98  0.001981675    1.889    0.470
       308  -9.2687    119.8572     26.2802   3.7951126129e+01   5.2145058310e+01    0.2913638    0.1845549  44.81  0.001235291    1.644    0.392
       309  -9.8299     65.6441     24.6567   5.4075324452e+01   6.5796686902e+01    0.3967225    0.3361321 -40.05   0.00200386    1.224    0.183
       310  -9.4636     63.8561     19.4002   5.1937894250e+01   6.7032832576e+01    0.3975267    0.3182079 -89.94 0.0006742303    1.724    0.420
       311 -10.7853     11.4939    144.7864   1.0567748543e+02   4.3397697428e+01     0.326933    0.1919942  52.82            0    1.478    0.323
       312 -10.6513      6.8692    121.3391   1.0590208321e+02   4.9484595878e+01    0.5386195    0.2890146   4.41  0.002213727    2.332    0.571
       313 -12.2029     15.2172    131.2031   1.0369919200e+02   4.6452902188e+01     1.305568    0.4085131  57.77  0.004713829    3.344    0.701
       314 -10.2835     12.9329    134.9919   1.0468344546e+02   4.5678820262e+01    0.2569644    0.2296306 -88.47 0.0004147226    1.117    0.105
       315  -9.9560     98.9471     23.8090   4.1922867780e+01   5.7955221468e+01      0.39392    0.2763605 -63.15  0.001089409    1.746    0.427
       316  -9.5145    158.8867     22.8204   3.0121001207e+01   4.2205313254e+01    0.2429826    0.2032823  49.62 0.0009092634    1.283    0.221
       317 -10.4211      2.2523    116.4530   1.0725199920e+02   5.0977680289e+01    0.4052557    0.2065454  69.04  0.001411343    1.813    0.449
       318  -8.5636    168.6739     21.2983   2.8422819688e+01   3.9853464526e+01    0.1790368    0.1568035  42.09 0.0002761717    1.289    0.224
       319  -9.8444    248.6237     22.3321   2.2183397971e+01   2.1950964781e+01    0.1937057    0.1687202 -43.84 0.0005432075    1.108    0.097
       320  -9.9886    212.1180     22.2678   2.4607858338e+01   2.9389910658e+01    0.2606397    0.2006148 -30.04 0.0004731599    1.207    0.172
       321  -8.7026    103.9462     23.9187   4.0648112605e+01   5.6646820249e+01    0.2160172    0.1830453  40.25  0.001125793    1.195    0.163
       322 -10.2078      1.3669    111.5020   1.0731790375e+02   5.2277406116e+01    0.4423719    0.1597878 -86.31  0.001814575    2.492    0.599
       323  -9.5896    117.6773     19.2988   3.5470480331e+01   5.3590456206e+01    0.3686647    0.2376453  56.41  0.001266319    1.464    0.317
       324 -11.0849     22.0988    142.1408   1.0224914401e+02   4.3213651950e+01    0.3880053    0.2266113  66.44 0.0003815092    1.611    0.379
       325 -11.1723     17.6263    141.2321   1.0358412298e+02   4.3797087027e+01    0.3525454     0.313294  10.46  0.001133512    1.320    0.242
       326  -9.3687     39.0694    154.3584   9.8071360918e+01   3.8686710277e+01    0.1892296    0.1510519  45.74 0.0005829385    1.118    0.105
       327 -10.9148     30.5511    147.6275   1.0005848788e+02   4.1132852243e+01    0.4056398    0.2647382 -76.11  0.001444848    1.507    0.336
       328  -9.1267     72.1956    149.2821   8.7658515548e+01   3.5882038098e+01    0.1950045    0.1849168  17.25 0.0006711045    1.156    0.135
       329  -9.9940     23.8186    148.9051   1.0219595993e+02   4.1431827767e+01    0.1854637    0.1665503 -69.00 0.0004569222    1.233    0.189
       330  -8.3384     60.5557    148.4218   9.1013138062e+01   3.7628187331e+01    0.1355571     0.125149  52.83 8.723933e-05    1.043    0.041
       331  -9.9335     36.3991    147.7728   9.8285930687e+01   4.0530471755e+01    0.2951913    0.2004369 -62.45  0.001403049    1.545    0.353
       332  -9.5359     36.0000    142.9807   9.7967956296e+01   4.1733542862e+01    0.2740164    0.1807185 -74.95 0.0007974482    1.493    0.330
       333  -9.2151     57.1487    140.8774   9.1092079703e+01   3.9869306645e+01    0.2884697    0.1582378 -43.80  0.001257434    2.273    0.560
       334  -9.9967     44.5556    141.5429   9.5132102463e+01   4.1187181107e+01    0.2381849    0.2305753   1.76 0.0005929161    1.203    0.168
       335  -8.5068    205.8533     21.1672   2.4809028511e+01   3.0901838676e+01    0.1602902    0.1511716  27.48 0.0005771146    1.274    0.215
       336  -8.5769    188.2271     21.0392   2.6307829388e+01   3.5030761320e+01    0.1888818    0.1747483  11.88 0.0004072959    1.273    0.214
       337 -10.0299    192.8140     17.3756   2.4836105826e+01   3.4315160905e+01    0.3632494    0.2130522  48.96  0.001785574    2.008    0.502
       338  -8.6542    143.0078     21.5450   3.1907909931e+01   4.6535519369e+01    0.2185654    0.1389567  73.31 0.0006309574    1.542    0.351
       339  -8.4204     89.5871     21.2123   4.3376863407e+01   6.0688226106e+01    0.2016439    0.1428121  -9.55 0.0009409098    1.677    0.404
       340 -11.0194     28.2124    138.5515   1.0003648558e+02   4.3563095557e+01    0.6092211    0.2561249 -72.96  0.001441186    2.249    0.555
       341 -11.9933     30.2405    125.1048   9.8101825761e+01   4.6750823435e+01    0.8840897    0.4916943  31.64  0.002771897    1.720    0.419
       342 -10.3325     30.5263    133.5127   9.8834119782e+01   4.4602959160e+01    0.3821806     0.246679   7.97  0.001921084    1.912    0.477
       343 -11.0060     27.0641    130.5252   9.9707357122e+01   4.5665991896e+01    0.5369438    0.3160112  13.84  0.002084707    1.973    0.493
       344  -9.0158    131.1947     19.7254   3.3125433144e+01   4.9908045882e+01    0.2635256    0.1754239  74.28 0.0007997195    1.474    0.322
       345  -8.5559     71.3297    137.6950   8.6208591350e+01   3.8745990299e+01     0.152351      0.10004  61.12 0.0004738625    1.655    0.396
       346  -9.8976     41.2893    128.3154   9.4677341339e+01   4.4834140103e+01    0.2634203    0.2178539  68.38 0.0009668139    1.132    0.116
       347 -11.1011     48.8395    125.7329   9.1773190671e+01   4.4638048248e+01    0.6507428     0.459248 -28.15  0.001693155    1.866    0.464
       348 -10.0164     97.7138    125.8863   7.5976683042e+01   3.7353241539e+01    0.2502142    0.2148316  42.17 0.0004531969    1.109    0.099
       349 -10.0543     23.5316    124.2840   1.0034523635e+02   4.7547195720e+01    0.3446284    0.2180769 -82.02 0.0009280281    1.483    0.326
       350 -10.0255    230.6855    124.3754   4.6983857918e+01   1.2957805465e+01    0.3257379     0.268398 -56.02  0.001572077    1.673    0.402
       351  -9.6300     67.3539    123.6672   8.5186082443e+01   4.2740523021e+01    0.2918519    0.1966274 -16.60 0.0008307638    2.274    0.560
       352  -8.5756     78.0308    123.0467   8.1556822309e+01   4.1294154142e+01    0.1729847    0.1642346 -85.61 0.0004837328    1.061    0.057
       353  -9.0089    135.9857    120.4655   6.4216948626e+01   3.1290973292e+01    0.2331186    0.1966253 -38.86  0.001028183    1.214    0.176
       354  -8.1410     88.3593    120.2792   7.7695112921e+01   4.0277235848e+01    0.1493426     0.117508  -8.03 0.0004624641    1.665    0.399
       355  -9.8890     83.3365    118.7184   7.8981803560e+01   4.1491017797e+01    0.3174289    0.2457399 -36.21 0.0008344738    1.482    0.325
       356 -10.9602      8.8906    107.3344   1.0425857380e+02   5.2939069573e+01    0.4990858    0.4496851  45.99  0.002102062    1.148    0.129
       357 -10.8373     16.4197    104.2575   1.0108922902e+02   5.3256033577e+01    0.5138823    0.3828017  84.23  0.001896383    1.238    0.192
       358  -9.1601     21.4917    105.0835   9.9188481214e+01   5.2667640851e+01     0.199052    0.1661067  85.75 0.0006306493    1.096    0.088
       359 -11.7788     35.1334    108.6877   9.4359737003e+01   5.0517159502e+01     1.273759    0.4687442 -56.70  0.003494658    2.533    0.605
       360 -10.3307     25.5198    114.5183   9.8677707577e+01   4.9886549903e+01    0.5814269    0.2677575 -66.30  0.001763985    1.986    0.496
       361 -10.3452     21.9096    110.2796   9.9580426314e+01   5.1280990926e+01    0.3983388    0.2623993  31.86  0.002096071    1.519    0.342
       362 -10.3008     26.6196    107.8947   9.7520388198e+01   5.1514006428e+01    0.5408715    0.2288322  51.38  0.001144341    2.470    0.595
       363 -10.9359     58.3963    117.0704   8.7120330736e+01   4.5635045519e+01    0.6606809    0.4408427  18.17  0.002981844    1.730    0.422
       364  -8.8377    247.4708     13.5064   2.0248488451e+01   2.3020363718e+01    0.1170428   0.09341735 -42.22 8.367426e-05    1.032    0.031
       365 -10.3692     62.6560    111.9362   8.4688637172e+01   4.6351122728e+01    0.3060932    0.2401124  54.88 0.0003173765    1.271    0.213
       366  -9.7509     18.4809    119.0085   1.0165800945e+02   4.9292881031e+01    0.2021651    0.1665825  32.91 0.0005071568    1.250    0.200
       367  -9.4093     67.5990    118.1415   8.4116803454e+01   4.4080718918e+01    0.2543883    0.1881261  47.39 0.0005952977    1.311    0.237
       368  -8.9533     98.8503    117.3514   7.3802542879e+01   3.9121655773e+01    0.2079409    0.1820151  36.69 0.0004781937    1.116    0.104
       369  -9.4472     46.5795    116.4442   9.1230712958e+01   4.7271023456e+01    0.2450464    0.2236971  88.02 0.0005377285    1.040    0.038
       370 -10.0627     15.3129    115.6115   1.0251538479e+02   5.0393812470e+01    0.3197528    0.2087187 -63.11  0.001646599    1.495    0.331
       371  -9.3230     11.4849    115.8988   1.0392222571e+02   5.0578094881e+01     0.211938    0.1853788  30.55  0.000598615    1.225    0.184
       372  -9.0388     84.1697    112.9524   7.7492406431e+01   4.2744298574e+01    0.2171859    0.1904134  73.18 0.0002529037    1.192    0.161
       373  -9.4022     49.9973    112.0134   8.9292065323e+01   4.8002792187e+01    0.2163299    0.1976683  74.18            0    1.038    0.036
       374 -10.0257     46.9213    109.2855   8.9986618263e+01   4.9077208127e+01    0.3272719    0.2627011 -63.16  0.001103412    1.223    0.182
       375  -8.9387    138.9754    107.7790   6.0360405105e+01   3.3213771791e+01    0.2013292     0.189304  39.19 -0.000430966    1.053    0.050
       376 -10.0650    120.9535    107.6435   6.5031007115e+01   3.6996591984e+01       0.4064    0.1817036  43.34  0.001511995    2.185    0.542
