#   1 NUMBER                 Running object number                                     
#   2 MAG_AUTO               Kron-like elliptical aperture magnitude                    [mag]
#   3 X_IMAGE                Object position along x                                    [pixel]
#   4 Y_IMAGE                Object position along y                                    [pixel]
#   5 X_WORLD                Barycenter position along world x axis                     [deg]
#   6 Y_WORLD                Barycenter position along world y axis                     [deg]
#   7 A_WORLD                Profile RMS along major axis (world units)                 [deg]
#   8 B_WORLD                Profile RMS along minor axis (world units)                 [deg]
#   9 THETA_WORLD            Position angle (CCW/world-x)                               [deg]
#  10 FWHM_WORLD             FWHM assuming a gaussian core                              [deg]
#  11 ELONGATION             A_IMAGE/B_IMAGE                                           
#  12 ELLIPTICITY            1 - B_IMAGE/A_IMAGE                                       
         1 -13.2826    214.8962     47.8590   3.4627141075e+01   2.7128172701e+01     1.014569    0.8353052 -53.59  0.006824213    1.159    0.137
         2 -13.8708    229.8279     36.2385   3.0851261762e+01   2.5707773498e+01     1.520257     1.018914  45.88  0.009196525    2.261    0.558
         3 -12.8555      3.1492     10.0328   8.0664209251e+01   7.3254404909e+01     1.000098    0.6117038 -24.49  0.006655986    1.351    0.260
         4 -10.8437     18.9645      3.0381   6.7613082141e+01   7.2413625737e+01    0.2438655    0.1466333  35.72  0.001547744    1.641    0.391
         5 -12.2861     45.3133    176.0555   1.0397904783e+02   3.2006423081e+01    0.8768948    0.5309979 -21.48  0.001507351    2.498    0.600
         6  -9.2599    249.5990    249.5848   6.8540101623e+01  -1.1415717041e+01    0.2293417   0.07038244 -29.51 0.0009606164    3.307    0.698
         7 -14.4902    100.5252    228.5480   9.6586375371e+01   1.1895360605e+01     6.029613      1.21354  40.06   0.01589219    4.178    0.761
         8 -15.4900     22.7527    175.9184   1.1019293900e+02   3.4321935288e+01     8.688854     3.163989  89.36   0.02616497    4.593    0.782
         9  -8.1948     99.6801    180.7163   8.9487709634e+01   2.3316791271e+01    0.1534244    0.1172048 -17.84 0.0002962547    1.589    0.371
        10  -8.3307    110.5427    167.4690   8.4025078697e+01   2.4841157834e+01    0.1528118    0.1515022 -77.11 0.0001979357    1.048    0.046
        11 -12.8116     55.5351    125.7092   9.2463652188e+01   4.4056934660e+01     3.002334     0.951133 -69.50   0.00633758    7.771    0.871
        12 -12.6772     73.7080    154.3191   9.2207813595e+01   3.4105262315e+01     1.035163    0.7558312  75.12  0.001837831    1.738    0.425
        13 -13.2939     68.0526    144.2363   9.2053786915e+01   3.7559520518e+01     2.071824     1.133617  71.21  0.003199218    3.938    0.746
        14 -13.3176     50.4961    156.4502   9.9666524619e+01   3.6581913235e+01    0.8693665    0.4351396 -46.76  0.001889908    1.995    0.499
        15 -14.3185     20.3584    194.7925   1.1259777930e+02   2.9763872622e+01     2.420422     1.048451  57.08  0.007180182    2.517    0.603
        16 -11.3099    241.6655    139.2890   4.9888033154e+01   7.4946640217e+00    0.5553938    0.1057134 -41.26  0.001689518    4.342    0.770
        17 -10.2444     90.4628    141.9834   8.4590989412e+01   3.4713489994e+01    0.3471288    0.3198633 -49.64 0.0008332365    1.050    0.048
        18  -9.7648     94.1376    138.8226   8.2772210667e+01   3.4899613503e+01    0.3953731    0.2551308 -25.65  0.001032711    1.999    0.500
        19 -12.0900     77.7153    139.6542   8.8065611763e+01   3.7342992724e+01    0.3681229    0.3029246 -45.45 0.0002743267    1.162    0.139
        20 -10.4291    105.3924    130.7487   7.7503311128e+01   3.4909901090e+01    0.3875372    0.3419679  22.50  0.001000908    1.170    0.145
        21  -7.7658    134.3145    129.2974   6.9048200685e+01   2.9631000709e+01    0.1584968    0.1237241  -6.59 0.0002611297    1.605    0.377
        22 -11.2008     66.4568    127.1149   8.9055298972e+01   4.2231587269e+01     0.472864    0.2783981 -61.44  0.002020265    1.703    0.413
        23 -10.2806     91.2079    126.7158   8.0884602128e+01   3.8435456534e+01    0.3091141    0.2547319  -9.68 0.0004072809    1.359    0.264
        24  -9.5085    113.3030    124.5694   7.3667673829e+01   3.4899816720e+01    0.4492581    0.2333337  20.07  0.001402526    3.433    0.709
        25 -10.9632     64.9114    160.9224   9.6035111728e+01   3.3586006137e+01    0.2908342    0.2709194 -52.80 0.0003792951    1.046    0.044
        26  -9.5488    103.1236    119.0874   7.5306398809e+01   3.8138168451e+01    0.2278904    0.2143074  -8.02 0.0003885245    1.062    0.059
        27 -14.6773     22.3650    246.0440   1.1590563851e+02   1.7761722875e+01     5.937304     1.671507  21.68   0.01824144    6.564    0.848
        28 -11.7755     52.4431    170.1980   1.0115127017e+02   3.2714899306e+01    0.3512086    0.2945101 -25.32 0.0007110403    1.366    0.268
        29 -11.2078    243.6744    114.1275   4.4664817689e+01   1.1504718643e+01    0.2054568    0.1728156 -89.34  0.001335869    1.405    0.288
        30  -9.5881    204.5650    110.9239   4.9755057923e+01   1.9089709719e+01    0.3530512    0.1997724  41.62   0.00163124    2.155    0.536
        31 -11.1997     41.7607    215.7441   1.0927387356e+02   2.2474121049e+01    0.6194689    0.3969757 -32.17 0.0009807736    2.274    0.560
        32  -8.5227    109.4240    106.4479   7.0088968584e+01   3.9821165432e+01    0.1511465    0.1492257 -39.47 0.0001404497    1.054    0.051
        33 -11.4650    243.3100    101.5533   4.2240933498e+01   1.3654935385e+01    0.2652183    0.2225232 -11.07  0.001689704    1.611    0.379
        34 -11.7517    243.2810     91.7737   4.0327531206e+01   1.5239690608e+01    0.5443495    0.1891535 -32.43  0.001846435    4.459    0.776
        35 -11.0550     52.8375     91.8319   8.5414550341e+01   5.2700728137e+01    0.5502632    0.3114032 -50.61  0.001886923    1.649    0.394
        36 -11.1626    241.7606     84.4860   3.9076670252e+01   1.6653582173e+01    0.2405245    0.1598904 -72.00  0.001402964    1.619    0.382
        37 -10.8394    163.9457     85.1770   5.0928670745e+01   3.2288821325e+01    0.3851071    0.2081186  58.09  0.001667001    1.931    0.482
        38  -8.6711     74.1015     84.1450   7.5227036094e+01   5.1199036865e+01    0.1847852    0.1727125  56.79 0.0004121317    1.278    0.218
        39 -14.3292     11.0424    204.2434   1.1559169975e+02   2.8291630512e+01     1.543872    0.9029049 -64.13  0.003141984    1.620    0.383
        40  -7.9995    100.7109     81.2874   6.5480298548e+01   4.6821259958e+01    0.1396081    0.1190782  87.01 0.0001891984    1.537    0.349
        41  -8.9104    184.5305     77.4934   4.5338509270e+01   2.9080365178e+01    0.1354827    0.1263807 -69.01 5.041137e-05    1.046    0.044
        42  -9.7929     41.7873     92.1878   8.9843390482e+01   5.3967145248e+01    0.2341057    0.2110244 -29.72 0.0005580928    1.037    0.035
        43  -9.2948    161.3592     67.8365   4.6922039046e+01   3.5789891562e+01    0.1837566    0.1322119 -27.68 0.0003710314    1.613    0.380
        44 -10.5429     13.2444     60.0561   9.3672283452e+01   6.3684107789e+01    0.2493162    0.2163986  -5.51 0.0004684452    1.180    0.152
        45 -12.4161     10.4090    230.8260   1.1746622766e+02   2.2215177447e+01    0.8376872    0.4427979  79.00  0.004516385    1.791    0.442
        46  -9.8703    192.7356    194.2514   6.9507864800e+01   4.8534696493e+00     0.505174    0.2796134 -64.90  0.001683038    4.522    0.779
        47  -8.8304     94.7730     46.5991   5.5961106742e+01   5.3904558009e+01    0.1842719    0.1240313  57.54  0.000406749    1.558    0.358
        48 -10.4806      2.5958     38.6957   9.2585913414e+01   6.8588303130e+01    0.2172196    0.1634432 -23.64  0.001466764    1.018    0.017
        49 -11.2613     10.3077     53.8389   9.3304728158e+01   6.5158284777e+01    0.3508351    0.2128897 -15.46  0.001980813    1.557    0.358
        50 -10.1701    118.4119     26.4551   4.3350317586e+01   5.1212994090e+01    0.3839951    0.2404526 -72.73  0.001468861    2.417    0.586
        51  -9.6466     21.9203    229.9910   1.1495019987e+02   2.1291787352e+01    0.1925578    0.1539557  68.53 0.0004945711    1.054    0.051
        52  -9.1395    189.8780     15.5129   3.0225792102e+01   3.6257146252e+01    0.1750203    0.1424098 -65.06 0.0007626869    1.136    0.120
