#   1 NUMBER                 Running object number                                     
#   2 MAG_AUTO               Kron-like elliptical aperture magnitude                    [mag]
#   3 X_IMAGE                Object position along x                                    [pixel]
#   4 Y_IMAGE                Object position along y                                    [pixel]
#   5 X_WORLD                Barycenter position along world x axis                     [deg]
#   6 Y_WORLD                Barycenter position along world y axis                     [deg]
#   7 A_WORLD                Profile RMS along major axis (world units)                 [deg]
#   8 B_WORLD                Profile RMS along minor axis (world units)                 [deg]
#   9 THETA_WORLD            Position angle (CCW/world-x)                               [deg]
#  10 FWHM_WORLD             FWHM assuming a gaussian core                              [deg]
#  11 ELONGATION             A_IMAGE/B_IMAGE                                           
#  12 ELLIPTICITY            1 - B_IMAGE/A_IMAGE                                       
         1 -13.1582    179.8750     36.8315   6.4389331108e+01   3.5764004263e+01     1.489369     1.057092  17.09  0.004505561    1.672    0.402
         2 -12.4731    200.0634      5.1779   5.1381897640e+01   3.3914140493e+01     0.991507     0.736609  68.17  0.004314397    1.307    0.235
         3 -10.2672     96.2219    201.9900   1.1849932268e+02   2.3328853665e+01    0.2086801    0.1510042 -74.09  0.001469197    1.504    0.335
         4 -19.4457     38.8594    145.9313   1.2439535223e+02   4.0854409338e+01       17.043     2.978738 -72.32   0.05482873    5.783    0.827
         5 -11.2803     72.2122    200.1023   1.2265829977e+02   2.6835049480e+01    0.4164869    0.3487551  77.03  0.001632569    1.156    0.135
         6  -9.8394    156.9991    218.0098   1.0957462578e+02   1.1787247132e+01    0.1773277    0.1390173  46.38 0.0006052327    1.030    0.029
         7 -10.2259     59.5684    201.9903   1.2505819599e+02   2.8057275259e+01    0.1773005     0.118157  54.35 0.0003273638    1.200    0.167
         8  -9.7622     92.4014    195.4972   1.1854595954e+02   2.4941657563e+01     0.398248     0.168177  35.83   0.00165637    2.562    0.610
         9  -9.0953     94.3014    198.6894   1.1851880141e+02   2.4141697687e+01    0.2224913    0.1257054 -85.02 0.0006808783    2.200    0.546
        10 -10.0508     80.6126    194.8329   1.2065971261e+02   2.6651299836e+01      0.37863    0.2084833  48.12  0.002368116    1.496    0.332
        11 -11.8945     80.8328    185.9503   1.1975655053e+02   2.8174617801e+01    0.6059647    0.5177009 -62.96  0.003062192    1.437    0.304
        12  -8.8042    153.3960    194.4731   1.0712513112e+02   1.5663030872e+01    0.2362553   0.09228221  51.85  0.001031983    2.543    0.607
        13 -11.3610    114.9945    184.9310   1.1307308729e+02   2.3417398196e+01    0.4317336    0.1657502 -59.97  0.001986709    3.084    0.676
        14  -9.7889    100.0065    186.7169   1.1616859797e+02   2.5363856895e+01    0.1733681    0.1282671  53.78 0.0009373442    1.130    0.115
        15 -10.4091     64.5247    209.8346   1.2477759087e+02   2.6161533262e+01    0.5501015    0.3825694  54.71  0.004194425    1.149    0.130
        16 -10.4622     90.4314    183.8907   1.1769636723e+02   2.7228162155e+01    0.2753215    0.1751459  67.37 0.0006837145    1.503    0.335
        17  -8.7986    133.6643    183.6860   1.0931562018e+02   2.0635226296e+01    0.1165015   0.09325067  14.81 0.0003150457    1.690    0.408
        18 -10.7141     99.4823    180.1752   1.1550882669e+02   2.6589903563e+01    0.2969485    0.2103668 -65.89  0.001208962    1.516    0.340
        19 -11.0706    104.1444    172.5545   1.1363312410e+02   2.7264489282e+01    0.3409976    0.2914353  29.26  0.002280419    1.434    0.303
        20  -9.9595    125.1647    172.6339   1.0941497132e+02   2.3912159608e+01    0.1734248    0.1487993  75.99 0.0008811339    1.150    0.130
        21 -10.0299    142.9032    171.5675   1.0572585501e+02   2.1077798299e+01    0.2442333    0.1681631 -75.48  0.001322781    1.995    0.499
        22 -10.3056    194.7558    168.1795   9.5262155842e+01   1.2115583900e+01    0.3170979    0.2505544  42.80 0.0009522598    1.147    0.128
        23  -9.2270    114.5188    169.4608   1.1111134633e+02   2.6207347903e+01    0.1233266    0.1071244  60.58 -7.455956e-05    1.025    0.025
        24  -8.2716    162.6637    168.3491   1.0132895531e+02   1.8062330790e+01    0.1307235   0.09809855  76.87 0.0007046961    1.783    0.439
        25 -10.1966     97.3804    159.9450   1.1335084560e+02   3.0643614246e+01    0.2345972     0.205525 -72.07 0.0004485642    1.202    0.168
        26 -11.3161    101.4738    153.4870   1.1155108619e+02   3.1264850457e+01    0.5452973    0.3261735 -41.01  0.001461199    2.303    0.566
        27  -9.6659    162.7891    217.3758   1.0850926386e+02   1.0954063740e+01    0.1703223   0.08552625  37.22  0.000949378    1.719    0.418
        28  -9.5450    189.5218    155.5837   9.3852861889e+01   1.4949110416e+01    0.2659873    0.1324107 -37.30  0.001224461    2.216    0.549
        29  -8.6331    164.3220    152.6658   9.8183640772e+01   2.0310877710e+01    0.1338424    0.1044633  81.36   0.00070502    1.706    0.414
        30  -9.6364    134.0000    144.9674   1.0306439459e+02   2.7391188719e+01    0.3067442    0.1330554 -52.64  0.001288932    2.535    0.606
        31  -9.6207    192.1152    192.8318   9.9939490216e+01   9.2586371124e+00    0.2733203    0.1601052 -58.27  0.001340235    3.134    0.681
        32  -8.7652    174.2469    148.2494   9.5353585679e+01   1.9100313068e+01    0.2068745    0.1094643 -52.11 0.0008961596    2.443    0.591
        33 -10.7938    111.1475    138.6383   1.0700362295e+02   3.2627839395e+01    0.4476298    0.2817608 -43.74  0.002300186    1.837    0.456
        34 -10.6658    100.3917    138.5722   1.0945486471e+02   3.4396639410e+01    0.2437061    0.2390686  86.69  0.001622709    1.172    0.147
        35  -9.8288    105.9879    130.8644   1.0681155130e+02   3.5056865457e+01    0.3044355    0.2585717 -69.79  0.001105204    1.157    0.136
        36  -9.4030    117.1193    129.7916   1.0400345761e+02   3.3368652199e+01    0.2286586    0.1984249 -36.15 0.0007450342    1.331    0.249
        37  -9.2885    105.5393    125.5030   1.0592235565e+02   3.6231341762e+01    0.2428475     0.216708 -27.25 0.0005898398    1.375    0.273
        38  -8.4408    112.1432    118.8054   1.0299969871e+02   3.6477357160e+01    0.1758944    0.1632841  -3.52 0.0004463755    1.301    0.232
        39  -9.2107    167.7479    112.5679   8.8844798785e+01   2.6553488534e+01    0.2981753    0.2237929 -70.57  0.001416408    1.818    0.450
        40  -9.0966    205.8134    110.1891   8.0790563724e+01   1.8483256332e+01    0.2062698    0.1612486  21.03 0.0006027698    1.320    0.242
        41 -10.4581     12.1426    205.9756   1.3331753395e+02   3.2309065348e+01    0.3351574    0.1060591  41.48  0.002060872    2.442    0.590
        42 -11.4383    133.6382    200.1857   1.1148899918e+02   1.8023045900e+01    0.3546942     0.251096 -21.71  0.002060731    2.512    0.602
        43  -9.8176     82.6385     76.1328   1.0098342392e+02   5.0421291964e+01    0.2259872    0.1848187  55.50 0.0006058338    1.364    0.267
        44  -9.3173    176.4558     74.7276   7.6867034786e+01   3.1027805070e+01    0.2596576    0.2355897  66.91 0.0005254616    1.181    0.153
        45  -9.6938     88.9724    204.0968   1.2000715139e+02   2.3979915325e+01    0.3908966    0.1278913  50.03  0.001895887    2.508    0.601
        46 -11.9571    166.2904     51.8227   7.1809364444e+01   3.7173334144e+01    0.6456118    0.5707119 -55.41  0.001892802    1.228    0.186
        47  -9.7849    158.6615    235.4827   1.1133848626e+02   9.3335984615e+00    0.2215991    0.1274946  25.57  0.001214783    2.248    0.555
        48 -11.7061    184.1137     30.1367   6.1506733498e+01   3.5488047191e+01    0.6038961    0.5084155  15.76  0.001612634    1.264    0.209
        49  -9.6468     93.6601    205.6504   1.1931597668e+02   2.3088033985e+01    0.2082283    0.1855057  37.63  0.001025037    1.418    0.295
        50 -10.3280    189.6448     15.0867   5.5796256901e+01   3.5713438411e+01    0.2537008    0.2057494  87.68 0.0009177687    1.304    0.233
