#   1 NUMBER                 Running object number                                     
#   2 MAG_AUTO               Kron-like elliptical aperture magnitude                    [mag]
#   3 X_IMAGE                Object position along x                                    [pixel]
#   4 Y_IMAGE                Object position along y                                    [pixel]
#   5 X_WORLD                Barycenter position along world x axis                     [deg]
#   6 Y_WORLD                Barycenter position along world y axis                     [deg]
#   7 A_WORLD                Profile RMS along major axis (world units)                 [deg]
#   8 B_WORLD                Profile RMS along minor axis (world units)                 [deg]
#   9 THETA_WORLD            Position angle (CCW/world-x)                               [deg]
#  10 FWHM_WORLD             FWHM assuming a gaussian core                              [deg]
#  11 ELONGATION             A_IMAGE/B_IMAGE                                           
#  12 ELLIPTICITY            1 - B_IMAGE/A_IMAGE                                       
         1 -12.7668    211.6364      2.1621   5.9157893028e+01   3.1595043954e+01    0.9624685    0.6201208  74.61  0.002299894    1.404    0.288
         2 -14.0108    188.5324     26.0018   6.8156101879e+01   3.4908088906e+01     1.682167     1.397148 -15.09    0.0054474    1.404    0.288
         3 -13.7585    195.8931     19.5876   6.5407469347e+01   3.3744236963e+01      1.21934    0.8840324 -68.17  0.004127368    1.382    0.276
         4 -13.1115    201.7294     11.8776   6.2644493502e+01   3.3091005675e+01    0.6713489    0.6138666  14.79  0.001397491    1.358    0.263
         5 -11.6305     32.9313      3.1214   1.0014442707e+02   7.1461098930e+01    0.3324678    0.1446488 -31.19  0.001758391    2.052    0.513
         6 -13.5603     90.6599    165.5893   1.2689158996e+02   2.9852791889e+01      3.51067    0.6543549  47.61  0.001522373    6.188    0.838
         7 -11.9961    248.3171    248.0722   1.0844175346e+02  -1.0486636117e+01    0.4011187    0.2853119  10.49    0.0029274    1.122    0.109
         8  -9.5862    208.3376    250.3092   1.1553365952e+02  -4.9495102126e+00      0.11972   0.07374895  16.83  0.000704363    1.683    0.406
         9  -9.8211    149.6502    250.2996   1.2601691003e+02   4.2683039180e+00    0.1207401   0.07717293  59.86 0.0007037122    1.689    0.408
        10 -14.8629     33.9822    246.9409   1.4612634337e+02   2.1119638478e+01     2.860168     1.243355  38.41   0.01709372    2.183    0.542
        11 -16.6394     48.7058    202.7514   1.4048379620e+02   2.7683430736e+01     13.35982     5.750846  74.50   0.05995596    2.864    0.651
        12 -13.9017     68.3164    145.2610   1.2932210328e+02   3.7876293475e+01     1.630869    0.8197451  83.20  0.005812606    3.643    0.726
        13 -13.3577     73.0180    170.7569   1.3181488607e+02   3.1349684510e+01    0.4612851    0.2765075 -46.08    0.0015501    2.136    0.532
        14 -13.5392     49.7086    231.9724   1.4251837057e+02   2.1914225819e+01    0.8652667    0.3571173  48.32  0.004423623    1.854    0.461
        15 -11.2588    137.6176    172.2845   1.1701512973e+02   2.0072840856e+01    0.3582026    0.2069459  31.13   0.00154094    2.032    0.508
        16 -13.1269     49.3144    224.5102   1.4206260939e+02   2.3346129333e+01     0.443774    0.3739251 -63.65 0.0009124265    1.596    0.373
        17 -10.4636    103.0441    148.9807   1.2102232804e+02   3.1563806666e+01    0.3091567    0.2791447 -30.81  0.000862448    1.336    0.251
        18  -9.6525    105.4788    145.0269   1.1965452241e+02   3.2040794511e+01    0.2914995    0.1957724 -37.08  0.001340619    1.870    0.465
        19 -12.2277     91.9650    148.3703   1.2373230127e+02   3.3579905929e+01    0.2709629    0.2560121 -41.09 0.0004861629    1.241    0.194
        20 -13.4864     83.3220    237.3063   1.3684086739e+02   1.6497032292e+01    0.7833115    0.3377425  71.36    0.0032543    3.736    0.732
        21 -10.3230    133.9181    145.0512   1.1254715268e+02   2.6601639776e+01    0.9002859    0.1993921 -54.75  0.001820685    8.246    0.879
        22 -13.2242     73.5540    227.0544   1.3775517095e+02   1.9708969152e+01    0.9440879    0.3273133  64.18  0.003173079    5.198    0.808
        23 -16.0241      8.3305    240.8670   1.4999469655e+02   2.4904211603e+01     16.19528    0.9910221 -78.04   0.01522202   13.709    0.927
        24 -10.0008    112.8683    135.0054   1.1570897737e+02   3.2982971292e+01    0.3192465    0.2417628 -12.03 0.0009874217    2.004    0.501
        25 -10.8471    100.3659    132.1169   1.1840708033e+02   3.5934690785e+01    0.3025073    0.2353233 -34.18 0.0007219464    1.534    0.348
        26 -10.8963    193.3874    195.3772   1.0945618840e+02   5.1535706283e+00    0.6693089    0.3330934 -60.84   0.00207572    5.906    0.831
        27 -11.9055     72.5638    191.7670   1.3446215049e+02   2.6837651466e+01    0.3840084    0.2501724 -45.68  0.001702272    2.132    0.531
        28  -9.6359    108.9772    122.6395   1.1400303367e+02   3.6554438685e+01    0.2017914    0.1813273  48.83  0.000376532    1.131    0.116
        29 -11.4257     85.0265    173.4662   1.2937818150e+02   2.8973075256e+01    0.2820368    0.2364545  79.65  0.000438371    1.067    0.063
        30  -9.4779    160.6682    127.3439   1.0212807871e+02   2.4635510825e+01    0.1617353     0.123879 -86.68 0.0007050584    1.756    0.430
        31 -10.9755    168.3161    113.1423   9.6820179755e+01   2.5753567777e+01    0.3802915    0.3056121 -69.85 0.0009497518    1.467    0.318
        32 -14.4369     11.6470    206.7862   1.4784583852e+02   3.0894220878e+01     1.131677    0.7476639  45.53   0.00319187    1.487    0.327
        33  -9.4179    205.8271    110.3825   8.8497180609e+01   1.7451607992e+01    0.2129881    0.1369839  41.69 0.0006886552    1.650    0.394
        34  -9.8843     15.9512     91.7578   1.3600409468e+02   5.5885005274e+01    0.1576846    0.1416985 -73.14 0.0004261515    1.123    0.110
        35 -10.5275    126.4210     53.1995   8.8859374403e+01   4.7015657510e+01    0.4163003    0.2798211 -81.92  0.001394476    2.592    0.614
        36 -11.8023     76.9816    185.1863   1.3273248423e+02   2.7609855034e+01    0.2827148    0.2305695 -60.40 0.0007282884    1.380    0.275
        37 -11.7724    229.8862    249.1339   1.1166654934e+02  -8.0085434630e+00    0.3663461    0.1404534  44.09  0.001802392    2.531    0.605
        38 -10.9645    161.3250    249.0178   1.2374113814e+02   2.5901388377e+00      0.22419    0.1462548  25.52  0.001344719    1.625    0.385
        39 -12.0291    192.4394    248.5381   1.1808004197e+02  -2.2841756509e+00     0.521522    0.1522574  34.83  0.002033547    3.338    0.700
        40  -9.0080    181.5084    192.4346   1.1127951187e+02   7.8503873405e+00    0.1380482    0.1202237  29.49 4.757194e-05    1.036    0.035
        41 -13.3464     57.7734    129.6422   1.2964325002e+02   4.2958645672e+01     2.169938    0.6858811 -74.05   0.00536841    6.885    0.855
        42 -10.5840    227.5019    203.3704   1.0453338685e+02  -2.0404188499e+00     0.244835    0.2136369 -51.11  0.000943745    1.623    0.384
