#   1 NUMBER                 Running object number                                     
#   2 MAG_AUTO               Kron-like elliptical aperture magnitude                    [mag]
#   3 X_IMAGE                Object position along x                                    [pixel]
#   4 Y_IMAGE                Object position along y                                    [pixel]
#   5 X_WORLD                Barycenter position along world x axis                     [deg]
#   6 Y_WORLD                Barycenter position along world y axis                     [deg]
#   7 A_WORLD                Profile RMS along major axis (world units)                 [deg]
#   8 B_WORLD                Profile RMS along minor axis (world units)                 [deg]
#   9 THETA_WORLD            Position angle (CCW/world-x)                               [deg]
#  10 FWHM_WORLD             FWHM assuming a gaussian core                              [deg]
#  11 ELONGATION             A_IMAGE/B_IMAGE                                           
#  12 ELLIPTICITY            1 - B_IMAGE/A_IMAGE                                       
         1 -11.0708     74.7186     17.8412   4.4601002611e+01   6.1878367274e+01    0.2823536    0.2251907  48.43 0.0003420481    1.065    0.061
         2  -9.7702     36.5280    190.5146   1.0256396549e+02   2.9194183792e+01    0.3277684   0.02562075  39.80 0.0008104856    5.778    0.827
         3  -9.1872    116.6626    181.3303   7.8967072127e+01   2.0301834354e+01    0.1553707    0.1177911  68.34  0.000270895    1.735    0.424
         4 -10.0307     77.3700    181.8096   8.9870323129e+01   2.6292288827e+01     0.301238    0.1064719  32.33  0.001027378    2.647    0.622
         5  -9.4860    129.3162    174.3275   7.4372836662e+01   1.9822948543e+01    0.1579592    0.1149421 -15.11 0.0007045078    1.675    0.403
         6 -10.1179    123.3779    172.8233   7.5612211919e+01   2.1188566711e+01    0.2279037    0.1337769 -41.56  0.000954052    1.742    0.426
         7 -10.2437    137.3770    172.1608   7.1923690627e+01   1.8936072392e+01    0.2151796    0.1422315 -60.57 0.0009478676    1.754    0.430
         8  -9.9862     99.6360    173.3351   8.2137106685e+01   2.5027136500e+01    0.2460203     0.183745  68.24 0.0008956527    1.683    0.406
         9 -12.4236     80.0757    170.5949   8.7277106939e+01   2.8777762077e+01    0.9515684    0.2795429  28.67  0.002800326    3.634    0.725
        10 -11.4765     91.5153    164.9823   8.2929167445e+01   2.8445339851e+01    0.3618185    0.2485521 -54.00  0.001407879    1.441    0.306
        11 -11.5084    110.4858    161.5303   7.6855912307e+01   2.6133281655e+01    0.4293807     0.258941 -43.68  0.001810211    1.681    0.405
        12 -10.6034     53.1531    162.5152   9.4150857018e+01   3.4635790970e+01    0.3081813     0.145345 -45.83  0.001168743    2.283    0.562
        13 -11.8587     74.7126    158.4750   8.6782633008e+01   3.2745383809e+01    0.5141019    0.2861106  18.32  0.001997077    2.206    0.547
        14  -9.2514    158.6680    159.3300   6.4253635450e+01   1.8029303601e+01    0.1462681    0.1193056  88.96 0.0007051936    1.720    0.419
        15 -10.3665    120.0030    155.5253   7.3014955388e+01   2.5906926244e+01    0.2458131    0.1523447  36.50  0.001044219    1.629    0.386
        16 -11.7025    106.0009    149.5064   7.5637962638e+01   2.9896272976e+01    0.5659213    0.2256943 -51.21  0.001941298    2.431    0.589
        17  -9.8168     48.5209    155.5028   9.4551773703e+01   3.7092853931e+01    0.1485285    0.1410915 -85.97 0.0002590404    1.021    0.021
        18  -9.8870    143.7905    149.3815   6.5592736401e+01   2.2938013096e+01     0.217421     0.144103  26.95 0.0009524265    1.722    0.419
        19 -10.0396    113.5966    147.2256   7.2992276634e+01   2.9083032041e+01    0.2347424     0.141738 -42.16 0.0008115959    1.686    0.407
        20  -9.8348    126.0031    144.4907   6.9010243659e+01   2.7422185922e+01    0.2203175    0.1390072  11.05 0.0008103101    2.535    0.605
        21 -11.2036     51.3610    143.6924   9.1692756613e+01   3.9929494034e+01    0.4465564    0.2602971  71.30  0.001694883    2.545    0.607
        22 -11.8843     86.7406    139.8942   7.9365421428e+01   3.5680495230e+01     0.476089    0.3520376  -8.32   0.00209261    1.757    0.431
        23 -10.6349     53.9466    137.1603   8.9639568824e+01   4.1352600249e+01    0.3529669    0.2115865  65.03  0.001380873    2.347    0.574
        24  -8.5749    102.3531    136.3200   7.3794254485e+01   3.3827116986e+01    0.1661304    0.1233875 -13.44  0.000704714    1.749    0.428
        25  -9.1498     69.6553    131.0222   8.3032142235e+01   4.0740498892e+01    0.3908714   0.08282861 -45.45 0.0008498121    6.043    0.835
        26 -10.9652     61.2773    131.5393   8.6010772043e+01   4.1845784492e+01    0.5643028    0.2373011 -54.79  0.002061922    2.187    0.543
        27 -10.6797    109.8568    137.1351   7.1789517052e+01   3.2233884155e+01     0.337224    0.2103916 -24.79  0.001283675    2.274    0.560
        28 -11.1905     79.1087    129.3425   7.9496561597e+01   3.9664510139e+01    0.3640176    0.2138217 -48.98  0.001509533    1.652    0.395
        29  -9.5576     89.3332    128.3252   7.5946496615e+01   3.8168772986e+01     0.165132    0.1220033 -17.25 0.0007051079    1.711    0.415
        30 -10.9378     59.6533    123.6771   8.4926074646e+01   4.4141718248e+01    0.4020963    0.2218035 -21.90   0.00138485    3.015    0.668
        31  -9.3511    104.3435    123.6694   7.0196334618e+01   3.6533730520e+01    0.1634594    0.1254023  78.91 9.784029e-05    1.752    0.429
        32 -10.0026     84.5033    121.4831   7.5878070477e+01   4.0728730223e+01    0.1551847    0.1515029 -28.07 0.0008104434    1.004    0.004
        33 -10.3246     76.3061    116.2052   7.7344741289e+01   4.3453502831e+01    0.3789187    0.2043884 -74.42  0.001223992    3.333    0.700
        34  -9.9466     91.3900    116.1807   7.2325010451e+01   4.0784137247e+01    0.2256798    0.1495261 -63.00 0.0005365008    1.719    0.418
        35 -10.3141     81.1350    110.5667   7.4269301919e+01   4.4002087459e+01    0.2747407    0.1824153 -46.11   0.00121508    1.481    0.325
        36  -9.4208     77.3240    101.3205   7.3123428188e+01   4.6880614861e+01    0.1593946    0.1182919 -13.60 0.0004813108    1.677    0.404
        37  -9.9957    102.1665     69.5495   5.5489357506e+01   4.8516272816e+01    0.2544553    0.2104746 -37.58 0.0005897018    1.266    0.210
        38  -9.4009     94.8569     52.0803   5.1770279380e+01   5.3045571136e+01    0.2072471    0.1863438  88.43 0.0004438003    1.260    0.206
        39 -10.3039     79.2279     23.7051   4.5688896953e+01   6.0269430537e+01    0.4911119    0.2052722  59.73  0.002090745    2.302    0.566
