#   1 NUMBER                 Running object number                                     
#   2 MAG_AUTO               Kron-like elliptical aperture magnitude                    [mag]
#   3 X_IMAGE                Object position along x                                    [pixel]
#   4 Y_IMAGE                Object position along y                                    [pixel]
#   5 X_WORLD                Barycenter position along world x axis                     [deg]
#   6 Y_WORLD                Barycenter position along world y axis                     [deg]
#   7 A_WORLD                Profile RMS along major axis (world units)                 [deg]
#   8 B_WORLD                Profile RMS along minor axis (world units)                 [deg]
#   9 THETA_WORLD            Position angle (CCW/world-x)                               [deg]
#  10 FWHM_WORLD             FWHM assuming a gaussian core                              [deg]
#  11 ELONGATION             A_IMAGE/B_IMAGE                                           
#  12 ELLIPTICITY            1 - B_IMAGE/A_IMAGE                                       
         1  -9.8579    157.6132    120.8163   2.9079073331e+02   5.4291142264e+00   0.00956269  0.006360417 -77.35 0.0009517529    1.751    0.429
         2 -11.3609    244.2629    249.5646   2.9059625107e+02   3.4373754903e+00   0.01920226  0.004857926  34.26  0.001310034    3.461    0.711
         3 -11.1148    247.0076    245.1610   2.9053779478e+02   3.4711030648e+00   0.01159114  0.006802654  52.29 0.0009577689    2.003    0.501
         4  -9.8332    161.9951    213.0000   2.9130970752e+02   4.3499061262e+00   0.01103352  0.003744306  27.77 0.0008060367    2.967    0.663
         5 -10.3984    150.2133    206.7867   2.9140601509e+02   4.4917223142e+00   0.01165734  0.006460428  63.17 0.0009522692    2.779    0.640
         6  -9.6580    176.6523    205.2954   2.9109478384e+02   4.3497439179e+00  0.006958509  0.004908901  60.22 0.0007032769    1.675    0.403
         7 -10.1099    161.6555    204.3243   2.9126010469e+02   4.4510489593e+00  0.007063547  0.004928719  62.49  0.000705045    1.737    0.424
         8  -9.5852    202.9891    198.4925   2.9075205403e+02   4.2689031051e+00   0.01010482  0.004699844  49.03 0.0008106343    2.605    0.616
         9 -10.9559    186.3293    195.7329   2.9092526551e+02   4.4007160650e+00   0.01222072  0.008067777  31.93  0.001081395    1.501    0.334
        10 -12.1191    155.9613    191.5842   2.9124660519e+02   4.6308237132e+00   0.02165762   0.01181596  79.16  0.001567847    3.799    0.737
        11 -10.4281    121.3192    189.6588   2.9163071023e+02   4.8610507944e+00  0.006997794  0.004975093  65.06 0.0007049636    1.716    0.417
        12 -11.9635    166.9747    187.9931   2.9109860625e+02   4.6055900389e+00   0.01688324  0.008763821  56.89  0.001382868    2.734    0.634
        13 -11.0627    183.9913    187.1948   2.9089927562e+02   4.5122955391e+00   0.01144435  0.006835805  53.15  0.001053605    1.979    0.495
        14 -11.6032    158.3066    187.0001   2.9119152972e+02   4.6690807668e+00   0.01457566  0.006910987  51.19  0.001173475    2.705    0.630
        15 -11.0025    148.9996    192.5003   2.9133181356e+02   4.6622240459e+00    0.0102493  0.006422618  29.49  0.001030884    1.590    0.371
        16 -11.8167    142.7323    186.9153   2.9136900607e+02   4.7637081152e+00   0.01257826  0.009497518 -88.84  0.001355094    1.567    0.362
        17 -11.6437    178.1034    185.8574   2.9095828142e+02   4.5630118831e+00   0.01066012  0.009006031  63.67  0.001237378    1.295    0.228
        18 -11.2252    134.4245    184.7213   2.9145044674e+02   4.8387155435e+00   0.01291217   0.00663271 -68.29  0.001138609    2.154    0.536
        19  -9.3619    211.4979    184.5168   2.9056861343e+02   4.3772202199e+00  0.006476016  0.006445849 -51.45 -1.154664e-05    1.010    0.010
        20 -11.7013    122.0863    183.2020   2.9158214544e+02   4.9302170910e+00   0.01601627  0.008325419  35.98  0.001490414    1.879    0.468
        21  -9.5513    205.6486    182.3251   2.9062186484e+02   4.4374813708e+00  0.007100706  0.004915346  62.26 0.0007048111    1.758    0.431
        22 -12.3159    145.6122    180.7797   2.9129824673e+02   4.8164851417e+00   0.01340881    0.0108397  52.15  0.001250819    1.312    0.238
        23 -11.7631    175.8569    180.3121   2.9094972060e+02   4.6398643623e+00    0.0111173  0.008016983  48.19  0.001110864    1.468    0.319
        24 -12.4142    164.4621    178.4068   2.9106816490e+02   4.7302020965e+00   0.01643822   0.01135622  71.70  0.001512388    1.884    0.469
        25 -10.4249    130.3195    179.6555   2.9146614336e+02   4.9212627695e+00  0.007012901  0.004974034  65.22 0.0007049481    1.725    0.420
        26 -11.7272    190.2598    178.0346   2.9077111977e+02   4.5791580178e+00   0.01274985  0.007984925  42.72  0.001281768    1.638    0.389
        27 -12.4309    152.7420    175.1437   2.9118197886e+02   4.8379853977e+00   0.01734886   0.00823227  41.34   0.00152433    2.146    0.534
        28 -12.3481    152.1662    170.8510   2.9116207110e+02   4.8904818114e+00    0.0120328   0.01059743  65.11 0.0009898011    1.221    0.181
        29 -12.5499    146.6930    164.5476   2.9118574084e+02   4.9954062804e+00   0.01721843    0.0110392 -78.83  0.001624549    1.887    0.470
        30 -11.8773    164.6970    173.2285   2.9103351932e+02   4.7879330165e+00   0.01653886  0.007580238  43.05  0.001411748    2.289    0.563
        31 -11.1761    134.4015    173.1830   2.9137955520e+02   4.9706723765e+00  0.009510185  0.006382119 -78.46 0.0009494723    1.748    0.428
        32 -13.0716    166.8875    169.4361   2.9098507510e+02   4.8180636105e+00   0.03366015   0.01409928  55.97  0.002117959    4.711    0.788
        33 -13.0966    158.2975    169.8808   2.9108599845e+02   4.8646774654e+00   0.02450933   0.01530626  79.86  0.002207607    2.418    0.586
        34 -12.9223    153.4434    157.4933   2.9106501716e+02   5.0353714665e+00   0.02403147  0.009989975  41.62  0.001976407    2.469    0.595
        35 -12.0753    128.9934    169.3271   2.9141761217e+02   5.0472325534e+00   0.01525883   0.00951381 -74.01  0.001488362    1.840    0.456
        36 -13.0360    139.2501    165.2229   2.9127500748e+02   5.0324550572e+00    0.0207564   0.01455685  75.14  0.002107265    1.851    0.460
        37 -12.6973    173.6429    164.9783   2.9088034806e+02   4.8283095259e+00   0.02452236   0.01016281  49.51  0.001824616    3.188    0.686
        38 -12.3141    164.4809    162.4831   2.9096965174e+02   4.9119583199e+00   0.01711584  0.009286854  56.28  0.001242078    2.465    0.594
        39 -10.7726    119.4256    165.2174   2.9150168622e+02   5.1516853536e+00  0.009366542  0.006432152 -78.44 0.0009502971    1.688    0.407
        40  -9.9330    196.6557    164.3067   2.9061326596e+02   4.6973831671e+00  0.006988111  0.004925773  61.33 0.0007042805    1.693    0.409
        41 -11.8348    183.1122    163.6172   2.9076373502e+02   4.7868340007e+00   0.01142314  0.009441744 -80.69 0.0006720079    1.310    0.237
        42 -12.9061    175.8006    161.6078   2.9083487295e+02   4.8538096653e+00   0.03622743   0.01311055  52.70  0.002013967    5.898    0.830
        43 -12.5508    153.6771    162.6187   2.9109398781e+02   4.9754241729e+00   0.01600429   0.01152756  54.75   0.00134535    1.550    0.355
        44 -10.8569    124.4174    162.2216   2.9142611459e+02   5.1559123076e+00  0.009366849  0.006419164 -78.23 0.0009494163    1.689    0.408
        45 -13.4574    163.4273    150.7153   2.9090901812e+02   5.0526936601e+00   0.03127635   0.01744674 -78.54  0.002745126    2.395    0.583
        46 -12.4363    158.6453    155.1566   2.9099111752e+02   5.0307548676e+00   0.01668125    0.0113589  75.19  0.001505304    1.967    0.491
        47 -11.9908    147.1620    156.1595   2.9112860071e+02   5.0883971072e+00   0.01321473   0.00916196 -83.92  0.001346108    1.754    0.430
        48 -12.0958    176.4798    152.0364   2.9076798437e+02   4.9590182505e+00   0.01265557   0.01001092  88.08  0.001301057    1.466    0.318
        49 -11.6619    138.2520    153.6535   2.9121501833e+02   5.1706151341e+00   0.01245417  0.008396188 -78.37  0.001017994    1.735    0.424
        50 -10.9964    118.8143    171.9917   2.9155045174e+02   5.0779604932e+00   0.01123987  0.007586032  76.31   0.00108843    2.008    0.502
        51 -12.7450    169.6135    150.1661   2.9083490975e+02   5.0217224789e+00   0.02927422   0.01489011  67.46  0.001992077    4.259    0.765
        52 -11.0676    122.7124    151.5586   2.9137982735e+02   5.2879754859e+00   0.01160742  0.008310548  85.18  0.001189862    1.768    0.434
        53 -11.7885    155.8068    145.7975   2.9096576642e+02   5.1547266480e+00    0.0141561   0.00903591  63.69   0.00134511    2.062    0.515
        54 -10.7615    117.5063    146.5272   2.9140833692e+02   5.3767428340e+00   0.01183135  0.006600953 -77.09  0.001035268    2.315    0.568
        55 -11.9903    171.2169    145.5248   2.9078790511e+02   5.0650673308e+00   0.01329406   0.01037226  66.35  0.001149681    1.481    0.325
        56 -12.1999    148.6112    144.1528   2.9103788827e+02   5.2168127752e+00   0.01484166   0.01070309 -78.98    0.0011794    1.578    0.366
        57 -11.7191    138.9850    144.4362   2.9114973018e+02   5.2714884053e+00   0.01295239  0.009618483 -88.66  0.001379218    1.611    0.379
        58 -11.8236    182.2848    142.6228   2.9064346435e+02   5.0315388834e+00   0.01989458  0.008841312  55.70  0.001384106    3.792    0.736
        59 -10.3318    123.6900    143.3408   2.9131792545e+02   5.3759738049e+00  0.006944448  0.004991717  65.78 0.0007044851    1.693    0.409
        60 -10.1832    187.6536    141.3199   2.9057405305e+02   5.0140676972e+00  0.007053771  0.004926238  62.17 0.0007049238    1.731    0.422
        61 -12.3968    174.5140    140.2174   2.9071741635e+02   5.1058120319e+00   0.02095536   0.01161242  64.81  0.001709433    2.890    0.654
        62 -11.0950    149.7796    136.9703   2.9098015886e+02   5.2918094731e+00   0.01114949  0.007547986  76.07   0.00108244    1.996    0.499
        63 -10.8564    155.4802    136.0362   2.9090919597e+02   5.2681655793e+00   0.01026389  0.006473952 -62.72 0.0007654054    1.590    0.371
        64 -10.5052    183.4858    135.4928   2.9058566076e+02   5.1057066151e+00  0.006496395  0.006425515  75.02 0.0008103061    1.029    0.028
        65 -11.5902    167.3125    140.4619   2.9080125278e+02   5.1463912940e+00   0.01157516  0.008295402  85.12   0.00118705    1.766    0.434
        66 -10.5908    153.9933    129.5008   2.9088581343e+02   5.3517454839e+00  0.009860984  0.004777042  49.56 0.0008011173    2.492    0.599
        67 -10.1184    165.2954    128.6453   2.9075128025e+02   5.2934632718e+00  0.006914708  0.005009159  67.89 0.0007032999    1.691    0.409
        68 -11.3422    130.5143    159.0086   2.9133656118e+02   5.1559697401e+00   0.01038291  0.006442179 -61.60  0.001036661    1.602    0.376
        69  -9.8903    170.6794    122.3625   2.9065087378e+02   5.3327661486e+00   0.00708745  0.004963185  66.07 0.0007041552    1.776    0.437
