#   1 NUMBER                 Running object number                                     
#   2 MAG_AUTO               Kron-like elliptical aperture magnitude                    [mag]
#   3 X_IMAGE                Object position along x                                    [pixel]
#   4 Y_IMAGE                Object position along y                                    [pixel]
#   5 X_WORLD                Barycenter position along world x axis                     [deg]
#   6 Y_WORLD                Barycenter position along world y axis                     [deg]
#   7 A_WORLD                Profile RMS along major axis (world units)                 [deg]
#   8 B_WORLD                Profile RMS along minor axis (world units)                 [deg]
#   9 THETA_WORLD            Position angle (CCW/world-x)                               [deg]
#  10 FWHM_WORLD             FWHM assuming a gaussian core                              [deg]
#  11 ELONGATION             A_IMAGE/B_IMAGE                                           
#  12 ELLIPTICITY            1 - B_IMAGE/A_IMAGE                                       
         1 -13.3588      5.4755     12.7770   1.2003600638e+02   7.2701852530e+01     2.177669    0.5037122 -46.92  0.009875139    2.868    0.651
         2 -13.7618    206.0256     11.3195   6.2485555242e+01   3.2169052064e+01     1.576802     1.131984  38.59  0.008376159    1.737    0.424
         3 -13.2317    192.5741     29.0951   6.8982030314e+01   3.3591088104e+01     1.258453     1.125771 -39.15  0.006317896    1.169    0.145
         4 -10.9925     85.1977    246.7827   1.3770093592e+02   1.4617007164e+01    0.4757235    0.2002466  69.10  0.002070914    3.525    0.716
         5 -11.8526    246.5316    248.3297   1.0940905500e+02  -1.0281510446e+01    0.5753788    0.2528423  40.93  0.003238856    2.055    0.513
         6 -12.0505    125.4665    249.4502   1.3076844305e+02   8.2035000898e+00    0.4870529    0.2242081  39.43  0.002591048    1.820    0.450
         7 -11.5510     98.0207    248.2944   1.3556382545e+02   1.2526830001e+01    0.4333164    0.2313191  58.70  0.002110286    1.620    0.383
         8 -11.2096    101.0441    245.7283   1.3478794939e+02   1.2501754105e+01    0.3220175    0.2006974 -89.31 0.0004145335    1.919    0.479
         9  -9.9624     30.0013    250.4826   1.4724801171e+02   2.0981372808e+01    0.2443318    0.1073884  45.62  0.001146817    1.763    0.433
        10 -11.4552     35.1478    245.8953   1.4617804559e+02   2.1182092644e+01    0.5318287    0.3658624  84.34   0.00390174    1.249    0.200
        11 -12.6561      3.5324    245.2769   1.5117338675e+02   2.4637613946e+01     1.974255    0.4615407 -79.63  0.009764148    3.747    0.733
        12 -14.2830      9.5216    206.2182   1.4847460815e+02   3.1221726971e+01     4.863873     1.074675  42.53  0.007767012    3.113    0.679
        13 -15.1504      8.9267    152.3171   1.4513637865e+02   4.2595004808e+01     5.501639     1.655352 -83.43   0.02252251    3.190    0.686
        14 -10.1150     49.0593    235.6009   1.4320620642e+02   2.1344737648e+01      0.28103    0.1372402 -79.62  0.001687775    2.014    0.504
        15 -11.3113    140.5621    249.9936   1.2811161770e+02   5.7605109653e+00    0.4486507    0.1340077  39.40  0.001880229    2.806    0.644
        16  -9.7008     68.6017    234.9848   1.3969573419e+02   1.8944665708e+01    0.2035209    0.1528525  34.31  0.001376265    1.652    0.395
        17  -9.4367     75.5964    242.7479   1.3906597295e+02   1.6634774908e+01    0.1485152   0.09170514  86.00 0.0006075361    1.639    0.390
        18  -9.5705    229.1954    228.9171   1.0925260631e+02  -5.6095027046e+00    0.2071591    0.1401515 -54.12   0.00115482    2.717    0.632
        19 -10.1053    149.3523    229.3419   1.2394664623e+02   7.4917080892e+00    0.1880296    0.1429347  15.23  0.001118434    1.692    0.409
        20 -12.4577     39.8316    231.3268   1.4453989347e+02   2.3226725930e+01    0.2744198    0.2247122  87.58 0.0008040004    1.293    0.227
        21 -14.4293     54.6229    211.6401   1.4040743193e+02   2.5166402260e+01     7.559664          nan  46.99   0.02115848    6.957    0.856
        22 -13.8489     46.1438    222.5947   1.4283441500e+02   2.4099385637e+01     1.099807    0.5958936  51.63  0.005472869    1.469    0.319
        23  -9.9201     46.3105    248.5060   1.4448590480e+02   1.9420138051e+01    0.3033951    0.1227166  70.54  0.001135091    2.525    0.604
        24  -8.8340    152.7131    213.0007   1.2100228987e+02   9.6033855296e+00    0.1685002     0.154735  48.75 0.0003242414    1.086    0.079
        25 -11.3752     65.2526    197.2612   1.3697110467e+02   2.6687420068e+01    0.3256819    0.2358739 -47.84  0.001169746    1.911    0.477
        26  -9.8481    193.4664    195.7922   1.1012195234e+02   5.0604976506e+00    0.4699148    0.2411159 -63.07  0.001356783    6.894    0.855
        27  -8.7827     51.0528    196.9787   1.3985604215e+02   2.8579941271e+01    0.1908037    0.1088702  65.62 0.0004234796    1.559    0.358
        28 -10.1115     42.1312    193.9464   1.4140496763e+02   3.0281441428e+01    0.3546915    0.1327897  65.58  0.001471438    3.221    0.690
        29 -11.5437     70.8429    189.5905   1.3498154010e+02   2.7531317176e+01    0.2658873    0.2253222 -67.01 0.0006358318    1.330    0.248
        30 -10.7063     80.2761    177.0958   1.3138798983e+02   2.8876149081e+01    0.2394675    0.2076084 -78.11 0.0004140455    1.161    0.139
        31 -12.9977     67.3093    175.0094   1.3406877380e+02   3.1186934920e+01    0.4610743    0.2700605 -47.26   0.00148367    2.227    0.551
        32 -11.7155     87.3583    167.6873   1.2844004666e+02   2.9889451039e+01    0.6613967     0.516012  64.98  0.003788785    1.185    0.156
        33  -9.7736     99.6582    151.6968   1.2285392650e+02   3.1516107282e+01    0.2701902    0.2296065  75.70 0.0007369262    1.129    0.114
        34 -11.9030     88.2873    151.0062   1.2558361166e+02   3.3551810595e+01    0.2784316    0.2486745 -47.47 0.0006283596    1.289    0.224
        35 -12.3927     67.2414    143.8573   1.2979893714e+02   3.8343982911e+01    0.7828358    0.4774603  66.76  0.003820886    1.857    0.461
        36 -11.7354     57.5392    131.3713   1.3039446941e+02   4.2570520938e+01    0.9477651    0.3575943 -77.60  0.002917915    4.540    0.780
        37 -11.6538    106.9044    247.1645   1.3387274486e+02   1.1395157630e+01    0.3325344     0.204292  55.83  0.001939718    1.310    0.236
        38  -8.4085    192.2330    144.0144   9.9852144119e+01   1.4351083235e+01    0.1848894    0.1232064 -38.22 0.0003839904    1.520    0.342
        39  -9.5258    110.6574    136.9308   1.1720798878e+02   3.2952391367e+01    0.3629216    0.2318739 -31.31  0.001226016    2.247    0.555
        40 -10.3353     97.9789    134.1723   1.1996191415e+02   3.5867769771e+01    0.2636968     0.228795 -35.10 0.0005747169    1.343    0.255
        41  -9.5127     24.6688    237.9934   1.4748944723e+02   2.3734693880e+01    0.1596909    0.1058392  61.85 0.0004019316    1.104    0.094
        42  -9.8149    216.5047    247.4880   1.1430889590e+02  -5.8558302263e+00    0.1166394   0.08855767  25.67 0.0008105513    1.005    0.005
        43  -9.3340    107.5361    123.8252   1.1518571598e+02   3.6554938541e+01    0.2117125    0.1985382  29.80 0.0003359385    1.181    0.153
        44  -8.9767    102.2561    147.8002   1.2149367607e+02   3.1963027781e+01    0.1860592    0.1684183 -29.81 0.0004073271    1.350    0.259
        45  -9.1753    203.4950    111.4955   8.9823747768e+01   1.7806183456e+01    0.1507155    0.1451245  -8.74 0.0001460645    1.046    0.044
        46 -10.4431    168.1286    113.0840   9.7448389664e+01   2.5832584625e+01    0.3534437    0.2955713 -85.10  0.000745223    1.415    0.294
        47 -11.9649     11.2780    240.1841   1.4976244151e+02   2.4750154008e+01    0.4367608    0.1993852  74.78  0.001704273    1.727    0.421
        48 -10.9401     82.0024    249.4906   1.3848223952e+02   1.4613440451e+01    0.2527905    0.1685314  42.33  0.001705189    1.403    0.287
