#   1 NUMBER                 Running object number                                     
#   2 MAG_AUTO               Kron-like elliptical aperture magnitude                    [mag]
#   3 X_IMAGE                Object position along x                                    [pixel]
#   4 Y_IMAGE                Object position along y                                    [pixel]
#   5 X_WORLD                Barycenter position along world x axis                     [deg]
#   6 Y_WORLD                Barycenter position along world y axis                     [deg]
#   7 A_WORLD                Profile RMS along major axis (world units)                 [deg]
#   8 B_WORLD                Profile RMS along minor axis (world units)                 [deg]
#   9 THETA_WORLD            Position angle (CCW/world-x)                               [deg]
#  10 FWHM_WORLD             FWHM assuming a gaussian core                              [deg]
#  11 ELONGATION             A_IMAGE/B_IMAGE                                           
#  12 ELLIPTICITY            1 - B_IMAGE/A_IMAGE                                       
         1 -14.9625     11.6312    146.1035   1.4327021714e+02   4.3447198252e+01       11.532      4.95449  81.90   0.04937238    3.277    0.695
         2 -13.3838    197.9390     27.0322   6.8591310718e+01   3.2714895729e+01     1.515314     1.361333  17.03  0.007477798    1.415    0.293
         3 -13.3189    212.8899      8.5111   6.2313423778e+01   3.1199017874e+01    0.9684699    0.7968457  64.43  0.003289972    1.244    0.196
         4 -10.7914      2.8449      4.1796   1.1440266343e+02   7.1736585521e+01    0.2436226     0.127227 -40.49 0.0009234202    1.640    0.390
         5 -10.3605     54.3410    229.4264   1.4278103760e+02   2.0882540758e+01    0.2450195    0.1485412  66.88  0.001416927    1.372    0.271
         6 -11.6648    239.2220    248.9722   1.1107922617e+02  -1.2355209529e+01    0.4863634    0.2179979  46.00    0.0024169    2.416    0.586
         7 -11.6919    146.4789    249.1216   1.2804510056e+02   2.9428264483e+00    0.4843631    0.2305991  39.25  0.002387637    1.879    0.468
         8 -11.2974     98.8798    248.6199   1.3666821078e+02   1.0837221331e+01    0.3722024    0.2905011  17.12  0.002238682    2.212    0.548
         9  -9.7943     46.9187    249.8401   1.4564879464e+02   1.7973996771e+01    0.1573556    0.1301861  76.58 0.0007649784    1.266    0.210
        10 -12.0237     34.8037    244.2522   1.4721936269e+02   2.0493498695e+01    0.5653265    0.3574937  81.69  0.003971081    1.221    0.181
        11 -11.5433     29.1454    249.8509   1.4847725986e+02   2.0133808061e+01    0.5872498    0.1615396  41.57  0.002872346    3.189    0.686
        12  -9.9838     29.5354    246.5049   1.4820662112e+02   2.0698786750e+01    0.2033354    0.1215966  73.72 0.0007879779    1.253    0.202
        13 -11.4091     13.3596    250.1761   1.5090875188e+02   2.1840454902e+01    0.6391229    0.1920289  39.86   0.00334035    3.235    0.691
        14 -10.1339      2.9909    249.5146   1.5240938460e+02   2.3040646208e+01     0.267672    0.1561688  48.95  0.001923669    1.621    0.383
        15 -10.2659      2.5190    246.4716   1.5233088750e+02   2.3633801422e+01    0.1760741    0.1256807  75.11 0.0005745731    1.130    0.115
        16 -10.9998    198.4452    246.3418   1.1800017001e+02  -5.5079623890e+00    0.2211504    0.1708188   6.38  0.001384027    1.431    0.301
        17 -10.3357     50.5206    246.3503   1.4480169666e+02   1.8153184474e+01    0.2590295    0.1429666  66.00  0.001313037    1.467    0.318
        18 -11.1395    128.7617    245.7636   1.3090588648e+02   6.5008194835e+00    0.2403629    0.1946065  29.32  0.001520394    1.487    0.328
        19 -11.4148     19.4726    242.9987   1.4957127505e+02   2.2483370125e+01    0.2928049    0.1756066 -78.90   0.00178638    1.470    0.320
        20 -11.6806    138.7206    248.2142   1.2936546704e+02   4.4088327832e+00    0.4268473    0.3567944 -55.26  0.002847277    1.455    0.313
        21 -11.4032     12.1286    240.2872   1.5055576407e+02   2.3775121787e+01    0.2339899    0.1537107  55.10  0.001259287    1.383    0.277
        22 -10.6212    122.2586    250.0273   1.3260702403e+02   6.8502012966e+00    0.2432334    0.1406779  50.42  0.001247114    1.400    0.286
        23 -11.6119    242.9135    245.5891   1.0987398001e+02  -1.2494903974e+01    0.2749017    0.2294316  49.76  0.001876287    1.641    0.390
        24 -12.4295     47.7081    215.8826   1.4278821773e+02   2.4457091389e+01    0.6133547    0.5496531  80.78  0.003053706    1.312    0.238
        25  -9.2252     17.1467    227.1672   1.4897143864e+02   2.5732988601e+01    0.1598018   0.09233999  75.10 0.0007653038    1.333    0.250
        26 -10.0604    173.9624    222.8559   1.1894334274e+02   2.4652331140e+00    0.3976747    0.2588758  62.33  0.001985744    1.882    0.469
        27  -8.7218    152.5296    213.0534   1.2165587505e+02   8.2031953145e+00    0.1795002    0.1367526 -55.28 0.0003490034    1.459    0.315
        28 -12.2831      9.9086    206.9726   1.4886517639e+02   3.0484120668e+01    0.6072051    0.3903101  34.79  0.002806379    2.003    0.501
        29 -11.5619     59.5989    199.5870   1.3888784591e+02   2.6355459986e+01    0.2637237    0.2194338 -72.00 0.0005344715    1.269    0.212
        30  -9.4976    193.2122    195.5317   1.1025558240e+02   3.6424387150e+00    0.5991737    0.3036577 -66.45  0.001355393    9.449    0.894
        31 -10.4308     13.5008    196.5211   1.4747351809e+02   3.2293955092e+01    0.3544394    0.1570302  55.42  0.001653184    2.074    0.518
        32 -11.8128     66.0801    191.1161   1.3658484948e+02   2.7330818854e+01    0.2745826      0.22135 -68.19 0.0004417846    1.257    0.204
        33 -11.4454      2.2185    184.0504   1.4863003488e+02   3.5939967343e+01    0.6643222     0.148001 -73.82  0.002763942    3.327    0.699
        34 -10.6164     76.5692    178.0862   1.3260676623e+02   2.8769305941e+01    0.2329611    0.2053718  89.31 0.0003659441    1.062    0.059
        35 -13.0955     63.1185    176.1866   1.3533528457e+02   3.1095418293e+01    0.5076133    0.2731418 -47.53  0.001848529    2.279    0.561
        36  -9.3648     97.1072    174.1290   1.2734982331e+02   2.6458672915e+01    0.2190274    0.1807104  80.19 0.0006980242    1.148    0.129
        37 -11.7464     84.9085    169.0128   1.2934709053e+02   2.9599452033e+01    0.7871278     0.549967  28.74  0.004047446    1.824    0.452
        38 -12.7601     32.5433    233.7390   1.4686620239e+02   2.2745766198e+01    0.2821601    0.2272471 -83.59 0.0007475365    1.334    0.250
        39 -10.0256     97.0026    152.8894   1.2366658432e+02   3.1416690957e+01    0.3057941    0.2874356 -54.09  0.000790778    1.159    0.137
        40  -9.1855    100.0242    148.6576   1.2210858743e+02   3.1897425026e+01    0.2326622     0.190174 -48.76 0.0003893629    1.255    0.203
        41 -11.9304     85.5306    151.9487   1.2632765961e+02   3.3499101849e+01    0.3024034    0.2463417 -48.66  0.000964653    1.296    0.229
        42  -8.8788    134.0000    145.9454   1.1315951695e+02   2.6113054672e+01    0.4295494   0.08599622 -49.27   0.00105306    4.950    0.798
        43 -12.0999     67.3973    143.6217   1.2940476096e+02   3.8111369222e+01    0.6714121    0.4363467  68.33  0.002792833    1.839    0.456
        44  -9.8775    109.0788    137.7111   1.1756972113e+02   3.2855318262e+01    0.4006482    0.2849042 -18.08  0.001395822    2.207    0.547
        45  -8.6060     79.2609    131.4789   1.2406121893e+02   3.9284904277e+01    0.1798283    0.1291182  55.83 0.0008608804    1.543    0.352
        46 -10.3818     96.1132    134.9606   1.2033413592e+02   3.5783689798e+01    0.2658864    0.2141418 -43.98 0.0004148385    1.276    0.216
        47 -11.6710     21.6380    126.4490   1.3840091216e+02   4.7066979397e+01    0.3849994    0.2399563  54.82   0.00127863    1.887    0.470
        48  -8.9581    106.3437    124.0676   1.1522162563e+02   3.6517731969e+01    0.1999056    0.1733591 -57.04 0.0003342098    1.092    0.084
        49 -10.9738     30.4376    131.2540   1.3684292092e+02   4.5203896525e+01     0.283974    0.2026506  51.30 0.0006260689    1.593    0.372
        50  -9.5510    168.1236    113.3024   9.7217883828e+01   2.5712986973e+01    0.3026538    0.2426715 -69.85 0.0009092376    1.418    0.295
        51  -8.5129    203.4537    111.5221   8.9461721766e+01   1.7698861023e+01    0.1517656    0.1478821 -42.22 5.351599e-05    1.043    0.041
        52 -13.7612     37.4505    227.0967   1.4554657940e+02   2.3457918858e+01    0.7022913    0.5075266  72.97  0.002358863    1.055    0.052
        53  -9.7863    158.0190     76.6915   8.9445969257e+01   3.5236590674e+01    0.2194524    0.1973479  52.14  0.000474815    1.092    0.085
        54 -11.0659     11.5873    232.5318   1.5019697544e+02   2.5286257827e+01    0.3674292   0.07697037  54.56  0.001585485    3.805    0.737
        55 -11.2628     11.0148     53.6341   1.2762300840e+02   6.3170157162e+01    0.3126674    0.1641619  41.41  0.001760965    2.883    0.653
        56 -11.2250      3.4548     46.8537   1.2869435214e+02   6.4867243681e+01    0.2604073    0.2186128  49.86  0.001991076    1.784    0.439
        57 -10.8313    161.9459    248.7913   1.2513053941e+02   3.5001751115e-01    0.2908972    0.2134574  89.43  0.001680192    1.958    0.489
        58 -10.3173     80.9168    248.8883   1.3985593219e+02   1.3499466700e+01    0.1712837    0.1496637  66.74   0.00124713    1.268    0.211
        59 -10.9538      3.8813     21.1154   1.2056786480e+02   6.9207456337e+01    0.2754136     0.136405 -13.62  0.001657307    2.178    0.541
        60 -10.8584    170.9943    246.8136   1.2316783540e+02  -8.9922990533e-01    0.2471919    0.1890927  29.60  0.001318606    1.273    0.214
