#   1 NUMBER                 Running object number                                     
#   2 MAG_AUTO               Kron-like elliptical aperture magnitude                    [mag]
#   3 X_IMAGE                Object position along x                                    [pixel]
#   4 Y_IMAGE                Object position along y                                    [pixel]
#   5 X_WORLD                Barycenter position along world x axis                     [deg]
#   6 Y_WORLD                Barycenter position along world y axis                     [deg]
#   7 A_WORLD                Profile RMS along major axis (world units)                 [deg]
#   8 B_WORLD                Profile RMS along minor axis (world units)                 [deg]
#   9 THETA_WORLD            Position angle (CCW/world-x)                               [deg]
#  10 FWHM_WORLD             FWHM assuming a gaussian core                              [deg]
#  11 ELONGATION             A_IMAGE/B_IMAGE                                           
#  12 ELLIPTICITY            1 - B_IMAGE/A_IMAGE                                       
         1 -13.4172    220.8675     28.0342   5.7648894376e+00   2.7104459877e+01    0.9757201    0.5378671 -21.17  0.003927446    2.062    0.515
         2 -13.2574    215.6373     26.5569   5.8465120351e+00   2.8456834028e+01    0.9890509    0.5163809 -17.14  0.004287933    2.509    0.601
         3 -11.1802     50.7370      8.7613   3.2659419814e+01   6.9918646550e+01    0.2643001    0.1385766  12.49  0.001029473    3.159    0.683
         4 -11.0606     64.3289      5.3271   2.4896954905e+01   6.7667867018e+01    0.1828287    0.1285508  62.81 0.0009742325    1.676    0.403
         5 -10.9069     61.5958    241.8567   8.2522714053e+01   1.4484356630e+01    0.1866586    0.1191879 -59.97 0.0009643247    1.915    0.478
         6 -19.6540     17.9687    148.9953   8.5512513092e+01   3.9866473054e+01      19.0446     5.095693 -80.99   0.06415956    3.488    0.713
         7 -10.1535    192.7397    194.4452   4.9877078737e+01   4.4377869374e+00    0.3687293    0.2179419 -65.92   0.00117574    6.495    0.846
         8 -11.6537     54.4961    191.6763   8.0082473099e+01   2.5554530093e+01    0.3741692    0.2098637 -82.72  0.001908038    1.773    0.436
         9 -12.2562     88.2212    218.8888   7.5226888853e+01   1.5449672376e+01    0.5037969    0.4436045  32.89  0.001966114    1.193    0.162
        10 -11.5210    142.6241    182.8252   5.8277408484e+01   1.4545750946e+01    0.3051343    0.2169758   2.68  0.001489444    1.840    0.457
        11 -11.8065    173.2367    175.8991   5.0361563890e+01   1.0785410077e+01    0.7495528    0.4176265 -46.42  0.002064384    1.856    0.461
        12 -11.5950    179.5159    169.1278   4.7733707326e+01   1.0994799824e+01    0.6445562    0.4680857 -34.46  0.002767525    1.310    0.236
        13 -10.6370     74.0246    179.9171   7.4164599527e+01   2.5785728958e+01     0.265297    0.2122293 -83.03 0.0005148739    1.200    0.167
        14  -9.9321     71.5217    176.4745   7.4365538622e+01   2.6944854581e+01    0.2422754    0.1932172  54.23 0.0006426036    1.165    0.142
        15 -10.6260    236.2954    177.0355   3.8795090136e+01   7.8665063742e-01      0.18267     0.133902 -22.36 0.0004664551    1.121    0.108
        16 -12.6231    111.4084    168.3082   6.3177200291e+01   2.2884391004e+01    0.7919662    0.4658537 -78.46  0.002319902    2.481    0.597
        17 -12.1512    125.8541    173.9380   6.0623508046e+01   1.9214331628e+01    0.4394053    0.2047961  37.72  0.001804015    2.075    0.518
        18 -12.4687    232.8729    167.6183   3.7504334647e+01   2.6994208035e+00    0.3812484    0.3654151 -87.41   0.00146172    1.675    0.403
        19 -11.3875    139.7780    171.3729   5.6891788419e+01   1.7407963370e+01    0.2678845    0.2461377  49.12 0.0006332356    1.127    0.112
        20  -9.0369     98.0005    250.5887   7.6232442814e+01   8.5359446691e+00      0.16283   0.08866765  37.05 8.149395e-05    1.455    0.313
        21 -10.0986    103.0213    162.5238   6.4318212048e+01   2.5622596209e+01    0.2154156    0.1409307  38.37 0.0004160533    1.521    0.343
        22  -9.2304     86.7913    237.9257   7.7303018448e+01   1.2100381215e+01    0.1216918    0.0921235 -70.74 0.0003486433    1.523    0.343
        23 -10.4073    231.4702    160.4809   3.6286363138e+01   4.0237602417e+00    0.1334482     0.106934 -17.62 3.625429e-05    1.008    0.008
        24 -12.0697    133.6489    145.4888   5.3227277608e+01   2.4295808858e+01     1.224411     0.342689 -54.12  0.003308946    4.236    0.764
        25 -11.3791    113.0538    151.5373   5.9728364050e+01   2.6591138058e+01    0.4911146     0.311993  83.98   0.00188054    2.630    0.620
        26 -12.0854    109.2376    145.3099   5.9515881621e+01   2.8784257490e+01    0.5631127    0.3702822  42.51  0.002394493    1.550    0.355
        27 -11.1563     89.6685    149.1223   6.5555637163e+01   3.1089588737e+01    0.3530997    0.2739085  65.31  0.000421036    1.357    0.263
        28 -12.8073     95.4793    143.6196   6.2943563195e+01   3.1554642072e+01    0.8215166    0.6242615 -36.72  0.003958722    1.509    0.337
        29  -9.2232    171.6896    143.0236   4.3818975594e+01   1.7560300367e+01    0.2432314    0.1154739 -59.71 0.0007043475    4.232    0.764
        30  -9.4051    128.9737    139.7235   5.3154489562e+01   2.6533628803e+01    0.2086502    0.2007074  51.76 0.0001889089    1.078    0.073
        31 -12.5818    106.1668    132.3342   5.7651640662e+01   3.2586038816e+01    0.7871233    0.4677782 -57.45   0.00289165    1.625    0.385
        32 -12.0700     55.2478    236.4870   8.3391172771e+01   1.6202258090e+01    0.2274039     0.146304  83.91 0.0006690123    1.560    0.359
        33 -11.0841    135.5676    131.2637   4.9536479443e+01   2.7255436457e+01    0.4530036    0.2681239 -59.34  0.001803169    1.904    0.475
        34 -11.3189    135.5245    126.0291   4.8287826682e+01   2.8495733747e+01    0.4869806    0.2501574 -61.99  0.001646623    2.703    0.630
        35 -11.8758     95.2429    131.0676   6.0498949151e+01   3.4828882476e+01    0.3254297    0.2869837 -57.81 0.0004311503    1.077    0.072
        36 -10.5652    161.4810    126.0260   4.2039324257e+01   2.3181047172e+01    0.3272954    0.2231033 -36.87 0.0008035552    1.396    0.284
        37  -9.8994    131.2482    125.9981   4.9382006672e+01   2.9362863581e+01    0.2287068    0.2000857 -43.53 0.0003938925    1.092    0.084
        38 -11.1876    114.3606    125.4854   5.3804084003e+01   3.2793240934e+01     0.319681    0.2923562 -20.04 0.0007409411    1.204    0.169
        39 -12.7258     53.0059    231.5751   8.3506859719e+01   1.7382919269e+01    0.3737091    0.1470081 -67.76  0.001906562    2.669    0.625
        40  -8.9745     90.0000    211.9441   7.4123923898e+01   1.6583988995e+01    0.1880212   0.07137267 -64.01 0.0007948189    2.890    0.654
        41 -10.6611    102.2164    120.5545   5.6109046082e+01   3.6313083462e+01    0.3064951    0.2638281  -9.72 0.0007473422    1.413    0.292
        42 -10.2130    162.2108    119.8268   4.0314880257e+01   2.4367669121e+01    0.2646153    0.2405346 -47.39 0.0005587976    1.075    0.070
        43 -10.1757    159.1768    115.4871   3.9879753648e+01   2.5949748193e+01    0.3647071    0.2422861 -63.11 0.0006213635    1.917    0.478
        44 -10.1953    156.0677    111.3686   3.9504266588e+01   2.7515904729e+01    0.2994754    0.2104319 -57.03 0.0007273302    1.536    0.349
        45 -10.7500    109.1854    116.5594   5.3105611566e+01   3.6024431125e+01    0.5219901    0.3284792 -15.83  0.001413411    3.076    0.675
        46 -15.7657     70.6551    143.5262   6.9960488455e+01   3.5391516428e+01     2.819916     1.972208  59.10   0.01371847    1.492    0.330
        47  -9.8441     92.3096    111.6155   5.6947723108e+01   4.0413531650e+01    0.2597502    0.2244192  85.73 0.0005046187    1.256    0.204
        48 -10.9687    110.9717     98.3052   4.7685948203e+01   4.0209854599e+01    0.2222832    0.2172357  64.07 0.0005873113    1.093    0.085
        49 -10.4954    134.5656    105.6856   4.3226172542e+01   3.3465369146e+01    0.3226997    0.1503013 -41.27  0.001132784    2.073    0.518
        50 -11.8084    119.5633    104.3878   4.6925164137e+01   3.6959260709e+01    0.3509633    0.2881729  86.01  0.001615862    1.486    0.327
        51  -9.8609     82.2792    102.8209   5.7963854051e+01   4.4451737219e+01    0.2513815    0.2115921  58.68 0.0005082337    1.308    0.236
        52 -10.0967     70.2224    235.9270   8.0416248756e+01   1.4526183626e+01    0.1323509   0.08955386 -65.63 0.0003785387    1.696    0.410
        53 -12.4638     39.3051    233.1996   8.6280494079e+01   1.8607297529e+01    0.2035497    0.1666207 -86.01 0.0006572637    1.315    0.239
        54 -12.4910    114.5725    107.2789   4.9137890674e+01   3.7278187669e+01    0.8057805    0.5491956 -87.39  0.003074795    2.342    0.573
        55 -10.5815    127.3665     89.3088   4.0354488785e+01   3.8803808828e+01    0.3038112    0.2595989 -73.04 0.0003132726    1.300    0.231
        56  -9.9534     98.1547     88.0863   4.8607677121e+01   4.5283165588e+01    0.3049936    0.2126637  73.07  0.001082518    2.100    0.524
        57  -9.0654    156.3143     87.3020   3.2636359383e+01   3.2578875450e+01     0.158746    0.1267172   2.81 0.0002679868    1.615    0.381
        58  -9.6197     71.6206    217.4724   7.8609785931e+01   1.7890427214e+01    0.1252723   0.09790795  62.11 0.0006826261    1.106    0.096
        59 -13.1147     47.7075    230.1191   8.4458898926e+01   1.8265760823e+01     0.370431    0.2255462 -78.45  0.002216062    1.692    0.409
        60  -8.7146    101.6608     76.3201   4.3709942084e+01   4.7349635809e+01    0.1630375    0.1269926 -84.23 0.0007049972    1.713    0.416
        61 -11.0389     67.9229    214.5369   7.9137664371e+01   1.8950363319e+01    0.1877397    0.1547048  83.58  0.001236739    1.172    0.146
        62 -13.0509    175.0610     66.6795   2.2658060992e+01   3.2037385658e+01    0.7153367    0.5846593  33.31  0.001083182    1.463    0.317
        63 -13.7610    192.1162     53.8192   1.6121466714e+01   3.0080535059e+01     1.225306     1.016063  30.38  0.003849672    1.515    0.340
        64 -12.3664    198.0765     48.2258   1.3706250280e+01   2.9527335828e+01     0.567216    0.4232228  35.65  0.001788997    1.752    0.429
        65  -9.1391     97.5276     63.5402   4.0538799711e+01   5.1043299015e+01    0.1569434    0.1472726 -41.33 7.169785e-05    1.031    0.030
        66 -10.3507    152.2908    209.1279   6.0425204013e+01   8.0565526771e+00    0.2249868    0.1895798 -78.26  0.001367194    1.635    0.389
        67  -9.8275    164.7424    206.4939   5.7464421765e+01   6.6442372458e+00    0.2822431    0.1821632 -65.77  0.001374624    2.620    0.618
        68  -9.9464    211.0359    198.7681   4.7230861479e+01   1.1037334166e+00    0.2021299    0.1566177 -17.45 0.0004990819    1.136    0.120
        69 -12.4058     59.5858    229.1113   8.2026089095e+01   1.7083413108e+01    0.2205119    0.1917593 -58.53 0.0008906848    1.470    0.320
        70 -10.1465     56.1347     45.2768   4.9177698993e+01   6.2669219913e+01    0.2531961    0.1978315  54.11  0.001313984    1.651    0.394
        71 -10.8527    116.3510     41.3285   2.6371199555e+01   5.0901667107e+01    0.5621405    0.3390011  89.40  0.001985926    3.156    0.683
        72 -11.0645    146.2506    206.7278   6.1324872180e+01   9.3918494262e+00    0.3095485    0.1599509  51.94  0.001369239    2.498    0.600
        73 -10.4657     69.3578    195.8279   7.7048617661e+01   2.2757148939e+01    0.4119373    0.1636055 -69.17  0.001761288    2.580    0.612
        74 -11.2227     60.7974     21.4167   3.5519301770e+01   6.6242982678e+01    0.2870716    0.2250687  38.68 0.0008726583    1.312    0.238
        75 -10.4903     91.0535    244.5423   7.7041861790e+01   1.0414464332e+01    0.1737651    0.1426569 -49.57  0.000536158    1.559    0.358
