#   1 NUMBER                 Running object number                                     
#   2 MAG_AUTO               Kron-like elliptical aperture magnitude                    [mag]
#   3 X_IMAGE                Object position along x                                    [pixel]
#   4 Y_IMAGE                Object position along y                                    [pixel]
#   5 X_WORLD                Barycenter position along world x axis                     [deg]
#   6 Y_WORLD                Barycenter position along world y axis                     [deg]
#   7 A_WORLD                Profile RMS along major axis (world units)                 [deg]
#   8 B_WORLD                Profile RMS along minor axis (world units)                 [deg]
#   9 THETA_WORLD            Position angle (CCW/world-x)                               [deg]
#  10 FWHM_WORLD             FWHM assuming a gaussian core                              [deg]
#  11 ELONGATION             A_IMAGE/B_IMAGE                                           
#  12 ELLIPTICITY            1 - B_IMAGE/A_IMAGE                                       
         1 -13.8456    190.3399     26.0964   5.9451547072e+01   3.4033654178e+01     2.048952     1.124755  14.85  0.001875605    2.887    0.654
         2 -13.2605    248.7303      5.7038   4.8237261983e+01   2.2063997459e+01    0.7049751    0.3797115 -28.79   0.00376253    1.694    0.410
         3 -11.3551     57.2861      5.9969   8.4352071083e+01   6.8101887376e+01    0.2607358    0.1815776   3.54  0.001254279    1.367    0.268
         4 -10.2563      2.1982      3.5745   1.1529959180e+02   7.4756692732e+01    0.2230698   0.07963064 -59.89  0.001034941    2.642    0.622
         5 -11.6336    209.4501      1.8460   5.0311733610e+01   3.1567092992e+01    0.6158819    0.1903083  71.59  0.002286151    2.994    0.666
         6  -9.0155     70.7097    228.2942   1.2962973706e+02   2.0802434881e+01    0.1117557   0.06363835  59.18 0.0005693753    1.552    0.355
         7 -19.3445     22.0916    135.0143   1.3268775628e+02   4.4356956955e+01     17.91719     4.128734 -76.77   0.06287976    4.183    0.761
         8  99.0000     54.4774    234.8518   1.3303967493e+02   2.1601080768e+01       3.6166    0.9862002  45.34   0.01258367    2.485    0.598
         9  -9.9463     78.9144    210.2750   1.2655422999e+02   2.2870504704e+01    0.2020881    0.1576693 -69.44 0.0008204836    1.454    0.312
        10 -11.5214     46.2058    216.2958   1.3341903861e+02   2.5630146078e+01    0.3352618    0.1213477  47.86  0.001823238    2.099    0.523
        11 -11.9120     63.7853    206.3864   1.2927159260e+02   2.5427138002e+01     0.397204    0.3003643 -41.03  0.001407812    1.915    0.478
        12 -11.5767    125.0000    203.9877   1.1636350959e+02   1.7476631695e+01    0.2323279    0.1724227 -63.27   0.00143668    1.661    0.398
        13  -9.7679    164.4966    205.9763   1.0855697799e+02   1.0891422653e+01    0.1876432    0.1450645  30.94 0.0004782804    1.046    0.044
        14 -11.5798     45.5602    203.9186   1.3273542064e+02   2.7926610296e+01    0.1809161    0.1357174  51.63 0.0002459591    1.120    0.107
        15 -10.4068    121.4937    198.9491   1.1644417494e+02   1.8877647556e+01    0.1697133    0.1262524 -56.87  0.001033402    1.591    0.372
        16 -11.3733    193.4938    193.4335   1.0078706198e+02   7.9114875098e+00    0.5390784    0.4323021 -55.81  0.003217769    1.924    0.480
        17 -10.2429     67.5228    195.8707   1.2759421359e+02   2.6932885840e+01    0.3464852    0.1526703  57.94  0.001538546    2.392    0.582
        18 -12.0012     73.3070    192.0764   1.2599952287e+02   2.6939853213e+01    0.5480613    0.4648316  37.04  0.002756453    1.225    0.184
        19  -9.0771    180.1322    192.3942   1.0324614308e+02   1.0319499372e+01     0.182693    0.1070827  45.88 0.0005296359    1.691    0.409
        20  -9.6791     60.9466    190.2597   1.2848684993e+02   2.8796035433e+01    0.2436488    0.1564497 -73.65  0.001513055    1.594    0.372
        21 -11.7690    114.4952    185.6276   1.1616628045e+02   2.2357828394e+01    0.4470718    0.1822024 -51.72  0.001977863    2.751    0.637
        22 -10.8742    210.9215    178.9588   9.4810344853e+01   6.9692345431e+00    0.3588124    0.2191715  17.18  0.001490471    1.667    0.400
        23  -9.8174     99.6569    180.8070   1.1885354287e+02   2.5522608432e+01    0.2061463    0.1617041  31.54  0.000609719    1.269    0.212
        24 -11.1661     83.6100    177.7099   1.2213346426e+02   2.8411320387e+01     0.307587    0.2276815 -48.91  0.001631343    1.584    0.369
        25 -11.7575     86.6444    172.7815   1.2081676485e+02   2.8989731648e+01    0.3571775    0.3027079 -40.16  0.002245852    1.432    0.301
        26 -10.2767    197.7955    176.5129   9.6871954817e+01   9.6087680530e+00    0.3919261    0.2493629  66.28  0.001544449    3.875    0.742
        27 -10.9919    114.8319    172.5494   1.1418403550e+02   2.4799989567e+01    0.3208336    0.1752143 -55.77  0.001557567    2.035    0.509
        28 -10.4323    196.0751    171.0036   9.6151516490e+01   1.0737718311e+01    0.3294718    0.2404355  22.67 0.0009443715    1.218    0.179
        29  -9.6187    178.3309    227.3313   1.0897571288e+02   5.7614609887e+00    0.1230131   0.07827041  13.22  0.000705198    1.720    0.419
        30  -9.5070    193.9467    164.9542   9.5381285686e+01   1.2052128990e+01    0.1982495    0.1775694  88.30  0.001131494    1.728    0.421
        31  -9.0335    141.9018    158.4847   1.0544297257e+02   2.2873878118e+01    0.2005508    0.1281312  40.54 0.0004326099    1.427    0.299
        32 -11.2490     98.6924    155.8285   1.1546995429e+02   3.0745463973e+01    0.5849127    0.3762823 -30.63  0.002765095    2.241    0.554
        33 -10.5322     87.7358    222.9594   1.2595089180e+02   1.9560696660e+01    0.2394587    0.1865224 -42.28  0.001123919    1.795    0.443
        34 -11.6227     63.4828    155.3484   1.2424324390e+02   3.5700947941e+01     0.329574    0.2074175  46.97 0.0009584147    1.497    0.332
        35  -9.9451     90.4821    219.2331   1.2507454270e+02   1.9823570448e+01    0.4231794    0.1687937  58.31  0.001830122    3.308    0.698
        36 -10.1843    133.6325    142.2866   1.0424471975e+02   2.7584015103e+01    0.4030266    0.1453218 -54.00  0.001320154    3.579    0.721
        37 -11.1872     79.9855    139.9575   1.1778475781e+02   3.6960895084e+01    0.2746686     0.192036  72.09  0.001311651    1.671    0.402
        38 -10.9805    109.3261    140.3726   1.1005696897e+02   3.2326686659e+01    0.4895911    0.2881287 -36.56  0.002174102    2.099    0.524
        39 -11.5211     97.7836    140.7705   1.1316763125e+02   3.4129133988e+01    0.2550775    0.2422667   3.94 0.0004870469    1.156    0.135
        40  -8.8884    129.3296    140.3195   1.0491414685e+02   2.8785759911e+01    0.1478079     0.112854  -1.30 -0.0001463486    1.688    0.408
        41 -10.4750     82.5849    133.7307   1.1603979973e+02   3.7993387560e+01    0.2143702    0.1533711  68.15 0.0006467509    1.616    0.381
        42 -10.4821     40.9247    220.1712   1.3463862482e+02   2.5510663455e+01    0.2107428    0.1098069  47.97  0.001144279    1.470    0.320
        43 -11.5871    116.0022    130.5872   1.0633574785e+02   3.3266097301e+01    0.4391428     0.336955  -9.22  0.001610647    1.701    0.412
        44 -10.5044    105.8463    130.8213   1.0911390687e+02   3.4990493726e+01    0.3393673    0.3063728 -82.53    0.0012999    1.189    0.159
        45 -10.5292    103.9520    127.0398   1.0886088168e+02   3.6144304869e+01    0.3000531      0.24723 -24.12 0.0007540282    1.399    0.285
        46  -9.7372    161.7893    128.6206   9.4431708809e+01   2.4663094034e+01    0.2190546    0.1369425  52.13 0.0008214944    1.743    0.426
        47  -9.9405    125.8237    127.5597   1.0308557826e+02   3.2095277244e+01     0.272008    0.1963409  83.93  0.001187997    2.188    0.543
        48  -9.8742    135.5550    125.1658   1.0002185288e+02   3.0703258740e+01    0.3567598     0.134492 -37.12   0.00114435    3.315    0.698
        49 -12.4791    112.5205    119.6588   1.0489413113e+02   3.6261850459e+01    0.5663055    0.5430523  60.43  0.002237584    1.077    0.072
        50 -11.0003     68.6235    116.6692   1.1702432925e+02   4.3831354591e+01    0.2896069       0.2007 -10.30  0.001401212    2.137    0.532
        51  -9.6968    168.1118    112.8872   8.9100494347e+01   2.6227119904e+01    0.3181291    0.2348364 -80.41  0.001337292    2.343    0.573
        52 -11.7109    114.9598    110.1478   1.0196837893e+02   3.7877640069e+01    0.4459492    0.1957937 -46.25  0.001683338    2.282    0.562
        53 -11.6979     77.1929    216.7079   1.2746309872e+02   2.1962823642e+01    0.4058889    0.1925233  60.02  0.001181617    2.225    0.551
        54 -11.2400     61.5913    215.8818   1.3044337992e+02   2.3988798191e+01    0.3219743     0.146876  53.92   0.00136861    1.883    0.469
        55  -9.3266    205.8033    110.1773   8.0605584386e+01   1.8377687590e+01    0.2069513    0.1618756  11.56 0.0004792313    1.309    0.236
        56 -10.1431    184.5119    216.4771   1.0624148538e+02   6.2219805021e+00    0.1246922   0.09637542  26.03 0.0001330641    1.008    0.008
        57  -9.5919    114.3192     94.3300   9.8029066175e+01   4.1398735366e+01     0.157131    0.1182392  -4.76 0.0007047873    1.688    0.408
        58 -11.4670    172.7327     71.6763   7.6516019557e+01   3.2325151743e+01    0.5130644    0.3537382 -82.97 0.0009645896    2.431    0.589
        59 -12.0765    172.4525     45.6868   6.8445980671e+01   3.6269111445e+01    0.4478906    0.4119956   0.55 0.0009064052    1.100    0.091
        60 -12.5976    185.1552     33.1165   6.2350612779e+01   3.4571672259e+01     0.787758    0.5133232  49.62  0.002979062    1.500    0.333
        61  -9.4507    168.3044    248.6379   1.1356069432e+02   4.5913627452e+00    0.1062448   0.07626241  54.68 0.0007037966    1.732    0.423
        62 -10.8090    171.5683    239.6379   1.1186221869e+02   5.2165375796e+00    0.2457649    0.1855029  61.99  0.001619567    1.948    0.487
        63  -8.8021      1.4397    238.3853   1.4218067898e+02   2.6165408266e+01   0.08848275   0.06810135  62.57 0.0007913414    1.164    0.141
        64 -10.0070      4.9103    236.4991   1.4157050500e+02   2.6173272035e+01    0.1131891   0.07498447  43.46 -0.0005294777    1.339    0.253
