#   1 NUMBER                 Running object number                                     
#   2 MAG_AUTO               Kron-like elliptical aperture magnitude                    [mag]
#   3 X_IMAGE                Object position along x                                    [pixel]
#   4 Y_IMAGE                Object position along y                                    [pixel]
#   5 X_WORLD                Barycenter position along world x axis                     [deg]
#   6 Y_WORLD                Barycenter position along world y axis                     [deg]
#   7 A_WORLD                Profile RMS along major axis (world units)                 [deg]
#   8 B_WORLD                Profile RMS along minor axis (world units)                 [deg]
#   9 THETA_WORLD            Position angle (CCW/world-x)                               [deg]
#  10 FWHM_WORLD             FWHM assuming a gaussian core                              [deg]
#  11 ELONGATION             A_IMAGE/B_IMAGE                                           
#  12 ELLIPTICITY            1 - B_IMAGE/A_IMAGE                                       
         1  -9.2479     46.0172     21.5714   8.0494032296e+01   6.6542039339e+01    0.5713159    0.2143338 -34.84  0.002562198    2.428    0.588
         2  -9.3870     27.1976     21.6268   8.9282120650e+01   6.8778748126e+01    0.6585448    0.3098643 -31.26  0.003452445    1.877    0.467
         3  -9.6943     31.1057     11.1328   8.2431543571e+01   6.9952363950e+01    0.4345717    0.2533219  14.56  0.001343484    1.739    0.425
         4  -9.2183     32.0383      6.1277   7.9413485604e+01   7.0522631067e+01    0.2592157    0.1849472  -7.01 0.0002578959    1.125    0.111
         5  -9.4803      8.1278     19.7944   9.8280786113e+01   7.0708444202e+01    0.4002438    0.2598288  25.49  0.002602906    1.859    0.462
         6  -9.5452     63.5464     14.4156   6.9974091097e+01   6.4814092277e+01      0.43627    0.2662622  19.18  0.001570075    1.669    0.401
         7  -9.4046     79.4500     12.9875   6.3775559379e+01   6.2075384278e+01    0.4403788    0.2376337  52.52  0.002198479    1.903    0.475
         8  -9.1051     74.4861     13.5246   6.5655064569e+01   6.2961317322e+01    0.3767624    0.2359076   3.36  0.001492468    1.734    0.423
         9  -9.9460    133.8092     13.4081   5.0428691856e+01   4.9943667149e+01    0.4023129    0.2395585  46.08 0.0005270657    1.543    0.352
        10  -8.2419    105.4508     12.3355   5.6158562106e+01   5.6695331381e+01    0.3842016    0.1329997 -21.43  0.001456965    3.195    0.687
        11  -8.4379     87.9312     13.1599   6.1241158582e+01   6.0365982533e+01    0.2342234    0.1764072  10.35 0.0006808296    1.269    0.212
        12  -8.2769     96.7492     12.2907   5.8381552027e+01   5.8606699473e+01    0.2596848     0.178652  26.00 0.0008521626    1.395    0.283
        13 -10.2786     13.4167      4.4536   8.8382265813e+01   7.2759986069e+01     0.329351    0.2291744   2.34  0.002329532    1.283    0.221
        14  -8.8490     14.8243     11.2169   9.0932035432e+01   7.1611898880e+01    0.3151617     0.183763  26.14  0.001174739    1.897    0.473
        15  -9.5519     20.4812      8.6650   8.6644172703e+01   7.1468799063e+01    0.2558949     0.177368  12.61 0.0005248447    1.379    0.275
        16  -8.8453      3.4876      7.3922   9.5524408742e+01   7.3099304623e+01    0.4703948    0.1486685 -30.06  0.002037064    3.353    0.702
        17  -8.5176    125.1714     10.1570   5.0931301930e+01   5.2336800819e+01    0.2086736    0.1599816  34.93 0.0004929627    1.245    0.197
        18  -8.9528     71.5099      8.7293   6.4424632416e+01   6.4042518120e+01    0.2173821    0.1678505  25.31 0.0002667545    1.108    0.098
        19 -10.0355    119.1993      6.8242   5.0891329985e+01   5.4053521645e+01     0.247333    0.2072196  35.25 0.0002475519    1.096    0.087
        20  -8.7789     41.0794      5.9640   7.5052977287e+01   6.9345389524e+01    0.3170118    0.1632434 -17.34   0.00167934    1.944    0.485
        21  -7.5429    156.5355      7.2418   4.4589005234e+01   4.4902744353e+01    0.1659753    0.1299549   8.39  0.000428666    1.522    0.343
        22  -9.5328     76.4106      5.8973   6.1479906572e+01   6.3401163541e+01    0.3728873    0.2235088 -25.81  0.001482588    1.707    0.414
        23  -9.6215     46.7118      6.2196   7.2694173233e+01   6.8496659849e+01    0.2905688    0.1854919  16.05 0.0002899895    1.454    0.312
        24  -8.9309     91.9376      5.4621   5.6744783448e+01   6.0289301064e+01    0.3590408    0.1916212  42.07   0.00181791    1.625    0.385
        25  -9.8216     84.9535      5.5520   5.8731266228e+01   6.1734127573e+01    0.2488508    0.1960509  18.43 8.763175e-05    1.124    0.110
        26  -8.4713    125.2128      3.7670   4.8566844776e+01   5.2889753355e+01    0.2503551    0.1675025  38.72  0.000572428    1.413    0.292
        27  -8.6181     57.7236      3.3735   6.6756787518e+01   6.7053182883e+01    0.2268328    0.1668334  16.25 0.0005911084    1.138    0.121
        28  -7.5047    153.5446      3.4627   4.3819537032e+01   4.5982410655e+01    0.1348161    0.1169023  57.40 0.0001113304    1.064    0.060
        29  -7.9510    133.7814      3.0242   4.6763533667e+01   5.0886256895e+01     0.160391    0.1092735 -18.72 0.0003693438    1.633    0.388
        30  -8.2535    110.5675      2.2536   5.0927042218e+01   5.6445148743e+01     0.251954    0.2010559  19.19 0.0009081974    1.235    0.191
        31  -8.6962    105.2846      2.0192   5.1996480419e+01   5.7664754634e+01    0.3551521    0.1348923  50.44  0.001541262    2.121    0.528
        32  -7.9026    143.0684      2.1197   4.4939394754e+01   4.8688360133e+01    0.2009367    0.1527623  42.13 0.0003682361    1.272    0.214
        33  -7.4900      2.9769      1.1834   9.2816486849e+01   7.4100199016e+01    0.1274732    0.0731567  14.65 0.0003496844    1.767    0.434
        34  -7.6882    118.9997    118.9965   8.8005604491e+01   3.4852921887e+01    0.2720383    0.1697783  17.17  0.001015858    2.561    0.610
        35  -9.5199    188.3836    246.7110   9.6544332588e+01  -2.5103128317e+00    0.2502114    0.1764576 -12.60  0.001114352    1.671    0.402
        36  -7.6726    208.1913    117.7690   6.7171290153e+01   1.5616372457e+01     0.240512    0.1116563  39.28 0.0008816738    2.531    0.605
        37  -8.1738     15.0041    117.7753   1.1807624349e+02   4.9098570035e+01    0.1352086    0.1049547  23.39 0.0006321379    1.621    0.383
        38  -7.1614    142.5204    111.9954   8.0013962548e+01   3.1510127143e+01    0.2101334    0.1376922 -17.72 0.0007313683    2.209    0.547
        39  -9.2526      2.1380    109.6327   1.2076422678e+02   5.1822649940e+01    0.3164519    0.1333724 -52.44  0.001614901    2.020    0.505
        40  -7.3630     39.0000    109.9995   1.0974979067e+02   4.8963633350e+01    0.2226606   0.06498659 -64.17 0.0007930538    2.878    0.653
        41  -8.3347    133.8783    106.4402   8.0737896648e+01   3.4593343000e+01    0.3171507    0.2069296 -26.56  0.001073123    1.851    0.460
        42  -7.7048    123.8041    107.3832   8.3684658975e+01   3.6513361039e+01    0.2192183    0.1476727  31.42 0.0009423441    1.671    0.401
        43  -7.5553    109.5239    106.4526   8.7426866521e+01   3.9569834950e+01    0.1544426    0.1438607 -23.70 0.0002905182    1.087    0.080
        44  -9.4235     13.9826    105.4508   1.1670395910e+02   5.2089500395e+01    0.3003871    0.1791967 -41.03  0.001540613    1.742    0.426
        45  -7.7286     94.1946    103.3376   9.1116163693e+01   4.3091271093e+01    0.2941716    0.1425689  29.04  0.001084088    2.648    0.622
        46  -9.3577    245.9587    101.1151   5.6937542709e+01   1.0543959692e+01    0.3133886    0.1515723 -54.64   0.00120908    2.785    0.641
        47  -7.2922    140.5362     99.4286   7.7070630408e+01   3.4626384614e+01    0.1572097    0.1502536  -4.25 0.0002622526    1.060    0.057
        48  -7.9226     91.9150     97.9476   9.0380007860e+01   4.4725049468e+01     0.209697    0.1753339 -89.76 0.0003141292    1.493    0.330
        49  -7.6233    130.3349     97.3251   7.9129598579e+01   3.7319372010e+01    0.1626336    0.1241798   0.62 0.0007051249    1.715    0.417
        50  -9.6258     12.7850     93.6550   1.1528614989e+02   5.4935550021e+01     0.365219    0.2559348 -31.03  0.001399044    1.580    0.367
        51  -7.7370     83.0413     93.7785   9.2031483844e+01   4.7158664823e+01    0.2398571    0.1667883  -7.14  0.001070184    2.036    0.509
        52  -8.8702     19.8265     93.0360   1.1286685867e+02   5.4611017493e+01    0.3360577   0.07896916 -49.92  0.001245041    3.209    0.688
        53  -8.4547     44.2190     91.9277   1.0443631003e+02   5.2744709590e+01    0.2538516    0.1563837 -21.99  0.001056295    2.126    0.530
        54  -8.0804    249.5052     91.4598   5.4201219421e+01   1.1371398038e+01    0.1377951    0.1200283 -39.05  0.000325609    1.005    0.005
        55  -8.0141    109.8506     90.9015   8.2993319693e+01   4.2960778426e+01    0.3086296    0.1916004  15.70  0.001163427    2.588    0.614
        56  -8.3901     96.5799     90.1295   8.6757136900e+01   4.5653434188e+01    0.4187075    0.2538942  19.07  0.001681277    2.377    0.579
        57  -8.8222     65.8384     84.2395   9.5111718584e+01   5.1900414751e+01    0.3852887    0.2212937 -28.42 0.0004138172    2.158    0.537
        58 -10.1974     37.5406     80.9317   1.0422944608e+02   5.5952047362e+01    0.6091541    0.3195664 -15.90   0.00256545    3.114    0.679
        59  -9.7345      8.1631     77.4566   1.1408024518e+02   5.8925960160e+01    0.4611255    0.1739423 -40.38  0.001428038    2.529    0.605
        60  -8.3828     87.6211     79.2658   8.6360225224e+01   4.9596460582e+01    0.4224514    0.2475884   5.94  0.001472837    3.488    0.713
        61  -7.7960    184.3113     78.0198   6.1196207209e+01   2.8336115702e+01    0.2169853    0.1879203 -40.17 0.0004129875    1.123    0.110
        62  -8.7543     49.3991     77.1017   9.8966275341e+01   5.5575039329e+01    0.3390642    0.2060066  -0.51  0.001587173    2.349    0.574
        63  -7.4449    119.7414     76.2344   7.5662994025e+01   4.3932508590e+01    0.2442051    0.1174312  36.37 0.0008824965    2.405    0.584
        64  -8.7857     23.4296     74.2883   1.0784910984e+02   5.8656006719e+01    0.3815153    0.1472611 -50.71  0.001370357    1.959    0.490
        65  -9.5946     24.0029     69.8620   1.0660152922e+02   5.9599137621e+01    0.6293606    0.2927311  13.91  0.003039943    2.745    0.636
        66  -8.2630    204.5166     73.1312   5.6307631403e+01   2.4276750642e+01    0.2992062    0.2330729 -14.82 0.0007881338    1.486    0.327
        67  -8.1839     75.0363     74.0588   8.8966590178e+01   5.2773944328e+01    0.2118838    0.1896093 -21.72 0.0003568047    1.045    0.043
        68  -8.0713    125.7806     83.4776   7.6259325463e+01   4.1181424185e+01    0.4007542    0.1482526  43.43  0.001320564    2.792    0.642
        69  -7.9654    106.1311     67.1345   7.6629289085e+01   4.8544996346e+01    0.2367518    0.1986995   3.76  0.001227495    1.261    0.207
        70  -8.9184     83.7560     64.2114   8.2779010407e+01   5.3343463313e+01    0.5087827    0.3078331 -11.66  0.001997068    2.553    0.608
        71  -8.8693     19.9697     61.2569   1.0605341963e+02   6.1774011002e+01    0.2163495    0.1729047  -9.32 0.0006218537    1.361    0.265
        72 -10.0678     61.6109     61.2765   8.9681881855e+01   5.7400504309e+01    0.4999397    0.2650244  22.77 0.0004632476    2.290    0.563
        73  -8.7998     27.1481     60.3749   1.0292185135e+02   6.1409977992e+01    0.3570935    0.1735936 -27.21  0.001661533    2.434    0.589
        74  -8.8714     11.4369     60.9649   1.0941270815e+02   6.2391349039e+01    0.2418137    0.1889817 -69.16 0.0008166096    1.282    0.220
        75  -7.3401    122.3140     61.3541   7.0062999965e+01   4.6125142641e+01     0.158569    0.1151394   9.05  0.000678657    1.736    0.424
        76  -8.0414    110.5362     58.8270   7.2484284944e+01   4.9144878677e+01    0.3012712    0.1827389  28.17  0.001106826    1.969    0.492
        77  -8.5306     16.5091     63.9991   1.0811132813e+02   6.1417935393e+01    0.3355537   0.09683681 -41.40  0.001323543    3.121    0.680
        78  -9.9392     37.0804     59.1265   9.8550878897e+01   6.0770110641e+01    0.3937854    0.2438755 -28.38  0.001059189    1.595    0.373
        79 -10.0774     74.9501     50.4875   8.0965685540e+01   5.7418180503e+01    0.4643732    0.3033481  -4.67 0.0003795586    1.952    0.488
        80  -8.2144    118.4007     50.9896   6.7525979803e+01   4.8742557970e+01    0.2358485    0.1960667  55.63 0.0005612283    1.273    0.214
        81  -9.1208     45.0568     49.1374   9.2036252798e+01   6.1919856461e+01     0.416016    0.2293024 -20.17  0.001376507    2.244    0.554
        82  -7.8655    106.8586     48.8432   6.9983956245e+01   5.1612008422e+01    0.3181839    0.1514735  31.70  0.001160571    2.759    0.638
        83  -8.8582     10.1907     47.3421   1.0646659774e+02   6.5331942808e+01    0.2516339    0.1968051 -18.78 0.0008496313    1.278    0.218
        84  -9.1978     13.7755     45.6185   1.0438928005e+02   6.5459618818e+01    0.2485805    0.2092495  32.12   0.00103794    1.553    0.356
        85  -8.8353      2.3696     44.8067   1.0924569478e+02   6.6267751688e+01    0.3421774    0.2728512  78.81  0.002330156    1.793    0.442
        86  -8.6182      3.7845     40.0291   1.0730094896e+02   6.7162808961e+01    0.2290775   0.09722082 -61.19  0.001178365    2.013    0.503
        87 -11.0761     83.3849     40.0167   7.3984437471e+01   5.7700489222e+01    0.4675626    0.3036741  18.76            0    1.746    0.427
        88  -7.8579     92.1667     37.1457   6.9973481764e+01   5.6451125666e+01    0.2120887    0.1742575  12.85 0.0003910197    1.155    0.135
        89  -9.2180     56.0672     43.1624   8.5350217296e+01   6.1621147890e+01    0.5727167     0.286561 -16.78  0.002147232    3.481    0.713
        90  -7.4264    124.4708     39.4813   6.1843581898e+01   4.9083385960e+01    0.1477089    0.1309219  24.01 0.0003816025    1.090    0.082
        91  -9.4942     69.5072     36.5242   7.7499914374e+01   6.0691939573e+01    0.7050525    0.3221542  24.13  0.002673614    3.266    0.694
        92  -8.5519     35.4821     38.4706   9.2259039436e+01   6.4995548502e+01    0.2090855    0.1523957 -33.35 0.0006191179    1.121    0.108
        93  -9.0284     38.5347     35.4945   8.9757530617e+01   6.5198522458e+01    0.3706426    0.1848408  21.58  0.001594079    2.254    0.556
        94  -7.7870    105.7155     36.8423   6.5807252972e+01   5.3680147639e+01    0.2919252    0.1430092  38.55  0.001216513    2.085    0.520
        95  -9.7523     19.7190     36.1222   9.8612011278e+01   6.6890987615e+01     0.522262    0.1571464  28.31  0.002289294    3.610    0.723
        96  -9.3948     21.7333     32.0289   9.6171878937e+01   6.7486286800e+01    0.3750882    0.2409973   4.84 0.0009784268    1.651    0.394
        97  -8.8449     55.9583     35.7349   8.2443047997e+01   6.2918619584e+01    0.1761693    0.1469562  -2.09 0.0002630119    1.071    0.066
        98  -9.5031      5.7949     34.2748   1.0462496516e+02   6.8185455227e+01    0.4207681    0.2410729 -25.13  0.002498694    1.614    0.381
        99  -8.2015      2.8793     31.8149   1.0526250955e+02   6.8816896686e+01    0.1772125    0.1626124  87.52  0.000342751    1.574    0.365
       100  -8.9740      1.4610     28.4917   1.0489419497e+02   6.9522387229e+01     0.535767          nan -47.54  0.001880878    4.289    0.767
       101  -7.1819    134.0000     31.0061   5.6620753104e+01   4.7937472751e+01     0.218911   0.08134884 -27.64 0.0007870227    2.837    0.647
       102  -9.1869     41.8203     27.0650   8.4805259655e+01   6.6237397609e+01    0.3481333    0.1852039 -43.73  0.000824359    1.859    0.462
       103  -8.9336    218.4655    249.5255   9.1508990816e+01  -7.3032332551e+00    0.2235668   0.08640476  28.94   0.00104012    2.444    0.591
       104  -7.1752    143.9709     27.7761   5.3459592661e+01   4.5887879482e+01    0.1802253    0.1096019  59.67 0.0008372291    1.531    0.347
       105  -7.9896    109.8951     26.2446   6.0567258820e+01   5.4160268906e+01    0.2425329    0.1787214 -34.42  0.001206212    1.455    0.313
       106  -8.9050     61.7544     26.6542   7.6262879988e+01   6.3463439147e+01    0.2632174     0.176277   1.04 0.0006252581    1.575    0.365
       107  -7.4759    153.3736     26.3159   5.1229759750e+01   4.3716194375e+01    0.1547566   0.09792366  34.62 0.0007032098    1.794    0.443
       108  -8.9119     73.7607     24.8724   7.1006146108e+01   6.1678777961e+01     0.308618     0.231726 -58.09  0.001642011    2.151    0.535
       109  -9.5826     69.7461     25.5996   7.2771649749e+01   6.2285939553e+01    0.6331264     0.360222  61.20  0.002633983    3.480    0.713
       110 -11.7519     80.6263     23.2801   6.7956453529e+01   6.0619971755e+01    0.4518672    0.2479843  33.64 0.0002166596    1.786    0.440
       111  -9.4468    196.3880    249.1726   9.5430238008e+01  -4.0418108048e+00     0.346499     0.139557  24.65  0.001384561    3.441    0.709
       112 -10.1526    109.6495    250.0658   1.1169624905e+02   8.9917570661e+00    0.2134746    0.1460559  46.05 0.0003474823    1.165    0.142
       113  -9.6947    159.7613    246.9961   1.0193532198e+02   1.8607719632e+00    0.3509024    0.1928674 -26.40   0.00170931    3.050    0.672
       114  -8.3215    144.7142     23.3752   5.1828774494e+01   4.6213414862e+01    0.2124715    0.1994109  49.24 0.0003450574    1.019    0.019
       115  -8.3168    165.1690     21.3396   4.7702196383e+01   4.1312937247e+01    0.2071193    0.1847233   1.62 0.0008510706    1.273    0.215
       116  -7.8376    128.9953     22.2439   5.4564942409e+01   5.0182665977e+01    0.2387726    0.1310693  36.60  0.000733767    1.935    0.483
       117  -8.9973     92.5952     20.5086   6.3022319613e+01   5.8581538098e+01    0.2627106    0.1986559  20.52 0.0006738013    1.249    0.199
       118  -8.2030    227.4027    245.1783   8.9258011702e+01  -8.0452289284e+00    0.1456346    0.1059823 -36.92 0.0009636828    1.762    0.433
       119  -8.7731     13.3070     18.2881   9.4916416839e+01   7.0587684465e+01    0.4236986    0.1914758 -12.03  0.001703327    3.154    0.683
       120  -8.2745    140.3385     20.0635   5.1520045067e+01   4.7660066250e+01    0.2259593    0.1710782  47.41 0.0004042623    1.223    0.182
       121  -7.2806    147.0011     19.0198   4.9949984349e+01   4.6121800648e+01    0.1564226    0.1507037  -7.34            0    1.119    0.106
       122  -7.6320    101.9761     19.0239   5.9773971571e+01   5.6756636113e+01    0.2985907    0.1307933  24.53 0.0009634155    4.170    0.760
       123  -7.7856    151.7129     17.4555   4.8624655144e+01   4.5111136847e+01     0.233125    0.1605313  18.54 0.0009390205    1.802    0.445
       124  -7.0061    132.3448     18.2652   5.2442631803e+01   4.9806090972e+01     0.146247   0.09251251  36.76 0.0002337913    1.605    0.377
       125  -8.1457    127.6755     16.9260   5.2908202748e+01   5.1072198340e+01    0.1801965    0.1727192  18.62 0.0003615734    1.082    0.076
       126  -8.0014    250.5502    237.9363   8.4090377590e+01  -1.0360735019e+01    0.1508249   0.09804045 -22.48  0.000989296    1.481    0.325
       127  -8.3863    120.8162     15.7873   5.3942597776e+01   5.2819744038e+01    0.2506485     0.117756  29.22 0.0009558804    2.863    0.651
       128  -8.7441    112.1843    235.9483   1.0970572420e+02   1.1010593907e+01    0.1912568    0.1379955  60.39 0.0006945223    1.290    0.225
       129  -9.6325    188.0110    233.6622   9.4670747144e+01  -6.2871724236e-01    0.2750025    0.2138366 -54.72  0.001712021    1.795    0.443
       130  -7.4343    189.2322     15.6185   4.2761139451e+01   3.5901120564e+01    0.1920507    0.1109046  59.69 0.0007630842    1.620    0.383
       131  -7.3283    113.7528    228.9880   1.0859404741e+02   1.2009138174e+01     0.140038     0.105698 -64.49 0.0004364499    1.508    0.337
       132  -8.2236    222.6126    227.8926   8.7301619399e+01  -5.1826992436e+00    0.1910221    0.1364024  19.28 0.0004257125    1.165    0.142
       133  -8.4471     11.8279    206.3812   1.2647100333e+02   2.9404064135e+01    0.1282971    0.1044807  27.27 0.0007280278    1.706    0.414
       134  -9.0384    209.2726    204.8106   8.5744034311e+01   2.2407424447e-01    0.2481707    0.1971001  39.98 0.0009812334    1.327    0.247
       135  -7.8676    113.3268     11.2893   5.3880385834e+01   5.5010082250e+01    0.1431677   0.08817092  32.89  0.000524835    1.615    0.381
       136  -7.6898    177.4694    205.4646   9.2148526398e+01   5.5681197900e+00    0.1351229    0.1186579  23.44 0.0001521373    1.007    0.007
       137 -10.0458    240.5903    203.0984   7.9669588410e+01  -4.5399842542e+00    0.2253047    0.1850081  17.67 0.0004175147    1.154    0.133
       138  -8.7342    210.2273    200.0477   8.4683521107e+01   8.0234010145e-01    0.2201222    0.1737908  33.63  0.001300441    1.224    0.183
       139  -9.5585    178.3405    190.8965   8.9354104993e+01   7.9690553133e+00    0.2401626    0.2277325  -7.78 0.0003346248    1.095    0.086
       140  -7.6458    237.4827    191.0354   7.7918430536e+01  -2.3280448996e+00    0.1819404     0.115732 -29.41 0.0003797289    1.476    0.322
       141  -7.6398    130.8651    190.5039   9.9580921594e+01   1.6637425737e+01    0.1990123    0.1289282  39.92 0.0004328526    1.442    0.306
       142  -8.4943     63.4199    184.6329   1.1401580706e+02   2.8371322390e+01    0.2115333    0.1819589  82.06 0.0003192813    1.022    0.021
       143 -10.5339    100.9963    175.9961   1.0412357529e+02   2.4830415319e+01    0.1964515    0.1811545  75.63            0    1.003    0.003
       144  -8.7118    199.5333    175.0808   8.1903169466e+01   6.8710452642e+00    0.2410882    0.1938937  34.04 0.0003224787    1.206    0.171
       145  -7.5914    169.9718    164.0000   8.5826507368e+01   1.4689905804e+01    0.2427848   0.08208044  42.68 0.0007942943    2.886    0.654
       146  -6.8697    123.3039    163.3169   9.6554353624e+01   2.3841328973e+01    0.1446154    0.1167899 -12.61  0.000702557    1.624    0.384
       147  -7.8413    133.4635    148.0253   9.0966879982e+01   2.5362970051e+01    0.2155274    0.1282901 -27.61 0.0008085865    2.472    0.595
       148  -7.4358    157.3512    147.2057   8.5035897753e+01   2.0721725074e+01    0.2016759    0.1422739 -53.28 0.0002155277    1.513    0.339
       149  -9.1474     67.2603    144.7044   1.0757954131e+02   3.7234537976e+01    0.4336092    0.2924502  67.33  0.002176547    1.685    0.407
       150  -7.2117    107.6613    137.6939   9.5392827093e+01   3.2605665801e+01    0.1511054    0.1188328 -14.87 0.0007041437    1.678    0.404
       151  -7.3137     67.3350    127.3350   1.0450565394e+02   4.1459708434e+01    0.1462155    0.1021154 -32.81 0.0007052095    1.741    0.426
       152  -8.7873    146.0307    123.1646   8.2028897151e+01   2.8318525564e+01    0.2373337    0.2185351 -39.61 -0.0006383859    1.068    0.064
       153  -8.1211    132.9659    124.5069   8.5669039416e+01   3.0778344195e+01    0.2205362    0.1387743  17.74 0.0008096556    2.525    0.604
       154  -8.8635    202.2435    121.1984   6.9144776048e+01   1.6279023162e+01    0.2569314    0.2355094 -45.93 0.0002189926    1.113    0.102
       155  -8.5398     11.0549    121.5866   1.1965127514e+02   4.8467733883e+01    0.2435998    0.1336501  49.14  0.001335086    2.070    0.517
