#   1 NUMBER                 Running object number                                     
#   2 MAG_AUTO               Kron-like elliptical aperture magnitude                    [mag]
#   3 X_IMAGE                Object position along x                                    [pixel]
#   4 Y_IMAGE                Object position along y                                    [pixel]
#   5 X_WORLD                Barycenter position along world x axis                     [deg]
#   6 Y_WORLD                Barycenter position along world y axis                     [deg]
#   7 A_WORLD                Profile RMS along major axis (world units)                 [deg]
#   8 B_WORLD                Profile RMS along minor axis (world units)                 [deg]
#   9 THETA_WORLD            Position angle (CCW/world-x)                               [deg]
#  10 FWHM_WORLD             FWHM assuming a gaussian core                              [deg]
#  11 ELONGATION             A_IMAGE/B_IMAGE                                           
#  12 ELLIPTICITY            1 - B_IMAGE/A_IMAGE                                       
         1 -13.5049    238.2442     23.1764   3.3780968000e+01   2.4164184513e+01    0.8778597    0.3795596 -34.14  0.002217435    2.285    0.562
         2 -11.6701    111.9196     19.0225   4.9456396584e+01   5.4116799263e+01    0.4219247    0.3359511  60.65  0.002145726    1.156    0.135
         3 -11.6423    249.6043     17.1698   3.1740304549e+01   2.2578023218e+01    0.3974493    0.2383331  51.03  0.002278001    2.409    0.585
         4 -12.3238    249.8568     10.5750   3.0446043252e+01   2.3288303763e+01    0.6138827    0.4284927 -19.53  0.003821158    2.147    0.534
         5  -9.2011    158.2432      6.9580   3.7791496442e+01   4.4202963337e+01     0.152219    0.1085635 -30.87 0.0008769532    1.580    0.367
         6 -10.9447    154.4469     16.4571   4.1035163529e+01   4.4205060383e+01    0.4268398    0.2714143 -15.25  0.002090233    2.025    0.506
         7 -10.0268    156.1199     10.8209   3.9168055003e+01   4.4355059523e+01     0.228728    0.1849998 -34.78 0.0007185551    1.382    0.276
         8 -10.9079    101.7451     15.7848   5.0584144571e+01   5.6751910183e+01     0.356654    0.2320636  22.44  0.001165679    1.749    0.428
         9 -10.4983     55.8818     15.1070   6.4355512390e+01   6.6014315092e+01    0.3911676    0.2127224 -12.37  0.001753262    2.129    0.530
        10  -9.5573     60.2575     11.9748   6.1243675005e+01   6.5588293475e+01    0.1953559    0.1583672  27.41 0.0006179613    1.064    0.061
        11 -11.7021    227.9111     13.7372   3.2619083675e+01   2.7441176202e+01    0.2595689    0.2305609  76.43  0.001436259    1.315    0.240
        12 -10.7568    187.9892     10.2395   3.5326765062e+01   3.6791058980e+01     0.265106    0.1629689  70.26 0.0009476885    1.448    0.310
        13 -10.6694    185.0690     13.5022   3.6444245340e+01   3.7140760110e+01    0.3225243    0.2558047 -79.23  0.001332046    1.112    0.101
        14 -10.4035    180.7093     13.4450   3.6902521845e+01   3.8180298324e+01    0.3237236    0.2320744  48.55  0.001254552    1.583    0.368
        15 -12.0409    122.7751     11.1635   4.4499011109e+01   5.2337847130e+01    0.4258207    0.2772693  39.57  0.001441674    1.548    0.354
        16 -11.1557    210.1667      9.1758   3.3047291377e+01   3.1818190874e+01    0.3965885    0.2313822 -65.22  0.001592708    1.565    0.361
        17 -11.1706    212.5915      6.2813   3.2206656413e+01   3.1583051704e+01    0.2993608    0.2157451 -21.80  0.001521553    1.818    0.450
        18 -10.7586     19.3254     10.9397   7.9278435371e+01   7.1765000530e+01    0.1801286    0.1509602  -8.10 0.0004642592    1.216    0.178
        19 -10.3589     16.0850      8.4591   7.9805339827e+01   7.2456625596e+01    0.2287377    0.1522333  19.05 0.0009549822    1.382    0.277
        20 -11.5691     12.1477      6.2910   8.0931326032e+01   7.3161534634e+01    0.4153909    0.2230044 -28.12  0.002570421    1.600    0.375
        21 -11.5650    238.3956      7.2847   3.0547225285e+01   2.5964057009e+01    0.3031819    0.1912135 -31.47  0.001860929    1.798    0.444
        22 -10.1416     48.0617      8.5536   6.4305981400e+01   6.8053541061e+01    0.2678191    0.1488286 -11.83 0.0008411992    1.946    0.486
        23 -10.3162    216.9980      8.5054   3.2346703480e+01   3.0377309215e+01    0.2535989    0.1326545 -52.26  0.001389443    1.673    0.402
        24 -10.8043     23.8653      7.7101   7.5176188315e+01   7.1653894620e+01    0.2769468    0.1477537  21.27 0.0008092698    1.791    0.442
        25 -10.9391      4.3408      7.3287   8.6145221578e+01   7.3745206484e+01    0.2408632    0.1664238  -0.90  0.000745172    1.217    0.178
        26 -11.1756      4.8011      2.2959   8.3238153812e+01   7.4409129962e+01    0.4145251    0.1924163  13.05  0.002326457    2.270    0.559
        27 -10.4401    127.5760      4.9173   4.1563774599e+01   5.1741604198e+01    0.2457955    0.1990643  70.45 0.0006611987    1.092    0.084
        28  -9.5219     38.5662      4.8862   6.6510711557e+01   6.9949302397e+01    0.2343172    0.1131218  39.89  0.001282547    1.884    0.469
        29 -11.5992    247.2716      2.6718   2.9091234380e+01   2.4672067279e+01    0.6411608    0.2160637  81.61  0.002986685    2.958    0.662
        30 -11.2650     19.1042      3.2511   7.5348520703e+01   7.2783007125e+01    0.3432403    0.2114172  22.03  0.001278832    1.442    0.306
        31  -9.4285     42.0192      1.6106   6.3278801854e+01   6.9744441249e+01     0.157138     0.121017  20.17 0.0006147829    1.045    0.043
        32 -10.8540     90.7424      2.5721   4.8009634695e+01   6.0338527748e+01    0.2958922    0.2260825  41.04  0.001086283    1.115    0.104
        33  -8.9276    102.4710      1.5007   4.4980446495e+01   5.7828819297e+01    0.1276432    0.1051527  48.26 0.0008097321    1.034    0.033
        34 -10.4102     84.4016      1.3630   4.9071966183e+01   6.1789500564e+01    0.2179767    0.1038814  59.88 0.0001991504    1.880    0.468
        35  -8.9384     34.4972      1.5689   6.6606183154e+01   7.0910000258e+01    0.1190779   0.08743402  11.98 0.0001652933    1.088    0.081
        36  -9.2413     53.3466     97.7093   9.4773601568e+01   5.1209110482e+01     0.138604    0.1086067  71.12 0.0007026903    1.661    0.398
        37  -9.5275    147.8720     96.1834   6.5802452015e+01   3.3584021683e+01    0.2080075    0.1852884  10.47 0.0003613006    1.292    0.226
        38  -9.8508     69.2572     95.9945   8.8761909290e+01   4.9386920237e+01    0.2101454    0.1746345 -45.85 0.0005038608    1.114    0.102
        39 -10.7052     16.2014     95.1946   1.0764601268e+02   5.5470921324e+01    0.2269643    0.1948462  32.34 0.0005271064    1.389    0.280
        40  -9.4787      1.3397     94.2730   1.1281808255e+02   5.6591970452e+01    0.1686868   0.09894759 -77.54 0.0002762866    1.555    0.357
        41  -9.3977    116.2680     93.4438   7.3195434703e+01   4.1238447380e+01    0.2065597    0.1487679  57.27 0.0009293635    1.540    0.351
        42  -9.1512      8.3247     92.2950   1.0998448287e+02   5.6672385782e+01    0.1333027   0.07562551 -41.55 0.0003079439    1.622    0.383
        43 -10.2863     86.6948     89.1379   8.0947281835e+01   4.8027236514e+01    0.2339867    0.1863278 -66.67 0.0007210801    1.476    0.322
        44  -9.3295     47.9388     88.9760   9.4536843858e+01   5.3923647900e+01    0.1633617    0.1451695 -39.33 0.0003211907    1.012    0.012
        45  -9.6767     34.8344     89.5275   9.9567286124e+01   5.5232954026e+01    0.2390024    0.1311906  26.17   0.00100577    2.034    0.508
        46 -10.8021    131.6335     86.6799   6.7068329050e+01   3.9223485752e+01    0.3009731      0.26658 -26.38 0.0003416123    1.181    0.153
        47 -10.6234    135.0018     83.0852   6.5154923242e+01   3.9150691387e+01    0.2679422    0.2174394 -49.98 0.0002828696    1.256    0.204
        48 -11.4861    120.5613     87.8538   7.0351486532e+01   4.1468690214e+01      0.36805    0.2904042  43.49 0.0009381424    1.274    0.215
        49 -10.4362    102.1353     85.5807   7.4993775798e+01   4.5829079012e+01    0.2558581    0.2017578 -52.34 0.0005161343    1.322    0.243
        50  -9.6862     28.9645     85.4686   1.0084777211e+02   5.6732128504e+01    0.1845871     0.130736  16.65  0.001035442    1.604    0.377
        51  -9.3340    149.0257     83.9862   6.2084816337e+01   3.5693605775e+01    0.1833997    0.1751698  65.78 0.0003893064    1.042    0.040
        52 -11.4481     75.8119     82.9390   8.2765601984e+01   5.1264394946e+01    0.3276101    0.3149905 -63.97 0.0006682483    1.159    0.137
        53 -10.8719     80.0259     80.9791   8.0716392504e+01   5.0963360826e+01    0.2134069    0.1998421 -22.04  0.001207146    1.008    0.008
        54  -9.4744     65.9921     84.4922   8.6695003231e+01   5.2487785473e+01    0.1942719    0.1410012  29.44 0.0009873055    1.459    0.315
        55 -10.9908    112.7102     81.5177   7.0626377061e+01   4.4449298805e+01    0.2576036    0.2333789 -22.78 0.0004409659    1.123    0.109
        56 -10.7709     54.1420     80.5029   8.9902809328e+01   5.5051379301e+01    0.3548789    0.2639732  19.94  0.001877025    1.451    0.311
        57  -9.7046    154.9953     80.0080   5.9625264121e+01   3.5010634492e+01    0.1838411    0.1750238 -56.04  0.000407366    1.041    0.039
        58 -11.5271    104.2276     78.6331   7.2208388411e+01   4.6812379873e+01    0.3669451    0.2957089 -32.93  0.001004943    1.245    0.197
        59 -11.0089    107.6601     75.6877   7.0257813375e+01   4.6668489436e+01    0.3037725    0.1981781 -14.79 0.0009913073    2.197    0.545
        60  -9.2909     22.1604     79.8959   1.0220455233e+02   5.8589126022e+01    0.1862819     0.124892 -38.29 0.0005142353    1.338    0.252
        61 -10.1341      7.0426     80.3268   1.0825793006e+02   5.9526065731e+01    0.1638779    0.1455948 -42.59 0.0004348283    1.123    0.110
        62 -11.4402     78.6119     74.7023   7.9225494717e+01   5.2510860777e+01    0.2880748    0.2493863  10.63 0.0004498051    1.172    0.146
        63 -10.0644     74.4953     75.4305   8.0898122619e+01   5.3067230188e+01    0.2533968    0.2190367  61.33 0.0009026933    1.432    0.302
        64 -10.4419      4.5364     75.5522   1.0830153457e+02   6.0746938935e+01    0.2726447     0.183831 -32.62  0.001091597    1.405    0.288
        65  -9.9547      2.0042     73.0279   1.0881671435e+02   6.1443369844e+01    0.1892951    0.1634917 -21.77 0.0004594619    1.235    0.191
        66  -9.8746    152.4112     73.2719   5.8238063945e+01   3.6833367388e+01    0.2122392    0.1368381 -48.68 0.0009431615    1.597    0.374
        67 -12.1517     97.3654     69.5982   7.1382743040e+01   4.9963489581e+01    0.3688007    0.3358221 -40.33 0.0003228039    1.130    0.115
        68 -10.9622    101.3816     68.1822   6.9683122092e+01   4.9402368360e+01     0.287423    0.1787513 -49.76 0.0005962757    1.786    0.440
        69  -9.7699    103.7837     72.6126   7.0415672501e+01   4.8072753354e+01    0.1928704    0.1400866  54.58 0.0001957708    1.490    0.329
        70 -11.7483    137.0245     69.6874   6.0620604985e+01   4.1136547698e+01    0.2976139    0.2799606 -27.31  0.001038296    1.107    0.096
        71 -10.4020     64.6502     70.6544   8.2936824498e+01   5.5633405342e+01    0.3810609    0.2176834  43.27  0.001704047    1.965    0.491
        72 -11.0883    154.7247     67.4213   5.6048430920e+01   3.7276395343e+01    0.4194244    0.2412554 -84.98  0.001379736    3.665    0.727
        73 -10.9939     89.9031     67.5419   7.3067229316e+01   5.1830027447e+01    0.2663197    0.2461625 -25.61 -1.483137e-06    1.067    0.063
        74  -9.9799     59.4375     66.9586   8.3703328459e+01   5.7167374771e+01    0.2420585    0.1966033  35.12  0.000616009    1.332    0.249
        75  -9.7856     62.1795     64.7603   8.1921185480e+01   5.7192641023e+01    0.2543933    0.2194177 -80.50  0.001159443    1.622    0.383
        76 -10.0098     53.9333     66.9886   8.5854056424e+01   5.7946192502e+01    0.1962812    0.1732677 -22.50  0.001178431    1.003    0.003
        77 -10.5341      4.1602     65.1986   1.0623982991e+02   6.3055536650e+01    0.2216208    0.1720243 -63.78 0.0006236949    1.218    0.179
        78 -11.0603      3.6136     60.0968   1.0528135918e+02   6.4180229620e+01    0.3887152    0.1408538 -49.19  0.001238169    1.986    0.497
        79 -10.7526    109.7199     64.0457   6.5868787351e+01   4.8366151723e+01    0.4027915    0.2717858 -73.26   0.00166059    2.538    0.606
        80 -10.9663     43.2460     63.0595   8.8900479044e+01   6.0127823639e+01    0.3571444    0.3105002  68.17    0.0015409    1.633    0.388
        81  -9.7507     45.9003     72.9237   9.0875247836e+01   5.7747711679e+01     0.208083    0.1591872 -27.83 0.0003342466    1.228    0.186
        82  -9.7350     32.4732     63.0354   9.3430689617e+01   6.1332556425e+01    0.2017225     0.113427 -51.99  0.001031687    1.592    0.372
        83 -11.9437     95.4003     56.9850   6.7680946025e+01   5.2618316591e+01    0.5964963     0.412742  -7.26  0.002812302    1.860    0.462
        84 -10.3498     90.4186     57.1888   6.9320434675e+01   5.3590846513e+01     0.210922    0.1902657 -60.43 0.0003621336    1.328    0.247
        85  -9.6583     50.8901     59.7009   8.4645341329e+01   5.9813543514e+01    0.1743516    0.1573591  -1.28 0.0003610123    1.093    0.085
        86 -11.8923    150.4279     56.8755   5.3801458267e+01   4.0019424849e+01    0.5294873    0.3060612 -67.78  0.001538819    2.698    0.629
        87 -10.7795    145.0274     53.0060   5.3724763583e+01   4.1923163690e+01    0.2141151    0.2030123  75.45  0.001225775    1.012    0.012
        88 -10.3710     59.8660     57.3386   8.0243341483e+01   5.8967611166e+01      0.22736    0.1813842 -48.73  0.001037445    1.373    0.272
        89  -9.2108     34.5365     57.5386   9.0808910183e+01   6.2234763803e+01    0.1293978     0.109445 -27.35 7.407716e-05    1.017    0.017
        90 -10.4534      7.9891     57.0137   1.0253572063e+02   6.4579039869e+01     0.185995    0.1434628 -40.83  0.001231957    1.022    0.022
        91  -9.0267    223.2608     55.9943   4.2374951993e+01   2.2975176761e+01    0.1686174    0.1039006 -40.59 0.0003928725    1.486    0.327
        92 -10.0681    112.0581     55.7503   6.2426392500e+01   4.9244233041e+01     0.233254    0.2075634 -31.77 0.0004841334    1.161    0.139
        93  -9.8544     79.1787     55.2871   7.2382670652e+01   5.6074681907e+01    0.3712688    0.1974211  22.58  0.001227459    2.730    0.634
        94 -11.0879    205.7119     53.2059   4.3862512952e+01   2.7302921378e+01      0.38931    0.2404829 -80.84   0.00186152    1.891    0.471
        95 -10.8923    162.7545     52.4803   5.0180058757e+01   3.7671363460e+01    0.3132008    0.2546682 -27.18  0.001173719    1.368    0.269
        96  -9.8522     29.0302     52.9120   9.1725725051e+01   6.3721677028e+01    0.1854337    0.1524308 -24.23 0.0003235184    1.027    0.027
        97 -11.0586    115.4037     50.5779   5.9775232453e+01   4.9300263027e+01    0.4054841    0.2729663  84.30  0.001306316    2.338    0.572
        98  -9.1921     44.4546     52.5123   8.4808798961e+01   6.2036844312e+01    0.1326495     0.110745 -18.22 0.0008085796    1.033    0.032
        99 -10.7916    106.6808     50.6924   6.2153913763e+01   5.1235868958e+01    0.2481912    0.2334431  28.93 0.0003280295    1.006    0.006
       100  -9.8476     16.4690     50.8924   9.6857870949e+01   6.5239033333e+01    0.2335541    0.1377523  -5.96  0.001140897    1.887    0.470
       101  -9.9550    126.4056     50.1995   5.6930599504e+01   4.6807169101e+01    0.2030803    0.1323248 -44.01 0.0004164255    1.641    0.391
       102  -9.1136     55.2996     50.2851   7.9486220207e+01   6.0940516184e+01    0.1335997   0.09368016  -7.08 0.0003144732    1.552    0.356
       103 -10.0565    211.6030     49.0996   4.2144914446e+01   2.6551598886e+01    0.2168595    0.1639182 -88.85  0.001231764    1.279    0.218
       104  -9.7824     50.0452     48.9569   8.1147629145e+01   6.1936668333e+01    0.2044581    0.1401149  -7.35 0.0005267403    1.593    0.372
       105  -8.6840     43.2907     49.3001   8.4144371191e+01   6.2780987079e+01    0.1320827   0.08812971 -15.52 0.0003959454    1.563    0.360
       106 -10.2278     41.5260     44.5607   8.3140945615e+01   6.3859317672e+01    0.3412671    0.2306891 -66.20  0.001271633    2.615    0.618
       107 -10.1052     84.7724     47.1955   6.7505513430e+01   5.6348956752e+01    0.3505616    0.1630675 -27.09  0.001404461    2.572    0.611
       108  -9.7243     58.8829     47.8648   7.7138001472e+01   6.0817145180e+01    0.1784943    0.1623097  67.10 0.0006561342    1.552    0.356
       109  -9.8772     26.2099     48.4204   9.1499942537e+01   6.4869289093e+01    0.2313671    0.1165834  15.72  0.001149987    2.233    0.552
       110 -10.0120      6.1164     48.1561   1.0095276704e+02   6.6503347365e+01    0.1780119    0.1246692 -33.85 0.0002950982    1.158    0.137
       111 -10.8520    136.6775     46.8200   5.3533955745e+01   4.4850233737e+01    0.2740026    0.1994928  67.11  0.000952907    1.372    0.271
       112 -10.5003    166.8777     43.5013   4.6921845813e+01   3.7937510964e+01    0.2750672    0.2432656  67.03 0.0007360353    1.092    0.084
       113 -11.4159    142.6603     43.1197   5.1140478391e+01   4.3917340156e+01    0.4437458    0.1922581  50.31   0.00178286    2.179    0.541
       114 -10.9909    108.8220     43.3139   5.8965499029e+01   5.1856464794e+01    0.2587469    0.2351174  62.30 0.0002993502    1.152    0.132
       115 -10.9113    235.6603     42.5286   3.8081048916e+01   2.2223507248e+01     0.259205    0.1384517 -43.26  0.001364072    1.608    0.378
       116  -9.8787     56.9208     41.7376   7.5531051361e+01   6.2148114639e+01    0.1765301    0.1506768  13.06 0.0002684926    1.090    0.083
       117 -10.9717    247.6761     40.9173   3.6644882709e+01   1.9982755721e+01    0.2215141    0.2027255 -73.33  0.001562644    1.230    0.187
       118 -10.2347    209.7798     41.6209   4.0585769216e+01   2.7998519126e+01    0.1867162    0.1145849  86.18 0.0003986694    1.695    0.410
       119  -9.4247     63.5490     39.9294   7.2203774180e+01   6.1358072884e+01    0.1919091    0.1051465 -14.44 0.0008082298    2.602    0.616
       120 -10.8682    229.3813     38.2437   3.7756611572e+01   2.4124208106e+01    0.2436849    0.1367501 -47.45  0.001303919    1.530    0.346
       121  -9.9539    112.3540     39.0917   5.6556188826e+01   5.1642234411e+01    0.1860035    0.1731929 -16.22 0.0004322777    1.135    0.119
       122  -9.9053     48.8664     37.7375   7.7248747871e+01   6.4009674611e+01     0.306299    0.1681622 -54.39  0.001369526    2.903    0.656
       123  -9.5958    182.1302     38.1616   4.3185263687e+01   3.4944273104e+01    0.1875836     0.143514 -69.66 0.0003514609    1.275    0.215
       124  -9.0483     89.2373     47.9881   6.6360657584e+01   5.5337658596e+01    0.1682806    0.1142234 -33.08 0.0001916584    1.502    0.334
       125  -9.2255    149.2716     37.6899   4.8220661190e+01   4.3024267871e+01    0.1388322    0.1017861 -68.99  0.000280273    1.548    0.354
       126  -9.6646     83.2747     36.3916   6.3835927421e+01   5.8245606972e+01     0.221192    0.1587716 -50.29 0.0006126018    1.790    0.441
       127  -9.7816    127.3254     36.1637   5.2058018949e+01   4.8531896839e+01    0.2503732    0.1740946  49.86  0.001294054    1.328    0.247
       128  -9.2797     62.6145     36.2014   7.1043614108e+01   6.2083859871e+01    0.1722947    0.1134018 -20.55 0.0001263177    1.542    0.351
       129  -9.4618    170.4143     35.1746   4.4044162476e+01   3.8168489473e+01    0.1962715    0.1155922 -46.91  0.000945105    1.712    0.416
       130  -9.5923    106.8929     34.8801   5.6433941912e+01   5.3431728796e+01    0.2040314    0.1653688  32.36 0.0002725034    1.193    0.162
       131  -9.3997     33.4603     34.7077   8.2923736305e+01   6.6543355911e+01    0.1644712    0.1003283 -29.88 0.0004086451    1.466    0.318
       132 -12.4247    239.3251     32.4607   3.5617474962e+01   2.2785454936e+01    0.4869787    0.2753488  81.74  0.002380071    1.775    0.437
       133 -10.3482     73.6595    213.5442   1.0832036857e+02   2.0011049156e+01    0.3640679    0.3167934 -23.53  0.002191579    1.590    0.371
       134  -9.7230    215.9498     34.7699   3.8318628741e+01   2.7513528905e+01    0.1656578   0.09867826  72.09 0.0006883125    1.625    0.385
       135  -9.9988    193.2595     33.9426   4.0659498779e+01   3.2834051322e+01    0.3209286    0.1449324  52.38   0.00138974    2.403    0.584
       136  -9.8132    114.9385     32.3234   5.3530714928e+01   5.1920578266e+01    0.1954134    0.1627544  52.73 0.0004731505    1.099    0.090
       137 -11.1655     78.8096     31.4118   6.3295936777e+01   5.9799952756e+01    0.2548892    0.2063352  29.36 0.0003684367    1.110    0.099
       138  -8.7603    143.6970     31.2911   4.7254034830e+01   4.5183568213e+01     0.137346    0.1008485 -73.62 0.0001823175    1.570    0.363
       139  -9.1118    124.5556     30.5039   5.0744745549e+01   4.9888779465e+01    0.1364516      0.12429  52.06 0.0001665107    1.014    0.013
       140 -10.0927    109.5877     29.6329   5.3848727180e+01   5.3474210246e+01    0.2838034    0.1559545  57.59  0.001340021    1.691    0.408
       141 -11.8294    249.4765     26.4965   3.3586721803e+01   2.1478267212e+01    0.5037066    0.1721573 -38.75  0.002359846    2.421    0.587
       142 -10.1415    229.8460     29.1658   3.5744681305e+01   2.5192419155e+01    0.1504901    0.1429258 -89.87 0.0003681437    1.295    0.228
       143 -10.0877    215.9670     28.2218   3.6823409029e+01   2.8336367585e+01    0.2197763    0.1688834 -47.62 0.0007136124    1.239    0.193
       144 -10.3699    201.1760     29.1302   3.8560962633e+01   3.1584740991e+01    0.1839304    0.1654258  79.79 0.0003434558    1.163    0.140
       145 -10.0131     47.7146     28.2830   7.3724988015e+01   6.5623314810e+01    0.1925074    0.1770906  -0.78 0.0005001285    1.239    0.193
       146 -10.7133     15.7008     28.2197   8.9140649503e+01   6.9485418077e+01     0.354515    0.1787897 -17.70  0.001673653    2.253    0.556
       147 -10.5232    183.7209     26.5959   3.9949631753e+01   3.6001737718e+01    0.3874253    0.1927964  51.77   0.00178344    2.146    0.534
       148 -10.8211    206.9184     25.7059   3.7140910011e+01   3.0682025604e+01    0.2156451    0.2087235 -89.83 0.0008809888    1.257    0.204
       149 -10.2757     80.3927     25.7573   6.0466065045e+01   6.0203727263e+01    0.2469735    0.2151829 -76.09  0.001053867    1.637    0.389
       150  -9.8314    120.9855     25.5262   4.9797539476e+01   5.1307638382e+01    0.2092554    0.1220877  60.43 0.0006705968    1.554    0.356
       151 -11.8916    227.7894     23.2718   3.4656509125e+01   2.6355594554e+01    0.3609827    0.2146509  88.61  0.002032332    1.606    0.377
       152  -9.4250    179.3571     23.2976   3.9625087808e+01   3.7430606120e+01    0.1333257   0.09354977  43.59 0.0007034753    1.702    0.413
       153  -9.4418     98.5009     23.5181   5.4358171748e+01   5.6660142248e+01    0.1306942     0.119578  44.64 0.0001972404    1.071    0.066
       154  -9.3721     30.2931     23.6805   7.9695023211e+01   6.8666096708e+01   0.09975117   0.09765439 -47.82 0.0007013047    1.607    0.378
       155 -10.6170    165.1303     21.5084   4.0986703171e+01   4.1071353452e+01     0.327109    0.1880612  49.64  0.001129299    1.804    0.446
       156 -10.1387    141.7047     21.8332   4.4648281476e+01   4.6743173399e+01    0.2233414    0.1603231  55.30  0.000335223    1.268    0.212
       157  -9.7557      8.0272     22.7605   9.1056605145e+01   7.1044621507e+01    0.1390323   0.08616973  14.15 0.0006211804    1.608    0.378
       158 -10.5365      1.7598     21.6823   9.4170191227e+01   7.1681011072e+01    0.2130597    0.1425843 -53.59  0.001122577    1.624    0.384
       159 -11.4984     68.7954    218.2536   1.0991422442e+02   1.9656032309e+01     0.612102    0.3559799  81.45  0.003014307    1.999    0.500
       160 -10.8305     76.1679    219.9752   1.0847776336e+02   1.8253656581e+01    0.3550878    0.2900671  25.49  0.001237844    1.443    0.307
       161  -9.2782    123.9999    206.0048   9.5765834329e+01   1.3782037088e+01    0.1607809    0.1464663  45.44 0.0009274345    1.015    0.015
       162 -10.6887    149.9630     18.5734   4.2323838684e+01   4.5078354118e+01    0.2759777    0.2211446  85.15 0.0007051337    1.179    0.152
       163  -8.9275      1.0000    184.9651   1.2208623278e+02   3.4780374283e+01    0.2014318   0.05631975 -77.88 0.0007432007    2.939    0.660
       164  -8.8843      6.7158    163.6350   1.1915966292e+02   3.9375766466e+01    0.1278976   0.07861753 -53.87 0.0007018879    1.690    0.408
       165  -9.2515     26.9872    154.4459   1.1298841610e+02   3.9885882065e+01    0.1673334     0.130855  32.86 0.0001259113    1.464    0.317
       166  -9.3402     60.7388     18.0320   6.3863252061e+01   6.4828767166e+01    0.1696252    0.1410916   8.79 0.0002981341    1.051    0.049
       167  -9.5569      1.9164    153.4533   1.1949730972e+02   4.2199721289e+01    0.1569608    0.1217948  32.66 0.0007365283    1.531    0.347
       168  -9.2684     87.4709     17.4467   5.4934371407e+01   5.9686037944e+01     0.129594    0.1114829  34.39 4.544073e-05    1.005    0.005
       169  -9.3013     29.8552    144.1834   1.1091289952e+02   4.2192666032e+01    0.1775683    0.1383478 -54.38 0.0003302361    1.258    0.205
       170  -9.2536     36.4618    141.9891   1.0870728038e+02   4.2087793788e+01    0.2035409   0.08425179 -48.53 0.0004932113    2.468    0.595
       171  -9.8759     51.2768     19.7464   6.8361033152e+01   6.6224941601e+01    0.2472046   0.09554996 -38.52  0.001093293    2.831    0.647
       172 -11.0527     39.5405     16.0033   7.1676461850e+01   6.8499032717e+01    0.2080035    0.1500742  24.70 0.0001901597    1.245    0.197
       173 -10.5156     10.6808     15.5560   8.6371912501e+01   7.1969928001e+01    0.2541161    0.1620711  -3.53  0.001233673    1.425    0.298
       174 -11.1721     22.0011    141.9285   1.1286069138e+02   4.3479959768e+01    0.2137166    0.1872889  64.35 0.0003357024    1.202    0.168
       175  -9.5076     30.4740     15.4507   7.5724682860e+01   6.9812907885e+01    0.1179316   0.09453929  -1.27 0.0001170197    1.047    0.045
       176 -14.0566    220.1562    133.8599   6.0673104331e+01   1.0413209248e+01     2.387563      1.35405  48.82   0.01110754    1.982    0.495
       177  -9.3073     15.5025    140.5336   1.1453587483e+02   4.4368999458e+01    0.1314071    0.1082004 -77.78 7.455285e-05    1.006    0.006
       178 -10.0676     29.2862    138.0997   1.1025234481e+02   4.3783891708e+01    0.1956203    0.1778281 -43.95 0.0003851287    1.223    0.182
       179  -9.2163     85.3127     14.3111   5.4249131393e+01   6.0457186142e+01    0.1350858   0.08403636  28.13 0.0003374197    1.631    0.387
       180  -9.2996      1.4405    134.0661   1.1780214494e+02   4.6963698498e+01    0.1884696   0.09985416 -73.58 0.0005605749    1.492    0.330
       181  -8.9199    116.3093     13.2772   4.6475858021e+01   5.3661003545e+01    0.1343189   0.08609615  38.51 0.0002346457    1.556    0.357
       182  -9.8626     31.0309    123.9613   1.0760352269e+02   4.7186033129e+01    0.2029916    0.1709742 -68.42            0    1.019    0.018
       183 -10.2295     75.4836    122.6096   9.3236603714e+01   4.1999653563e+01    0.4153199    0.1887514  45.30  0.001272393    2.456    0.593
       184 -13.2546    220.5307    116.6316   5.6729864167e+01   1.3486402220e+01     1.480963    0.9074159 -30.79  0.006892336    1.659    0.397
       185  -9.9668     61.7985    120.1043   9.7030490330e+01   4.4619531344e+01    0.2349404    0.2056738 -16.69 0.0007242258    1.287    0.223
       186  -9.2675    104.0143    119.0091   8.3703628736e+01   3.7932502385e+01    0.1798537     0.179194 -68.07            0    1.031    0.030
       187  -9.1738     98.4811    117.5140   8.4967172180e+01   3.9330773913e+01     0.154719    0.1473787 -37.65 0.0008098346    1.044    0.042
       188  -9.9935     25.8650    116.1418   1.0798459316e+02   4.9607258262e+01    0.2186385    0.1920886  32.79  0.001360132    1.324    0.245
       189 -10.3784     11.4232    114.9152   1.1247532315e+02   5.1021657669e+01    0.2025431    0.1943164 -23.95 0.0006103005    1.237    0.191
       190  -9.4094     32.3058    113.2915   1.0536699541e+02   4.9731965156e+01    0.1386363   0.09065222 -38.91 0.0002343085    1.576    0.365
       191  -9.1727     50.2534    111.6441   9.9027176512e+01   4.8209920340e+01     0.139946    0.1055047  85.94 0.0003273412    1.607    0.378
       192 -11.2168     20.8439    110.0192   1.0862966651e+02   5.1535018643e+01    0.4023481     0.204015  54.21  0.001790424    2.675    0.626
       193  -9.9425     99.9166    108.9917   8.2338906259e+01   4.1078294202e+01    0.2611061    0.2271286  33.87 0.0008105232    1.197    0.165
       194 -10.6552      6.1820    108.3185   1.1324414719e+02   5.2965015627e+01    0.2615818     0.178299 -71.95 0.0006747855    1.213    0.176
       195 -10.4276    237.8667    107.2912   5.2009759873e+01   1.1724942474e+01    0.2082483    0.1679006 -82.72   0.00118821    1.462    0.316
       196  -9.0024     87.7204    105.7015   8.5244462572e+01   4.4082428091e+01    0.1501662    0.1156297 -19.63 0.0001884014    1.540    0.351
       197 -10.2041     79.5686    103.7314   8.7353070731e+01   4.5937625710e+01    0.3159598    0.2301022 -16.66  0.001069485    1.741    0.426
       198 -10.6924      9.6781    103.0563   1.1128436134e+02   5.4022325239e+01    0.2911133    0.2197874 -24.08 0.0009734558    1.494    0.330
       199  -9.6490     45.4906    101.9908   9.8556250862e+01   5.1131018155e+01    0.2129771    0.1240363 -58.47  0.000407698    1.521    0.343
       200  -9.8931     96.8664     98.1774   8.0313683055e+01   4.4135612298e+01    0.2155983     0.203816 -81.44 0.0003084603    1.153    0.133
