#   1 NUMBER                 Running object number                                     
#   2 MAG_AUTO               Kron-like elliptical aperture magnitude                    [mag]
#   3 X_IMAGE                Object position along x                                    [pixel]
#   4 Y_IMAGE                Object position along y                                    [pixel]
#   5 X_WORLD                Barycenter position along world x axis                     [deg]
#   6 Y_WORLD                Barycenter position along world y axis                     [deg]
#   7 A_WORLD                Profile RMS along major axis (world units)                 [deg]
#   8 B_WORLD                Profile RMS along minor axis (world units)                 [deg]
#   9 THETA_WORLD            Position angle (CCW/world-x)                               [deg]
#  10 FWHM_WORLD             FWHM assuming a gaussian core                              [deg]
#  11 ELONGATION             A_IMAGE/B_IMAGE                                           
#  12 ELLIPTICITY            1 - B_IMAGE/A_IMAGE                                       
         1 -14.2594    222.5268     40.0636   5.9339806483e+01   2.4425591164e+01     12.28387          nan -36.27   0.02043035    8.648    0.884
         2 -12.5846    130.5545     38.1215   7.4751342457e+01   4.8035191663e+01     2.264165    0.8351859  66.05  0.005882339    5.192    0.807
         3 -13.0571    187.4479    103.6460   8.2514520046e+01   2.3518289483e+01      3.99787     1.592967 -42.32   0.01402414    2.704    0.630
         4 -12.4712    164.3946     53.9643   7.2681704077e+01   3.7165496514e+01      3.22285     1.730537 -73.28  0.007318881    7.726    0.871
         5 -11.7235    233.7722     32.0906   5.5999769797e+01   2.2717037577e+01    0.5594189    0.3951161  26.17  0.001750653    1.770    0.435
         6 -11.6332    210.7416     69.6936   6.9051338408e+01   2.3372679950e+01     2.297163      1.14046 -66.45  0.005113552    8.827    0.887
         7 -12.3862    245.4552     19.9389   5.1882787430e+01   2.1386286055e+01    0.5469616    0.3919978 -42.41  0.001562812    1.248    0.199
         8 -11.6334    130.5731     19.7022   6.7599001922e+01   5.0385236575e+01    0.9925092    0.4552732   6.14   0.00286756    4.736    0.789
         9 -10.1574    223.3366     15.6102   5.2741820991e+01   2.6901088537e+01     0.412466    0.1915712 -45.38  0.001069301    2.071    0.517
        10 -10.7203    217.2622      8.1581   5.1323122535e+01   2.9082478653e+01     1.012725    0.3107813 -51.89  0.002163238    4.160    0.760
        11 -10.0795    196.6548      3.2750   5.1913514032e+01   3.4658079229e+01      1.00555    0.3319944 -20.28  0.003685928    3.194    0.687
        12  -9.4187    191.3452     15.0467   5.5978525715e+01   3.4929845858e+01    0.7663265     0.435584  65.29  0.003572499    1.655    0.396
        13 -11.2556    190.4322      5.0361   5.3077495065e+01   3.6101109726e+01    0.8067094    0.6314415 -14.66  0.003362592    1.391    0.281
        14 -11.5511    174.1149      3.7922   5.4567173018e+01   4.0472843368e+01     1.261998     0.654644 -53.66  0.005353314    2.273    0.560
        15 -10.9247    152.8007     15.0253   6.1501901826e+01   4.5087542897e+01    0.4172432     0.199911  63.92  0.001705743    1.934    0.483
        16  -9.0509    115.9479     12.5084   6.8013272489e+01   5.4838004295e+01    0.2919824    0.2187666  57.49  0.001066547    1.296    0.228
        17 -10.5748    120.3327      8.8877   6.5446411935e+01   5.4112336327e+01     0.421523    0.3955692  33.63  0.001447876    1.068    0.064
        18  -9.6742    163.7827      7.4209   5.7131473179e+01   4.2893019790e+01    0.3435346    0.1280425  52.89  0.001295773    2.340    0.573
        19 -11.1672    184.0630      3.3145   5.3253257597e+01   3.7903572455e+01    0.6652969    0.4833002  75.76  0.002890823    1.304    0.233
        20  -8.5093    249.6190      1.7440   4.7254448322e+01   2.2237002802e+01    0.1804563    0.0935716 -37.03 0.0009498759    1.652    0.395
        21  -8.0286    225.1830      1.9323   4.9033252788e+01   2.7753722686e+01     0.221969     0.106739 -48.37  0.001033077    1.987    0.497
        22  -8.0347    192.3233    153.3031   9.3309070510e+01   1.4198919607e+01    0.1474463    0.1006117  10.69 0.0005564963    1.636    0.389
        23  -9.8971    235.8205     38.7923   5.7500270276e+01   2.1491952780e+01    0.3099181    0.2622897 -57.41 0.0006702712    1.180    0.153
        24 -12.2464    230.7608     80.6926   6.8907053426e+01   1.7290685258e+01     1.545997    0.7536067  47.34  0.002501342    2.126    0.530
        25 -12.0509    240.2190    243.3048   1.0042194556e+02  -4.8290769672e+00    0.2675269    0.1849565  27.28 0.0002717165    1.254    0.203
        26  -9.9519     69.5115    145.4910   1.2140280122e+02   3.7124212277e+01    0.3235285    0.2725007  58.41  0.001853217    1.135    0.119
        27  -9.9078     66.3916    144.2493   1.2205028543e+02   3.7795217584e+01    0.4005781    0.2648137 -80.24  0.001273933    1.573    0.364
        28 -10.0876    248.5015    142.7028   8.0756652925e+01   5.3192250619e+00    0.2697862    0.2597036 -22.70  0.001696511    1.428    0.299
        29  -8.3994    192.3112    144.4133   9.1387970994e+01   1.5643608705e+01    0.1851271    0.1322545  47.96 0.0003310202    1.487    0.327
        30  -7.7199    168.6528    139.2888   9.5316233550e+01   2.1285479436e+01    0.1415907    0.1184047  76.04 0.0007024588    1.659    0.397
        31  -9.9561    233.6894    136.2211   8.1789068355e+01   8.8602463761e+00    0.2406245    0.2189944  12.03 0.0004157166    1.176    0.149
        32  -8.0972    161.8209    135.6277   9.6044263898e+01   2.3346458416e+01    0.2005824    0.1339558  50.19 0.0002442212    1.571    0.363
        33  -8.0272    143.3433    133.1641   9.9889869584e+01   2.7543157694e+01    0.2013808    0.1377993 -56.06 0.0004829279    1.740    0.425
        34  -8.1358      4.7358    236.4023   1.4159590124e+02   2.6203555439e+01    0.1066782   0.07843451  37.24 0.0003249138    1.481    0.325
        35 -10.0316    152.6922    220.7713   1.1297762845e+02   1.0580592085e+01    0.2148489    0.1756289  27.35 0.0004467852    1.085    0.078
        36 -12.1413      3.5819    213.2876   1.4106857398e+02   3.0158964486e+01    0.7276111    0.4366431 -62.76  0.005019691    2.052    0.513
        37  -9.4239    228.5520    124.1904   7.9923214633e+01   1.1552630267e+01    0.2598976    0.1958552  67.69  0.001323047    1.987    0.497
        38  -9.5204    205.4601    122.1654   8.3622867353e+01   1.6552402736e+01    0.2714195    0.1967908  63.57 0.0009777922    1.873    0.466
        39 -12.1438    179.7505     75.2717   7.6162693178e+01   3.0023020937e+01     1.221094    0.9371291 -63.57  0.005710514    1.677    0.404
        40 -12.2719    179.8722     56.4246   7.0461880519e+01   3.2863062006e+01     0.618431    0.4276845   4.42  0.001665711    1.810    0.447
        41  -9.7578    215.2252    115.9996   8.0314140158e+01   1.5468989403e+01    0.2741867    0.1919578  -9.24  0.001348384    1.491    0.329
        42 -10.3998    167.7139    113.6146   8.9377355899e+01   2.6181466130e+01    0.4301598    0.3474814 -72.75  0.001432494    1.750    0.428
        43 -10.4593    204.9998    110.6581   8.0877217580e+01   1.8475792499e+01    0.4409533    0.2870259  27.38  0.002034076    1.661    0.398
        44  -7.8610    132.2863    110.6624   9.7352454924e+01   3.4349626190e+01    0.1491882    0.1229231 -87.80 0.0006942334    1.632    0.387
        45  -9.9227    224.6108     96.5955   7.3890283713e+01   1.6371562950e+01    0.3777778     0.272747 -77.71  0.001583835    2.365    0.577
        46  -8.4230    211.0092     95.2765   7.5848387582e+01   1.9543851321e+01    0.1969847    0.1782915  26.65 0.0002094904    1.095    0.086
        47  -8.7928    136.0950     93.8570   9.1816968535e+01   3.6955236012e+01    0.2320193    0.2117881 -88.42  0.001187538    1.325    0.245
        48  -8.6086    174.3424     89.9009   8.1507657356e+01   2.8896812879e+01    0.2156486    0.1871474 -14.18 0.0005022573    1.142    0.124
        49 -10.7264    161.7864     86.9241   8.3442898048e+01   3.2388634202e+01     0.792963    0.4243042  26.94  0.002756309    2.744    0.636
        50  -7.7659    124.0384    205.9812   1.1681864396e+02   1.7287934747e+01    0.1452409    0.1150896  40.68            0    1.041    0.040
        51  -9.2438    150.5527     96.0164   8.8726907466e+01   3.3315603228e+01    0.3112961    0.2407692   4.24 0.0007547101    1.515    0.340
        52  -9.8922    144.6094     84.9031   8.6994210779e+01   3.6774570690e+01     0.336517    0.2841052 -37.46 0.0009033117    1.207    0.171
        53  -8.1424    202.5258     80.4913   7.3385883000e+01   2.3732341518e+01    0.1474599    0.1406627 -22.33 0.0001230725    1.069    0.065
        54 -11.0281    160.3980     75.9689   8.0493839347e+01   3.4636683911e+01    0.4109545    0.3232942 -15.28  0.001967189    1.339    0.253
        55 -13.1393     43.7711    179.1903   1.3127177630e+02   3.2895810773e+01    0.9546801     0.878135  43.03  0.003984087    1.258    0.205
        56 -10.9560    197.6261     59.2340   6.8218763611e+01   2.8013046137e+01    0.4235148    0.4026812 -49.52 0.0009071465    1.100    0.091
        57 -11.1414    209.5324     62.5279   6.7263923892e+01   2.4658854034e+01     1.143766    0.4994984 -57.62  0.003077188    5.593    0.821
        58 -11.1465    203.4079     55.4120   6.6202069951e+01   2.7112555774e+01    0.4444491    0.4004005  25.64  0.001077473    1.136    0.120
        59  -8.0154    117.0930     72.1660   9.0554845841e+01   4.5359149513e+01    0.1878702    0.1777558 -69.85 0.0002847856    1.231    0.187
        60 -10.7553    219.7269     26.8401   5.6099154259e+01   2.6596607646e+01    0.5198591    0.2547878 -44.96  0.001660431    2.010    0.502
        61 -10.3329    186.6514     67.7991   7.2635816974e+01   2.9485072775e+01    0.3530639    0.3012491  53.38   0.00042219    1.189    0.159
        62  -9.4723    250.2740     68.0000   6.3136240714e+01   1.4812566007e+01    0.2130662    0.1929223 -19.65  0.001330875    1.025    0.025
        63  -7.8657     91.7175     66.3641   9.6715138811e+01   5.1577102938e+01    0.1439585    0.1185952 -78.91 0.0007016862    1.683    0.406
        64 -10.1837    144.5016     59.7961   7.9045494805e+01   4.1248464377e+01    0.5614578    0.3330965 -56.11  0.002125699    2.433    0.589
        65  -7.9794     72.5949     58.4533   1.0095946552e+02   5.6460740862e+01    0.1403346    0.1271799 -29.54 0.0001601213    1.044    0.042
        66  -9.6725    248.2450     54.5399   6.0081709792e+01   1.6899144769e+01     0.398653    0.1994849 -33.64  0.001890391    1.732    0.423
        67  -8.3997    100.3670    147.0264   1.1358894818e+02   3.2361838816e+01    0.1756074    0.1642129 -71.37 0.0003226863    1.100    0.091
        68 -10.2773    129.5949     49.9870   7.9388669162e+01   4.6469177447e+01    0.2780047    0.2390658  25.38 0.0001659955    1.127    0.112
        69  -8.3935    160.3151    127.9663   9.4620387015e+01   2.5093517702e+01    0.2383458    0.1186633 -59.44  0.000704726    4.341    0.770
        70 -10.8398    247.9989     43.9193   5.7501916799e+01   1.8209362597e+01    0.3999584    0.2793364 -30.34 0.0004867855    1.283    0.220
        71 -10.6512    243.9829     41.0647   5.7212299955e+01   1.9411064515e+01    0.2686671    0.2241767 -52.72 0.0005078298    1.170    0.145
        72  -9.2469    189.0000     46.0585   6.5719485971e+01   3.1964948455e+01    0.4263984    0.1004316 -33.77  0.001269351    3.620    0.724
        73 -10.9142    236.3773    145.4871   8.3366537316e+01   7.0907349040e+00    0.6575457     0.232479  47.45  0.002567131    3.054    0.673
        74  -8.0534    197.2204     43.5937   6.3710714581e+01   3.0197515144e+01     0.152354   0.09979098 -49.63 0.0005612614    1.655    0.396
        75  -8.1277    194.5234     40.5409   6.3206674199e+01   3.1263032415e+01    0.1459532    0.1368109 -61.52 9.005378e-05    1.103    0.093
        76  -9.0333    203.9320     37.3879   6.0953473971e+01   2.9275243596e+01      0.25204    0.1765101 -45.04 0.0004531706    1.442    0.306
        77 -10.2510    183.1246     35.6271   6.3444009070e+01   3.4796397449e+01    0.5371786     0.309022 -50.70  0.001574082    2.013    0.503
        78  -9.1705    243.4710     31.9540   5.5004682919e+01   2.0548704499e+01    0.4295119    0.1695451 -33.09  0.001867797    2.144    0.534
        79  -9.6992    192.1317     90.7281   7.8111297747e+01   2.4572484477e+01    0.5362316    0.3796752  10.80  0.002050282    1.701    0.412
        80 -11.2860    249.6511     26.4068   5.3088419559e+01   1.9796537321e+01    0.3575157    0.1907316 -36.44 0.0008319265    1.620    0.383
        81 -13.4204     27.1304    191.9953   1.3566721555e+02   3.2010211749e+01     0.909818    0.7864793  49.98  0.002567114    1.238    0.192
        82 -10.4184    117.5167     28.5992   7.4368032737e+01   5.2533512718e+01    0.3094969    0.2092203   5.43  0.001410259    1.730    0.422
        83 -11.4740    133.9719     24.1921   6.8606574549e+01   4.8998018777e+01    0.7717597    0.1959587  47.78   0.00232197    3.460    0.711
        84 -11.2986     34.4456    186.6381   1.3382538369e+02   3.2352453532e+01    0.3306294    0.2990545   8.99  0.001244764    1.524    0.344
        85  -9.6145    108.5238     22.0147   7.4059502472e+01   5.5527342936e+01    0.2171092    0.1400148 -22.99 0.0008111808    1.572    0.364
        86 -10.1297    101.0154    175.9906   1.1789326335e+02   2.6265915966e+01    0.1810144     0.160457  51.17            0    1.003    0.003
        87  -9.2239    236.9265    174.8378   8.9308403334e+01   3.1444547349e+00    0.2639084     0.167816  58.76  0.001234335    3.088    0.676
        88  -8.9794    227.8193    175.6189   9.1063249355e+01   4.5497833876e+00    0.1750592     0.112701  44.85 0.0009459771    1.731    0.422
        89  -8.0696    191.3267    191.6720   1.0090354272e+02   8.5265467434e+00    0.1193035    0.1015427  61.91 0.0007050427    1.702    0.412
        90 -10.6991     59.8225    165.1777   1.2627074800e+02   3.4024856483e+01    0.4333544    0.3375297  45.32  0.002781042    1.214    0.176
        91  -8.5144    101.8004    162.1667   1.1569384015e+02   2.8941726756e+01    0.1809275    0.1609643  58.72  0.000250604    1.065    0.061
        92 -10.0923    245.0910    165.6385   8.6094946842e+01   2.9626214609e+00    0.3076775    0.2126499  47.09  0.001114406    1.805    0.446
        93  -9.8458    179.8859     23.7586   6.0192801293e+01   3.7011859100e+01    0.5793692    0.3593051  61.54  0.002711933    1.521    0.343
        94 -10.6643    247.0293    160.2095   8.4671771800e+01   3.3248058855e+00    0.5945321     0.313528  -1.15  0.002682699    2.461    0.594
        95  -9.7075    246.3028    155.9967   8.3924824558e+01   3.9800495967e+00    0.1984541    0.1436872   6.96 0.0003689987    1.206    0.171
        96  -8.5450    167.8260    158.6255   9.9596936449e+01   1.8004987123e+01    0.2184459    0.1813112 -11.47 0.0003332207    1.261    0.207
        97 -10.0003    214.5109    154.0869   8.9131554041e+01   9.8758699164e+00    0.2345098    0.1903773  29.65 0.0003184775    1.170    0.145
        98  -8.3511    204.3740    153.1606   9.0874882658e+01   1.1916593246e+01    0.1874269    0.1258167 -40.90 0.0006844232    1.708    0.414
