#   1 NUMBER                 Running object number                                     
#   2 MAG_AUTO               Kron-like elliptical aperture magnitude                    [mag]
#   3 X_IMAGE                Object position along x                                    [pixel]
#   4 Y_IMAGE                Object position along y                                    [pixel]
#   5 X_WORLD                Barycenter position along world x axis                     [deg]
#   6 Y_WORLD                Barycenter position along world y axis                     [deg]
#   7 A_WORLD                Profile RMS along major axis (world units)                 [deg]
#   8 B_WORLD                Profile RMS along minor axis (world units)                 [deg]
#   9 THETA_WORLD            Position angle (CCW/world-x)                               [deg]
#  10 FWHM_WORLD             FWHM assuming a gaussian core                              [deg]
#  11 ELONGATION             A_IMAGE/B_IMAGE                                           
#  12 ELLIPTICITY            1 - B_IMAGE/A_IMAGE                                       
         1 -13.5429      6.1557     37.8206   9.7152288270e+01   6.8330807971e+01     1.761851    0.5479286 -46.90  0.008217125    2.292    0.564
         2 -14.6220      2.9850    122.3751   1.1549330945e+02   4.9318691221e+01     5.817654    0.9891382 -76.08    0.0141082    7.175    0.861
         3 -14.4657     12.7511     88.2118   1.0694400060e+02   5.7097993267e+01     1.949783     1.400898 -58.47   0.01164654    1.147    0.128
         4 -14.3926     17.2229     66.5317   1.0024285426e+02   6.1749455154e+01     1.889845     1.418118 -41.38   0.01000188    1.069    0.065
         5 -12.3336    116.0235     47.0886   5.6615810763e+01   4.9642052407e+01     1.325812    0.6830193 -50.51  0.005342998    2.642    0.621
         6 -13.0613    231.8633     29.7228   3.3769211771e+01   2.5026975427e+01    0.7224889    0.6098653 -78.43  0.005002967    1.086    0.079
         7 -11.2442     46.3274     17.0839   6.8024102710e+01   6.7255450118e+01    0.4716596    0.3222689  -3.10  0.002861513    1.371    0.270
         8 -12.0616     31.9669     19.1552   7.5822316890e+01   6.9018880963e+01    0.6751021    0.4621658   5.07  0.004248629    1.271    0.213
         9 -11.0811    100.2380     16.9824   4.9761223336e+01   5.6854646316e+01    0.7508416    0.3540573  70.61  0.003001848    2.990    0.666
        10 -10.9147    202.2236      4.0070   3.0771468018e+01   3.4253189697e+01    0.2656669    0.2355677  81.97  0.001889961    1.193    0.162
        11 -11.9632    119.0731      2.9716   4.0699803266e+01   5.3764112601e+01    0.3531096    0.3087589  68.54  0.002332354    1.086    0.079
        12 -13.0933     99.7877    218.5005   1.0184422299e+02   1.4770958528e+01     1.144798    0.7933063  89.66  0.004668048    1.822    0.451
        13 -10.3617     56.7284    250.1827   1.1445516552e+02   1.4159875598e+01    0.2244292    0.1542554  37.45  0.001034782    1.356    0.262
        14 -11.9317     41.6752    248.1200   1.1726808720e+02   1.6364074094e+01    0.5810332    0.2955318  51.33  0.002266553    1.604    0.376
        15 -11.4531     17.0229    249.9722   1.2203808668e+02   1.8683482826e+01    0.3949621    0.1561619  37.70  0.001975511    2.131    0.531
        16 -11.7474      2.2347    247.6624   1.2459310409e+02   2.0575347803e+01    0.5449717    0.2383035 -88.48  0.003131806    2.054    0.513
        17 -13.4021     85.7832    220.1012   1.0527729534e+02   1.6486960390e+01     1.148109    0.9064736 -66.11  0.004378152    1.342    0.255
        18 -11.8852     93.6583    225.1728   1.0409395439e+02   1.4262500284e+01    0.5764487    0.4545832 -83.70  0.002533186    1.391    0.281
        19 -14.9686     13.8110    203.5563   1.1992832817e+02   2.8790292479e+01     1.676638      1.04563 -54.98  0.009765825    1.819    0.450
        20 -10.7631     53.5415    205.7283   1.1114684218e+02   2.4036389223e+01    0.4621569    0.2651948 -50.04   0.00195181    2.023    0.506
        21 -11.4074     57.4555    211.8079   1.1086410163e+02   2.2156494496e+01    0.4818935    0.2732183  65.21  0.002098764    1.881    0.468
        22 -11.4823     54.8001    225.1577   1.1274264852e+02   1.9531555815e+01    0.9943599    0.2831409  52.29  0.003432155    3.947    0.747
        23 -11.8686     55.4809    217.8423   1.1190881026e+02   2.1048979823e+01     0.698193    0.4667757 -87.62  0.003270411    1.493    0.330
        24 -11.6951     70.7906    219.0071   1.0857657038e+02   1.8809881515e+01    0.6203347    0.4223881  68.93  0.002574186    1.502    0.334
        25 -11.5951    109.9863    215.0042   9.8986397728e+01   1.3953258791e+01    0.7617655    0.4333131  55.59  0.003418993    2.026    0.506
        26 -10.3420     78.4543    204.6787   1.0510698699e+02   2.0985679098e+01    0.2967784     0.244289 -44.86  0.001125709    1.399    0.285
        27 -10.5841     62.9401    203.3539   1.0867105829e+02   2.3400575494e+01    0.3434927    0.2986785  26.97   0.00158599    1.297    0.229
        28 -11.0890     43.3484    180.8476   1.1094994052e+02   3.1202236782e+01    0.2779533    0.2355605 -51.40 0.0005414574    1.298    0.230
        29 -11.2150     51.2459    174.1355   1.0809432889e+02   3.1962680468e+01    0.2733494    0.2407862 -48.55 0.0004809999    1.242    0.195
        30 -10.3935     64.1068    163.9924   1.0317360507e+02   3.2921051305e+01    0.2176505    0.2076415  54.02 0.0003330784    1.100    0.091
        31 -12.6366     49.2588    160.5070   1.0681266514e+02   3.5654477591e+01    0.5437255    0.3032147 -38.93  0.001536078    2.237    0.553
        32  -9.6569    133.8653    161.0543   8.3519035591e+01   2.2130820612e+01    0.2349722     0.206854  88.49  0.000479147    1.343    0.256
        33 -11.3862     73.0210    157.1445   9.9539106750e+01   3.3451906721e+01    0.5301066    0.4306774  -7.90  0.001868972    1.535    0.349
        34 -12.0080     67.9323    143.4675   9.8603400229e+01   3.7688190624e+01    0.7205623    0.4245288  61.63  0.002771538    2.314    0.568
        35 -13.4211     25.5207    139.0035   1.1073129484e+02   4.3559176019e+01    0.9510618     0.652877  53.59  0.003933275    1.613    0.380
        36 -11.6329     34.2334    140.2838   1.0829561232e+02   4.2444889753e+01    0.5177202    0.2888025 -83.45  0.002343336    1.930    0.482
        37  -9.5974     89.1678    144.1335   9.2367645683e+01   3.4319689036e+01    0.2387127    0.2074858 -29.84 0.0006967878    1.222    0.181
        38 -11.3948     76.9152    141.9298   9.5591412998e+01   3.6795205711e+01    0.3144488    0.2582035 -51.59 0.0003514118    1.157    0.136
        39  -9.9652    105.5625    131.2374   8.4649733132e+01   3.4699847725e+01     0.291541    0.2644754  19.10 0.0008384101    1.151    0.131
        40 -13.1757     16.5574    123.3026   1.1135333684e+02   4.8240283518e+01     0.754868    0.4975283 -63.67  0.003478849    1.244    0.196
        41 -12.8487     73.1411    118.3830   9.1750396668e+01   4.3340316834e+01    0.8186064    0.6480966 -29.64  0.004124759    1.317    0.241
        42 -11.0826     59.4402    114.6623   9.5495175787e+01   4.6182117800e+01    0.3984143    0.2611514 -67.31  0.001857915    1.593    0.372
        43  -9.9578     90.4358    128.0667   8.8475621327e+01   3.8164130793e+01    0.2549241    0.2152142   4.37 0.0004098696    1.337    0.252
        44 -11.7196     46.8081    119.1345   1.0070738210e+02   4.6573239828e+01    0.4986485    0.4483942  -7.84  0.002896258    1.218    0.179
        45  -8.8104    102.9525    119.9518   8.2669802970e+01   3.7929860450e+01    0.1800941    0.1749765  -9.80            0    1.027    0.027
        46 -10.8573     57.8503    102.1081   9.3120730231e+01   4.9479901033e+01    0.2220616     0.203737 -85.52  0.001249325    1.259    0.205
        47 -11.3329     36.6718     91.6700   9.8460758838e+01   5.4393315063e+01    0.4166188    0.2618949 -26.69  0.001731442    1.695    0.410
        48 -12.0748     35.0424     85.9245   9.7715138419e+01   5.5901027287e+01    0.6124332    0.4863275  -0.69  0.002432689    1.337    0.252
        49 -10.6468     52.2335     89.9967   9.2104973210e+01   5.3064755479e+01    0.2563811    0.1813272  -0.20  0.001284168    1.624    0.384
        50 -12.1013     70.5519     79.6850   8.2257271083e+01   5.2786402029e+01     1.024161      0.57059 -59.95  0.004194703    2.381    0.580
        51 -11.4908     61.2043     78.7777   8.5494029135e+01   5.4389433852e+01    0.4073614    0.2853443  50.51  0.001996204    1.867    0.464
        52 -11.1479     52.2403     81.0079   8.9626256741e+01   5.5109104217e+01    0.4302025    0.3035504  -0.91  0.001893854    1.590    0.371
        53 -11.3816     38.6128     78.6538   9.4408305262e+01   5.7207237439e+01    0.5352329    0.3453827   6.58  0.002752065    1.744    0.427
        54 -14.6341     31.5576    189.6979   1.1477151368e+02   3.0310721180e+01     2.812973     1.470368  82.29   0.01299015    2.070    0.517
        55 -10.4934     60.7092     67.5082   8.2112214820e+01   5.6815362732e+01    0.2997905    0.1907386 -22.13   0.00142992    1.715    0.417
        56 -11.5384      2.6801     61.3982   1.0546242745e+02   6.3711966765e+01    0.5851675    0.3000298 -64.11   0.00312415    1.738    0.425
        57 -10.1435     53.0193     57.0198   8.1639903167e+01   5.9967747232e+01    0.1970834    0.1759385  79.17  0.001140582    1.730    0.422
        58 -11.9607    155.8479    243.8821   9.2927042702e+01   1.2521472903e+00      0.33821    0.2762084  -6.58  0.002096656    1.283    0.220
        59 -10.7473     95.4749     43.0083   6.0923089912e+01   5.4747859589e+01    0.2688494    0.2011904  63.87  0.001394451    1.624    0.384
        60 -11.7398     81.3904     37.9531   6.3505695456e+01   5.8329820610e+01    0.6557006     0.407984 -21.00  0.003303832    1.732    0.423
        61 -10.4859     40.7009     41.2305   8.1146983221e+01   6.4461195670e+01    0.3401857    0.2289528  -2.12  0.001910458    1.478    0.323
        62 -12.0928     26.6212     38.8227   8.6962836856e+01   6.6486952642e+01    0.7006735    0.3780084  26.08  0.002976637    1.894    0.472
        63 -11.9110     62.7795     35.1420   6.9172189334e+01   6.2142167993e+01    0.6014615    0.3809972 -30.04  0.003251726    1.569    0.363
        64 -10.3707     28.8118    244.6053   1.1952639717e+02   1.8499368168e+01    0.3925792    0.1454859  65.54  0.001732259    3.005    0.667
        65 -11.7088     59.3619     26.5243   6.6852475216e+01   6.3923808350e+01    0.4853739    0.3020748  23.47  0.002574642    1.530    0.346
        66 -10.2011     78.4744     26.1531   5.9718731636e+01   6.0447894565e+01    0.3263423    0.1671652  39.50  0.001572748    1.741    0.426
        67 -11.5974     40.8259     24.7815   7.4118677787e+01   6.7039796684e+01    0.5603554    0.3347968  40.82  0.003098278    1.910    0.476
        68 -13.7009     14.2189    224.3199   1.2115897315e+02   2.4180100919e+01     1.433385    0.5664493 -70.93  0.007281546    2.290    0.563
        69 -13.2221     47.2239    195.0725   1.1153810231e+02   2.7301117938e+01       1.0678    0.7839614 -69.89  0.006127619    1.293    0.227
        70 -14.2792      7.1755    195.6714   1.2084680659e+02   3.1177732566e+01     1.306106    0.5357736 -81.07  0.006020184    2.115    0.527
        71 -11.7529     33.3770    230.2780   1.1767491130e+02   2.0938388241e+01    0.6072525    0.3291868  67.52  0.002955629    1.733    0.423
