#   1 NUMBER                 Running object number                                     
#   2 MAG_AUTO               Kron-like elliptical aperture magnitude                    [mag]
#   3 X_IMAGE                Object position along x                                    [pixel]
#   4 Y_IMAGE                Object position along y                                    [pixel]
#   5 X_WORLD                Barycenter position along world x axis                     [deg]
#   6 Y_WORLD                Barycenter position along world y axis                     [deg]
#   7 A_WORLD                Profile RMS along major axis (world units)                 [deg]
#   8 B_WORLD                Profile RMS along minor axis (world units)                 [deg]
#   9 THETA_WORLD            Position angle (CCW/world-x)                               [deg]
#  10 FWHM_WORLD             FWHM assuming a gaussian core                              [deg]
#  11 ELONGATION             A_IMAGE/B_IMAGE                                           
#  12 ELLIPTICITY            1 - B_IMAGE/A_IMAGE                                       
         1 -10.0927     39.7425      6.1914   8.0273137239e+01   6.9680272950e+01    0.7647011    0.2859408 -30.41  0.003596709    2.439    0.590
         2 -10.5297     49.8672     35.4577   8.9291852749e+01   6.3840136272e+01    0.7174385    0.5509308 -73.83  0.003940566    2.298    0.565
         3  -9.6118     39.9589     14.5512   8.4380948593e+01   6.8486573817e+01    0.3098672    0.1949461  -7.92   0.00159588    1.630    0.387
         4 -10.9178     39.6128     30.1125   9.1472105890e+01   6.6024624676e+01    0.8040777    0.3432911 -46.32  0.003655468    2.109    0.526
         5 -11.8834     44.6068     22.3300   8.5944138087e+01   6.6708457308e+01    0.9884964    0.8814623 -65.63  0.006542151    1.765    0.433
         6 -11.0371    128.4548     18.0333   5.7431482690e+01   5.1057708836e+01    0.9697273    0.8452045   4.57  0.005006164    1.180    0.152
         7 -11.0067    109.3881      4.8188   5.6398856786e+01   5.6891361174e+01    0.9812329    0.4664969  62.76  0.004390814    2.086    0.521
         8 -11.2625    131.0037      3.5455   5.1459712410e+01   5.1858370499e+01     1.358858    0.4423891  60.06  0.005203306    2.515    0.602
         9 -10.7939    121.0180      3.9760   5.3549632892e+01   5.4243033363e+01    0.8038748    0.5698131 -84.30  0.003333617    1.878    0.467
        10 -13.8140    166.6451     10.8061   4.8206460068e+01   4.2123363129e+01     3.546861     2.014704  66.58   0.01665687    1.598    0.374
        11 -10.0244    115.7758     15.7746   5.9390081909e+01   5.4325261035e+01     1.000271    0.4556739 -52.29  0.003413813    4.099    0.756
        12  -9.3165     93.8018     17.6773   6.5948863226e+01   5.8965091381e+01    0.6870961    0.4287782  69.43   0.00321801    2.345    0.574
        13 -11.2767     78.0341     15.6596   6.9959961694e+01   6.2327734465e+01     1.004635    0.5248716 -20.05  0.004850187    1.959    0.490
        14 -11.2824     84.5991      3.8894   6.2422738187e+01   6.2337242112e+01    0.9004951    0.4372285  51.85   0.00328343    1.918    0.479
        15 -10.0489     71.6080      5.7197   6.7397821783e+01   6.4661989318e+01    0.5204486    0.4016137  32.03  0.002311821    1.183    0.155
        16 -11.5043    155.7166     20.7006   5.3168301533e+01   4.3901140450e+01    0.9340678    0.4623541  55.06  0.002845745    1.821    0.451
        17  -9.1697     69.9334     14.5034   7.2212680698e+01   6.3943563247e+01    0.2987646      0.25946 -54.26  0.001864075    1.653    0.395
        18 -10.2324    248.5982     15.0302   4.0549787476e+01   2.1273540349e+01    0.3669262    0.2039016 -49.88  0.001915154    1.556    0.357
        19  -8.5102     20.1788     14.3069   9.3803946141e+01   7.0671450000e+01    0.4599398    0.1974388 -26.96  0.002241563    2.492    0.599
        20  -9.7325    104.0241     12.2757   6.0834365347e+01   5.7371746168e+01    0.4578722    0.2933423 -16.38  0.002373296    1.613    0.380
        21  -9.4301    226.6501     14.0836   4.2218791600e+01   2.6516647200e+01    0.3629079    0.2153505 -89.07  0.001799549    1.720    0.419
        22 -10.5250     60.5157      3.4284   7.0194895824e+01   6.6867683251e+01    0.6977955    0.3976739 -18.03  0.003679679    1.654    0.395
        23  -7.8686     52.3877      1.8976   7.2553725956e+01   6.8364766711e+01     0.266067    0.1874374  31.98  0.001470763    1.347    0.258
        24 -10.4064    249.6427      5.9119   3.8397021219e+01   2.2069102874e+01    0.6307509     0.245233 -35.92  0.002911254    2.191    0.544
        25 -10.3210    203.6981      4.0702   4.1821250052e+01   3.3261000223e+01    0.3034812     0.174807  68.80  0.001095221    1.587    0.370
        26  -8.1540     48.7951      7.3884   7.6913977882e+01   6.8257786790e+01    0.1699718   0.09859242  26.56 0.0009520071    1.700    0.412
        27  -9.6060     96.1093      2.4114   5.8585357967e+01   6.0064995242e+01    0.4319439    0.3122963 -35.94  0.002467766    1.592    0.372
        28  -9.6212    221.7536      4.6393   4.0301865326e+01   2.8731061568e+01    0.3032461    0.2001376 -20.54   0.00161213    1.774    0.436
        29  -8.6811     26.7233      3.4563   8.5097238452e+01   7.1642603104e+01    0.2617197    0.1756636 -33.38  0.001743175    1.370    0.270
        30  -8.9758     17.1587      2.3144   8.9514399044e+01   7.2795174630e+01    0.2765792    0.1971109 -54.22   0.00176942    2.205    0.546
        31  -9.5003    111.3755     16.2595   6.0643577765e+01   5.5287120495e+01    0.4056327    0.2322447  42.65  0.001306147    1.621    0.383
        32  -9.3939     98.9819      6.3196   5.9569671305e+01   5.9079475996e+01    0.3159583    0.1730005  72.92  0.001370224    2.665    0.625
        33  -7.4157      1.4910      1.4804   9.7984716735e+01   7.4187087767e+01    0.1095752   0.07803661 -28.15 0.0001099594    1.010    0.010
        34  -8.1902     23.0553     52.5303   1.0623428332e+02   6.3281115717e+01    0.1581452     0.118666  14.09 0.0008033811    1.581    0.368
        35  -7.9475    174.9825     51.1724   5.9579761374e+01   3.4836197078e+01    0.2603588    0.1603468  36.19  0.001075116    1.968    0.492
        36  -8.5097    110.8361     46.2252   7.2525665498e+01   5.1309200765e+01    0.2146069    0.1916683  27.39  0.001185607    1.092    0.084
        37  -9.7104     82.1866     39.4073   7.8765789495e+01   5.8145834066e+01    0.5859541    0.2428271 -29.25  0.002249868    2.695    0.629
        38 -10.1968      3.3799     40.6458   1.1126057519e+02   6.6967657915e+01    0.4413391    0.3681139 -85.44  0.003236307    1.498    0.333
        39  -9.3299     10.4964     34.3710   1.0623270664e+02   6.7807341350e+01    0.5269118    0.2943966   2.38  0.003146456    2.169    0.539
        40  -7.8120    106.0021    239.0000   1.1463297598e+02   1.2154510459e+01    0.1933023   0.05475775  41.42 0.0007729506    2.879    0.653
        41 -11.0660     10.3238    140.2577   1.2466765000e+02   4.4355910848e+01    0.4169209     0.259598 -43.25  0.002497559    2.085    0.520
        42  -9.1014     40.4559    141.6766   1.1749402973e+02   4.1280249517e+01    0.2192994    0.1703071  31.82  0.001065317    1.576    0.365
        43 -12.6462    241.4539    132.2927   6.9566392554e+01   5.5184501817e+00     1.550057     1.111536  42.64  0.005991579    1.483    0.326
        44  -9.1475      2.8266    116.7195   1.2424076815e+02   5.0236672575e+01    0.1670104    0.1349027 -48.03  0.000973751    1.419    0.295
        45  -9.3528     68.2340     36.2849   8.2451381783e+01   6.1039615986e+01    0.4111428    0.3532228  79.54  0.002388529    1.852    0.460
        46  -8.3204     27.5904     34.9600   9.8673596088e+01   6.6383102215e+01    0.2255932    0.1475878  -9.61 0.0009691528    1.671    0.402
        47  -8.8120     97.0129     29.3775   6.9948817135e+01   5.6788023007e+01    0.5634646    0.2456157 -18.66  0.002024512    3.223    0.690
        48  -9.9834     86.4550     31.4574   7.4100950741e+01   5.8592882273e+01    0.2716978    0.2213474  -0.35  0.001121123    1.168    0.144
        49 -10.2152    225.4701     29.0323   4.6116334656e+01   2.5014089485e+01    0.5195772    0.3198552  60.04  0.001647868    1.659    0.397
        50  -9.8404     17.0862    126.0520   1.2154078488e+02   4.7088808247e+01    0.3367836    0.1535893  85.11  0.001537682    2.537    0.606
        51  -9.5973     17.5219    104.9363   1.1872681131e+02   5.1963303140e+01    0.4540725    0.2832855  49.46  0.002693032    1.859    0.462
        52 -10.2897     11.7044    129.6824   1.2330454291e+02   4.6663733958e+01    0.3152419    0.1511223  55.06  0.001669756    2.260    0.558
        53  -9.9263     47.0095    100.5150   1.0908776430e+02   5.0335567612e+01    0.5001685    0.1480374 -55.94  0.001915972    2.609    0.617
        54  -9.4086     30.5676    101.9705   1.1438814999e+02   5.1607256379e+01    0.3001228    0.1691707 -38.33  0.001541644    2.068    0.517
        55  -9.1220    117.3710     21.1459   6.1144692937e+01   5.3346331547e+01    0.4198611    0.2759634 -50.00  0.002021452    1.908    0.476
        56  -8.8104     64.4727     99.9985   1.0358476224e+02   4.8347064295e+01    0.2217514    0.1224657 -58.43   0.00103311    1.596    0.374
        57  -8.6578     21.4819     23.3962   9.7067699628e+01   6.9021051407e+01    0.2904654    0.1951836  18.14  0.001906287    1.650    0.394
        58  -9.2051      2.3909     88.6770   1.2097875821e+02   5.6642080107e+01    0.3798687    0.1791381 -78.58  0.002019673    1.819    0.450
        59 -12.2142     43.3951     82.4390   1.0635318667e+02   5.4913870521e+01     1.119773    0.9070549 -29.10  0.006909019    1.316    0.240
        60  -9.1763    228.3721     78.6265   5.8546417821e+01   1.7142202408e+01     0.392542    0.2772638  -5.02  0.001801702    1.909    0.476
        61  -8.9909    221.7157     80.8733   6.0136429817e+01   1.8341208503e+01     0.295623    0.1951571 -79.07   0.00125258    2.176    0.540
        62  -8.1699     10.7488     22.3999   1.0195020743e+02   7.0030964857e+01    0.1494856   0.09468351  -6.28  0.000961537    1.678    0.404
        63  -8.8126     20.4985     89.0443   1.1529925340e+02   5.5420164668e+01    0.1975718   0.09766343 -65.31 0.0006686978    1.577    0.366
        64 -11.6720     14.1584     73.6670   1.1458074547e+02   5.9334475763e+01    0.9184848    0.6768866 -48.69  0.006125134    1.174    0.148
        65  -8.2946     66.5275     17.9727   7.5079066571e+01   6.4080023557e+01    0.2630821    0.1478595 -12.68  0.001276174    2.023    0.506
        66  -9.3118     64.3069     15.6912   7.4834951758e+01   6.4755079312e+01    0.1943695    0.1504539 -24.36 0.0007462316    1.233    0.189
        67  -8.7787    138.9735     78.2339   7.5904598431e+01   3.9164391805e+01    0.2927826    0.2265057 -36.34  0.001073693    1.280    0.219
        68 -10.2740     74.3963     68.6713   9.1915783714e+01   5.3945588641e+01    0.4453925    0.3741444  26.03   0.00255352    1.298    0.229
        69  -9.7032     77.5939     77.2106   9.3455673612e+01   5.1627186172e+01    0.3425236    0.1893954 -32.55  0.001458071    2.105    0.525
        70  -8.3876    100.9731     83.5118   8.8003887207e+01   4.6206440139e+01     0.221155     0.148688  42.62  0.001028091    1.577    0.366
        71  -9.6391     66.6363     29.6750   8.0278849545e+01   6.2362013322e+01     0.350377    0.2056664 -26.91  0.001802371    1.610    0.379
        72  -9.3209     83.3346     68.7649   8.8959584615e+01   5.2477773646e+01    0.2941377      0.27494  83.27   0.00170875    1.288    0.224
        73  -9.3603     66.8897     63.8685   9.2985949775e+01   5.6068254869e+01    0.2187693    0.1700744 -24.73 0.0008181854    1.278    0.217
        74  -9.0487     45.2240     62.6460   1.0050423717e+02   5.9081907332e+01    0.3105735    0.2128372 -43.15   0.00178155    1.228    0.186
        75  -8.8883     49.8704     61.4725   9.8416777813e+01   5.8800194923e+01     0.271596    0.1935872 -44.30  0.001561722    1.182    0.154
        76 -10.1980     25.1110     65.7863   1.0888826237e+02   6.0296070596e+01    0.5541726    0.2516657 -54.27  0.002230538    1.672    0.402
        77  -8.4662    125.1284     29.3990   6.2478175401e+01   5.0495887400e+01    0.2726656    0.2103746 -35.25  0.001303043    1.356    0.262
        78  -9.1278     75.1785     27.5823   7.6271014494e+01   6.1236880008e+01     0.293864     0.201537 -23.59  0.001176632    1.360    0.265
        79  -8.4961     76.6230     60.1480   8.8360710084e+01   5.5328695780e+01    0.2332912    0.2108217   0.93  0.001211739    1.120    0.107
        80 -10.5783      3.8999     76.1369   1.1857040573e+02   5.9375211315e+01     0.451678    0.3722007 -84.44  0.002208704    1.226    0.184
        81  -9.0844    104.6399     26.2756   6.6489313499e+01   5.5585523872e+01    0.3987259    0.3015934  65.90  0.002106189    1.581    0.368
        82  -8.9812    199.2722     55.5436   5.6762595285e+01   2.7905037752e+01    0.2846483    0.2420668  16.37 0.0005734491    1.416    0.294
        83  -8.9670     66.1967     53.2922   8.9673728126e+01   5.8285173110e+01    0.4788927    0.1781331 -52.75  0.001714406    3.245    0.692
        84  -8.5936     35.7997     52.9745   1.0123627726e+02   6.2075274375e+01     0.198132    0.1782946  -7.33 0.0008487638    1.210    0.174
        85 -10.1183     84.3278     47.8111   8.1304425809e+01   5.6327584219e+01    0.6307996    0.5173134  68.91  0.003421676    1.712    0.416
