#   1 NUMBER                 Running object number                                     
#   2 MAG_AUTO               Kron-like elliptical aperture magnitude                    [mag]
#   3 X_IMAGE                Object position along x                                    [pixel]
#   4 Y_IMAGE                Object position along y                                    [pixel]
#   5 X_WORLD                Barycenter position along world x axis                     [deg]
#   6 Y_WORLD                Barycenter position along world y axis                     [deg]
#   7 A_WORLD                Profile RMS along major axis (world units)                 [deg]
#   8 B_WORLD                Profile RMS along minor axis (world units)                 [deg]
#   9 THETA_WORLD            Position angle (CCW/world-x)                               [deg]
#  10 FWHM_WORLD             FWHM assuming a gaussian core                              [deg]
#  11 ELONGATION             A_IMAGE/B_IMAGE                                           
#  12 ELLIPTICITY            1 - B_IMAGE/A_IMAGE                                       
         1 -12.4154     43.7293     20.3439   1.0221232422e+02   6.7219812913e+01    0.7503847    0.4012475  21.45   0.00213556    2.077    0.518
         2 -12.6054    216.7452     15.9394   6.1395307157e+01   2.8314192082e+01    0.8287284    0.5016769  63.80  0.004090325    1.578    0.366
         3 -11.0382    132.7038     16.1643   7.3097002808e+01   4.9760861680e+01    0.4142753    0.2626962 -62.93  0.001055673    2.151    0.535
         4 -13.4036    188.2212      6.6101   6.1923143637e+01   3.6432770283e+01    0.9973058    0.5453069 -71.70  0.004539529    2.082    0.520
         5 -11.9419     56.9600      6.8568   9.0234721711e+01   6.6953628234e+01    0.6057894    0.4574538 -47.17  0.003701885    1.923    0.480
         6  -9.1276    148.6900      8.2849   6.7611066397e+01   4.6468529848e+01      0.13676   0.09928814 -72.23 0.0002215033    1.572    0.364
         7 -11.7183     43.4394      8.5957   9.6731306224e+01   6.8858176436e+01    0.3243595    0.2319891  40.44  0.001199176    1.583    0.368
         8 -10.3500    110.1292      9.1606   7.5246347425e+01   5.5904505675e+01    0.1773617    0.1583519 -82.40 0.0005924654    1.348    0.258
         9 -11.8948    165.9625      2.0000   6.3217345751e+01   4.2579488168e+01    0.5863416    0.1820346  72.44  0.002081434    2.947    0.661
        10 -10.5507     29.6216    232.7193   1.4513703054e+02   2.4265511533e+01    0.4462356    0.1366674  61.99  0.001997839    3.261    0.693
        11 -10.8827     12.3952    227.0332   1.4783230101e+02   2.7138981658e+01    0.2236618    0.1445229  71.28 0.0005003611    1.120    0.107
        12 -10.5262    104.6446    225.5613   1.3036149144e+02   1.5420424734e+01    0.2431193    0.1732684  82.30  0.001408992    1.539    0.350
        13 -10.3099     77.0203    225.8774   1.3582802432e+02   1.9512145207e+01    0.2365479    0.1384144  51.95 0.0007696732    1.371    0.270
        14 -10.8896     95.6622    224.6891   1.3204797087e+02   1.6975750745e+01    0.3152896    0.1991696  53.75  0.001851858    1.301    0.231
        15  -9.6649    185.5486    223.4511   1.1409151502e+02   2.0629101511e+00    0.1290406    0.1050198  30.53  0.000115075    1.016    0.015
        16 -10.5457    149.3956    223.2377   1.2112949981e+02   8.3658823321e+00     0.161693    0.1244453 -70.92  0.000953781    1.699    0.411
        17 -11.3766    226.5825    220.2707   1.0598644507e+02  -4.3294159346e+00    0.3186617    0.1656913 -18.94  0.001586825    2.407    0.585
        18  -9.6541    174.0000    220.9527   1.1593427940e+02   4.4402003084e+00    0.1864905   0.07535339 -44.41 0.0008066848    2.972    0.664
        19  -9.8235    211.3842    218.1956   1.0838195391e+02  -1.5786163279e+00    0.1583619    0.1180827 -44.18 0.0007118621    1.729    0.422
        20 -10.8105    238.8134    220.8501   1.0394713589e+02  -6.3076162460e+00    0.1520123    0.1377769  22.03 0.0009151683    1.346    0.257
        21 -10.4625    232.6576    211.3066   1.0336184964e+02  -4.1457792727e+00    0.1697637     0.107991 -17.24 0.0009644541    1.643    0.391
        22 -10.3063    218.1807    212.1632   1.0610491032e+02  -1.8897275619e+00    0.1649479    0.1468056  44.90  0.001080457    1.375    0.273
        23  -9.1284     56.6765    211.3434   1.3851217458e+02   2.5079862611e+01    0.1314673   0.07131975  66.68  0.000705056    1.733    0.423
        24 -10.8872    116.0605    208.7464   1.2595766648e+02   1.6669395009e+01    0.3700806    0.2523335 -49.10   0.00205658    1.772    0.436
        25 -10.3316     48.7206    201.4912   1.3925499108e+02   2.8071623367e+01    0.2914001    0.1472941 -87.25  0.001521249    2.040    0.510
        26  -9.1786    197.3166    201.3073   1.0811412766e+02   3.3205959054e+00    0.1360127   0.09480137  12.13 0.0003247415    1.631    0.387
        27 -11.0548      5.1088    199.4731   1.4772389326e+02   3.3123536507e+01    0.2951133    0.1478267  47.34 0.0009831721    1.717    0.417
        28  -9.9515    149.3401    199.0180   1.1747224981e+02   1.2579101564e+01    0.2071719    0.1142522 -74.57   0.00070506    4.380    0.772
        29 -10.0453     56.7769    206.1686   1.3802759842e+02   2.6101534536e+01    0.2212532   0.09343779  66.01 0.0009511365    2.846    0.649
        30  -9.7080    236.6828    197.3250   1.0012434649e+02  -2.9449204191e+00    0.1103623    0.1037451  89.80 0.0006947606    1.672    0.402
        31  -9.6455    133.1634    195.7292   1.2041365876e+02   1.6162119845e+01    0.2455777    0.1593451 -72.97  0.001085314    2.068    0.516
        32 -12.1034    159.7274    191.6737   1.1403746701e+02   1.1966197606e+01    0.6845787    0.4944116  81.40  0.002471039    2.095    0.523
        33  -9.8179     34.3326    187.6651   1.4105860874e+02   3.2634359203e+01    0.1307721   0.07023621  67.10  0.000705221    1.734    0.423
        34  -9.7874    109.2012    185.8101   1.2420615259e+02   2.2400912734e+01    0.2428508    0.1345883  72.59 0.0009534032    2.864    0.651
        35  -9.8465     54.2900    186.6515   1.3665735064e+02   3.0483665957e+01    0.1333198   0.07873062  70.66 0.0003475687    1.664    0.399
        36 -10.4462    183.3948    182.4863   1.0741921321e+02   9.0259783405e+00     0.376723    0.2120142 -28.18  0.001651553    2.266    0.559
        37 -10.2919    224.1720    183.3502   9.9696115873e+01   1.1989450029e+00    0.1902748    0.1578728  -7.96  0.001144181    1.144    0.126
        38  -9.9112    210.5590    182.6533   1.0208988970e+02   3.7980232284e+00    0.2532671    0.1294209 -31.58  0.001141203    2.125    0.529
        39  -9.9848     94.4991    186.4931   1.2763653640e+02   2.4709182510e+01    0.2808406    0.1202737 -79.02 0.0008101512    5.632    0.822
        40  -9.4068     12.6661    176.3376   1.4476538215e+02   3.7207931643e+01    0.1257816   0.06510098  67.03 0.0007051881    1.745    0.427
        41 -11.5143     34.7466    173.4523   1.3969385543e+02   3.5651020250e+01    0.4269812    0.2062487  87.33  0.002079951    2.210    0.547
        42  -9.4810    176.0000    170.9859   1.0671525913e+02   1.2553653991e+01    0.2317005   0.08339678 -43.09 0.0008110283    3.002    0.667
        43 -10.4989     44.3499    168.3229   1.3696633171e+02   3.5708386133e+01      0.17765    0.1107569 -59.45 0.0009940153    1.622    0.384
        44 -11.3876     55.6639    167.5153   1.3420097365e+02   3.4511583875e+01    0.4152973     0.259786 -86.86  0.001527496    1.583    0.368
        45 -10.0101    138.3904    163.6278   1.1363958245e+02   2.1617002382e+01    0.2808685    0.1352275 -63.99 0.0009584807    3.311    0.698
        46 -10.3424     78.8516    162.6953   1.2791536839e+02   3.2379273176e+01    0.3072819    0.1539709 -88.16  0.001097388    3.508    0.715
        47 -11.4415    121.7708    163.1506   1.1748734684e+02   2.4943675874e+01    0.4223901    0.2750314 -35.39  0.001916854    2.009    0.502
        48 -11.2065     28.6856    156.5227   1.3943400669e+02   4.0041180940e+01    0.4074332    0.1920297  86.14  0.001573793    2.378    0.580
        49 -10.1246     23.7335    153.5955   1.4033161976e+02   4.1175357319e+01    0.2277391    0.1344029  45.27  0.001071851    1.692    0.409
        50 -10.7968    167.4600    157.3046   1.0574927404e+02   1.6911911774e+01    0.3594465    0.2487553 -74.71  0.001536693    2.261    0.558
        51 -11.3721    119.4353    157.0439   1.1691161463e+02   2.6712591740e+01      0.53625    0.2678996  46.83  0.002222367    1.907    0.476
        52 -11.7286    105.9827    156.8099   1.2019406114e+02   2.9239947043e+01    0.6962682    0.4211836 -73.20  0.003063012    2.048    0.512
        53  -9.1032    237.3368    156.2857   9.1868101543e+01   2.8969346090e+00    0.1385996    0.0971918  10.46 0.0001992341    1.629    0.386
        54 -10.1597    218.0000    156.0276   9.5243826648e+01   6.6611855924e+00     0.229636   0.07748818 -37.09 0.0008053776    2.963    0.662
        55  -9.6788      6.7938    155.9080   1.4452775777e+02   4.2116748622e+01    0.1678872    0.1288438 -72.84  0.000695225    1.218    0.179
        56 -10.2886     80.9980    153.7568   1.2598401463e+02   3.4091303484e+01    0.2601041    0.1712438 -81.57  0.001232641    1.672    0.402
        57 -10.5128    232.3067    151.8309   9.1786606754e+01   4.5408855822e+00    0.2781739    0.1100455 -41.70  0.001084898    2.602    0.616
        58 -10.2491    189.6074    149.8998   9.9434516376e+01   1.3597744384e+01    0.2919104    0.1880769 -54.21  0.001296938    1.895    0.472
        59 -10.2278     11.9968    148.5279   1.4268326719e+02   4.3332173138e+01    0.2293153    0.1297188 -63.26  0.001085892    1.585    0.369
        60 -10.1779    234.0000    147.0094   9.0457277013e+01   4.9746386396e+00    0.2237069   0.07392976 -35.60 0.0006047213    2.902    0.655
        61 -11.2830    107.7984    145.9723   1.1769353451e+02   3.1348968596e+01    0.6008192    0.3039262  69.06  0.001716937    4.893    0.796
        62 -10.1847     55.7778    145.9478   1.3131233702e+02   3.9432331457e+01    0.2265995    0.1351355  80.31  0.001077473    2.010    0.502
        63  -9.9175    148.3124    144.9798   1.0745585299e+02   2.3467890424e+01    0.2432785    0.1222346 -66.12 0.0006502863    4.239    0.764
        64 -10.0925     87.3285    143.1867   1.2251473362e+02   3.5528930654e+01    0.3598265    0.1325583 -67.42  0.001093324    4.096    0.756
        65  -9.7773    124.5123    143.0049   1.1283355780e+02   2.8812889265e+01    0.2185069    0.1322821 -76.42 0.0008103775    2.679    0.627
        66  -9.5989    181.5108    141.5150   9.9237855504e+01   1.6920126508e+01    0.1490135    0.1446149  52.26 0.0002325691    1.061    0.057
        67 -10.1027     22.3964    137.2080   1.3892871072e+02   4.5012391948e+01    0.1816899   0.09825383 -86.04 0.0009354033    1.747    0.427
        68 -10.7261     82.8135    131.5307   1.2153886166e+02   3.8962553510e+01    0.4366635    0.2391789 -76.41  0.001740227    2.521    0.603
        69 -11.8715     98.5309    127.8476   1.1643089175e+02   3.7163577612e+01    0.6529478    0.3486652 -75.53  0.002235142    3.359    0.702
        70 -10.8600     42.7115    121.8006   1.3122486033e+02   4.6601597109e+01     0.574412    0.2383862 -82.61  0.001920013    4.212    0.763
        71 -10.8901     26.9073    120.5909   1.3560372157e+02   4.8435510530e+01    0.5463824    0.2303537  85.52  0.001832875    4.729    0.789
        72 -10.9940     13.7704    121.2151   1.3939793663e+02   4.9361669779e+01    0.3732579     0.180902 -43.32  0.001884807    2.416    0.586
        73 -11.9873    193.5652    118.7925   9.1368471892e+01   1.8440821564e+01    0.6743541     0.448437 -60.17  0.002488311    1.926    0.481
        74 -10.4494     58.5131    123.5535   1.2693865292e+02   4.4324683153e+01    0.2574179    0.1246515 -75.05  0.001039558    2.520    0.603
        75 -10.1658     70.6677    119.8557   1.2268930472e+02   4.3532786039e+01    0.3008838     0.169812 -86.58  0.001152685    2.961    0.662
        76 -10.6696      2.3154    115.4183   1.4193891960e+02   5.1444662343e+01    0.2588066    0.1516484 -82.58 0.0008681908    1.432    0.302
        77  -9.9700    232.0177    115.0123   8.3598083810e+01   1.0520616351e+01    0.2205152    0.1669365 -64.99 0.0006201358    1.645    0.392
        78 -11.2692    141.4619    112.9929   1.0149350858e+02   3.1693845646e+01    0.4671355    0.2780564 -19.19  0.001612641    3.033    0.670
        79 -10.8683     78.7092    112.0979   1.1865742239e+02   4.4123638117e+01    0.3976386    0.2603902 -74.42 0.0008827266    1.824    0.452
        80 -11.1098     91.8675    111.9255   1.1472260909e+02   4.1984598667e+01    0.5182447    0.1870071 -56.13  0.001758044    2.941    0.660
        81 -10.5836    174.3054    111.0556   9.3381104543e+01   2.4413634228e+01    0.3530498    0.2611799 -41.93   0.00105111    1.372    0.271
        82 -11.3474    160.7317    112.6336   9.6796106580e+01   2.7318919811e+01    0.4378304    0.2415428  55.27  0.001723396    1.895    0.472
        83 -10.9209     14.0071    110.8513   1.3803001415e+02   5.1702999618e+01    0.3571518    0.1839103  83.04  0.001752011    2.351    0.575
        84 -10.3990     14.5134    105.9663   1.3721297099e+02   5.2776569636e+01    0.2903194    0.1423974 -48.02  0.001526773    1.954    0.488
        85  -9.8837     66.2970    110.6505   1.2209558035e+02   4.6295700687e+01    0.1411496    0.1034722  80.99 0.0007034602    1.683    0.406
        86 -10.2808     59.9825    109.8057   1.2385498893e+02   4.7344301637e+01    0.2315276     0.178999 -58.27 0.0006291348    1.175    0.149
        87 -11.2291    140.4475    105.0059   9.9643350684e+01   3.3578417688e+01    0.4042354    0.2886767 -77.40  0.001697297    2.003    0.501
        88 -10.5354    141.0066     99.4874   9.8001549433e+01   3.4573183182e+01    0.3724155    0.2214078  30.44   0.00142952    2.198    0.545
        89 -11.8863     44.1971    100.3540   1.2691136996e+02   5.1414418551e+01    0.7440988    0.3980114 -85.09  0.003089228    2.906    0.656
        90 -10.3162     24.2405    103.2086   1.3379386072e+02   5.2659434189e+01    0.3160606      0.15156  66.17  0.001290629    3.543    0.718
        91 -10.5176     19.7513     97.3015   1.3426015794e+02   5.4356709102e+01    0.4337454    0.1512049 -74.51  0.001705278    3.126    0.680
        92 -11.5023    127.6095    100.4324   1.0171175195e+02   3.7409967736e+01    0.4831656    0.2843682 -46.55  0.002028256    1.728    0.421
        93 -10.2449     81.3627     99.8898   1.1495519719e+02   4.6479277562e+01      0.28747    0.1325217 -60.70    0.0010861    2.514    0.602
        94 -10.2645     94.5975     93.1723   1.0911477164e+02   4.5665116097e+01    0.2985456    0.1694753 -30.66  0.000990333    2.310    0.567
        95 -10.7709     62.8930     95.6649   1.1980114468e+02   5.0195981634e+01    0.4226494    0.1927451 -73.61  0.001258447    4.975    0.799
        96 -13.0910    170.3429     90.9186   8.8854312200e+01   2.9150366990e+01     0.486839    0.4078341 -61.14 0.0007793355    1.288    0.224
        97 -11.3670    171.6774     83.3026   8.6454529238e+01   3.0185594975e+01    0.3305153    0.3155316  61.06 0.0005242967    1.023    0.023
        98 -11.4973     42.3873     87.9514   1.2488435090e+02   5.4418598244e+01    0.3721486     0.240323  -3.71  0.001491519    2.199    0.545
        99 -10.0424    108.4961    113.5166   1.1035203484e+02   3.8553272835e+01    0.2821291    0.1430096 -60.84  0.001038343    2.466    0.595
       100 -10.6818     86.7208     87.3507   1.0994138988e+02   4.8327307650e+01     0.343131    0.2127998  60.07  0.001475454    2.236    0.553
       101 -10.5644      6.4712     85.9680   1.3681316863e+02   5.7773314536e+01    0.4532576     0.117484 -38.71  0.001423852    6.229    0.839
       102 -10.7822     45.4645     81.5228   1.2230368302e+02   5.5507043659e+01    0.5013509    0.2946196  89.69  0.002021263    3.458    0.711
       103 -11.4912     47.4704     77.7052   1.2062786645e+02   5.6110526909e+01    0.3591692    0.2264086 -55.64 0.0004761467    1.428    0.300
       104 -10.3341    104.3619     83.4988   1.0339956339e+02   4.5820469066e+01    0.3358274    0.2247024 -78.05  0.001332145    2.621    0.618
       105 -10.2134    140.6076     81.1685   9.2837698880e+01   3.8235288847e+01    0.3045281     0.147033 -41.61  0.001147951    2.111    0.526
       106 -10.2671     23.9138     80.2705   1.2970811240e+02   5.7839975372e+01     0.313221    0.1543621 -82.31  0.001334978    3.045    0.672
       107 -11.4542    107.6196     98.7779   1.0679043679e+02   4.1961132046e+01    0.5753385    0.3989098 -72.98   0.00251229    1.980    0.495
       108 -10.6416     62.4137     71.9965   1.1368157221e+02   5.5405982574e+01    0.6214055    0.1238534 -51.48  0.001775941    4.750    0.789
       109 -10.6738     82.1070     73.2299   1.0726825388e+02   5.2064524303e+01    0.3713925    0.2317215 -75.91  0.001380597    3.444    0.710
       110 -11.6774    223.3739     71.2320   7.4358047606e+01   1.9401331868e+01    0.3203282    0.2751112 -83.06 0.0005810544    1.189    0.159
       111 -10.5928     51.6609     69.6616   1.1690805962e+02   5.7317333036e+01    0.3066634    0.2212833 -70.78 0.0009653911    1.707    0.414
       112 -10.6601     42.6069     67.9445   1.1981472483e+02   5.8734236208e+01    0.2664113    0.2266339 -66.28  0.001682673    1.272    0.214
       113  -9.8537    219.6584     66.3227   7.3654586116e+01   2.1021373836e+01    0.2958988    0.2079233  20.97  0.001361506    2.115    0.527
       114  -9.6405      9.7967     65.8144   1.3193822714e+02   6.1945490627e+01    0.1498074    0.1265578 -85.68  0.000479632    1.325    0.245
       115 -10.9037     19.6245     59.2524   1.2652341478e+02   6.2659460870e+01    0.3341941    0.2035157 -49.57  0.001685278    1.317    0.241
       116 -11.5069     20.7662     51.2643   1.2390271610e+02   6.4194412426e+01    0.5289305    0.3030542 -56.74  0.002416829    1.524    0.344
       117 -13.2650     31.0171     59.4835   1.2198195025e+02   6.1657528334e+01     1.173679    0.7535946  19.78  0.006899272    1.763    0.433
       118 -11.8433    232.4775     60.4052   7.0498875597e+01   1.8864055511e+01    0.3623753    0.2388838 -82.91  0.001762204    1.806    0.446
       119  -9.3426    160.9296     60.9814   8.2138560118e+01   3.6665788256e+01    0.1852578    0.1670181  60.21 0.0003998181    1.060    0.056
       120 -11.6264     40.2130     51.7012   1.1588498495e+02   6.2272004790e+01    0.4872857    0.2083022 -45.87  0.002291236    1.995    0.499
       121 -10.6942      9.1773     56.5518   1.3012746523e+02   6.3916956799e+01     0.620895    0.3799472  72.14  0.003269093    2.852    0.649
       122 -10.5889     47.9499     57.4767   1.1463962895e+02   6.0244321528e+01    0.2657097    0.1909701 -15.11  0.001028953    1.510    0.338
       123 -10.0224    162.1640     53.3777   7.9576704334e+01   3.7518470501e+01    0.2257338    0.1402337  72.37 0.0009563593    1.785    0.440
       124 -10.9718    149.8258     52.8427   8.1923537707e+01   4.0760667999e+01    0.3085774    0.2079794  62.39 0.0004925056    1.456    0.313
       125 -10.2313     62.5078     53.0677   1.0755796343e+02   5.9118091824e+01    0.2795095    0.1235254 -50.26 0.0009042191    2.413    0.586
       126  -9.9596    105.4345     50.2743   9.2162602290e+01   5.1714600053e+01    0.2694248    0.1403703 -29.34  0.001126021    2.090    0.521
       127 -10.4709    173.0277     49.5604   7.6412807373e+01   3.5261077812e+01    0.2497413    0.2145013 -35.15 0.0002034369    1.228    0.186
       128 -10.2416     82.1464     46.9369   9.8277865875e+01   5.6926483371e+01    0.2015359    0.1898922 -63.19 0.0009753959    1.315    0.240
       129 -11.0960    156.5469     44.9112   7.8042448532e+01   4.0193482787e+01    0.2991644    0.2187214  63.00  0.000528882    1.294    0.227
       130 -11.0835     70.4953     42.5134   1.0070695208e+02   5.9710658646e+01    0.3937663    0.3145201  81.83  0.001905401    2.152    0.535
       131 -10.1302     69.6937     37.9924   9.9233641565e+01   6.0580250250e+01    0.1869613    0.1542909 -21.51 0.0003231891    1.131    0.116
       132 -10.1245      5.4296     42.7167   1.2825080944e+02   6.6911965330e+01    0.2723745    0.2074265  88.03   0.00181693    1.836    0.455
       133  -9.5912    114.3744     42.5816   8.6892276227e+01   5.0909714671e+01    0.1974789    0.1269107  43.29  0.000607327    1.472    0.321
       134 -12.1558     41.9570     38.1376   1.1038586063e+02   6.4575363381e+01     0.513515    0.3711344  16.61  0.001557715    1.421    0.296
       135  -9.7447     83.5082     38.4767   9.4579292181e+01   5.8023295571e+01    0.1355143    0.1227255   7.49 2.686233e-05    1.017    0.017
       136 -10.8462    119.8673     33.9434   8.2342023484e+01   5.0827667049e+01    0.3562117    0.3177653  59.27   0.00156978    1.128    0.113
       137 -10.2389     48.5852     35.0567   1.0637176012e+02   6.4258992275e+01    0.2613103    0.1647225  20.02 0.0009470519    1.686    0.407
       138  -9.6811      9.9722     44.0000   1.2656269630e+02   6.6391152487e+01    0.1855748    0.1454836  15.13 0.0007626617    1.481    0.325
       139 -11.2613    104.4542     30.6647   8.5126651819e+01   5.4796988932e+01    0.5166125    0.2373963  55.50  0.001540553    2.143    0.533
       140  -9.9681    101.3199     27.3045   8.4683093003e+01   5.5919235038e+01     0.213036    0.1777104  13.12 0.0004993492    1.181    0.153
       141  -9.0906     85.5988     26.4730   8.9042880715e+01   5.9320173652e+01    0.1337964    0.1163836  13.20 9.815051e-05    1.033    0.032
       142 -12.1925    203.3987     21.2046   6.4123596690e+01   3.1039596381e+01     0.456441    0.2974871 -75.75   0.00187064    1.587    0.370
       143 -10.3618    119.0554     22.6630   7.8371271683e+01   5.2401154347e+01    0.2074541    0.1681296  51.24 0.0007302843    1.115    0.103
       144 -11.4225    220.9340    248.6745   1.1151315898e+02  -6.8825326908e+00    0.4636827      0.22912  42.53  0.002604885    1.822    0.451
       145 -10.7092    239.7067     20.6465   6.0404284178e+01   2.2344103323e+01    0.2568048    0.1994521 -86.71 0.0005232338    1.168    0.144
       146  -9.4013     41.4757    247.5673   1.4396456741e+02   2.0253753659e+01    0.1097274   0.07731096  63.81 5.910492e-05    1.008    0.008
       147 -11.9903     22.4362    240.1361   1.4677809667e+02   2.3722154038e+01    0.3189988    0.1668321  62.14  0.001651843    1.419    0.295
       148  -9.1656      3.2499     17.6954   1.2125050791e+02   7.1647073744e+01   0.09055592   0.08090853 -61.66  0.000174688    1.503    0.335
       149  -9.8930     88.5238     18.0164   8.4580470496e+01   5.9765672804e+01     0.178677    0.1036964 -49.21 0.0008097723    2.519    0.603
       150  -9.8661     33.4523    242.3147   1.4502665192e+02   2.2109917689e+01    0.1814352   0.07835582  41.29  0.001065299    1.957    0.489
       151 -10.6510      8.2408    240.7826   1.4915881741e+02   2.5083447033e+01    0.1845347     0.129498  40.92  0.001433475    1.592    0.372
       152  -9.5279    248.2915    240.6792   1.0562074257e+02  -9.9497454204e+00   0.09420766   0.08632796  31.38 0.0002656666    1.606    0.377
       153 -10.6294      3.1769    238.9481   1.4990463443e+02   2.5902894603e+01    0.2480845    0.2070333 -42.23  0.001976175    2.242    0.554
       154 -10.4766     33.5354    238.4855   1.4479104256e+02   2.2780180017e+01    0.1684866    0.1203333 -89.39 0.0006633655    1.304    0.233
