#   1 NUMBER                 Running object number                                     
#   2 MAG_AUTO               Kron-like elliptical aperture magnitude                    [mag]
#   3 X_IMAGE                Object position along x                                    [pixel]
#   4 Y_IMAGE                Object position along y                                    [pixel]
#   5 X_WORLD                Barycenter position along world x axis                     [deg]
#   6 Y_WORLD                Barycenter position along world y axis                     [deg]
#   7 A_WORLD                Profile RMS along major axis (world units)                 [deg]
#   8 B_WORLD                Profile RMS along minor axis (world units)                 [deg]
#   9 THETA_WORLD            Position angle (CCW/world-x)                               [deg]
#  10 FWHM_WORLD             FWHM assuming a gaussian core                              [deg]
#  11 ELONGATION             A_IMAGE/B_IMAGE                                           
#  12 ELLIPTICITY            1 - B_IMAGE/A_IMAGE                                       
         1  -8.7776    111.9400     34.5320   3.9630924050e+01   5.1450609836e+01    0.2386537     0.174059 -57.33  0.000669434    1.623    0.384
         2  -7.5425    120.0000     10.9993   3.0691023670e+01   5.2054133013e+01    0.1699468   0.07235892 -26.05  0.000532308    2.828    0.646
         3  -7.6886     83.5173     10.9947   3.8186450586e+01   6.0355901594e+01    0.1551943   0.09869639 -57.23 0.0005814693    2.261    0.558
         4  -8.5648     55.8498      9.7882   4.6276390630e+01   6.6312947669e+01    0.1961672    0.1573803 -63.10 0.0006680233    1.935    0.483
         5  -7.7594     47.6486      9.8473   4.9559278256e+01   6.7892623236e+01    0.1518642    0.1112956 -35.63 0.0005233209    1.721    0.419
         6  -8.0580    101.5869      7.8341   3.2971677298e+01   5.6556309789e+01     0.153673    0.1118143 -46.30 0.0004709454    1.629    0.386
         7  -8.3378     91.0025      8.5403   3.5458751771e+01   5.8898883122e+01    0.1963864    0.1048865  63.44 0.0005885746    1.568    0.362
         8  -8.1040     70.3764      6.1463   3.9848956005e+01   6.3642928597e+01    0.1529297     0.112487 -38.48 0.0009375817    1.707    0.414
         9  -8.4639     33.4545      4.7833   5.3553135759e+01   7.0963670235e+01    0.2529092    0.1807623 -54.63  0.001380441    2.656    0.623
        10  -8.7070     79.0689      3.4511   3.6378719338e+01   6.1976659950e+01    0.2453975    0.1566367 -44.28   0.00140795    2.011    0.503
        11  -7.7651    115.6121      2.2864   2.8708537173e+01   5.3791623272e+01    0.1270114   0.08132719 -78.44 0.0007008241    1.752    0.429
        12  -7.3141     44.6760      2.7202   4.7309210757e+01   6.9147458792e+01    0.1274042   0.07343961  29.41 0.0004115443    1.590    0.371
        13  -8.0898     62.3058      1.3644   4.0234317175e+01   6.5744631752e+01    0.1645041    0.1001877  62.36 0.0003852385    1.539    0.350
        14  -9.1965    210.8871    246.0781   6.5802638755e+01  -4.0919038361e+00    0.2406202     0.154364 -46.10  0.001103065    1.958    0.489
        15 -10.0269    248.8444    241.7449   5.8525131133e+01  -7.0278108694e+00    0.4131213    0.1811035 -41.19  0.001856239    2.129    0.530
        16  -7.7215     86.3749    250.2014   9.3731236310e+01   9.7841466519e+00    0.1612364    0.1258434 -88.26  0.000622513    1.661    0.398
        17  -7.4898     72.4887    250.5511   9.7074697428e+01   1.1338612054e+01    0.1305726    0.1097811  32.71 3.354615e-05    1.024    0.024
        18  -9.5213    146.8427    245.6012   7.8984380929e+01   3.2282382331e+00    0.2952678    0.2418438  54.88    0.0012877    1.779    0.438
        19  -8.6506    146.4685    239.7792   7.8232492594e+01   4.3292898814e+00    0.3255756    0.2327103  89.94  0.001454022    3.245    0.692
        20  -9.3899    120.2812    245.3448   8.5083373047e+01   6.5755187312e+00     0.324894    0.2371242  64.56  0.001510947    2.090    0.521
        21  -8.6447    201.9372    243.2371   6.7064240287e+01  -2.7333646044e+00    0.1834535    0.1634222 -44.26 0.0007279518    1.701    0.412
        22  -8.5098    139.4088    244.1771   8.0472778702e+01   4.4043045628e+00    0.1609134    0.1307751 -64.42 0.0008552353    1.724    0.420
        23  -8.8463     78.2752    243.2435   9.4955349962e+01   1.2160678938e+01    0.3389868    0.1749495  58.88   0.00144746    2.723    0.633
        24  -7.9673     67.4916    244.0341   9.7653529099e+01   1.3252387008e+01    0.1797045    0.1312855 -70.54  0.000726091    1.578    0.366
        25  -8.6713    168.9488    242.9723   7.3740604169e+01   1.0198698858e+00    0.1984302    0.1687112 -35.26 0.0006701638    1.377    0.274
        26  -9.0759    194.1753    239.8485   6.8056376109e+01  -1.3582406682e+00    0.2751308    0.1754368 -50.89  0.001538908    2.118    0.528
        27  -9.3116    183.3629    240.2087   7.0295248781e+01  -1.9743999171e-01    0.4052206    0.3001662  56.98  0.002160995    2.744    0.636
        28  -9.2628    160.2194    240.3405   7.5239176172e+01   2.5255114834e+00    0.3117989     0.253842 -80.28  0.001466271    2.234    0.552
        29  -8.2627    153.5586    241.8143   7.6932565274e+01   3.0803686201e+00     0.158567     0.128906 -58.54 0.0009113685    1.707    0.414
        30  -9.5706    110.8682    240.7428   8.6736774455e+01   8.6569805705e+00    0.2642037    0.2190005   7.15 0.0004241689    1.097    0.088
        31  -8.2661     88.1337    241.7212   9.2384697986e+01   1.1289875537e+01    0.2098798    0.1785856 -88.05 0.0006580853    1.450    0.310
        32  -8.2278    213.6292    241.1649   6.4532888054e+01  -3.6327053594e+00    0.1690788   0.08643137 -29.45 0.0005130151    1.672    0.402
        33  -8.7211    240.5106    240.0220   5.9627525081e+01  -6.0534408267e+00    0.2184393   0.08219859 -35.49  0.001150394    2.122    0.529
        34  -8.8225    135.5957    238.6384   8.0574018693e+01   5.9171295938e+00    0.2128426    0.1658337 -88.99 0.0009361893    2.209    0.547
        35  -8.9085    230.9433    236.8169   6.0753064777e+01  -4.7029252036e+00    0.2440402    0.2125671 -71.11  0.001328907    2.596    0.615
        36  -8.0967    209.1606    238.1869   6.4900456695e+01  -2.7154634833e+00    0.1489968    0.1297255 -15.53 0.0004278558    1.350    0.259
        37  -8.5866    129.0391    238.0511   8.2031507237e+01   6.8674432156e+00     0.203502    0.1563541  53.21 0.0009820864    1.708    0.415
        38  -9.9107    214.7477    232.9619   6.3032856612e+01  -2.4957411065e+00    0.4305964    0.3460837 -79.72  0.002324415    3.430    0.708
        39  -8.9332    203.3150    234.9635   6.5502584376e+01  -1.5840901217e+00    0.2668403    0.1888759 -53.54  0.001080106    2.127    0.530
        40  -9.7717    175.6559    233.1858   7.0806720194e+01   1.8994596852e+00    0.4868705    0.2497099 -54.33  0.002239113    2.747    0.636
        41  -8.2256    170.4418    235.9203   7.2345026229e+01   2.0558861043e+00    0.1768303    0.1194044 -40.94 0.0005936237    1.536    0.349
        42  -9.2460    109.6080    234.5974   8.6247317170e+01   1.0056735361e+01    0.5694319    0.2163619  42.28  0.002013712    2.825    0.646
        43  -7.7917     58.9959    237.0000   9.9069020782e+01   1.5714070930e+01    0.2279488   0.06747139  25.58 0.0008117696    3.007    0.667
        44  -7.8722     25.3979    236.2711   1.0714828738e+02   1.9336199837e+01    0.1749424    0.1081417  80.11 0.0009467209    1.714    0.416
        45  -8.7037    247.7322    234.1557   5.7532952932e+01  -5.8810490222e+00    0.2572464    0.1280693 -27.85 0.0009706209    1.558    0.358
        46  -9.3536    246.5933    228.3212   5.6801386026e+01  -4.9518878816e+00    0.4574507    0.1646651 -34.40   0.00235355    2.191    0.544
        47  -8.6984     99.9364    234.3907   8.8606606151e+01   1.1338835027e+01    0.3309253    0.2005989  66.30  0.001425466    2.781    0.640
        48  -8.8499     78.9049    234.5972   9.3875419942e+01   1.3912166230e+01    0.2573738    0.1755145  79.34  0.001297134    1.995    0.499
        49  -8.0371    123.0006    233.9704   8.2904111766e+01   8.4473386321e+00    0.2083722     0.156807  54.91 0.0006467529    1.740    0.425
        50  -7.5788      7.6917    234.7140   1.1117972250e+02   2.1239322541e+01    0.1116809   0.09018897 -35.23 0.0003382991    1.570    0.363
        51  -8.3014    145.9279    233.4736   7.7425149215e+01   5.5698815472e+00    0.2785399    0.1322405  49.85 0.0009748266    4.178    0.761
        52  -8.6147    140.2349    230.1509   7.8249484678e+01   6.9435664278e+00    0.3575675    0.1700087  40.50  0.001365198    2.294    0.564
        53  -8.3710    132.4216    232.6288   8.0459007063e+01   7.4837048260e+00    0.2173802    0.1363398 -56.58 0.0006124164    1.936    0.483
        54  -8.5182     92.8150    231.8267   9.0065531053e+01   1.2783319663e+01    0.3782425    0.1988031  56.36  0.001467786    2.778    0.640
        55  -9.7324     68.5318    232.1794   9.6220746020e+01   1.5674438241e+01    0.5207391    0.2188525  53.13  0.001960203    3.113    0.679
        56  -8.3322    194.4553    232.2118   6.6795018804e+01  -1.4923279556e-01    0.1789044    0.1541869   8.34 0.0003646881    1.276    0.216
        57  -9.3612    186.4210    230.4817   6.8136797877e+01   1.0743900966e+00    0.3156992    0.2468285 -66.17  0.001465466    2.280    0.561
        58  -8.3580    157.9461    231.9628   7.4469021013e+01   4.3144852921e+00    0.1868099     0.159252  49.95 0.0008659216    1.642    0.391
        59  -8.9973    236.0274    230.5945   5.8902869787e+01  -4.2834910289e+00    0.2369834    0.1505141 -37.68 0.0008695619    1.493    0.330
        60  -9.2062    151.4787    228.9620   7.5465766777e+01   5.7027495836e+00    0.2916474    0.2378368  85.61  0.001573758    2.173    0.540
        61  -9.4255    148.8116    224.3246   7.5355637133e+01   6.9383180650e+00    0.3146716    0.2658561  67.13   0.00141308    1.820    0.450
        62  -8.4109      1.6046    230.2924   1.1235994466e+02   2.2700702223e+01    0.2045232    0.1069618  57.57  0.001088103    1.720    0.419
        63  -8.7744    229.6954    228.5117   5.9652221473e+01  -3.3527009826e+00    0.2132709    0.1250158 -46.62 0.0009755229    2.037    0.509
        64  -8.9932    162.4251    227.7321   7.2810175858e+01   4.5199700475e+00     0.300003    0.2095084  47.66  0.001574947    2.012    0.503
        65  -9.0799    128.0805    227.2010   8.0707781997e+01   9.1352911798e+00    0.3653582    0.2121487  47.48  0.001665096    2.167    0.538
        66  -8.0208    120.4262    227.8966   8.2673827479e+01   1.0012944352e+01    0.1754134    0.1243551  84.49 0.0008049579    2.523    0.604
        67  -8.2759    223.3065    226.5805   6.0460192136e+01  -2.4070360237e+00      0.23372    0.1195621 -35.55 0.0008579065    1.635    0.388
        68  -7.9270    177.8120    226.8992   6.9347931773e+01   2.7343110912e+00    0.1821939    0.1461017 -14.08 0.0004131605    1.067    0.062
        69  -8.7141    180.6557    224.1625   6.8305459819e+01   2.8645842401e+00     0.285445    0.1979116  41.76  0.001026851    1.884    0.469
        70  -8.1525     49.6738    226.7038   1.0045557059e+02   1.9028805845e+01    0.2665013    0.1432132  71.91   0.00116313    2.475    0.596
        71  -8.7835    206.1471    225.6741   6.3464472887e+01  -4.0629788158e-01    0.2208372    0.1877378 -54.09  0.001208442    1.802    0.445
        72  -8.5164    200.1304    225.8331   6.4647478596e+01   2.5187939059e-01     0.202059    0.1516349 -37.99 0.0006005593    1.403    0.287
        73  -9.1455    216.4181    223.1071   6.1132657631e+01  -1.1313639489e+00    0.3089958    0.1812815 -38.86  0.001070861    1.558    0.358
        74  -8.8801     93.9292    223.9676   8.8795173058e+01   1.4340754009e+01    0.3834311    0.2094161  54.37  0.001610423    2.449    0.592
        75  -7.8775    113.8312    223.8055   8.3725419003e+01   1.1745131341e+01    0.1882852    0.1534403  44.59  0.000497174    1.339    0.253
        76  -8.9344    104.7869    223.5367   8.5967494053e+01   1.3009648373e+01    0.3106297    0.2365908  77.90  0.001592282    1.873    0.466
        77  -7.6943     38.3670    224.2688   1.0310513973e+02   2.0769304316e+01    0.1788686    0.1181234  85.56 0.0005409402    1.664    0.399
        78  -9.3308    192.4557    221.3359   6.5422493467e+01   1.9128521219e+00    0.2817789    0.2526328 -82.21  0.001143665    1.989    0.497
        79  -8.6209    173.0941    222.7962   6.9685455910e+01   4.0581147004e+00    0.2358828    0.2054214 -82.48 0.0009238911    1.960    0.490
        80  -8.1521    163.5092    222.5202   7.1734266293e+01   5.3442029967e+00    0.2258313    0.1570977  42.21  0.001095465    1.770    0.435
        81  -8.7286    159.1188    220.2998   7.2355727514e+01   6.3400285882e+00    0.2576462    0.2161058  54.12 0.0008710956    1.706    0.414
        82  -9.1614    238.9716    221.1073   5.6891349809e+01  -3.1696215898e+00    0.2734511    0.1362191 -37.95  0.001279813    1.665    0.399
        83  -9.0942    225.3776    221.4932   5.9267286467e+01  -1.8385639636e+00    0.2109707    0.1782481 -34.96 0.0006199073    1.459    0.315
        84  -7.8697    140.4775    222.4898   7.7021461182e+01   8.4147003480e+00    0.1384756     0.121197   8.37 0.0001658933    1.060    0.057
        85  -8.5752     82.7693    220.1956   9.1206909036e+01   1.6613036817e+01    0.3530819    0.2064235  63.53  0.001460361    2.479    0.597
        86  -8.1245     27.5326    220.0382   1.0550768590e+02   2.2805278616e+01     0.286423    0.1060645 -65.73  0.001202516    2.607    0.616
        87  -8.2021    202.5555    220.0888   6.3230777163e+01   9.2434865139e-01    0.1822082    0.1073628 -38.15 0.0005765297    1.541    0.351
        88  -9.1476    120.3581    218.8269   8.1366021573e+01   1.1912879277e+01    0.4697911    0.2616632  55.02  0.001864941    2.902    0.655
        89  -7.9673     72.9709    220.4765   9.3802463449e+01   1.7768219237e+01    0.2040845   0.09102306  46.23 0.0004566951    2.352    0.575
        90  -8.1519    210.1669    219.1298   6.1628317575e+01   2.0488215586e-01    0.1556933    0.1333893 -29.93 0.0004947154    1.339    0.253
        91  -9.0332    249.2625    218.1190   5.4751104681e+01  -3.7297400570e+00    0.2288531    0.1811565  58.91  0.001411123    3.089    0.676
        92  -8.6931    246.4805    214.4858   5.4603000266e+01  -2.9263819273e+00    0.2081935   0.07812657 -32.49  0.001028321    2.209    0.547
        93  -9.2424    133.1053    216.0057   7.7779715132e+01   1.0741860486e+01    0.4937325    0.3269142  72.21   0.00198076    3.341    0.701
        94  -8.8772     51.5026    216.4260   9.9009372527e+01   2.1208551664e+01    0.3911202    0.2035833 -73.87  0.001705366    2.124    0.529
        95  -8.2940    179.3997    217.2913   6.7431307047e+01   4.2483523571e+00    0.1695112    0.1213193 -47.91 0.0006277337    1.605    0.377
        96  -8.7997    169.3154    215.8439   6.9353881205e+01   5.8278544469e+00    0.2615021    0.2234064 -85.85 0.0009632222    1.997    0.499
        97  -8.5313    143.1188    216.5466   7.5452955237e+01   9.2436410604e+00    0.2618021    0.2203673  76.73  0.001329041    1.836    0.455
        98  -7.8424    111.5813    216.7290   8.3273422809e+01   1.3567822459e+01    0.1803995     0.141853 -74.36 0.0009375708    1.651    0.394
        99  -8.2111     62.0552    217.1200   9.6297417529e+01   1.9848481743e+01    0.2926705    0.1444557  50.43  0.001210219    2.207    0.547
       100  -8.1614     42.2068    215.7950   1.0138937351e+02   2.2352403913e+01    0.2410201    0.1050969  56.05 0.0009376004    2.723    0.633
       101  -8.6396    232.3580    214.7762   5.6961289481e+01  -1.5338426799e+00    0.2010578    0.1674499 -45.23  0.001324226    1.635    0.389
       102  -8.5716    185.6318    214.1375   6.5600813894e+01   4.0191581744e+00    0.2558895    0.1544876 -51.90  0.001067372    2.040    0.510
       103  -8.3146    154.6648    215.1274   7.2521316088e+01   7.9383677307e+00     0.195692    0.1805713 -73.67  0.001160673    1.523    0.343
       104  -9.3221    214.1935    211.9952   5.9687883156e+01   9.1310847425e-01    0.3315694    0.3011411  53.11  0.001640487    1.825    0.452
       105  -8.8952     93.0899    213.7434   8.7655568895e+01   1.6737485009e+01     0.380863     0.204127  50.59  0.001564238    2.270    0.559
       106  -9.4675     73.1456    211.4267   9.2680155018e+01   1.9849728068e+01    0.8364829    0.3363607  54.30  0.002627364    4.101    0.756
       107  -7.6583    224.9959    212.4915   5.7844310759e+01  -3.8443998468e-01    0.1308665    0.1046848  51.38 0.0004317218    2.225    0.551
       108  -9.1228    204.3353    210.7150   6.1309305389e+01   2.2925256046e+00    0.2847326    0.2049807 -48.67 0.0008300388    1.674    0.403
       109  -8.9188    161.5129    212.0965   7.0455624722e+01   7.5913636973e+00    0.2361147    0.2114626  12.08 0.0008653259    1.165    0.142
       110  -7.9663    106.4712    212.5237   8.3973612500e+01   1.5197208248e+01    0.1438233    0.1304195  23.74 0.0004970231    1.066    0.062
       111  -8.3523    192.3220    210.3880   6.3600983992e+01   3.8363005996e+00    0.1923928    0.1499554 -53.10 0.0006506125    1.688    0.408
       112  -9.4483    175.5107    209.7033   6.6969138737e+01   6.1509963024e+00    0.3673242    0.2903779  67.13  0.001775934    2.315    0.568
       113  -8.7603    148.1004    210.3936   7.3263003794e+01   9.7915857752e+00    0.2914475    0.2415898  79.58  0.001070501    1.938    0.484
       114  -8.7236    116.6556    210.4790   8.1034252418e+01   1.4228922458e+01    0.3738066    0.2036792  51.02  0.001161411    2.509    0.601
       115  -9.1485      5.4460    207.1965   1.1023410080e+02   2.7716849788e+01    0.4194034    0.1571281  82.58  0.001603785    3.215    0.689
       116  -9.0332    236.6714    208.2057   5.5152174169e+01  -9.7296887616e-01    0.2717587    0.2143116 -64.32  0.001308871    2.397    0.583
       117  -8.7079     31.5674    209.2919   1.0361935987e+02   2.4972089562e+01    0.3757161    0.1646719  52.69  0.001557261    2.411    0.585
       118  -8.5275     85.5967    209.5394   8.9082879064e+01   1.8699425087e+01    0.3244477    0.1872047  58.50  0.001344273    2.365    0.577
       119  -8.4817     45.8686    209.3555   9.9810444241e+01   2.3507417190e+01    0.1948549    0.1654466  66.21  0.001120138    1.179    0.152
       120  -9.3537    246.4160    207.1250   5.3408914709e+01  -1.8197050118e+00    0.2422525    0.1567017 -37.64 0.0005260276    1.351    0.260
       121  -9.3668    250.1911    202.0068   5.1980304981e+01  -1.4331003178e+00     0.385092    0.1348592 -37.94  0.001512423    2.206    0.547
       122  -7.9447    156.5869    207.8278   7.0851519389e+01   9.1120560806e+00    0.1776447    0.1337327 -57.52 0.0006382873    1.676    0.403
       123  -8.3781    139.1749    207.8581   7.4978314776e+01   1.1581022136e+01    0.2542586    0.2122263  72.02  0.001117178    1.769    0.435
       124  -8.2605    126.4080    208.2820   7.8208700702e+01   1.3321150757e+01    0.2421253    0.1636109  46.14 0.0007434843    1.705    0.413
       125  -9.0907     99.2072    205.7095   8.4885648861e+01   1.7749869632e+01    0.3692818       0.2601  89.28  0.001235963    2.104    0.525
       126  -8.7892     57.0071    205.8948   9.6420177192e+01   2.3112086588e+01    0.4261995    0.2013278  62.36  0.001527245    3.226    0.690
       127  -8.9884     12.0689    206.8443   1.0852453692e+02   2.7284325687e+01    0.2079778    0.1544522  55.93 0.0007334482    1.246    0.197
       128  -8.7970    131.3769    203.8648   7.6236523512e+01   1.3556570906e+01    0.3126347    0.2328003  64.25  0.001217818    2.018    0.504
       129  -8.2188    108.9975    204.9913   8.2175843925e+01   1.6538872883e+01    0.2249877    0.1720225  59.69 0.0007221411    1.655    0.396
       130  -8.2339     25.4022    205.2269   1.0492001000e+02   2.6534771245e+01    0.1890536    0.1183809  83.96 0.0006965813    1.691    0.409
       131  -9.2321    194.8461    203.6196   6.1923355143e+01   4.7155276381e+00    0.2966967    0.2804305 -39.99  0.001276495    1.413    0.292
       132  -9.5039    192.4980    197.1723   6.1247553312e+01   6.1867490585e+00    0.4100583    0.3446116  80.94  0.001437544    2.178    0.541
       133  -9.5727    164.0505    202.9110   6.8302498882e+01   9.0315606257e+00    0.4443519    0.2623142  48.39  0.001479454    2.408    0.585
       134  -9.0730    243.1831    200.6098   5.2834490933e+01  -4.9048609539e-01    0.2719568    0.1515999 -42.69 0.0009169317    1.636    0.389
       135  -8.4405    211.1477    201.9163   5.8516141881e+01   2.9606948647e+00    0.2095561    0.1805526 -59.12 0.0007097152    1.723    0.420
       136  -8.9211    140.5455    200.9210   7.3468452437e+01   1.2842291973e+01    0.3512375    0.2666909  69.05  0.001580348    2.128    0.530
       137  -8.2841     80.3492    201.3029   8.9396138179e+01   2.1345447180e+01    0.3426691    0.1717288  52.87  0.001191912    2.583    0.613
       138  -8.3133     48.4031    202.1766   9.8385072233e+01   2.4987773850e+01    0.1973832    0.1294316  87.54 0.0009402487    1.768    0.434
       139  -7.9104     41.3284    202.6571   1.0038452612e+02   2.5620337843e+01    0.1521238    0.0927885  57.42 0.0007051087    1.744    0.427
       140  -9.0031    183.7898    203.6609   6.4170952172e+01   6.1642073464e+00    0.2939613    0.2391504  59.93  0.001220519    2.001    0.500
       141  -7.9673    222.1708    201.1994   5.6419016948e+01   1.7614945710e+00    0.1563996    0.1324851 -36.86 0.0005729477    1.349    0.259
       142  -9.5127    149.5338    198.4146   7.0864107965e+01   1.2042517261e+01    0.4293033    0.3223721  86.81  0.001532784    2.518    0.603
       143  -8.7851    123.9701    199.1233   7.7322701529e+01   1.5684486205e+01     0.327033    0.2401763 -79.52  0.001128585    2.041    0.510
       144  -9.5717    113.0275    198.2920   8.0044738686e+01   1.7485210833e+01    0.4883734    0.3078396  64.52   0.00195127    2.695    0.629
       145  -8.9230    237.0607    198.3734   5.3434233014e+01   5.2206396180e-01    0.2484595    0.1384878 -45.59 0.0009805382    1.793    0.442
       146  -8.8612    177.0268    198.5771   6.4691311137e+01   8.0448370728e+00    0.2411052    0.1869958 -54.47 0.0006663734    1.599    0.375
       147  -9.0261     88.7016    198.1490   8.6631632693e+01   2.0983111219e+01    0.3937899    0.2657748  78.84  0.001337496    2.206    0.547
       148  -8.4478    202.4251    197.7557   5.9416702105e+01   4.7764667327e+00    0.2217512    0.1712217 -56.50 0.0008596495    1.771    0.435
       149  -9.0266     61.3978    196.8054   9.4124667672e+01   2.4834603182e+01    0.5062007    0.2751582  69.32   0.00191657    2.796    0.642
       150  -9.2433     13.0350    197.2997   1.0762040269e+02   2.9536053831e+01    0.3981093    0.1443742  64.01  0.001364125    3.745    0.733
       151  -9.2974    245.8606    193.2803   5.1184971787e+01   3.5497915279e-01    0.3097591    0.2094284 -56.98  0.001819581    2.295    0.564
       152  -8.7392    215.9264    195.4503   5.6519026543e+01   3.4713594795e+00    0.2211529    0.1608747 -50.28 0.0007598022    1.655    0.396
       153  -8.0090    132.9932    195.9574   7.4482005690e+01   1.5036530765e+01    0.2132403    0.1793238  66.92 0.0006802755    1.619    0.382
       154  -7.7518     54.0115    196.5178   9.6184077243e+01   2.5769366645e+01    0.2226736    0.0894122  45.49 0.0008103825    2.600    0.615
       155  -7.8912     36.0471    196.0704   1.0120304663e+02   2.7794500166e+01    0.2539288    0.1296763  73.45 0.0009773567    2.600    0.615
       156  -8.8642    224.6615    193.7162   5.4691165270e+01   2.7007645613e+00    0.3041648    0.1383609 -46.75  0.001368768    2.205    0.547
       157  -7.5467    209.4174    195.4717   5.7702079474e+01   4.2814080644e+00    0.1280785    0.1037655 -21.26 0.0001333501    1.035    0.034
       158  -8.7968    185.1660    194.7056   6.2288271874e+01   7.6428973796e+00    0.2371047    0.1979764 -59.71 0.0006786997    1.620    0.383
       159  -9.1638    160.9515    194.2900   6.7465506789e+01   1.1201270854e+01    0.3097999    0.2538023  70.45  0.001096099    1.932    0.482
       160  -8.3053    231.0268    193.7483   5.3627919192e+01   1.9454057928e+00    0.2178136    0.1350563 -46.28 0.0008828116    1.663    0.399
       161  -8.6365     77.0575    193.8229   8.9277477008e+01   2.3604827260e+01    0.2475714    0.2267333  45.71 0.0006434135    1.104    0.094
       162  -8.9210     43.8523    192.9703   9.8675809171e+01   2.7778493375e+01    0.5042963    0.2525397  64.92  0.001943489    2.728    0.633
       163  -8.0846    198.7978    191.3858   5.8970190592e+01   6.3898954093e+00    0.2242049    0.1509559 -49.42  0.000757136    1.646    0.393
       164  -8.5536    172.7813    191.6917   6.4357097536e+01   9.9827659305e+00    0.2355684    0.1864409 -74.91 0.0008985786    2.047    0.511
       165  -7.6564    205.2755    191.6317   5.7784723409e+01   5.4863101862e+00    0.1175488     0.100591 -61.79 0.0003657404    1.678    0.404
       166  -8.1512    179.0400    191.2847   6.2941881250e+01   9.1569763366e+00    0.1868363    0.1655164 -10.52 0.0004725992    1.068    0.064
       167  -9.0533    139.4763    190.2467   7.1846000077e+01   1.5297138449e+01    0.3394087    0.2686676  72.46  0.001067972    1.930    0.482
       168 -10.2712     92.4455    188.7573   8.4145684964e+01   2.2734331021e+01     1.020923    0.2728569  40.57  0.002973037    3.794    0.736
       169  -8.2917    148.2194    188.9557   6.9473860618e+01   1.4229556654e+01     0.205838     0.195245 -70.46 0.0007148507    1.328    0.247
       170  -8.7362    129.2555    188.4070   7.4099137757e+01   1.7282362182e+01    0.2976923    0.2226575  63.08 0.0008367755    1.907    0.476
       171  -8.5995     34.2729    187.8932   1.0089302102e+02   3.0042137136e+01    0.3766371    0.1880625  63.92  0.001495341    2.548    0.608
       172  -8.3519    237.3643    187.9207   5.1593562792e+01   2.1504438169e+00    0.2223608    0.1151131 -34.98  0.001025574    1.540    0.351
       173  -8.9534    216.4653    187.4781   5.5008314541e+01   4.7628634128e+00     0.269084    0.1865889 -44.75 0.0009206879    1.446    0.308
       174  -8.7706    191.4835    187.1835   5.9634591962e+01   8.1649079589e+00    0.2813778    0.2086037 -63.07  0.001207704    1.989    0.497
       175  -9.2606    155.8643    187.1737   6.7332216751e+01   1.3429667212e+01    0.3600369    0.2398993 -60.76  0.001050144    1.971    0.493
       176  -9.4991    120.7035    186.0437   7.5913437632e+01   1.9146149587e+01    0.5039434    0.3117237 -72.98  0.002012839    2.555    0.609
       177  -9.0750     54.5659    186.4236   9.4800283475e+01   2.8262263089e+01    0.4122304    0.2438542  72.21  0.001544358    2.294    0.564
       178  -8.2299    230.5122    186.9784   5.2533584977e+01   3.1098710600e+00    0.1875424   0.09930724 -40.01 0.0008516877    1.566    0.362
       179  -8.7411    165.0824    186.6485   6.5123207418e+01   1.2131616982e+01    0.2667561    0.2236266 -82.82  0.001129482    1.834    0.455
       180  -9.1488    109.6843    185.7796   7.8842149166e+01   2.0902176173e+01    0.4555036    0.3140558  71.05  0.001367916    2.308    0.567
       181  -9.4008    248.9192    185.5382   4.9410843122e+01   1.2208086152e+00    0.2510794    0.2134535  13.63  0.001524625    1.383    0.277
       182  -8.7090    202.9484    184.5611   5.6936109858e+01   7.0571616027e+00    0.2313131    0.1709376 -52.08 0.0007419972    1.594    0.373
       183  -8.4744    182.9944    184.5213   6.0861809019e+01   9.8839842629e+00    0.2438096    0.1819538 -53.96 0.0007368197    1.589    0.370
       184  -9.1231     66.9063    184.3388   9.0880316168e+01   2.7299899275e+01    0.4693062    0.2386012  50.68  0.001257303    2.324    0.570
       185  -8.7764    224.0134    183.2660   5.2955731165e+01   4.5236395028e+00    0.2554669    0.1464275 -45.81 0.0007139848    1.673    0.402
       186  -8.9743    210.0198    183.8198   5.5497729335e+01   6.2369109487e+00    0.2699039    0.1555945 -41.05 0.0008833107    1.521    0.343
       187  -8.8227    174.2978    183.3054   6.2468270317e+01   1.1409783680e+01    0.2783505    0.2293951 -61.33 0.0007779275    1.569    0.363
       188  -8.3835    197.0351    183.0261   5.7777705999e+01   8.1537732226e+00    0.1840567    0.1634914 -71.39 0.0004686194    1.630    0.387
       189  -8.7867     44.4010    182.0848   9.7280625712e+01   3.0510391046e+01    0.3975264     0.251815  71.17  0.001114596    1.907    0.476
       190  -8.0854      1.9008    183.4920   1.0970156382e+02   3.3798449552e+01    0.1867895    0.1250664  24.71  0.001013106    1.550    0.355
       191  -7.8338    235.3956    181.1896   5.0731811069e+01   3.4693438067e+00    0.1690221   0.09630443 -46.11 0.0005409164    1.680    0.405
       192  -9.1440    147.4012    180.3178   6.8054785983e+01   1.6209174544e+01    0.3386413    0.2755987  85.86  0.001078082    1.890    0.471
       193  -8.6729     26.8014    180.5200   1.0233431511e+02   3.2637331461e+01    0.3804414    0.1987088  62.36  0.001599436    2.265    0.558
       194  -8.9610     24.3894    176.1775   1.0262211893e+02   3.3977970101e+01    0.3458884    0.1781543  77.52  0.001211456    2.439    0.590
       195  -8.7613    137.9224    179.1448   7.0175889852e+01   1.7985481529e+01    0.3692149    0.2641689  66.64  0.001239439    2.245    0.555
       196  -8.4151    244.4730    169.0427   4.7217373660e+01   4.3336706280e+00    0.1846739    0.1243083 -45.76 0.0005006298    1.401    0.286
       197  -9.6793    248.3557    176.1596   4.7888140359e+01   2.7483092120e+00    0.5081814     0.219443 -49.54  0.002014003    2.584    0.613
       198  -8.5826    250.5756    172.3165   4.6905338667e+01   3.0941662647e+00    0.2169608    0.1446252 -38.13 0.0006291278    1.190    0.160
       199  -7.5939    240.4628    179.5107   4.9649491505e+01   3.1370699669e+00      0.12115   0.09247795 -27.40 8.440482e-05    1.005    0.004
       200  -9.4604    191.5049    178.1783   5.7948362657e+01   9.8461068528e+00    0.3009134    0.2688807 -87.13 0.0008327365    1.672    0.402
       201  -8.1985    169.6341    178.5365   6.2574148943e+01   1.3074799495e+01    0.2247159    0.1735773 -63.91 0.0006386773    1.731    0.422
       202  -8.8203    205.0472    177.2776   5.5199433089e+01   8.0783462413e+00    0.2724682    0.1592363 -47.47 0.0005395174    1.699    0.411
       203  -8.4785    129.4258    177.4079   7.2025791978e+01   1.9747805222e+01    0.3175853    0.2268501  73.30 0.0009165624    2.371    0.578
       204  -9.2308     35.8766    176.5511   9.9201492161e+01   3.2824254287e+01     0.529193    0.2510503  75.69  0.001832486    3.343    0.701
       205  -8.7007    231.0630    176.8700   5.0656532204e+01   4.7088733395e+00     0.220014    0.1428753 -38.52 0.0006996043    1.273    0.215
       206  -8.5265    217.6796    176.9164   5.2886375872e+01   6.4236189470e+00     0.220885    0.1535842 -49.22 0.0007869198    1.541    0.351
       207  -8.6630     89.1955    176.6544   8.3097314183e+01   2.6199892675e+01    0.3163492    0.2324129  61.31 0.0008672255    1.684    0.406
       208  -9.1510     58.7390    175.4853   9.2085659898e+01   3.0596550311e+01    0.6351587    0.2839136  58.62  0.001973267    3.852    0.740
       209  -9.3205     55.9974    170.7502   9.2257978131e+01   3.2165354975e+01    0.5251383    0.2700023  66.08  0.001798835    3.235    0.691
       210  -9.5069     13.0472    175.6051   1.0593355921e+02   3.5035591378e+01    0.5185212    0.2277284 -81.01  0.002149405    2.274    0.560
       211  -7.9644    211.5326    176.4688   5.3877941836e+01   7.3282086070e+00    0.1299382    0.1070233 -24.90 0.0002984081    1.012    0.011
       212  -9.0628    183.0745    175.7852   5.9189068199e+01   1.1556841452e+01    0.2561263     0.210887 -54.57 0.0007213547    1.429    0.300
       213  -9.1864    158.8227    174.8551   6.4295525436e+01   1.5541233890e+01    0.3731226    0.2806294  74.98 0.0009865517    2.320    0.569
       214  -9.1893    103.9867    174.4581   7.8426884121e+01   2.4505118720e+01    0.5544643    0.3279582  51.83  0.002235891    2.126    0.530
       215  -8.5875    224.6515    174.3316   5.1241899355e+01   5.9507556720e+00     0.222016    0.1311626 -47.39 0.0007446782    1.661    0.398
       216 -10.6065     76.1238    171.0591   8.6081689090e+01   2.9486069326e+01     1.388888    0.5606292 -72.83  0.004016855    4.227    0.763
       217  -9.5543     81.7379    154.7489   8.1454721619e+01   3.2882826577e+01    0.6369038    0.5374566 -23.48   0.00211516    1.228    0.186
       218  -9.8014    175.8901    171.9120   5.9938163914e+01   1.3425623021e+01    0.4104171    0.2660593 -45.10   0.00124593    1.480    0.324
       219  -8.5090    143.0131    172.7392   6.7664882212e+01   1.8574953365e+01    0.2524605    0.1953318 -64.89 0.0008689704    1.618    0.382
       220  -8.4695    134.8920    171.4254   6.9456074849e+01   2.0211856245e+01    0.2664345    0.2180573 -72.01  0.000835109    1.568    0.362
       221  -9.1746     45.1117    171.0409   9.5692632954e+01   3.3324463893e+01    0.3959461     0.240826  80.70  0.001094869    2.126    0.530
       222  -8.4760    205.8596    169.9455   5.3675199232e+01   9.2856681821e+00    0.2833619    0.1666523 -52.10 0.0008750133    1.904    0.475
       223  -9.4557    121.4787    170.1789   7.2752531979e+01   2.2719626996e+01     0.384347    0.3082101 -83.09  0.001111384    1.697    0.411
       224  -8.5187    237.3990    169.2886   4.8315746528e+01   5.1639337130e+00     0.213027    0.1242308 -44.34 0.0007842272    1.505    0.336
       225  -8.9177    230.3220    168.8597   4.9335558771e+01   6.1354090019e+00    0.3914056    0.1509856 -48.89  0.001670879    2.763    0.638
       226  -8.5956    198.6525    169.8692   5.4989839299e+01   1.0347102754e+01    0.2522646    0.1879895 -47.33  0.001109707    1.364    0.267
       227  -8.5591    149.8795    169.3950   6.5325508787e+01   1.8168123777e+01    0.2650185    0.2074495 -66.05 0.0008584115    1.633    0.387
       228  -9.1041    167.0587    168.4250   6.1164125222e+01   1.5542120400e+01     0.327559    0.2435689  63.52  0.001244099    2.042    0.510
       229  -8.0673     88.7823    168.7565   8.1850504909e+01   2.8249917572e+01    0.2128842    0.1785894  60.06 0.0009215844    1.363    0.266
       230  -8.5019    218.8920    168.1132   5.1060211728e+01   7.7841860844e+00     0.185301    0.1557905 -45.66 0.0005050289    1.276    0.216
       231  -7.8255    211.4036    168.1603   5.2352388061e+01   8.8166099471e+00    0.1824347    0.1085493 -50.18  0.000717907    1.761    0.432
       232  -8.8191    111.4327    167.0220   7.4919322869e+01   2.5121338450e+01    0.3222817    0.2477995  79.42  0.001073032    1.871    0.465
       233  -9.0860    191.8889    166.2746   5.5587085596e+01   1.2035861946e+01    0.3059598    0.1789958 -44.53  0.000508452    1.577    0.366
       234  -8.7821    185.0140    166.3912   5.6968114195e+01   1.3078160421e+01    0.2473232    0.1800055 -53.90 0.0005754316    1.542    0.351
       235  -9.5971    137.3768    164.5186   6.7441688004e+01   2.1352450769e+01    0.6958542     0.312064  50.96  0.002142728    3.452    0.710
       236  -9.9582     94.9418    162.6232   7.8876385322e+01   2.8851889964e+01    0.8873556    0.4895801  68.00  0.002573021    4.546    0.780
       237  -9.1012     20.2143    165.9563   1.0287028954e+02   3.7009133184e+01     0.327082    0.1600848  55.87  0.001276887    2.381    0.580
       238  -8.4964    234.0616    164.6670   4.7996209433e+01   6.3478387894e+00    0.2076515     0.138388 -44.20 0.0006115961    1.341    0.254
       239  -9.5813     33.7837    163.3259   9.8291999160e+01   3.6521111420e+01    0.6503801    0.2443942  46.97  0.002245534    3.101    0.678
       240  -8.4995    212.7670    163.4110   5.1220367127e+01   9.4647219844e+00    0.2296294    0.1510282 -39.76 0.0003869741    1.298    0.230
       241  -8.6561    159.4913    163.9110   6.1961448293e+01   1.7731171991e+01    0.2538309      0.22909  85.97 0.0007084541    1.463    0.317
       242  -9.0261    246.1442    162.7254   4.5865806564e+01   5.1376196540e+00    0.2002498    0.1299509 -42.96 0.0005335706    1.303    0.233
       243  -8.4875    204.8611    162.3173   5.2399847210e+01   1.0813033999e+01    0.2225864    0.1567715 -45.84 0.0005655774    1.350    0.259
       244  -9.3315      3.3052    162.0706   1.0773137916e+02   3.9217407985e+01    0.4794163    0.2167927  55.29  0.001996829    2.487    0.598
       245  -7.8931     58.9863    163.0000   9.0154450322e+01   3.3844611680e+01    0.2456048   0.08480201  24.95 0.0007960696    2.898    0.655
       246  -9.1352    177.4137    160.4500   5.7339205587e+01   1.5461015604e+01    0.3118474    0.2587544 -62.14 0.0009640557    1.464    0.317
       247  -8.7745    151.8029    160.7534   6.3112170990e+01   1.9710196358e+01    0.2965807    0.2495051 -88.74  0.001178049    1.665    0.400
       248  -8.6860     61.0082    160.2236   8.9064065948e+01   3.4324646381e+01     0.387647    0.2300118  60.43  0.001150237    2.268    0.559
       249  -8.5554    227.4273    158.9006   4.7970095724e+01   8.1942549296e+00    0.2624922    0.1454695 -52.13   0.00110694    1.981    0.495
       250 -10.1115    249.6674    157.0923   4.4382719042e+01   5.5962892930e+00     0.338016    0.2438131 -58.46  0.001330456    1.732    0.423
       251  -8.6473    242.2985    159.6963   4.5880017339e+01   6.1038617069e+00    0.1257741    0.0956781 -28.53 0.0003745345    1.089    0.082
       252  -9.6016    241.4248    153.8983   4.4967136478e+01   7.1530950539e+00    0.4016652    0.2744847 -87.76  0.001889028    3.947    0.747
       253  -8.7686    236.8966    158.5697   4.6467300933e+01   6.9832479043e+00    0.2054141    0.1180011 -43.52 0.0005941162    1.459    0.315
       254  -8.7585    196.8392    157.8545   5.2995351955e+01   1.2853828096e+01     0.288801    0.1756105 -54.38  0.000992736    1.886    0.470
       255  -8.2209    128.3289    158.9871   6.8666623862e+01   2.4170933673e+01    0.2671192     0.211322  60.52 0.0009240886    1.596    0.373
       256  -9.5413    105.7948    157.5546   7.4670529359e+01   2.8354656455e+01    0.4997202    0.3761705  81.32  0.001506026    1.942    0.485
       257  -8.3658    188.1636    157.4877   5.4575538281e+01   1.4294950036e+01     0.264273    0.1659373 -55.88 0.0007409634    1.880    0.468
       258  -9.2618    167.5951    156.8725   5.8703090626e+01   1.7822787599e+01    0.3601374    0.2744098 -74.22  0.001162593    1.930    0.482
       259  -8.6243    217.9732    156.3914   4.9016430055e+01   9.9503948145e+00    0.2455089    0.1522367 -51.15 0.0008774336    1.669    0.401
       260  -9.4765    157.5292    155.4817   6.0674230010e+01   1.9845483510e+01    0.4028793    0.2315433 -52.67  0.001746427    1.864    0.463
       261  -9.2780    119.7801    155.0703   7.0175354354e+01   2.6571278321e+01    0.4277675    0.3116592 -85.46   0.00122313    2.138    0.532
       262  -9.2468     49.7222    154.9225   9.1923418204e+01   3.7096256519e+01     0.487303    0.2833796  63.70  0.001709922    2.377    0.579
       263  -8.0214    204.9460    155.0471   5.0975695535e+01   1.2120702522e+01    0.1962906    0.1522452 -63.93 0.0007702635    1.664    0.399
       264  -8.4331    144.4718    154.3994   6.3561562018e+01   2.2373625525e+01    0.2779046    0.2121322 -68.23 0.0008401027    1.689    0.408
       265  -9.2414     68.3206    153.7440   8.5589123114e+01   3.5068823668e+01    0.4816182     0.266182  59.45  0.001219436    2.722    0.633
       266  -8.3059    232.8514    153.1349   4.6078254894e+01   8.4206308418e+00     0.321443    0.1341964 -48.61  0.001027232    2.338    0.572
       267  -9.5807    132.7611    152.7540   6.6187409669e+01   2.4822693059e+01    0.4581446    0.3333607  69.02  0.001232793    2.066    0.516
       268  -8.7472    133.7803    148.1957   6.4939870392e+01   2.5674355082e+01    0.3360295    0.2342649 -34.16  0.000974667    1.470    0.320
       269  -8.9280    151.8151    151.9531   6.1265309850e+01   2.1602973083e+01    0.4399569    0.1881806 -39.10  0.001233767    2.414    0.586
       270 -10.3258    148.8796    144.7865   6.0418340762e+01   2.3674617596e+01    0.5634779    0.4043918 -83.77  0.001619781    2.376    0.579
       271 -10.3611     55.2129    144.7256   8.8391816487e+01   3.9159348383e+01    0.9894034    0.5066398  66.74  0.003046467    4.021    0.751
       272  -8.4179     53.1957    137.2218   8.7753945834e+01   4.1396385136e+01    0.3191896    0.1791378 -15.49  0.001174102    2.598    0.615
       273  -8.6962     57.2941    134.7833   8.5842573049e+01   4.1523518949e+01    0.2914754    0.2104057  15.61  0.001030274    1.442    0.307
       274  -9.6594     29.3133    150.5504   9.8141161850e+01   4.0349340377e+01    0.5614187    0.2792798  63.47  0.002074605    2.892    0.654
       275  -8.5163     20.3922    152.2806   1.0133517483e+02   4.0630634432e+01     0.198662     0.129015 -87.66 0.0006651343    1.617    0.382
       276  -8.8624      2.8112    151.0132   1.0695242514e+02   4.2147620395e+01    0.3759112    0.1599002 -71.74   0.00159465    2.045    0.511
       277  -8.9966    189.5614    150.0056   5.2795615680e+01   1.5497545009e+01    0.3000953    0.2088074 -57.07 0.0008691339    1.655    0.396
       278  -8.2649    182.4196    150.8394   5.4359841714e+01   1.6522852227e+01    0.2559118    0.1250609 -48.50 0.0007411654    2.009    0.502
       279  -8.2678    162.6192    150.6539   5.8502418071e+01   1.9966289678e+01    0.2669767    0.2094294  88.68 0.0007604273    1.968    0.492
       280  -8.6130     98.3581    150.6595   7.5482667275e+01   3.1292044286e+01     0.313197    0.2458662  70.82 0.0008739819    1.672    0.402
       281  -9.4772    248.9355    149.0708   4.3067046065e+01   6.9551459261e+00    0.2819799    0.1355664 -41.27 0.0007667716    1.616    0.381
       282  -9.4700    242.8528    149.5267   4.3979826741e+01   7.6715691838e+00    0.2286713    0.2187904 -83.07  0.001718468    1.392    0.282
       283  -8.3659    212.9662    149.6682   4.8556256898e+01   1.1867181396e+01    0.1658129    0.1570158 -13.76  0.000445799    1.151    0.131
       284  -8.5159    198.9115    148.7353   5.0804768432e+01   1.4219087756e+01    0.2291084    0.1712735 -41.48 0.0006001172    1.190    0.159
       285  -9.4975     39.9125    147.6869   9.4133680289e+01   4.0100645396e+01    0.5173612    0.2979498  61.91   0.00167276    2.317    0.568
       286  -8.7568    233.4834    147.6010   4.4965551119e+01   9.2514486319e+00    0.2427155   0.09944113 -41.47 0.0005686801    1.973    0.493
       287  -9.8405    139.3849    145.1608   6.2838197692e+01   2.5332640522e+01    0.4456746    0.3082779 -76.67  0.001351196    2.348    0.574
       288 -10.1641    106.6704    144.3722   7.1655882576e+01   3.1422475354e+01    0.7299846    0.4519793  69.33   0.00237413    3.157    0.683
       289  -7.9657    105.3190    138.3586   7.0733427722e+01   3.3114910702e+01    0.2219689    0.1577722  12.54 0.0005910703    1.645    0.392
       290  -8.8762     78.1748    146.9189   8.1091156494e+01   3.5435074307e+01    0.2992402    0.2266926  71.66 0.0009361067    1.729    0.421
       291  -9.6520     13.4626    145.8626   1.0292969609e+02   4.2849816196e+01    0.4464698    0.2558203  63.57  0.001595294    2.082    0.520
       292  -8.1752    206.8182    146.1762   4.8909149903e+01   1.3433873302e+01    0.1904611    0.1664676 -56.39 0.0007725735    1.263    0.208
       293  -8.4820    175.5446    146.0060   5.4747350011e+01   1.8647377930e+01    0.2408798    0.2016534  65.89 0.0007229722    1.533    0.348
       294  -9.8247    241.8773    143.3409   4.2997293293e+01   8.7975099216e+00     0.471321    0.2536459 -18.82  0.002146634    3.102    0.678
       295 -10.3742     69.7736    141.2236   8.2764996510e+01   3.8141127119e+01    0.5678445    0.4292757 -84.63  0.002218083    1.653    0.395
       296  -9.8581     69.7996    134.1432   8.1327793793e+01   3.9971999702e+01    0.5203147    0.2780687   6.70  0.001767625    2.851    0.649
       297  -9.8350      2.6256    141.3797   1.0612523778e+02   4.4699025358e+01    0.6602607     0.257289  88.13  0.002338269    3.236    0.691
       298  -8.9740    247.0733    143.6934   4.2358872910e+01   8.0479233342e+00    0.2535668    0.1476103 -31.31 0.0004276678    1.546    0.353
       299  -8.4893    250.5048    140.5507   4.1349475284e+01   8.0927116882e+00    0.2107559    0.1160226 -46.92 0.0005512231    1.534    0.348
       300  -8.7911    165.8599    143.8233   5.6330804674e+01   2.0797089930e+01    0.2665996    0.2484902 -82.07 0.0009828774    1.274    0.215
       301  -9.6670    124.9195    142.4723   6.6040147164e+01   2.8597185815e+01    0.4814976    0.3521678 -82.96  0.001423293    2.108    0.526
       302  -8.5068    223.3526    146.5787   4.6298277885e+01   1.0863539239e+01    0.2304806    0.1654047 -42.20  0.000778799    1.183    0.155
       303  -9.8648     89.3581    146.1743   7.7347493933e+01   3.3886597912e+01    0.7386178    0.4516351  87.19   0.00243663    3.508    0.715
       304  -8.4512    182.0258    141.5021   5.2496639094e+01   1.8403457903e+01    0.2582629    0.1814683 -56.44  0.000638393    1.574    0.365
       305  -9.8467     23.4587    137.8603   9.8477782640e+01   4.4246924606e+01    0.6321294    0.3029873  57.59  0.002022739    2.921    0.658
       306  -8.6115    172.2514    137.9023   5.3698571539e+01   2.0839334222e+01    0.3152646    0.2126162 -64.50 0.0009195717    1.978    0.494
       307  -9.2247    139.2025    137.4418   6.1160835196e+01   2.7069677041e+01     0.416756    0.2784884  -7.74  0.001698892    2.261    0.558
       308  -7.9538    218.4535    138.2648   4.5463797147e+01   1.3021391839e+01    0.1754711    0.1046293 -49.70 0.0008376976    1.583    0.368
       309  -8.2138    207.2189    137.6957   4.7157360704e+01   1.4887230729e+01     0.225701     0.154515 -50.63  0.000905917    1.412    0.292
       310  -8.7337    197.4263    137.3164   4.8758539739e+01   1.6564042959e+01    0.2551502    0.1989045 -66.00 0.0009122557    1.561    0.360
       311  -9.2217    150.8082    136.0282   5.8016300162e+01   2.5185992238e+01    0.4969496    0.2736018  21.67  0.001826786    2.844    0.648
       312 -10.3167     83.3905    132.9378   7.6460135025e+01   3.8186883470e+01     0.645564    0.4059505 -60.80  0.001478282    1.731    0.422
       313  -8.3026    246.9399    130.1069   3.9936027802e+01   1.0209361909e+01    0.1835856    0.1370664 -43.41 0.0005407634    1.071    0.066
       314  -9.1531    248.5223    134.8903   4.0594615433e+01   9.2433716314e+00    0.3156261    0.1625315 -41.81 0.0009178903    1.511    0.338
       315  -9.0217    250.7288    130.5080   3.9534223944e+01   9.6291765185e+00    0.4466268   0.08370607 -39.42  0.001465548    4.658    0.785
       316  -8.4417    162.6764    136.2001   5.5363210704e+01   2.2932484276e+01    0.2243942    0.1792206 -63.79 0.0007957755    1.456    0.313
       317  -9.4213     39.1732    135.8226   9.2529822540e+01   4.3351414350e+01    0.3019453     0.235643  60.88 0.0007955827    1.481    0.325
       318  -8.2126    187.5706    135.4808   5.0167991732e+01   1.8588999397e+01    0.1373334    0.1223602 -36.25 6.578698e-05    1.010    0.010
       319  -7.8705    231.3974    134.1609   4.2761140844e+01   1.1770181432e+01    0.1706448   0.09597158 -48.43   0.00042596    1.585    0.369
       320  -8.6987    179.3382    133.6746   5.1359642887e+01   2.0390173691e+01    0.2762494    0.2147071 -73.27 0.0008166236    1.688    0.408
       321  -8.7865    112.8760    133.0720   6.7293006655e+01   3.3002877410e+01    0.3614123    0.2496534  62.00 0.0009198374    1.972    0.493
       322  -7.6841    237.4054    133.2132   4.1752359040e+01   1.1054527922e+01    0.1733258   0.09294047 -48.24 0.0006930667    1.639    0.390
       323  -9.0524    157.8616    132.8690   5.5686791868e+01   2.4514486053e+01    0.2325986    0.1922471 -16.99   0.00115066    1.305    0.234
       324 -10.0797    132.2744    131.1416   6.1488766567e+01   2.9775469794e+01    0.4669186    0.3377208 -86.02 0.0009921421    2.245    0.555
       325  -9.1728    143.1060    131.5333   5.8839966354e+01   2.7608099242e+01    0.3214168    0.2575049 -73.02 0.0007573207    1.574    0.365
       326  -9.9811     97.8690    129.4503   7.0987217416e+01   3.6586949176e+01    0.6800084    0.2564866 -48.90  0.002284686    2.599    0.615
       327  -7.4808    101.6244    131.6923   7.0340118527e+01   3.5378387765e+01    0.1673742    0.1204696  -9.43 0.0003596243    1.776    0.437
       328 -10.5232     60.3350    125.1615   8.2808951228e+01   4.3622845760e+01    0.9069771    0.5426223  76.96  0.002986775    3.334    0.700
       329  -8.0932    204.5835    129.8678   4.6016250282e+01   1.6710810553e+01    0.1866337    0.1092449 -51.36 0.0004663509    1.681    0.405
       330  -8.1678    192.9436    129.9685   4.8030658045e+01   1.8678820015e+01    0.2016744    0.1562504 -68.77 0.0004874445    1.584    0.369
       331  -9.2811    168.3012    129.3079   5.2634330123e+01   2.3268596525e+01    0.3046494    0.2282639 -63.22  0.000496574    1.568    0.362
       332  -9.6171    152.8187    128.8189   5.5911078321e+01   2.6310873576e+01    0.4480714    0.2473753 -53.30 0.0009437518    1.973    0.493
       333 -10.2490     73.3923    128.7012   7.8923536803e+01   4.0829093489e+01    0.5802353    0.4467598 -63.19  0.002191809    1.395    0.283
       334 -10.0690     12.6636    128.3122   1.0112101832e+02   4.7571463229e+01    0.6041169    0.3361393  81.02  0.002478429    2.285    0.562
       335  -8.2458      1.7421    130.1567   1.0529987873e+02   4.7704024872e+01    0.2351353    0.1106485  57.11 0.0009388973    2.728    0.633
       336  -8.2375    211.4928    128.9784   4.4724316462e+01   1.5727405669e+01    0.1999227     0.109754 -45.39  0.001009496    1.587    0.370
       337 -10.7744     45.1076    123.3641   8.8105802989e+01   4.6000121820e+01     1.259377    0.6754307  73.76  0.003934284    4.198    0.762
       338  -9.8775    117.8867    124.6418   6.3857534640e+01   3.3999240898e+01    0.5984941    0.4591756 -77.82  0.001552202    1.775    0.437
       339  -7.8136    228.5183    125.0131   4.1431702144e+01   1.3706514374e+01    0.1738555   0.08937439 -57.35  0.000808596    2.414    0.586
       340  -9.0329    179.2905    124.4949   4.9376488958e+01   2.2152831704e+01    0.2755199    0.2192625 -69.80 0.0007792359    1.499    0.333
       341 -10.4228     28.8150    122.4077   9.4155304474e+01   4.7903868301e+01    0.8037683     0.423874  64.99  0.002950857    3.108    0.678
       342  -8.2255    188.5518    123.7515   4.7498537183e+01   2.0599925382e+01    0.1888443    0.1190733 -51.42 0.0004649718    1.561    0.359
       343  -8.3324     83.7345    123.2400   7.4136989228e+01   4.0538429151e+01    0.3257164    0.1649916 -34.59  0.001104082    2.456    0.593
       344  -7.7807    194.7151    121.5210   4.5944055267e+01   1.9902130034e+01    0.2333846    0.1077782 -42.51 0.0005787488    1.931    0.482
       345  -8.6182    171.9439    121.3419   5.0111925040e+01   2.4132254899e+01    0.2301627    0.1826685 -53.79  0.000453357    1.262    0.207
       346  -9.1324    158.5159    121.3019   5.2902284813e+01   2.6732629916e+01    0.2779022    0.2354364 -89.15 0.0006221602    1.453    0.312
       347  -9.9940    141.5611    118.0270   5.6027279402e+01   3.0761317701e+01     0.551616    0.3146188 -59.12  0.001414834    2.243    0.554
       348 -10.2141    130.9918    117.8581   5.8640681302e+01   3.2915412393e+01    0.6254427    0.4260025 -65.03  0.001905472    1.901    0.474
       349 -10.0592    133.5476    109.1010   5.5804799252e+01   3.4229932749e+01    0.6707226    0.3196392 -49.90  0.002327903    2.224    0.550
       350  -9.1470     71.1376    119.6714   7.7684795613e+01   4.3446121891e+01    0.3148585    0.2413082  78.32  0.001017282    1.821    0.451
       351  -9.6372      3.0406    117.1244   1.0332946218e+02   5.1054229081e+01    0.5369697     0.255495  66.03  0.002067574    3.106    0.678
       352  -7.7709    231.5333    117.4786   3.9588646590e+01   1.4466227106e+01    0.1228817    0.0987137 -49.37 0.0008080361    1.082    0.076
       353  -9.8884    109.3150    114.1091   6.3734064040e+01   3.8028212969e+01    0.4974872    0.3541228 -72.59  0.001553696    1.977    0.494
       354  -8.3325    185.6790    115.5911   4.6247533331e+01   2.2617250119e+01    0.2307496    0.1471171 -57.42 0.0005725674    1.720    0.419
       355  -8.3174    192.9855    115.1677   4.4887657950e+01   2.1348131896e+01    0.1999557    0.1668513 -63.46 0.0004946362    1.246    0.197
       356  -7.8036    153.2844    115.3358   5.2655140279e+01   2.8955994816e+01    0.1459195    0.1142517  -7.24  0.000269701    1.624    0.384
       357 -10.0797     92.7578    112.2925   6.8441854989e+01   4.1572050860e+01    0.5655958     0.377456 -66.97   0.00149989    1.977    0.494
       358  -8.6078     93.0559    104.7710   6.6381131224e+01   4.3231741654e+01    0.3793719    0.2417492  -8.70 0.0008412164    2.577    0.612
       359  -9.8738     79.1433    112.4861   7.3112941305e+01   4.3915757286e+01     0.551694    0.3927353  80.96  0.001851157    2.313    0.568
       360  -8.4591    167.4900    114.0345   4.9342145783e+01   2.6388918208e+01    0.2155287    0.1328215 -43.21 0.0005327181    1.537    0.349
       361  -9.2428     66.9884    105.4871   7.5770934595e+01   4.7556121127e+01    0.3563558    0.2133831 -21.58  0.001395399    2.260    0.558
       362  -9.6397     63.8612    113.1632   7.8823445273e+01   4.6157017821e+01    0.6832181    0.3159611  14.68  0.002234023    3.173    0.685
       363  -9.8779     66.5066    110.4852   7.7193502940e+01   4.6421151267e+01    0.4340065    0.3179098  66.30  0.001447987    1.917    0.478
       364  -9.8664    121.7831    111.9977   5.9634124178e+01   3.6019009350e+01    0.4254841    0.3259597 -76.07 0.0007949757    1.755    0.430
       365  -8.4417    174.9326    111.5864   4.7330005168e+01   2.5394579402e+01    0.2608954    0.1772545 -57.52 0.0006169809    1.583    0.368
       366  -8.6150    159.2948    111.6726   5.0481264514e+01   2.8467928419e+01    0.2427497    0.2061462 -66.05 0.0005098655    1.273    0.214
       367  -9.9456     14.4510    111.0492   9.7971922157e+01   5.1983044204e+01    0.4435657    0.2615632  59.70  0.001700911    2.285    0.562
       368 -10.5729    248.2494    107.7686   3.5744786452e+01   1.3462352081e+01    0.4370933    0.2204583 -43.06  0.002517421    1.548    0.354
       369  -7.8216    183.0000    109.0999   4.5293598130e+01   2.4293423408e+01    0.2229246   0.07200924 -41.74 0.0005479862    2.855    0.650
       370  -8.7566     42.7097    109.3444   8.6176058252e+01   4.9882263005e+01    0.3677887    0.1451916  15.58  0.001233164    3.102    0.678
       371  -7.9532    189.3617    107.7371   4.3893894566e+01   2.3330170843e+01    0.1788377    0.1173395 -36.30 0.0003972072    1.477    0.323
       372  -9.0664    109.4848    107.2506   6.1912036273e+01   3.9506148701e+01      0.38099    0.2631589   7.80   0.00139482    2.052    0.513
       373  -9.9118    140.0145    103.4466   5.2791922360e+01   3.4025452186e+01      0.60251    0.3016934 -46.15  0.001494997    2.007    0.502
       374  -9.8198    119.4768    105.5002   5.8593758425e+01   3.7864642598e+01    0.3739142    0.3375872  64.84  0.001871974    1.207    0.172
       375 -10.5555    108.7737     98.4898   5.9777524897e+01   4.1514128769e+01      1.03782     0.574912  65.98  0.001127541    3.716    0.731
       376  -8.8663    107.7938     92.3968   5.8381374338e+01   4.2965518342e+01    0.4680004    0.2588479  28.82  0.001821752    2.259    0.557
       377  -8.5610     78.3339    105.0886   7.1508432158e+01   4.5800469393e+01    0.3467458    0.2270774  -4.38  0.001213199    2.168    0.539
       378 -10.5389     45.8677    102.3374   8.3316129142e+01   5.1259366590e+01    0.8054448    0.4689164  63.53  0.002953108    3.196    0.687
       379 -10.6961     22.8175    102.3647   9.2986196772e+01   5.3595818633e+01    0.8138838    0.4642528  66.56  0.002563684    2.903    0.656
       380  -9.0788     22.4924     90.2032   9.0646730334e+01   5.6643431961e+01    0.5103686    0.2375912 -36.03   0.00173786    2.128    0.530
       381  -9.5317    150.5447    102.8477   5.0235918682e+01   3.1948072556e+01    0.4203996    0.2671438 -64.11  0.001111255    2.083    0.520
       382  -8.5551    166.6339    103.8785   4.7147988359e+01   2.8457690413e+01    0.2654482    0.1952175 -70.01 0.0006591352    1.651    0.394
       383  -8.8763      6.8136    102.5630   9.9800693278e+01   5.4615596897e+01    0.3096479    0.1763442  81.61  0.001059695    2.394    0.582
       384  -7.8269    175.6243    101.7720   4.4962813852e+01   2.7038743148e+01    0.1934574    0.1182956 -51.20 0.0004400423    1.615    0.381
       385 -10.1168    128.6506    101.0799   5.4991347543e+01   3.6872008019e+01    0.4922556    0.3196086 -36.34   0.00150375    1.627    0.385
       386  -8.4881    159.8141    100.7391   4.7761066077e+01   3.0425880032e+01    0.2744769    0.1796566 -52.60 0.0004962572    1.567    0.362
       387  -9.2215     82.1487    100.0036   6.8800716260e+01   4.6300155183e+01    0.3705803    0.2686919 -71.70 0.0008645981    1.900    0.474
       388 -10.0983     64.0862     96.0736   7.4421787096e+01   5.0222698250e+01    0.6294436    0.4337308 -78.95  0.001822433    2.283    0.562
       389  -9.3264     95.0271     96.9082   6.3596626241e+01   4.4581416309e+01     0.307698    0.2726606 -70.77 0.0005274445    1.332    0.249
       390  -8.4058    151.3309     95.4584   4.8230558514e+01   3.3167146463e+01    0.3992246    0.2339564 -11.57  0.001268627    4.512    0.778
       391  -8.1590    164.7060     93.9510   4.5160942811e+01   3.0640757011e+01    0.1981575    0.1664667 -50.17 0.0004381641    1.145    0.127
       392 -10.1490    123.9055     91.1327   5.3563190743e+01   3.9828951759e+01    0.6142293    0.4198562  33.69  0.001338265    1.585    0.369
       393  -9.1383    127.2549     84.0251   5.0762927858e+01   4.0439602457e+01     0.621506    0.3117853  26.38  0.001828012    4.716    0.788
       394  -7.9053    188.6409     92.8797   4.0742640891e+01   2.6008625841e+01    0.1984152    0.1073848 -49.94 0.0009451944    1.762    0.432
       395  -8.2291    176.4662     92.9936   4.2790702171e+01   2.8402352386e+01    0.2052403    0.1241763 -44.56 0.0005235075    1.552    0.356
       396  -9.1967     46.2884     92.2066   8.0646012788e+01   5.3651749096e+01    0.5836423    0.2589469  17.85  0.002161348    2.603    0.616
       397  -9.6677     34.7634     89.4868   8.4969958339e+01   5.5649507729e+01    0.5169147    0.3112628 -81.38  0.001672114    2.656    0.624
       398  -9.4951      5.1040     91.4444   9.8744401618e+01   5.7494923488e+01    0.3969749    0.2184991  52.52  0.001268771    2.534    0.605
       399  -8.2184    157.7824     91.3356   4.5875950617e+01   3.2550392450e+01    0.1949947    0.1640589 -48.37 0.0005607227    1.161    0.139
       400  -8.0849    151.0113     88.7536   4.6610543532e+01   3.4446709240e+01    0.2568054    0.1689179 -55.86 0.0007028475    1.653    0.395
       401  -9.5852    139.1894     91.8332   4.9999253969e+01   3.6421654027e+01    0.4644476    0.2907321 -54.64  0.001731521    1.783    0.439
       402 -10.1651     86.6593     85.6362   6.3150216004e+01   4.8563081418e+01    0.6632292    0.4308616 -54.27   0.00200992    1.783    0.439
       403  -8.7981     65.2870     87.3269   7.1512317815e+01   5.2006083804e+01    0.4389612    0.2418198   5.67  0.001459708    3.209    0.688
       404  -7.8720    163.9855     87.0037   4.3618316134e+01   3.1998388072e+01    0.1695186    0.1498267 -50.38 0.0004829493    1.096    0.088
       405  -9.7083     48.4852     84.0805   7.7518316406e+01   5.5239862858e+01    0.5209651    0.3552813  67.36  0.001844329    2.556    0.609
       406  -7.4713    179.3209     85.6719   4.0618184795e+01   2.9052491669e+01    0.1389353   0.09734391 -72.60 0.0007048096    1.688    0.408
       407  -8.3477    158.0743     83.6940   4.3923970833e+01   3.3815236809e+01    0.2329914     0.175678 -53.63  0.000303053    1.328    0.247
       408  -9.2643    141.0326     82.3071   4.7076755150e+01   3.7741159632e+01     0.431682    0.2243975 -45.60  0.001184638    1.966    0.491
       409  -9.8320    104.8615     82.9409   5.6540509772e+01   4.5437217958e+01    0.4305431    0.3201769 -70.94  0.001101506    1.856    0.461
       410  -8.6185    105.2185     76.7957   5.4616564369e+01   4.6515269880e+01    0.2897985    0.1852945  22.56 0.0009982731    2.102    0.524
       411  -8.1121     64.0154     82.3515   7.0556305205e+01   5.3293862361e+01    0.2053404    0.1814592  25.20 0.0005675959    1.102    0.093
       412  -9.5293     24.5062     80.1187   8.7372383149e+01   5.8872469841e+01     0.472666    0.3084237  88.78  0.001518235    2.541    0.606
       413  -9.3993     10.0258     80.8457   9.4465725871e+01   5.9798894375e+01    0.4203508    0.2110355  42.40  0.001621071    2.594    0.614
       414  -8.7909     74.6628     80.2153   6.5801486666e+01   5.1910121251e+01    0.2957017    0.2434993 -80.84 0.0008857138    1.717    0.417
       415  -8.4317    150.3532     79.9630   4.4500412281e+01   3.6112359523e+01    0.2677818     0.117675 -47.50 0.0008779704    2.372    0.578
       416  -8.7819    119.2705     79.6813   5.1577746671e+01   4.2965376477e+01    0.3197325    0.2196298 -56.27 0.0009946047    1.695    0.410
       417  -7.9170    166.7985     79.3219   4.1244226471e+01   3.2687291555e+01    0.1840439    0.1536756 -55.78 0.0004876651    1.152    0.132
       418  -7.8484    184.0318     77.9949   3.8117219081e+01   2.9329262394e+01    0.1630653    0.1338891 -49.91 0.0006538288    1.136    0.120
       419  -9.3555    128.1062     75.1883   4.8096824024e+01   4.1817926565e+01    0.3550123    0.2404928 -63.59 0.0006224896    1.881    0.468
       420  -7.8667    157.1671     76.2001   4.2217884353e+01   3.5257786007e+01     0.189007    0.1510748 -71.59 0.0004522497    1.335    0.251
       421  -8.6349    140.5313     75.2116   4.5292708795e+01   3.9065019875e+01     0.263736    0.2078114 -80.94 0.0008163467    1.490    0.329
       422 -10.0363     63.1289     73.2369   6.8104477945e+01   5.5339049511e+01    0.5080931    0.3288822 -60.01  0.001381608    2.058    0.514
       423  -8.3098    163.5449     73.2597   4.0331857902e+01   3.4353963928e+01    0.2423547    0.1221355 -44.16 0.0007887308    1.933    0.483
       424  -9.6869     82.3875     72.3742   6.0555640029e+01   5.2006292392e+01    0.4084434    0.3121806 -79.80 0.0009119212    2.061    0.515
       425  -8.6513    115.7881     72.7305   5.0477141715e+01   4.4956584104e+01    0.2721857    0.1926664 -51.76 0.0006113118    1.574    0.365
       426  -8.0119     42.8501     72.8292   7.6748304966e+01   5.8468987575e+01    0.1832094    0.1692697  47.95 0.0006797891    1.335    0.251
       427  -7.7104    175.3445     72.2947   3.8142189382e+01   3.2002627874e+01    0.1260806    0.1030001  24.67 0.0007031283    1.665    0.400
       428  -9.0344    105.6968     71.5645   5.2899513192e+01   4.7353356804e+01    0.2663505    0.2441735  80.90 0.0007106889    1.221    0.181
       429  -9.3418     95.1984     70.8882   5.5837425225e+01   4.9696865586e+01    0.3883725    0.2425791 -56.57 0.0009330697    2.097    0.523
       430  -9.3571     32.0246     68.5048   8.0576712787e+01   6.0718742951e+01    0.3395731    0.1951467  17.86  0.001624746    1.698    0.411
       431  -9.2970     51.4817     69.4820   7.1823064706e+01   5.7953738244e+01    0.4372733    0.2860719 -70.04  0.001553973    2.565    0.610
       432  -8.9902     16.7405     69.9482   8.8621314600e+01   6.1860685089e+01     0.303759    0.2137669 -85.39  0.001155965    2.068    0.516
       433  -7.4530    157.2708     69.6481   4.0542397805e+01   3.6280284840e+01    0.1392796   0.09840426 -69.85 0.0002320356    1.631    0.387
       434  -9.0485    147.2244     68.1711   4.2045640725e+01   3.8723737761e+01    0.2878698    0.2032561 -53.88 0.0006769727    1.480    0.324
       435  -8.8476    121.7668     65.8231   4.6936636563e+01   4.4789526707e+01    0.3035992    0.2078919 -61.32 0.0008204677    1.820    0.451
       436  -8.7337    138.7037     65.9263   4.3158679944e+01   4.0976401070e+01    0.2511098    0.1767356 -57.08 0.0006761847    1.564    0.361
       437  -7.9317    151.4414     73.2252   4.2547223837e+01   3.6988113020e+01    0.1927072    0.1232229 -52.30 0.0006974587    1.634    0.388
       438  -9.2953     37.2866     64.0416   7.6633652691e+01   6.1031932654e+01    0.2983448    0.2478546  89.11  0.001131423    1.874    0.466
       439  -8.8252    110.2273     63.4657   4.9167186246e+01   4.7737226528e+01    0.2972895    0.2240952 -65.13 0.0007706296    1.675    0.403
       440  -8.5295     64.5361     63.3094   6.4266786252e+01   5.7024977046e+01    0.4066928    0.2337936   3.56  0.001479338    3.244    0.692
       441  -7.8218    245.5210     62.5185   2.7861359173e+01   2.0315780852e+01    0.1106142    0.0852875 -57.66 0.0008100102    1.009    0.009
       442  -8.4029    158.1452     61.6063   3.8348965829e+01   3.7309362313e+01     0.180261    0.1158739  50.69 0.0002474193    1.588    0.370
       443  -9.3089     97.6632     60.4189   5.1747756160e+01   5.0973316751e+01    0.3204285    0.2414674  67.02 0.0007130412    1.546    0.353
       444  -9.5882     73.4357     59.3775   5.9472073620e+01   5.6096562846e+01    0.3610393    0.2620004 -55.76  0.001359724    1.787    0.440
       445  -7.8457    147.2164     58.9281   3.9594607098e+01   4.0129612942e+01    0.1689593     0.107339 -40.41   0.00035309    1.627    0.386
       446  -8.0407     89.1930     59.1868   5.3959253026e+01   5.2970323532e+01     0.187015    0.1689782 -88.23 0.0005630428    1.368    0.269
       447  -9.7287     23.3612     56.1300   8.1179008184e+01   6.4239323984e+01    0.4206901    0.3049054  78.08  0.001959868    2.700    0.630
       448  -9.4906      7.7174     56.9346   8.9978187124e+01   6.5373554031e+01    0.3188947    0.2456803  70.29  0.001132209    2.005    0.501
       449  -8.0226    130.6699     57.4009   4.2464345219e+01   4.4088917030e+01    0.1995265    0.1519013 -81.53 0.0005827219    1.564    0.361
       450  -8.6537    140.0354     56.0385   4.0173152566e+01   4.2166949488e+01    0.2057279    0.1875794 -89.02 0.0005312686    1.064    0.060
       451  -9.0277    119.2110     55.2350   4.4400250653e+01   4.7006678629e+01    0.3764797     0.218978 -50.33  0.001447164    1.997    0.499
       452  -8.7624     44.1312     55.2081   7.0357372010e+01   6.1838540731e+01    0.2819196    0.2257065 -65.60  0.001121993    1.802    0.445
       453  -9.2205     62.7180     53.7314   6.1638564796e+01   5.9062464175e+01    0.4811362     0.214463 -46.70  0.001623505    2.635    0.620
       454  -9.0724     54.1153     53.5839   6.5217194697e+01   6.0575566835e+01    0.3832694    0.2247225 -57.52  0.001603852    2.606    0.616
       455  -8.5438    105.9236     53.0783   4.7057059249e+01   5.0311599932e+01    0.2709002    0.1915689 -61.44  0.000904771    1.838    0.456
       456  -9.5099     92.5015     50.2525   4.9919591022e+01   5.3676283567e+01     0.403365    0.2507878 -52.04  0.001226347    2.065    0.516
       457  -8.2537    144.6400     48.7763   3.7335278863e+01   4.2140862788e+01    0.1796524    0.1154449 -48.24 0.0005017227    1.620    0.383
       458  -8.6892    129.8714     48.6448   4.0107484930e+01   4.5520560338e+01    0.2124415    0.1580552 -45.21 0.0006328442    1.439    0.305
       459  -8.4195    120.8198     47.1090   4.1575588743e+01   4.7799041178e+01    0.2003711    0.1750105 -82.85 0.0005317308    1.227    0.185
       460  -8.2786    112.2831     46.4583   4.3342955230e+01   4.9831488101e+01    0.2165119    0.1557544 -60.84 0.0006542039    1.712    0.416
       461  -9.0275     82.2502     46.3162   5.1770213767e+01   5.6435757152e+01    0.2783576    0.2321759 -66.79 0.0008223347    1.600    0.375
       462  -8.4806     45.0915     44.6292   6.5964034338e+01   6.3580703522e+01     0.205517    0.1818131 -36.38 0.0005577993    1.331    0.249
       463  -8.6048     16.9506     44.5716   8.0869510761e+01   6.7160681088e+01     0.202057    0.1859758 -62.79 0.0005689474    1.487    0.327
       464  -8.5505    132.7889     43.0595   3.7920371608e+01   4.5597946167e+01     0.201729    0.1675262 -77.39 0.0004220526    1.262    0.208
       465  -8.7337     58.1048     42.5263   5.9328919962e+01   6.1727487035e+01    0.2402209    0.1899363 -54.47 0.0008817857    1.727    0.421
       466  -9.5242      5.2870     41.7215   8.6881467438e+01   6.8673282858e+01    0.3474625    0.2379543 -81.12  0.001734108    2.439    0.590
       467  -9.0172    105.9743     41.1136   4.3167731348e+01   5.1978815607e+01     0.291417    0.1767121 -47.19 0.0005336383    1.935    0.483
       468  -8.6860     93.0271     42.0453   4.6944770542e+01   5.4737595724e+01    0.2241566    0.1529607  25.31 0.0009023898    1.714    0.416
       469  -9.3821     69.6763     41.2945   5.4298281098e+01   5.9726093466e+01     0.298829    0.2438419 -71.37 0.0008915765    1.846    0.458
       470  -8.4537    140.4641     41.0307   3.5949922164e+01   4.4103056246e+01    0.1811447    0.1284463 -37.41 0.0004410013    1.535    0.348
       471  -8.4730     36.8139     40.3581   6.8361230802e+01   6.5542996626e+01    0.2032264    0.1738633 -34.48 0.0005830262    1.333    0.250
       472  -8.7217     95.7414     37.8461   4.4730291715e+01   5.4697205837e+01    0.2306138    0.1770848 -59.69 0.0007431799    1.647    0.393
       473  -8.1099     80.7999     36.7966   4.8769800244e+01   5.8077157574e+01    0.1702291    0.1567484 -88.82  0.000529546    1.345    0.257
       474  -9.2682     26.2085     35.1749   7.1963684924e+01   6.7844202448e+01    0.2789075     0.220759 -55.79   0.00082629    1.777    0.437
       475  -7.9712    126.0198     35.2959   3.6950094774e+01   4.8122870748e+01    0.1838017    0.1515485  68.32 0.0003879119    1.074    0.069
       476  -8.8711    232.8660    247.4263   6.2061171710e+01  -6.3969723662e+00     0.251646    0.1388546 -45.71     0.001081    2.256    0.557
       477  -8.8526    119.0711     32.6565   3.7524511444e+01   5.0036177181e+01    0.2782165    0.1556158 -40.48  0.001397684    1.972    0.493
       478  -8.5481     60.8774     32.4314   5.4160479223e+01   6.2684311485e+01    0.2156024    0.1850257 -52.20 0.0007457509    1.562    0.360
       479  -8.7454     48.6534     32.8775   5.9533832172e+01   6.4845324765e+01    0.2190275    0.1980583 -29.48 0.0008170587    1.336    0.251
       480  -8.7221     72.0604     30.8553   4.9399163741e+01   6.0670333553e+01    0.2053252    0.1905131 -17.34 0.0006793635    1.231    0.188
       481  -8.7601     12.9769     30.1369   7.7814874165e+01   7.0188433920e+01    0.2492577     0.179508 -57.25  0.001233739    1.885    0.470
       482  -8.5875    101.5011     29.0378   4.0231551840e+01   5.4475928425e+01     0.175307    0.1319661 -31.82 0.0005006332    1.533    0.348
       483  -7.8471     42.2639     29.6494   6.1147758729e+01   6.6385697229e+01    0.1112726     0.104665  75.52 0.0003465871    1.615    0.381
       484  -8.9358     81.7817     27.2734   4.4890045245e+01   5.9055305563e+01    0.2654722    0.1908963 -57.13 0.0009975112    1.918    0.479
       485  -8.9261      3.6540     27.2456   8.2763923384e+01   7.1514002778e+01    0.2365025    0.1891626 -84.51  0.001286214    2.251    0.556
       486  -7.9021     88.7795     33.9916   4.5318282349e+01   5.6721782414e+01    0.1613043    0.1114834 -29.41 0.0006578224    1.658    0.397
       487  -8.9088     91.9235     26.3110   4.1685761916e+01   5.6938661226e+01    0.2528593    0.1750477 -50.83 0.0007129699    1.814    0.449
       488  -7.8949     34.7822     22.8424   6.1852161738e+01   6.8543288331e+01    0.1621174    0.1384636  34.85 0.0007655936    1.337    0.252
       489  -8.9178    104.0491     22.3654   3.7386576021e+01   5.4625368995e+01    0.1901128    0.1477133  62.75  0.001143473    1.108    0.098
       490  -8.9361     63.5690     20.8383   4.8304966031e+01   6.3601549827e+01    0.2637353    0.2094133 -55.32  0.000838426    1.787    0.440
       491  -8.8098     48.3943     21.4100   5.4632565165e+01   6.6438978449e+01    0.2201571    0.1970046  32.64 0.0006662969    1.212    0.175
       492  -8.7063    120.8337     20.8243   3.3549863263e+01   5.0924411889e+01    0.1745975    0.1377415 -77.27 0.0007674346    1.357    0.263
       493  -7.9913     19.4221     21.2271   6.9855249991e+01   7.0926266013e+01    0.1478307     0.116182 -41.78  0.000584887    1.598    0.374
       494  -8.9805     74.1539     19.2338   4.4084270147e+01   6.1584639306e+01    0.2787295    0.2006799 -53.76 0.0008450359    1.923    0.480
       495  -8.0593     39.0109     18.0461   5.7444352380e+01   6.8494652227e+01    0.1658885    0.1538004  63.98 0.0005123965    1.608    0.378
       496  -8.1290     87.7263     17.1545   3.9430672114e+01   5.8839679070e+01    0.1841134     0.150868 -59.96 0.0006076992    1.526    0.345
       497  -7.8135    112.8300     16.5865   3.3696815219e+01   5.3188181447e+01    0.1709782    0.1077242  75.63 0.0003054498    1.516    0.340
       498  -8.6122    188.4307     14.8088   2.3516984258e+01   3.6592062333e+01    0.1963815     0.134672  81.31  0.000323598    1.272    0.214
       499  -8.3258     96.9545     14.9455   3.6412093622e+01   5.6977650919e+01    0.1899301    0.1432965 -75.27 0.0004951849    1.642    0.391
       500  -7.8440     30.0230     15.5319   6.0893546754e+01   7.0258027522e+01    0.1547066    0.1006499  53.29 0.0006481035    2.346    0.574
       501  -8.0128     17.2186     14.1553   6.7801110387e+01   7.2236501863e+01    0.1516246    0.1284218  20.18 0.0004911764    1.315    0.240
       502  -8.0772    191.5103    249.4903   7.0062203718e+01  -2.5913590918e+00    0.1995427   0.09570371  34.04  0.001017997    2.244    0.554
       503  -9.0487    175.7329    247.4273   7.2972408268e+01  -5.1328419793e-01    0.2954251     0.239895  62.20  0.001094757    2.381    0.580
       504  -8.2761    113.3908    248.6384   8.7127456431e+01   6.8028754901e+00    0.2207704    0.1345197 -65.51  0.001112533    2.235    0.553
       505  -9.2677    103.7910    246.6249   8.9164225978e+01   8.3788423870e+00    0.4604919    0.2737817 -85.96  0.001995567    3.285    0.696
       506  -8.4929     93.8928    248.8902   9.1793574026e+01   9.1422137549e+00    0.2418903    0.1600095  65.53  0.001084593    2.139    0.532
       507  -9.0885    242.9060    246.5227   6.0225569408e+01  -7.1655075598e+00    0.3447291    0.1160711 -35.03  0.001352253    2.362    0.577
       508  -8.5188    218.4654    247.4294   6.4612588965e+01  -5.0422457488e+00    0.2483444    0.1006251 -42.87  0.001258554    2.458    0.593
       509  -9.0250    156.0978    247.7641   7.7233844295e+01   1.7267919430e+00    0.1887399      0.17759 -35.06 0.0006666924    1.411    0.291
       510  -8.9868    132.0995    247.5938   8.2622314673e+01   4.6830671350e+00    0.2318764    0.1937572  59.47 0.0006158444    1.680    0.405
       511  -7.9749     63.6319    248.2649   9.8971563133e+01   1.2810986998e+01    0.1380762   0.08013631  48.06 0.0006987406    1.655    0.396
       512  -9.9781    223.9120    243.7824   6.3071682886e+01  -5.0394021322e+00    0.4322694    0.2157394 -46.87   0.00232839    2.484    0.597
