#   1 NUMBER                 Running object number                                     
#   2 MAG_AUTO               Kron-like elliptical aperture magnitude                    [mag]
#   3 X_IMAGE                Object position along x                                    [pixel]
#   4 Y_IMAGE                Object position along y                                    [pixel]
#   5 X_WORLD                Barycenter position along world x axis                     [deg]
#   6 Y_WORLD                Barycenter position along world y axis                     [deg]
#   7 A_WORLD                Profile RMS along major axis (world units)                 [deg]
#   8 B_WORLD                Profile RMS along minor axis (world units)                 [deg]
#   9 THETA_WORLD            Position angle (CCW/world-x)                               [deg]
#  10 FWHM_WORLD             FWHM assuming a gaussian core                              [deg]
#  11 ELONGATION             A_IMAGE/B_IMAGE                                           
#  12 ELLIPTICITY            1 - B_IMAGE/A_IMAGE                                       
         1  -8.2169     30.0297     16.0159   9.4571782895e+01   6.9818261477e+01    0.1687172    0.1432459 -68.75 0.0006193102    1.666    0.400
         2  -8.5446     55.8077     10.1637   7.9789446094e+01   6.7300925492e+01    0.1801502    0.1611301 -34.06 0.0005789977    1.301    0.231
         3  -8.0362     47.4364     10.1938   8.3422170328e+01   6.8571355698e+01    0.1690277    0.1057783 -43.00 0.0009370701    1.665    0.399
         4  -8.2848     90.8425      9.1155   6.6936138067e+01   6.0846409332e+01    0.2004441    0.1792765 -46.12 0.0006736339    1.333    0.250
         5  -8.2744     12.8029      8.8168   1.0045141071e+02   7.2695051073e+01    0.1401789    0.1247429 -52.67  0.000380898    1.352    0.260
         6  -7.7490    101.3704      8.1955   6.3597289390e+01   5.8626613963e+01    0.1853408    0.1194063 -33.42 0.0004107063    1.610    0.379
         7  -8.6880     33.5663      5.2762   8.7438661658e+01   7.1177513930e+01     0.268658    0.1766532 -58.59  0.001435998    2.569    0.611
         8  -8.3470     79.1526      3.9701   6.7987183693e+01   6.3858730295e+01    0.1953821    0.1657352 -34.51 0.0007897713    1.327    0.246
         9  -7.8087     44.6889      3.3535   8.1001178573e+01   6.9958524303e+01    0.1124643   0.09445104 -53.83 0.0007044472    1.727    0.421
        10  -8.4653     62.3643      1.6158   7.2615007835e+01   6.7314433501e+01    0.1942276    0.1516294  55.89 0.0006308219    1.615    0.381
        11  -7.6434     39.4635      1.4872   8.2414265150e+01   7.0961431863e+01    0.1213046   0.09817171 -12.57 9.843401e-06    1.020    0.020
        12  -9.0543    147.1912    246.0504   1.0976515994e+02   7.8065728935e+00    0.2438421      0.15879  75.65  0.001208046    2.368    0.578
        13  -9.3140    211.2976    247.3244   9.9352793700e+01  -1.9181565753e+00    0.2620252    0.1899178 -51.25  0.001344113    2.370    0.578
        14  -8.5046     94.1744    249.4854   1.1893930447e+02   1.4905819924e+01    0.2407474    0.1075582  67.86  0.001240062    3.042    0.671
        15  -7.6901     86.2882    250.6505   1.2031737641e+02   1.5782702002e+01     0.108248   0.05843572  63.71  0.000597502    1.663    0.399
        16  -9.0386    120.3300    245.4893   1.1423781242e+02   1.1828219633e+01    0.2909691    0.1670252  70.17  0.001615522    2.230    0.552
        17  -8.4936     67.9746    245.7846   1.2296715717e+02   1.8831716964e+01    0.2683292    0.1201225  77.09  0.001488985    2.844    0.648
        18  -8.3400    190.4799    245.9892   1.0255049568e+02   1.2992357881e+00    0.1278027    0.1067245 -18.08 0.0003777699    1.505    0.335
        19  -8.8955      9.8188    244.5189   1.3202255435e+02   2.5414119015e+01     0.256248   0.07980415  79.83  0.001397321    3.260    0.693
        20  -8.0725    139.5615    244.7674   1.1091728498e+02   9.1095075695e+00    0.1285578    0.1000732  88.36 0.0009381504    1.681    0.405
        21  -8.0827     49.8184    243.7832   1.2578115416e+02   2.1308626425e+01    0.2497486   0.08872033  81.94  0.001101314    4.699    0.787
        22  -9.8713    248.5335    242.0669   9.2813279548e+01  -6.7014272561e+00    0.2428438    0.1849102 -27.26  0.001244519    1.760    0.432
        23  -9.1347    247.7586    235.1369   9.1915999938e+01  -5.9853087415e+00    0.2247264    0.1699434 -14.67  0.001221984    1.464    0.317
        24  -8.7936    201.9197    242.6815   1.0025492610e+02  -5.9638288942e-02    0.2580121    0.1522227 -34.17  0.001185118    2.176    0.541
        25  -9.2021     78.0790    243.4126   1.2114677840e+02   1.7913245024e+01    0.3136653    0.1193358  60.27   0.00163302    2.642    0.622
        26  -7.6035     58.3632    244.6661   1.2445654154e+02   2.0170081867e+01    0.1140136   0.05166665  61.71 0.0007036673    1.817    0.450
        27  -9.2103    194.3599    240.0315   1.0114880377e+02   1.3660924711e+00    0.3246694    0.2020061 -39.41   0.00184389    2.125    0.529
        28  -9.0145    194.8861    233.2136   1.0015278043e+02   2.0495244607e+00    0.3641751    0.1960785 -31.41  0.002180097    2.395    0.582
        29  -9.6407    160.2339    240.4389   1.0693211644e+02   6.5431612013e+00    0.3208517    0.2207987  87.64  0.001389145    2.682    0.627
        30  -9.2017    183.1815    240.1916   1.0302912190e+02   3.0538657188e+00    0.3392987    0.2051398  61.15  0.001934012    2.464    0.594
        31  -7.8697    153.4601    241.9763   1.0825923691e+02   7.3815128568e+00    0.1344765   0.09181451  85.85 0.0006535441    2.520    0.603
        32  -8.1576     88.1409    241.9368   1.1935793648e+02   1.6815650756e+01    0.1659389    0.1071939 -87.34 0.0008333783    1.744    0.427
        33  -8.5312    214.2898    241.3210   9.8068628777e+01  -1.7578777277e+00    0.1101471   0.06740662  18.31 0.0004413059    1.604    0.376
        34  -8.4886    240.5599    239.7875   9.3706174707e+01  -5.3974513295e+00    0.1770894   0.09555192 -19.47  0.001145029    2.103    0.525
        35  -8.3893    209.2189    238.3203   9.8479362020e+01  -6.9559848983e-01    0.2020748    0.1499761 -15.42 0.0009596483    1.577    0.366
        36  -8.3262    146.1862    239.2305   1.0919522997e+02   8.8430773798e+00    0.1487718    0.1100166  59.40 0.0006343101    1.339    0.253
        37  -9.0867    135.7398    239.0372   1.1097005322e+02   1.0447610304e+01    0.1703712    0.1212702  59.76 0.0007008878    1.333    0.250
        38  -7.9580    129.4663    238.9900   1.1204526218e+02   1.1391376680e+01    0.1390501   0.08661428  80.82 0.0006405927    2.437    0.590
        39  -9.4198    231.1362    236.9973   9.4776223447e+01  -3.7961781735e+00    0.2558095    0.2273643 -11.01  0.001372952    1.467    0.319
        40  -8.6053     25.6066    236.9771   1.2930363052e+02   2.5026705189e+01     0.260968    0.0802842  67.49  0.001314788    3.254    0.693
        41  -8.6102    217.3095    235.6902   9.6799743707e+01  -1.6347765574e+00     0.194595    0.1458425  35.69 0.0007074359    1.181    0.153
        42  -9.4813    213.8408    232.0295   9.6844673792e+01  -7.3204502598e-01    0.2710073    0.2188934  69.36  0.001324186    2.136    0.532
        43  -8.6978    203.1135    234.8031   9.8999200673e+01   6.0502829886e-01    0.2125042    0.1735069 -68.24  0.001378979    2.204    0.546
        44  -8.1034    203.9991    230.7694   9.8291479524e+01   9.1285725474e-01    0.1815373    0.1161709  18.06 0.0006554974    1.600    0.375
        45  -9.6761    175.6665    233.3206   1.0342622698e+02   5.0360780772e+00     0.362879    0.2276415 -60.89  0.002159773    2.704    0.630
        46  -8.5256    170.2231    235.5766   1.0464276033e+02   5.6075503368e+00    0.1637195    0.1390746 -71.31 0.0006302978    1.694    0.410
        47  -9.3864    108.9963    234.4598   1.1514816383e+02   1.5041800940e+01    0.4471539    0.1925478  55.25  0.001843117    2.130    0.530
        48  -8.0580     57.9345    237.0000   1.2406040284e+02   2.1411592028e+01    0.1685771   0.04593998  39.38 0.0008063408    2.970    0.663
        49  -7.9223    153.0178    235.2965   1.0757087390e+02   8.3152217508e+00    0.1475947    0.1120392  71.68 0.0007248512    1.638    0.390
        50  -8.4008     99.6345    234.4430   1.1677433981e+02   1.6373249420e+01    0.2164072    0.1290741  69.70  0.001066494    1.753    0.430
        51  -9.1433     78.7114    234.4065   1.2037879593e+02   1.9214328355e+01    0.2197558    0.1355348  77.71 0.0009986283    1.619    0.382
        52  -8.2842    122.9876    234.0303   1.1266371058e+02   1.3058280774e+01    0.1809588    0.1105732  64.72 0.0007819621    1.746    0.427
        53  -8.6839     92.7710    232.4115   1.1779091129e+02   1.7638380724e+01    0.2612984    0.1463921 -82.16   0.00161286    2.230    0.552
        54  -9.3183     68.2078    232.2488   1.2201610760e+02   2.0903836266e+01    0.3944949    0.1534453  66.24  0.001909072    3.148    0.682
        55  -7.4891     53.7146    234.6980   1.2461994941e+02   2.2279844583e+01   0.08219866   0.07798667  60.62 0.0002136307    1.557    0.358
        56  -8.7907    140.1101    230.1953   1.0924026925e+02   1.1008083661e+01    0.2733511    0.1313819  55.50  0.001280077    2.132    0.531
        57  -8.7791    132.6902    233.0275   1.1085936532e+02   1.1744397673e+01    0.1681912    0.1252826  72.92 0.0009806397    1.516    0.341
        58  -9.3257    186.4734    230.7713   1.0124517596e+02   3.6481845609e+00    0.2546351    0.2068208 -86.73  0.001334054    2.090    0.522
        59  -8.1887    157.9855    232.4796   1.0637437147e+02   7.9137356245e+00    0.1618366    0.0789246  56.35 0.0007426832    2.414    0.586
        60  -9.0529    236.0208    230.8188   9.3099602006e+01  -3.9114155771e+00    0.1707908    0.1359257   2.10 0.0004511978    1.240    0.193
        61  -9.2238    151.3542    229.0381   1.0712084775e+02   9.4152949864e+00    0.2583795    0.1739753 -89.82  0.001248207    2.596    0.615
        62  -9.4782    148.8432    224.7435   1.0704652836e+02   1.0407830357e+01    0.3701172    0.2460976  81.65   0.00138807    2.479    0.597
        63  -8.7959      1.7628    230.9429   1.3280802783e+02   2.8309739979e+01    0.1801586   0.08219893  70.19 0.0008987987    1.596    0.374
        64  -9.2422    246.3962    229.3669   9.1258101614e+01  -5.2670506948e+00    0.2463116    0.1575512 -17.29   0.00130391    1.646    0.393
        65  -8.3173    229.9303    229.0055   9.3797288364e+01  -2.8380903877e+00    0.1488674    0.1290609  51.34 0.0007456478    1.669    0.401
        66  -8.8580    162.3601    227.8528   1.0503793556e+02   7.8351435348e+00    0.2648717    0.1664194  61.25  0.001195833    1.942    0.485
        67  -8.8541    128.1064    227.4173   1.1106223391e+02   1.3253782624e+01    0.2580652    0.1622201  70.32  0.001320731    1.957    0.489
        68  -8.3232    120.0733    227.7746   1.1253390695e+02   1.4416082854e+01    0.1881211    0.1326351  82.18  0.000971849    1.700    0.412
        69  -8.5546      8.3671    228.6856   1.3169969439e+02   2.8067629213e+01     0.109114   0.04363251  61.18  0.000703804    1.771    0.435
        70  -7.9858    223.5213    226.8040   9.4502739986e+01  -1.6524537695e+00    0.1853369    0.1051077 -23.11  0.001048918    2.059    0.514
        71  -8.2889    215.2539    227.0043   9.5885336467e+01  -4.1161919393e-01    0.1531809    0.1209448  20.20 0.0003189284    1.090    0.082
        72  -8.7817    216.6781    223.7192   9.5163785627e+01  -2.7573300022e-01     0.196623    0.1905484  -4.51  0.000845356    1.459    0.315
        73  -8.6485    206.1788    226.0230   9.7250268513e+01   1.1044042464e+00    0.2445629    0.1556133 -36.66  0.001510103    1.977    0.494
        74  -8.1524     49.4294    227.2429   1.2488632656e+02   2.3994336589e+01    0.1932913   0.08609387  57.71  0.001187237    1.741    0.426
        75  -8.1785    200.0207    225.8473   9.8261619743e+01   2.0919674225e+00    0.1667812    0.1477079 -53.82 0.0007023945    1.664    0.399
        76  -8.6440    180.7139    224.4808   1.0138394049e+02   5.3350190523e+00    0.2261333    0.1620202  63.88 0.0007333187    1.870    0.465
        77  -8.8482    104.8253    223.8132   1.1486813952e+02   1.7279801363e+01    0.2865438    0.1711592  78.34  0.001383202    2.098    0.523
        78  -8.9807     94.3172    224.4009   1.1681207628e+02   1.8687330027e+01    0.3608363    0.1553468  59.82  0.001821377    2.444    0.591
        79  -7.7991    114.1165    224.1471   1.1322610753e+02   1.5860031632e+01     0.159412    0.1090922  61.63 0.0005731973    1.317    0.241
        80  -8.2046     12.3129    224.6660   1.3091839671e+02   2.8357018285e+01    0.1080438   0.04701263  63.44  0.000704532    1.683    0.406
        81  -9.2965    192.4902    221.4884   9.8923677742e+01   3.8102890247e+00    0.2574381    0.2054392  69.94  0.001025822    1.856    0.461
        82  -8.4327    172.9900    223.0366   1.0253980819e+02   6.7651706150e+00    0.1766915    0.1441937  42.43 0.0004770997    1.093    0.085
        83  -9.4015    160.4260    221.3334   1.0454450639e+02   9.0264113735e+00    0.4911356    0.2182276  57.20  0.001976817    3.254    0.693
        84  -8.2691    140.4705    222.9554   1.0833419826e+02   1.1988842609e+01    0.1441508   0.09536214  84.74 0.0008071878    2.376    0.579
        85  -7.6447     59.3591    223.6583   1.2294304489e+02   2.3406366349e+01    0.1202065   0.05754516  63.31 0.0007035575    1.828    0.453
        86  -9.1427    239.1444    221.0592   9.1113480782e+01  -3.4124892771e+00    0.2596895    0.1513052 -20.17  0.001313452    1.860    0.462
        87  -9.0095    225.5630    221.7514   9.3406933316e+01  -1.4336451406e+00     0.216839    0.1703168  44.42  0.001292366    1.451    0.311
        88  -8.2460      8.6890    222.6479   1.3142613598e+02   2.9036525196e+01   0.08234602   0.06920327 -69.32 0.0007044775    1.723    0.420
        89  -8.3349    202.8909    220.3314   9.6972587927e+01   2.2788174944e+00    0.1666326    0.1589123 -21.94 0.0006108366    1.396    0.284
        90  -9.1608    120.6698    219.4421   1.1153216313e+02   1.5601514637e+01    0.3835283    0.1966042  68.28   0.00180234    3.015    0.668
        91  -8.6802     82.8515    220.6588   1.1854152113e+02   2.0879849158e+01    0.2145346    0.1135666  71.82  0.001216394    2.098    0.523
        92  -7.8403     73.4655    221.0097   1.2025522282e+02   2.2068695707e+01    0.1538078   0.07508907  77.40 0.0008077279    2.538    0.606
        93  -7.8492     27.5851    221.2212   1.2824765984e+02   2.7411901422e+01    0.1281288   0.08035676 -73.61 0.0009477962    1.706    0.414
        94  -8.3889    210.1642    219.4293   9.5606395632e+01   1.2243710070e+00    0.1626372    0.1457705  37.49 0.0005395779    1.314    0.239
        95  -8.7126    179.6513    217.8088   1.0064210915e+02   6.3631990809e+00    0.3499495    0.1721111 -54.07  0.001717189    3.327    0.699
        96  -9.1135    248.5959    218.0526   8.9149674707e+01  -4.5087042130e+00    0.3339157    0.2210573  62.53  0.001712086    3.755    0.734
        97  -8.3856     62.4712    217.6579   1.2196380635e+02   2.4036800200e+01    0.3116391    0.1116214  61.88  0.001434564    3.098    0.677
        98  -8.6851     51.6631    217.4639   1.2387306023e+02   2.5381348871e+01    0.2321241    0.1193826  87.42  0.001032975    1.968    0.492
        99  -8.7616    169.3398    216.3382   1.0227492258e+02   8.2560561612e+00    0.2287612    0.1922559  88.09 0.0009527482    1.655    0.396
       100  -8.6287    142.8450    216.5959   1.0712625562e+02   1.2547648812e+01    0.2040308    0.1499503  88.88 0.0008461439    1.873    0.466
       101  -8.2542    111.6499    217.3032   1.1295878389e+02   1.7308952796e+01    0.1850387    0.1119203  66.42 0.0008653395    1.759    0.432
       102  -8.6895    232.1006    215.0218   9.1291012995e+01  -1.7252472687e+00    0.2306183    0.1756383  18.95  0.001633817    1.040    0.038
       103  -8.5227    194.0188    215.2854   9.7751626554e+01   4.3269491144e+00    0.1708059    0.1241703  35.16 0.0002082009    1.088    0.081
       104  -8.1094    154.2253    215.1827   1.0485912726e+02   1.0905426463e+01    0.1608036     0.125246  63.06   0.00096023    1.382    0.276
       105  -8.9020     93.7711    214.4747   1.1597945825e+02   2.0394354047e+01    0.4140198    0.1479743  54.85   0.00186222    2.776    0.640
       106  -7.5818     41.2951    214.9763   1.2554282676e+02   2.7004805565e+01    0.1666665   0.05980074  79.66 0.0007015518    4.064    0.754
       107  -9.5179    214.0058    212.2151   9.3846114317e+01   1.4416728721e+00     0.305313    0.2425329  56.82  0.001374903    1.679    0.404
       108  -8.4086    185.7879    214.6651   9.9104466455e+01   5.7612434667e+00    0.1897137    0.1535087  87.01  0.000923487    1.998    0.500
       109  -8.3061     76.9758    214.4909   1.1908100263e+02   2.2709453505e+01    0.2035658   0.08613261  64.43 0.0009646944    2.770    0.639
       110  -9.2576     72.1724    211.3615   1.1970012894e+02   2.3885273847e+01    0.4253034     0.179008  67.98  0.001755788    3.115    0.679
       111  -8.1725    224.8660    212.8525   9.2130508378e+01  -3.6292316156e-01    0.1548069    0.1392724  60.15 0.0008928614    1.666    0.400
       112  -8.5720    161.4165    212.5079   1.0318273960e+02   1.0103582101e+01    0.1926634    0.1760417  61.34 0.0006484265    1.224    0.183
       113  -8.0053    106.7741    213.0227   1.1340904736e+02   1.8737535723e+01      0.18731    0.1124838  73.07  0.001055969    1.975    0.494
       114  -9.3701    133.0849    216.0983   1.0886240512e+02   1.4183521519e+01    0.4530861    0.2548317  72.69  0.002148604    3.058    0.673
       115  -8.9712    204.2931    211.0145   9.5318332937e+01   3.1665856313e+00    0.2253688     0.199159 -74.46 0.0007238034    1.802    0.445
       116  -9.4191    175.6920    210.4072   1.0028686576e+02   8.0116524420e+00     0.375337    0.2487834  72.60  0.001609308    2.711    0.631
       117  -9.3085      8.4191    212.1723   1.3106212649e+02   3.0847658447e+01    0.2387337    0.0753766  69.46  0.001228973    2.902    0.655
       118  -8.3174    192.3553    210.9994   9.7398854641e+01   5.1439614631e+00    0.1995844       0.1505  55.67 0.0009834663    1.532    0.347
       119  -8.6504    148.0110    210.5610   1.0539367591e+02   1.2610973047e+01    0.2287771    0.1673303  75.60  0.001043645    1.768    0.434
       120  -8.9092    116.3682    210.5889   1.1133748158e+02   1.7679936720e+01    0.2853348    0.1578451  62.91   0.00102552    1.989    0.497
       121  -8.7259     85.7252    209.6226   1.1701647629e+02   2.2356291445e+01     0.324589    0.1599113  71.40  0.001446473    2.613    0.617
       122  -7.9593     46.6099    209.8044   1.2426286363e+02   2.7309574001e+01     0.232444    0.0952457  75.33  0.001141494    2.904    0.656
       123  -7.9630     32.3107    210.6388   1.2687032615e+02   2.8746591499e+01    0.1164131   0.05492395  65.40 0.0007041189    1.746    0.427
       124  -9.0238    236.3215    208.2244   8.9503347793e+01  -1.6526517934e+00    0.2303489    0.1920097 -43.47 0.0009362664    1.815    0.449
       125  -8.5021    139.2522    208.1256   1.0671500579e+02   1.4426036034e+01    0.2385277    0.1680044  81.45 0.0008942384    1.929    0.482
       126  -9.3267    250.1084    202.0716   8.6265931219e+01  -3.1253919246e+00    0.3008946    0.1686095 -21.45  0.001319473    1.816    0.449
       127  -9.8577    245.9809    206.8460   8.7726066672e+01  -2.9932343400e+00    0.2555579    0.2173198 -20.56  0.001153849    1.451    0.311
       128  -9.2085    242.9768    200.9439   8.7205518992e+01  -1.9057567834e+00    0.2923878    0.2082038 -32.29  0.001012257    1.682    0.406
       129  -8.1847    156.6507    208.3317   1.0348375922e+02   1.1507602179e+01    0.1797986    0.1289893  66.18  0.001018881    1.670    0.401
       130  -7.8541    126.4634    208.5416   1.0918597907e+02   1.6428178640e+01    0.1227483    0.0969126  54.49 0.0008074111    1.057    0.054
       131  -9.1749     99.3369    206.2108   1.1409079892e+02   2.0993789300e+01     0.304455    0.1826676  74.80  0.001335683    1.941    0.485
       132  -8.5371     56.7420    205.6697   1.2210611401e+02   2.6847029940e+01    0.2694816    0.1110779  61.20  0.001144313    2.316    0.568
       133  -9.3081    194.9822    203.7646   9.5810970950e+01   5.6402644968e+00    0.2977879    0.2823702  64.80   0.00110229    1.376    0.273
       134  -9.2886    192.4027    197.4398   9.5256024505e+01   6.9290473999e+00    0.2917171     0.245657 -84.12 0.0008759759    1.851    0.460
       135  -9.0266    183.7953    203.9721   9.7852635759e+01   7.5206296766e+00    0.2741521    0.2100735  70.34  0.001004876    1.858    0.462
       136  -8.3811    108.9491    205.1791   1.1213347047e+02   1.9725847133e+01    0.1875385    0.1346269  66.38  0.000651383    1.311    0.237
       137  -7.9793     92.2190    205.1909   1.1534724671e+02   2.2209040173e+01    0.1679664    0.1117814  66.90 0.0005481775    1.383    0.277
       138  -9.6659    163.9558    203.1544   1.0138240276e+02   1.1037465574e+01    0.4253469    0.2182762  55.60 0.0009905552    2.220    0.550
       139  -8.5050    131.1953    203.7294   1.0767920933e+02   1.6446974326e+01    0.2457591    0.1674969  74.62  0.001127433    1.824    0.452
       140  -8.4497    238.9778    203.6407   8.8308093225e+01  -1.5721920934e+00    0.2398037   0.08413944  36.86  0.001009694    2.431    0.589
       141  -8.3359    211.1079    202.2057   9.2730742026e+01   3.1172362978e+00    0.1862107    0.1592673 -72.55 0.0005862178    1.960    0.490
       142  -8.2976     48.7963    202.6956   1.2336525636e+02   2.8334523260e+01    0.2245603    0.1062029  73.61  0.001235025    2.161    0.537
       143  -8.1202    221.9969    201.5266   9.0758258207e+01   1.3934622051e+00    0.1746717    0.1583131 -51.95  0.001212149    1.654    0.395
       144  -8.9712    140.3015    201.1047   1.0558016695e+02   1.5367708589e+01    0.2858822    0.1990335  87.50  0.001110483    2.077    0.518
       145  -8.4074     80.0273    201.4434   1.1732068841e+02   2.4591107258e+01    0.2747211    0.1343009  69.26  0.001363415    2.453    0.592
       146  -8.1549     10.9870    202.7535   1.3021978527e+02   3.2274935284e+01    0.1248824   0.07186724  43.02 0.0008879198    1.600    0.375
       147  -9.0603    237.1200    198.5735   8.7745643108e+01  -7.1974110244e-01    0.2486352    0.1551446 -38.28  0.001136578    2.020    0.505
       148  -9.4247    149.7108    198.9084   1.0346372842e+02   1.4126518804e+01    0.3569113    0.2337526  74.09  0.001539538    2.297    0.565
       149  -8.9423    123.9785    199.1930   1.0849362175e+02   1.8375680308e+01    0.2698635     0.181493 -85.21  0.001224266    1.979    0.495
       150  -9.2180    112.8762    198.4944   1.1058307271e+02   2.0268692854e+01    0.3957453    0.2158351  69.35  0.001500565    2.504    0.601
       151  -9.1498     88.6511    198.4190   1.1533757679e+02   2.3927261601e+01    0.3394772     0.189845  81.59  0.001396389    2.274    0.560
       152  -8.4671    177.1040    198.8299   9.8279313035e+01   9.3977436371e+00    0.1868105    0.1718127 -76.07 0.0006423454    1.418    0.295
       153  -8.0101    202.4059    198.1302   9.3579693575e+01   5.1089335522e+00    0.1480653    0.1170376 -49.26 0.0004691791    1.720    0.418
       154  -9.0945     61.4434    197.1089   1.2052145395e+02   2.7830620134e+01    0.3454823    0.1662213  69.59  0.001640348    2.221    0.550
       155  -8.5134     12.6343    197.4777   1.2968215390e+02   3.3079826174e+01    0.2097847   0.07827663  70.88  0.001129639    2.432    0.589
       156  -8.8118    216.1237    195.9749   9.0820616663e+01   3.0444023990e+00    0.2396495    0.2080072 -64.61  0.001122461    1.832    0.454
       157  -7.7906     29.3229    197.6520   1.2664921389e+02   3.1409602160e+01    0.1189448   0.05708383  65.42 0.0007049353    1.743    0.426
       158  -7.9540    133.1223    196.1325   1.0629621258e+02   1.7386483531e+01    0.1700832    0.1306746  67.53  0.000524225    1.344    0.256
       159  -7.9749     53.3185    196.6484   1.2205055611e+02   2.8914049223e+01    0.1236559    0.0647391  66.64 0.0007047458    1.741    0.426
       160  -8.7409    224.5735    194.3593   8.9100200113e+01   1.8211798444e+00    0.2356434    0.1698055 -39.92   0.00102859    1.766    0.434
       161  -7.9149    209.3385    195.6737   9.1947573999e+01   4.2373623350e+00    0.1140912   0.09666401  69.15 0.0007051552    1.727    0.421
       162  -8.9422    185.2063    194.8488   9.6146589709e+01   8.5479875935e+00    0.2286283    0.1954036  61.79 0.0006979315    1.396    0.284
       163  -8.8460    161.0468    194.5425   1.0064065664e+02   1.2847702500e+01    0.2649003     0.187554  65.37  0.000894286    1.719    0.418
       164  -9.2993    245.4798    193.1981   8.5455330608e+01  -1.4538849274e+00     0.239941    0.1892745 -32.24 0.0009319825    1.577    0.366
       165  -8.2428    230.6730    194.1437   8.8039332371e+01   8.3460598327e-01    0.1672153    0.1459664 -26.71 0.0006604762    1.415    0.293
       166  -8.9105     77.0713    193.8245   1.1715332643e+02   2.6393338799e+01    0.2315185    0.1544165  73.87  0.000740423    1.403    0.287
       167  -8.9313     43.6066    193.3055   1.2366264955e+02   3.0673990902e+01    0.3195117     0.147295  72.16  0.001719121    2.204    0.546
       168  -8.0789    205.2150    192.0125   9.2050153811e+01   5.4262064257e+00    0.1464679    0.1001314 -30.46 0.0004111367    1.640    0.390
       169  -8.2854    198.8767    191.8845   9.3161874696e+01   6.5532841209e+00    0.1919299    0.1710761 -31.06 0.0006360346    1.333    0.250
       170  -8.1988    179.1117    191.7193   9.6767603391e+01   1.0079073589e+01    0.1876138     0.172971 -57.82 0.0005786265    1.361    0.265
       171  -8.4829    172.2175    191.7491   9.8072016381e+01   1.1301788970e+01    0.1914934    0.1744637 -75.23  0.000709775    1.392    0.282
       172  -9.1727    139.5777    190.5488   1.0423288819e+02   1.7231870790e+01    0.3483933    0.2330826  82.08  0.001138659    2.243    0.554
       173 -10.4265     91.8423    188.6062   1.1362134893e+02   2.5270051893e+01    0.8298458    0.2346305  50.60  0.003124886    3.455    0.711
       174  -8.5973    148.6744    189.3634   1.0225566373e+02   1.5849098716e+01    0.2045486    0.1581442 -73.56 0.0007814511    1.655    0.396
       175  -8.1058    237.2697    188.5868   8.5963244964e+01   3.9773423491e-01    0.1916089     0.137047 -34.08 0.0006471998    1.641    0.391
       176  -8.9599    216.6355    188.3320   8.9402567132e+01   3.9195765964e+00    0.2165811    0.2106712  88.31 0.0007691989    1.472    0.320
       177  -8.8934    191.4623    187.6124   9.3782808485e+01   8.4652897515e+00    0.2636613    0.2207232 -85.02  0.001099605    1.828    0.453
       178  -9.2982    156.0983    187.6566   1.0053068640e+02   1.4816171062e+01    0.3177541    0.2191349 -63.68 0.0009173794    1.926    0.481
       179  -9.0944    129.3130    188.5944   1.0600580848e+02   1.9317861283e+01    0.2569162    0.1881082  72.40 0.0008655711    1.526    0.345
       180  -9.7917    120.9407    186.8456   1.0745854589e+02   2.1027860046e+01    0.4696678    0.2617973 -78.67  0.002126681    2.930    0.659
       181  -8.5785     34.2664    188.3179   1.2511078581e+02   3.2647873833e+01    0.2367253    0.1059742  65.97 0.0008270748    2.056    0.514
       182  -9.1708    242.5697    187.7988   8.4957470244e+01  -3.7917337995e-01    0.2065277    0.1091311 -23.59  0.001118338    1.954    0.488
       183  -9.0065    165.0700    187.0608   9.8685116194e+01   1.3305105092e+01    0.2945551    0.2240898 -78.11  0.001056789    1.928    0.481
       184  -9.3393    109.6440    186.2988   1.0969580194e+02   2.2963948323e+01    0.3632556    0.2183255  71.75  0.001341984    2.065    0.516
       185  -9.0233     54.7863    187.1269   1.2097404113e+02   3.0543109798e+01    0.3405128    0.1551052  67.13  0.001567972    2.342    0.573
       186  -8.7851    249.3451    185.7466   8.3499058504e+01  -1.2413666818e+00    0.2244053     0.191353 -43.93  0.001040395    1.744    0.427
       187  -8.3751    230.5164    187.1118   8.6817405400e+01   1.6986405999e+00    0.1679995    0.1147983 -26.48  0.001012808    1.544    0.352
       188  -9.0938    210.2939    184.1142   8.9762269758e+01   5.5827783179e+00    0.2687136    0.1886254 -28.42 0.0007343157    1.551    0.355
       189  -8.6422    202.8067    184.7368   9.1211943289e+01   6.8334029221e+00    0.2132855      0.17701 -47.57 0.0006590962    1.553    0.356
       190  -8.7917    182.9314    184.7788   9.4886647347e+01   1.0420268795e+01     0.221543     0.191019 -47.52  0.000817409    1.407    0.289
       191  -9.0574     66.5748    184.3933   1.1833535701e+02   2.9590546956e+01    0.3266393    0.1745676  67.62  0.001052284    1.896    0.473
       192  -8.0359     11.4960    184.9676   1.2926594839e+02   3.5521766408e+01    0.1571352   0.05969165  73.75 0.0007371745    2.483    0.597
       193  -8.2449    224.1803    183.7018   8.7271100409e+01   3.2016419967e+00    0.1898659    0.1599161 -26.07 0.0005869612    1.346    0.257
       194  -8.5898    197.1432    183.5134   9.2024401492e+01   8.0238437297e+00    0.1860601    0.1772709  83.92  0.000590464    1.384    0.277
       195  -8.9874    174.2615    183.7190   9.6356337628e+01   1.2161565674e+01    0.2423275    0.2078818  72.39 0.0008569276    1.428    0.300
       196  -9.1244    241.2101    181.4500   8.4015633035e+01   5.8283015965e-01    0.3680216    0.2432777 -52.62   0.00192112    2.758    0.637
       197  -8.9637     44.2525    182.3305   1.2268877238e+02   3.2712052192e+01    0.2864714    0.1461882  76.37 0.0008500113    1.945    0.486
       198  -8.1619     19.4958    182.9699   1.2762676274e+02   3.5164827764e+01    0.1623579   0.06367798  75.12  0.000809993    2.565    0.610
       199  -8.0235      1.8067    183.6260   1.3101581467e+02   3.6615342511e+01    0.1435699   0.06871907  49.25 0.0009427213    1.701    0.412
       200  -8.8141    235.0225    181.5213   8.5045419835e+01   1.6141461892e+00    0.2346426    0.1541866  -5.00 0.0009599256    1.604    0.376
       201  -9.1795    147.4075    180.5729   1.0113830991e+02   1.7554322578e+01    0.3203975    0.2296115  73.90  0.001003962    1.799    0.444
       202  -9.8207     25.6650    179.0128   1.2616777812e+02   3.5336573929e+01    0.6103955    0.2061285  78.09   0.00239923    4.283    0.767
       203  -8.5061    137.5762    179.3978   1.0295796988e+02   1.9510639591e+01    0.2739761    0.1866725  77.18 0.0009540351    2.003    0.501
       204  -9.3634    191.5016    178.4440   9.2162723931e+01   9.7891095599e+00    0.2574519    0.2144253  57.41 0.0005776582    1.370    0.270
       205  -7.9987    169.5533    178.8006   9.6429662371e+01   1.3802559284e+01    0.1651734    0.1276741 -61.84   0.00093294    1.671    0.401
       206  -9.0619     35.8604    176.6712   1.2394476977e+02   3.4752474667e+01    0.4536859    0.1686658  78.82  0.001820519    3.929    0.746
       207  -9.1813     13.0157    177.1358   1.2854816607e+02   3.6896437107e+01    0.3164501    0.1353422  78.64  0.001483696    2.128    0.530
       208  -8.5528    250.5740    172.7206   8.0865524389e+01   5.1935736394e-02    0.2087959    0.1342493 -21.62 0.0005648278    1.494    0.330
       209  -9.1359    248.9702    177.5331   8.2034795568e+01  -2.4403193866e-01    0.2385203    0.2122295  40.37  0.001062741    1.425    0.298
       210  -8.6167    247.2990    174.3025   8.1688596620e+01   4.1135478007e-01    0.2272087    0.1507709   3.65 0.0009081418    1.499    0.333
       211  -9.3513    231.0905    177.1017   8.4877224754e+01   2.8340760171e+00    0.2706597    0.1671877 -37.52 0.0008934296    1.855    0.461
       212  -8.7131    217.5528    177.0279   8.7185336614e+01   5.2333479356e+00    0.2695391    0.2001854 -47.73  0.001199996    1.804    0.446
       213  -8.9052    204.9797    177.6779   8.9543341819e+01   7.4207851733e+00    0.2281425    0.1903631 -38.78 0.0007629076    1.419    0.295
       214  -8.9270    128.8675    177.2127   1.0442565151e+02   2.1429301039e+01    0.2755956    0.1927844 -89.62 0.0008456386    1.901    0.474
       215  -9.3883    183.0042    176.3018   9.3384294982e+01   1.1692119367e+01    0.2438785    0.2403749 -85.28 0.0005442593    1.226    0.184
       216  -9.1503     89.0431    176.7494   1.1279064733e+02   2.7958714506e+01    0.3163044    0.1824591  88.88  0.001146531    2.216    0.549
       217  -8.4560     86.2658    172.7209   1.1288607683e+02   2.9165855941e+01    0.1657194    0.1435429  88.84 0.0004237588    1.115    0.103
       218 -10.0175     57.3632    173.1993   1.1915253575e+02   3.2979669003e+01    0.7647502    0.3118625  77.67  0.002701078    4.778    0.791
       219  -8.4276     56.2210    164.3793   1.1849886143e+02   3.4927739837e+01    0.2938467    0.1981287   3.59  0.001467378    3.221    0.689
       220  -7.6587    211.4869    176.4745   8.8152406502e+01   6.4022565337e+00    0.1305815    0.1102199  22.21 0.0003946114    1.005    0.004
       221  -9.2779    158.7938    174.9994   9.7913751742e+01   1.6424166468e+01    0.3559971    0.2471632  75.73  0.001369013    2.139    0.533
       222 -10.8585    101.7578    175.6961   1.0994146233e+02   2.6218652434e+01    0.4110807    0.2544562  38.01  0.002233027    1.604    0.377
       223 -10.7503     75.8749    170.2194   1.1483826016e+02   3.1155053690e+01     1.081116    0.4103752 -77.88  0.003878033    4.337    0.769
       224  -8.2663     79.0002    158.5244   1.1267019257e+02   3.3126738492e+01    0.2359891    0.1220232  34.31  0.001056623    2.128    0.530
       225  -8.5594    224.4603    174.4539   8.5503191965e+01   4.3387157375e+00    0.2014695    0.1148573 -42.12 0.0007466227    2.152    0.535
       226  -7.7036    241.4754    174.4936   8.2664458022e+01   1.3702986639e+00     0.125024    0.1037606  12.65 2.084682e-05    1.031    0.030
       227  -9.5141    175.7846    172.2024   9.4041523403e+01   1.3695686827e+01    0.3148133    0.2292382 -38.90 0.0008937949    1.542    0.352
       228  -8.6226    153.0015    172.4914   9.8660280047e+01   1.7928954545e+01    0.1966836    0.1702853  28.48 -3.614414e-05    1.176    0.149
       229  -8.5658    149.7634    169.7672   9.8858633525e+01   1.9008475040e+01    0.3543755    0.2147448  63.12 0.0006877827    2.087    0.521
       230  -8.3567    143.0612    172.8788   1.0077670941e+02   1.9688138584e+01    0.2060052    0.1649577  68.45 0.0006748327    1.337    0.252
       231  -8.4172    134.7926    172.0300   1.0236809337e+02   2.1334155710e+01    0.2056442    0.1663956  73.59 0.0007758985    1.326    0.246
       232  -9.7124    121.4062    170.3710   1.0495472069e+02   2.3997377469e+01      0.40311    0.2698807 -80.64  0.001132962    1.930    0.482
       233  -9.2055     44.9133    170.5436   1.2154910113e+02   3.4992141111e+01    0.4007373     0.188569  88.87  0.001623319    2.291    0.564
       234  -8.8954    230.4855    170.4611   8.3712018474e+01   3.7850518018e+00    0.2159887    0.2078256 -30.28 0.0008548834    1.373    0.271
       235  -8.5070    205.8275    170.4707   8.8037884306e+01   8.2856666554e+00    0.2350765    0.1694712 -51.60 0.0008110874    1.869    0.465
       236  -8.5736    198.5212    170.2919   8.9346272953e+01   9.6832756649e+00    0.2115429    0.1949847 -69.82 0.0007618248    1.439    0.305
       237  -8.2830    237.1552    169.6454   8.2440074742e+01   2.7133655423e+00    0.2000562     0.158544 -29.93 0.0005814252    1.392    0.281
       238  -9.1605    167.2055    168.7459   9.5115395959e+01   1.5894320249e+01    0.3580539    0.2400402  67.87  0.001139034    2.066    0.516
       239  -8.4473    244.4771    169.1221   8.1143378936e+01   1.5107578710e+00    0.1759173    0.1134333 -24.30 0.0004582747    1.517    0.341
       240  -8.8357    111.8852    167.4664   1.0657471767e+02   2.6176933664e+01    0.3949606    0.2465912 -88.29  0.001637735    2.256    0.557
       241  -8.5358     88.6138    168.8045   1.1187279240e+02   2.9603364415e+01    0.2497621    0.1628493  75.48 0.0009862013    1.655    0.396
       242  -8.5829    218.8471    168.1745   8.5269961703e+01   6.1927389013e+00    0.1806408     0.176054  30.22 0.0006104529    1.283    0.221
       243  -7.8691    211.4637    167.9830   8.6541361791e+01   7.5871546717e+00    0.1848301    0.1263459 -33.77 0.0006216693    1.573    0.364
       244  -9.1601    191.9983    166.6474   8.9875128313e+01   1.1474119913e+01    0.3273542    0.2054593 -42.33     0.001112    1.801    0.445
       245  -8.8898    185.0861    166.6963   9.1208133131e+01   1.2795917744e+01    0.2123063     0.186383 -53.98 0.0008636214    1.378    0.274
       246  -8.7324    140.6372    166.3128   1.0017835018e+02   2.1323181458e+01    0.2240292    0.1783611  77.34 0.0007408384    1.445    0.308
       247  -9.6728    135.6670    164.0392   1.0085097652e+02   2.2659279906e+01    0.3957027    0.2348762  58.03 0.0009613782    1.808    0.447
       248 -10.0596     95.0568    163.1509   1.0966924694e+02   2.9764976222e+01     0.725671    0.3583986  73.74   0.00256911    4.128    0.758
       249  -9.2222     20.6109    166.2753   1.2633043569e+02   3.8366402762e+01    0.3300087     0.109602  57.80  0.001183894    2.846    0.649
       250  -7.8268    250.6374    165.2014   7.9393280286e+01   9.3468281497e-01    0.1702354     0.104707 -14.81 0.0006255912    1.599    0.374
       251  -8.8014    233.9808    164.8375   8.2024382376e+01   3.8881202611e+00    0.2164686    0.1679574 -17.97 0.0006525276    1.257    0.204
       252  -8.7399    159.6426    164.3785   9.5856010055e+01   1.8089191783e+01    0.2711134    0.2091471  79.85  0.000881126    1.721    0.419
       253  -9.4817     33.6291    163.4586   1.2335097137e+02   3.7666996863e+01    0.4977476    0.1469494  54.69  0.002085015    3.406    0.706
       254  -8.2734    240.0996    164.1454   8.0876172357e+01   2.8892876728e+00    0.1946329    0.1497686   9.10 0.0005700599    1.168    0.144
       255  -8.5434    213.0198    163.7872   8.5440411281e+01   7.8894612033e+00    0.2159812    0.1832496 -24.54 0.0006820174    1.246    0.197
       256  -8.8326    246.0887    163.0328   7.9686291984e+01   1.9804046352e+00    0.1906811    0.1595947   7.17 0.0004713234    1.023    0.023
       257  -8.4543    204.8043    162.7650   8.6726732397e+01   9.6003473680e+00     0.241837    0.1793279 -43.29  0.000624552    1.574    0.365
       258  -9.5029      3.1896    162.2557   1.2968523616e+02   4.0677157562e+01    0.3759404    0.1334802  59.43  0.001982361    2.462    0.594
       259  -9.2841    177.3794    160.6519   9.1557851171e+01   1.5274382638e+01    0.2943007    0.2470091 -68.91 0.0008988721    1.536    0.349
       260  -8.8980    151.5791    161.0355   9.6923362548e+01   2.0229976498e+01     0.305013    0.2251146 -84.34 0.0009266167    1.924    0.480
       261  -8.7371     60.6662    160.3038   1.1706044867e+02   3.5225409634e+01      0.32411    0.1697082  72.78  0.001291429    2.216    0.549
       262  -8.6606    244.4514    159.3642   7.9213967617e+01   2.7247521059e+00    0.3831155    0.1674937  32.57  0.001685002    2.441    0.590
       263  -8.9613    227.4639    159.3215   8.2020229525e+01   5.8061756252e+00    0.2782175    0.1939262 -45.54  0.000978006    1.819    0.450
       264  -9.7694    105.8052    157.7457   1.0642898761e+02   2.9134909567e+01    0.5026785    0.3422373  86.02  0.001231403    1.788    0.441
       265  -9.6337    250.1910    157.8922   7.8004198329e+01   1.9026341911e+00    0.2749222    0.1618522 -28.41 0.0007808002    1.638    0.390
       266  -8.1689    237.0535    159.0488   8.0355177755e+01   4.0866001196e+00    0.1810977    0.1603582 -59.00 0.0008521974    1.646    0.392
       267  -8.3744    128.1429    158.7622   1.0158369604e+02   2.5040424306e+01    0.2269329    0.1789515 -74.18 0.0006535149    1.420    0.296
       268  -8.5179    196.7690    157.9178   8.7254816229e+01   1.1894267509e+01    0.2260335    0.1874383 -59.49 0.0007090319    1.579    0.367
       269  -8.6409    187.9085    157.6677   8.8900550019e+01   1.3683079297e+01    0.2488442     0.178237 -56.17 0.0006374544    1.830    0.454
       270  -9.1278    167.5446    157.3178   9.2895860743e+01   1.7779480090e+01    0.3107618    0.2392767  87.44   0.00117002    1.869    0.465
       271  -8.4274    217.9618    156.5674   8.3108581723e+01   7.9777823199e+00    0.2419382    0.1751216 -45.42 0.0009211615    1.686    0.407
       272  -9.0961    157.6852    155.8339   9.4657632268e+01   1.9985582016e+01    0.3550316    0.2512608 -49.54  0.001265079    1.565    0.361
       273  -9.4914    119.5119    154.7522   1.0282288958e+02   2.7382716818e+01    0.5214595      0.28613 -65.38  0.001745045    2.226    0.551
       274  -9.6205     81.9009    154.8996   1.1150586134e+02   3.3469619612e+01    0.4828649    0.2650303  79.45  0.001630938    2.592    0.614
       275  -8.6584    144.7946    155.1724   9.7287543314e+01   2.2613377480e+01     0.318543    0.2013209  63.39  0.001200674    1.919    0.479
       276  -9.1559     49.3781    154.9700   1.1903775773e+02   3.7724094025e+01    0.3775031    0.1980976  81.22   0.00174767    2.110    0.526
       277  -8.7511    242.9791    154.9828   7.8559963990e+01   3.5441702319e+00    0.1705738    0.1586059 -61.60 0.0004060701    1.550    0.355
       278  -7.8737    204.6218    155.2842   8.5253094038e+01   1.0753065577e+01    0.1761745    0.1258954 -21.03  0.000795921    1.495    0.331
       279  -9.7186    132.8711    153.0403   9.9515234790e+01   2.5283972118e+01    0.4569812     0.313731  71.81  0.001373623    1.834    0.455
       280  -9.2881    133.6680    148.6641   9.8522033016e+01   2.5991824581e+01    0.3147031    0.2249846 -39.93  0.001621666    1.600    0.375
       281  -9.5464     67.8718    153.8677   1.1463322949e+02   3.5652104085e+01    0.3715886    0.2109541  78.49  0.001073095    2.082    0.520
       282  -7.8497    232.8441    153.8573   7.9992812126e+01   5.5450781250e+00    0.1633386    0.1554196 -34.26 0.0004640565    1.323    0.244
       283  -8.9542    151.9269    152.3936   9.5217511129e+01   2.1745797626e+01    0.2968673    0.2009525 -44.53  0.001167302    1.607    0.378
       284  -9.0103    148.2978    149.6831   9.5474551115e+01   2.2965941630e+01    0.2289942    0.1868691  21.97 0.0006051927    1.391    0.281
       285 -10.2354    148.9162    145.0323   9.4414093131e+01   2.3724335814e+01    0.5268518    0.3646488 -85.33  0.001614418    2.295    0.564
       286  -9.3540     20.0114    152.5306   1.2545115176e+02   4.1260550308e+01    0.2206788    0.1208817  81.38 0.0006109427    1.604    0.376
       287  -8.7392     98.3655    150.8322   1.0704785473e+02   3.1787027855e+01    0.2971666    0.1993677  86.05 0.0009101302    1.796    0.443
       288  -9.7386     29.4300    150.9118   1.2319731273e+02   4.0720417737e+01    0.3882789     0.165543  65.33  0.001846087    2.534    0.605
       289  -8.5821      8.9586    153.0000   1.2791249965e+02   4.2105736065e+01    0.1535187   0.05931817  29.25 0.0008008096    2.931    0.659
       290  -9.1299      3.1452    151.1716   1.2905594841e+02   4.2939768857e+01    0.3065203    0.1392657  86.29  0.001758844    1.851    0.460
       291  -8.2857    250.5503    140.7682   7.4385966041e+01   4.0034647647e+00    0.2310396    0.1157884 -33.21 0.0009587574    1.910    0.476
       292  -9.5897    248.8787    149.6946   7.6528822486e+01   3.1616384108e+00    0.3402171    0.1714827 -28.18 0.0008455999    1.890    0.471
       293  -9.2142    247.0784    143.6042   7.5530950971e+01   4.2714499342e+00    0.3652811    0.1911412 -22.75 0.0008875991    1.893    0.472
       294  -8.6760    243.2469    150.1159   7.7510527322e+01   4.1247302746e+00    0.2762999    0.1503464 -35.39 0.0009830561    1.874    0.466
       295  -8.9034    189.3906    150.1675   8.7081521686e+01   1.4599394276e+01    0.3146042      0.21571 -56.96 0.0009404396    1.968    0.492
       296  -7.8036    182.4916    151.4939   8.8711495782e+01   1.5778370054e+01     0.138884    0.1289343  39.14 0.0001429886    1.064    0.060
       297  -8.4432    162.4983    150.5421   9.2604154169e+01   1.9982329222e+01    0.2332683     0.186707  87.84 0.0008225088    1.652    0.395
       298  -8.4446    237.9648    150.1717   7.8378688263e+01   5.0877919833e+00    0.3375401    0.1260298  39.74  0.001372349    2.630    0.620
       299  -8.2551    212.9073    150.0636   8.2658963751e+01   9.9025991152e+00    0.1877974    0.1845936  59.25 0.0004585315    1.252    0.201
       300  -8.5267    198.8132    149.1217   8.5056806950e+01   1.2859874575e+01    0.1947073    0.1887639 -80.97 0.0004731338    1.258    0.205
       301 -10.1785     89.0520    146.1206   1.0850950824e+02   3.4262927157e+01      0.62528    0.3374229  87.95  0.002458624    3.191    0.687
       302 -10.0279     39.6646    147.0461   1.2045568754e+02   4.0505909151e+01    0.6110641    0.3004867  84.25  0.002783675    2.246    0.555
       303  -9.0250    233.4948    147.6711   7.8590829975e+01   6.2611233191e+00    0.2436315     0.173919 -24.04 0.0007590009    1.359    0.264
       304  -9.2295     78.1533    147.2379   1.1129670762e+02   3.5650239288e+01    0.3225575    0.1970958  88.67  0.001053657    1.932    0.482
       305 -10.5422     54.5688    143.9575   1.1654513499e+02   3.9486822548e+01    0.8656402    0.4055649  81.41  0.003170554    3.243    0.692
       306  -9.0868     57.2818    135.4401   1.1476217443e+02   4.1034957913e+01    0.2746333    0.1294409  31.24  0.001174221    2.479    0.597
       307  -8.1726    223.3259    146.9456   8.0161792290e+01   8.3140417421e+00    0.1873576    0.1577526 -15.47 0.0004321293    1.151    0.131
       308  -9.8234    139.1423    144.9870   9.6578876688e+01   2.5661221815e+01    0.4107682    0.2789941 -82.03  0.001187159    2.224    0.550
       309 -10.2889    106.5949    144.1262   1.0397425148e+02   3.1824688248e+01    0.7085454    0.4366666  87.63  0.002020204    2.468    0.595
       310  -9.1888     13.4994    146.2919   1.2643612820e+02   4.3138243891e+01    0.3442481    0.1229763  58.23  0.001540417    2.775    0.640
       311  -7.9659    206.7599    146.5555   8.3032469038e+01   1.1655397978e+01    0.1778011    0.1297044  55.83 0.0004954615    1.538    0.350
       312  -8.2906    175.3499    146.0660   8.9021111741e+01   1.8159311271e+01    0.1939666    0.1782326 -41.37 0.0006303315    1.180    0.152
       313  -8.1644    240.4445    145.4981   7.6990483545e+01   5.2489691548e+00    0.2025069    0.1549934 -26.97 0.0001066788    1.288    0.223
       314  -8.9799    242.7398    143.0325   7.6096503944e+01   5.1488431006e+00    0.3385344    0.1995695 -15.25  0.001685459    1.797    0.443
       315  -9.7568    125.0258    142.9268   9.9408604634e+01   2.8768436121e+01    0.4650504     0.307312 -86.05  0.001591657    2.255    0.557
       316  -8.9022    165.4603    144.0342   9.0645378763e+01   2.0553445656e+01    0.2584192    0.2224583  61.91 0.0006768989    1.225    0.184
       317 -11.0927     68.8908    139.8031   1.1247487974e+02   3.8566603647e+01    0.8605863    0.4445284 -66.02  0.003134424    1.826    0.452
       318 -10.0104     72.9787    129.0652   1.0977518450e+02   4.0388047136e+01    0.5098857    0.2702115 -69.18  0.001855459    1.883    0.469
       319  -8.5358    181.9438    141.6642   8.6748156938e+01   1.7550967508e+01    0.2661849     0.185371 -57.95 0.0005938451    1.867    0.464
       320  -9.3779      2.6553    141.6480   1.2856468223e+02   4.4961726821e+01    0.3009246    0.1343009  70.06  0.001466851    2.074    0.518
       321  -9.9462     23.4333    138.2159   1.2344438046e+02   4.4013802577e+01     0.496339    0.2137763  70.52  0.002249773    2.674    0.626
       322  -8.5666     15.3246    139.6871   1.2549863931e+02   4.4394992966e+01     0.197026    0.1355276 -18.92  0.001183484    2.607    0.616
       323  -8.8044    172.2477    138.2448   8.7985025249e+01   2.0180645233e+01    0.3519947    0.2374114 -55.47  0.001166063    1.802    0.445
       324  -9.1014    241.2145    137.3941   7.5123553169e+01   6.1915535557e+00    0.3196504    0.1622094 -15.53  0.001105037    2.418    0.586
       325  -7.6706    218.5284    138.5031   7.9168608977e+01   1.0493822153e+01    0.1367598    0.1262013   8.95 0.0001089528    1.050    0.048
       326  -8.3030    207.4923    137.9648   8.1028796241e+01   1.2831336266e+01    0.2296092    0.1905184 -71.97 0.0007585086    1.699    0.411
       327  -8.6521    197.5591    137.5631   8.2794414527e+01   1.4963196919e+01     0.261379    0.2039634 -51.54 0.0008244741    1.522    0.343
       328  -8.8783    150.4357    136.6594   9.2337414509e+01   2.5018652482e+01    0.5169302    0.3046777  17.85  0.001826373    3.459    0.711
       329  -9.3167    139.5564    137.3776   9.4944252463e+01   2.7078746835e+01    0.4385147    0.2446989  30.29  0.001789204    2.333    0.571
       330  -8.9748    162.6940    136.3803   8.9596249138e+01   2.2526761650e+01     0.248149    0.1759011 -56.21 0.0006327895    1.643    0.391
       331 -10.4750     83.4223    132.9170   1.0773609205e+02   3.8003073170e+01    0.5967727    0.3484176 -66.77  0.001164993    1.703    0.413
       332  -9.2040     84.0275    123.4784   1.0589910645e+02   4.0009748866e+01     0.574374    0.3714402   8.38  0.002416534    3.123    0.680
       333  -9.4379     39.0854    136.3174   1.1942718848e+02   4.2911533967e+01    0.2636946    0.1572998  78.81 0.0007457304    1.669    0.401
       334  -8.5943    246.8985    130.1847   7.2646883444e+01   6.0779411394e+00    0.2691513    0.1899605 -48.05 0.0005768351    1.778    0.437
       335  -8.9625    248.4146    135.2160   7.3517819312e+01   5.1229330935e+00    0.2848419    0.1891179 -28.76 0.0007239117    1.419    0.295
       336  -9.0161    250.7179    130.2187   7.2070402988e+01   5.3496604522e+00    0.4475988    0.1239312 -30.01  0.001357538    3.401    0.706
       337  -7.8638    188.0889    136.1194   8.4306867072e+01   1.7199018104e+01    0.1863886    0.1723767 -78.27 0.0004874535    1.301    0.231
       338  -8.5267    125.2492    136.0562   9.8006740963e+01   3.0133506010e+01      0.28377    0.1822697  17.76  0.001081958    2.668    0.625
       339  -8.5945    179.8778    134.3743   8.5559480801e+01   1.9245633225e+01    0.2637892    0.2012462 -59.60  0.001067674    1.624    0.384
       340  -7.7373    237.5685    133.7878   7.4917379214e+01   7.3868286042e+00    0.1827946    0.1181507 -39.04 0.0008582215    1.636    0.389
       341  -8.1369    231.2941    133.9883   7.5988916030e+01   8.5918834287e+00    0.1920582     0.162676 -13.51 0.0004129434    1.105    0.095
       342 -10.1691    132.4335    130.9533   9.5247516021e+01   2.9785504094e+01    0.6730236     0.447616 -72.32  0.001841325    2.026    0.506
       343 -11.0725    131.6652    119.0220   9.2781120248e+01   3.2388159516e+01    0.9082015    0.5385633 -69.58  0.003413632    2.613    0.617
       344  -9.8311    133.5536    109.2158   8.9968658616e+01   3.4014629730e+01    0.6400892    0.3029136 -52.44  0.002350581    2.333    0.571
       345  -9.5088    112.9584    133.3710   1.0043304275e+02   3.2978117700e+01    0.3691985    0.2397272  71.90  0.001179136    2.027    0.507
       346 -10.4638     98.2244    130.2192   1.0349262452e+02   3.6230483554e+01    0.6344368    0.3103803 -60.51  0.001851586    2.111    0.526
       347  -8.9846     99.8146    120.3858   1.0113854403e+02   3.8115216355e+01    0.5737125    0.3528802  11.16  0.002068013    3.855    0.741
       348  -9.2737    142.9284    131.5634   9.2934760551e+01   2.7550885452e+01    0.3236125    0.2670544 -80.54 0.0008532545    1.425    0.298
       349 -10.4072     59.9210    125.1537   1.1257869856e+02   4.3012525066e+01     0.689585    0.3623601  77.92  0.002492679    2.839    0.648
       350  -8.7802     58.3829    116.1834   1.1155465989e+02   4.5241906037e+01    0.4915178    0.3263295 -12.62  0.002302666    2.904    0.656
       351  -8.2283    204.9198    130.8653   7.9903925237e+01   1.4485371632e+01    0.2140396      0.17594 -75.69 0.0007094878    1.714    0.416
       352  -9.4972    153.0017    129.2049   9.0129961427e+01   2.5920327974e+01    0.3951433    0.2343705 -55.52 0.0009227881    1.992    0.498
       353  -9.8730     12.9161    129.7785   1.2524231214e+02   4.6733400760e+01    0.4015765    0.1938305  64.69  0.001745702    2.067    0.516
       354  -7.5453    220.6714    130.2891   7.6956633633e+01   1.1278018191e+01    0.1307364    0.1123639 -75.58  0.000594553    1.618    0.382
       355  -8.1201    211.7928    129.5027   7.8340883377e+01   1.3246956216e+01     0.254427    0.1800551 -66.26  0.001160729    2.274    0.560
       356  -8.1623    192.8870    130.1962   8.2027210410e+01   1.7166893506e+01     0.212607    0.1953279 -77.06 0.0006681014    1.319    0.242
       357  -9.2391    168.3532    129.4223   8.6832090925e+01   2.2603915593e+01    0.3097476    0.2446683 -68.10 0.0008620404    1.590    0.371
       358  -9.1120    162.0098    129.9673   8.8317819799e+01   2.3863911009e+01    0.2354981    0.1790448  10.77  0.000698229    1.703    0.413
       359 -10.7499     45.0321    123.6782   1.1631701128e+02   4.5100533090e+01      1.06188    0.4803724  77.40  0.003952735    3.898    0.743
       360  -7.7170    186.3444    129.6938   8.3195665941e+01   1.8664252600e+01    0.1438766    0.1170674 -87.56 0.0007042413    1.692    0.409
       361  -8.0960     25.6661    129.6547   1.2205388495e+02   4.5690171331e+01    0.1177766   0.07887825 -48.77  0.000704969    1.765    0.434
       362  -8.6900    237.9826    127.7115   7.3493820887e+01   8.1490296919e+00    0.1875009     0.166635  19.45 0.0003287646    1.082    0.076
       363 -10.0863    118.0966    124.8265   9.7412124059e+01   3.3840344306e+01    0.6277522    0.4299926 -67.65  0.001964358    1.667    0.400
       364  -8.8182    179.2447    124.9231   8.3516631911e+01   2.1042354529e+01    0.2648308     0.234796  72.49 0.0006645633    1.283    0.221
       365 -10.0839     28.3335    122.4149   1.2057366931e+02   4.7059552214e+01    0.6290289    0.2728737  74.05   0.00264212    3.241    0.691
       366  -8.9785     26.4459    114.5623   1.2014572097e+02   4.8993762374e+01    0.2708426    0.1798268 -17.21  0.001507193    2.519    0.603
       367  -8.3124    234.3430    123.9273   7.3218481950e+01   9.4101990147e+00    0.2558728    0.1304043  20.89 0.0009131148    3.401    0.706
       368  -7.5595    188.6736    124.3264   8.1483169362e+01   1.9073681562e+01    0.1455836    0.1177889 -80.34 0.0005026369    1.697    0.411
       369  -9.0292    158.6382    121.6203   8.7123632201e+01   2.6165797604e+01    0.3578902    0.2642339 -74.02 0.0009986309    1.860    0.462
       370  -7.6408    203.2025    122.2193   7.8208588557e+01   1.6239618296e+01    0.2218461    0.1011121 -44.18 0.0004257666    2.436    0.589
       371  -7.9892    195.1184    122.1378   7.9711848216e+01   1.8024940454e+01    0.1972792    0.1684884 -55.52 0.0004211169    1.354    0.262
       372  -8.4342    172.0677    121.6457   8.4228885363e+01   2.3211781378e+01    0.2416909    0.1986275 -49.45 0.0003979779    1.305    0.234
       373  -9.7379     71.1081    119.4536   1.0862770345e+02   4.2815586082e+01    0.4701472    0.2286348 -70.56  0.001439449    2.226    0.551
       374 -10.1423    141.6462    118.0896   9.0171669792e+01   3.0506762483e+01    0.6357638    0.3331817 -52.61  0.001359101    2.112    0.527
       375  -9.0157     16.5411    119.0873   1.2331142803e+02   4.8803639917e+01    0.3350244    0.1885429  -7.07  0.001636955    3.718    0.731
       376  -9.6643      3.2493    117.5265   1.2662795037e+02   5.0105321140e+01    0.5025824    0.1896837  70.09  0.002247136    3.187    0.686
       377  -8.1934    219.0000    116.0145   7.3915542822e+01   1.3782897606e+01    0.2390062   0.07818287 -32.75 0.0008083994    2.984    0.665
       378  -7.3758    203.2809    116.3106   7.6776756520e+01   1.7177766510e+01    0.1469328     0.109725  11.28 0.0002423056    1.565    0.361
       379  -8.3848    193.0009    115.4475   7.8501907556e+01   1.9617578377e+01     0.262358    0.1992782 -51.57 0.0004629554    1.496    0.331
       380  -8.1046    185.7052    116.1739   8.0108766434e+01   2.1136027984e+01    0.2242819    0.1790847 -53.04 0.0004877351    1.410    0.291
       381  -8.1021    153.2847    115.5537   8.6865142214e+01   2.8500961379e+01    0.2597301     0.133734 -42.18 0.0008121351    1.993    0.498
       382 -10.3856    109.2688    112.9750   9.7050908592e+01   3.8041096087e+01    0.8334361    0.3909249 -53.91  0.002497459    2.155    0.536
       383  -8.2045    250.0184    115.2753   6.8814141078e+01   7.4792861590e+00    0.1871091    0.1633801  26.27 0.0009828586    1.154    0.133
       384 -10.2271     92.6871    112.2814   1.0133435347e+02   4.1121221591e+01    0.5922988    0.3356028 -71.50  0.001400179    2.240    0.554
       385  -8.9880     94.1639    104.3306   9.9155848749e+01   4.2639814529e+01    0.3771966    0.2568399  14.56  0.001691505    2.313    0.568
       386  -9.9470     78.7349    112.4288   1.0520803502e+02   4.3301700168e+01    0.5550922    0.3363782 -88.70  0.001891008    2.362    0.577
       387  -8.9365     78.2902    105.4245   1.0389429597e+02   4.4953820765e+01    0.3284403    0.2377307   8.87    0.0013677    2.099    0.523
       388  -7.7417    167.1825    114.4240   8.3512528890e+01   2.5626425249e+01    0.2002731    0.1425075  61.47 0.0004564509    1.560    0.359
       389 -10.3809    122.0619    112.1416   9.3553470456e+01   3.5758278397e+01    0.5433381    0.3635572 -44.39  0.001482437    1.526    0.345
       390 -10.8724    109.1776     99.0643   9.3728395885e+01   4.1066666976e+01    0.8015455    0.4556781  69.10  0.001768576    3.173    0.685
       391  -9.2170    108.1802     92.3381   9.2250361200e+01   4.2699110902e+01    0.6275733    0.3074701  29.25  0.002180911    3.251    0.692
       392  -8.3469    174.8252    112.0387   8.1298876888e+01   2.4332572036e+01    0.2266184    0.2003306 -71.79 0.0005530864    1.312    0.238
       393  -8.5969    159.1569    111.7371   8.4599765950e+01   2.7932423806e+01    0.2511749    0.2039165 -54.10 0.0005720673    1.323    0.244
       394 -10.2951     66.2217    109.8310   1.0822597460e+02   4.5675112313e+01    0.5426374    0.2987099 -71.29  0.002122182    1.870    0.465
       395  -9.6649     14.0065    111.1222   1.2315669256e+02   5.0772372354e+01    0.3637201     0.182765  69.56  0.001416325    2.171    0.539
       396  -7.7796    149.7806    110.0292   8.6298810458e+01   3.0348256899e+01     0.197796    0.1230171 -42.84 0.0004317217    1.638    0.389
       397  -8.7193     43.1254    109.7363   1.1480702302e+02   4.8476542712e+01    0.2976322    0.1625233  14.50  0.001392796    2.988    0.665
       398 -10.3599    248.8826    107.4102   6.7158060921e+01   8.7715291337e+00    0.4039172    0.2576826 -31.49  0.002091966    1.435    0.303
       399  -8.2397    189.2268    108.1942   7.7424378537e+01   2.1706999106e+01    0.2030599    0.1722981 -59.41 0.0004978279    1.353    0.261
       400  -9.6506    150.7499    103.4206   8.4378069931e+01   3.1420656786e+01    0.5151196    0.3292905 -68.40  0.002035643    2.401    0.583
       401  -9.4454    139.9474    104.6999   8.7266436498e+01   3.3562180464e+01    0.3838436    0.2894147 -83.11 0.0008332139    1.791    0.442
       402 -10.5533     45.8477    102.5137   1.1283355930e+02   4.9837614167e+01    0.7721663    0.3895442  72.56  0.003123253    3.310    0.698
       403  -9.2449     45.5535     92.6681   1.1113866913e+02   5.2125932258e+01    0.4016452    0.2309569  12.26  0.001918535    2.751    0.636
       404 -10.5893     22.9578    102.8904   1.1964080714e+02   5.1930238330e+01    0.6830387    0.3240525  74.06  0.002619506    2.838    0.648
       405  -9.4789    164.5431    104.0900   8.1454864469e+01   2.8145812250e+01    0.5299491    0.2591664  49.99   0.00136614    2.014    0.503
       406  -8.3418    159.6871    101.1125   8.1739959621e+01   2.9823002482e+01    0.2347377    0.2027445 -71.36 0.0006026346    1.323    0.244
       407  -8.8826      7.1104    103.2606   1.2423967227e+02   5.3006352948e+01    0.2804212    0.1451244  70.87  0.001539677    2.053    0.513
       408 -10.3347    128.1113    102.0654   8.9517462142e+01   3.6629631286e+01    0.3932447    0.3558807 -85.29  0.001405717    1.180    0.153
       409  -9.5070    130.3892     97.4051   8.7714806070e+01   3.7104285359e+01    0.4372445    0.2045676  33.70  0.001483748    3.018    0.669
       410  -7.9063    175.5159    102.1054   7.8604597685e+01   2.5956132602e+01    0.2256549    0.1485431 -37.96 0.0006850305    1.529    0.346
       411  -9.2866     82.0832     99.9810   1.0160249612e+02   4.5597825025e+01    0.3564976     0.221528 -73.51 0.0007707762    1.923    0.480
       412  -8.8340     66.6937     87.1920   1.0329479023e+02   5.0759967863e+01    0.6185226    0.2642327  21.62  0.001986108    5.023    0.801
       413  -8.6772     63.8188    101.3783   1.0727834623e+02   4.7927100762e+01    0.1818682    0.1770419  82.07  0.001172427    1.130    0.115
       414 -10.1045     63.8183     95.7860   1.0611989509e+02   4.9203253781e+01    0.6345095    0.3523467 -83.36  0.001807178    2.716    0.632
       415  -9.0275    219.7595     98.2448   6.9419258993e+01   1.6318308291e+01    0.2459206     0.220007  29.76 0.0004267938    1.123    0.109
       416  -9.3543     94.9127     96.9333   9.7175199911e+01   4.4145877749e+01    0.3546355    0.2403693 -72.05 0.0006388715    1.764    0.433
       417  -8.5034    151.0428     95.9275   8.2306512952e+01   3.2800356830e+01    0.3693047    0.2424724   9.86  0.001390853    2.682    0.627
       418  -9.4269    248.3855     92.2987   6.3636395834e+01   1.0934203849e+01    0.2824363    0.1711601  12.10 0.0009638732    2.403    0.584
       419  -8.3588    225.5292     94.5866   6.7570000585e+01   1.5568393188e+01    0.3745496    0.1491624  60.71  0.001328568    3.091    0.677
       420  -7.8655    188.5840     93.8293   7.3798427379e+01   2.4298200155e+01    0.2152456    0.1363681 -45.70 0.0007308381    1.663    0.399
       421  -8.1715    164.6953     94.1182   7.8749981714e+01   2.9950137964e+01    0.2409749    0.1824058 -53.14 0.0004269955    1.440    0.305
       422  -8.0986    176.4128     93.2767   7.6055011949e+01   2.7307946223e+01    0.2105603    0.1405503 -46.62 0.0004126808    1.576    0.365
       423  -9.5742    138.9486     91.9642   8.4094438498e+01   3.6319899506e+01     0.457351    0.2902595 -47.98  0.001535097    1.613    0.380
       424 -10.9394    124.2232     90.7249   8.7480458632e+01   3.9783196227e+01    0.8042605    0.5707702 -26.77  0.001410613    1.669    0.401
       425  -9.4756      5.2025     91.8255   1.2353170044e+02   5.5677630469e+01    0.3673167    0.1672437  84.75  0.001815311    2.392    0.582
       426  -9.6312     34.8384     89.9639   1.1402349258e+02   5.3832700095e+01    0.4684368     0.249058 -88.20   0.00176061    2.357    0.576
       427  -8.4494     35.3829     82.7676   1.1251127234e+02   5.5420370585e+01    0.1912814   0.09248909 -56.16 0.0007636037    1.708    0.415
       428  -9.1276     22.5948     90.3846   1.1796579906e+02   5.4798724652e+01      0.28476     0.185344 -43.00  0.001264268    1.671    0.401
       429  -7.9196    157.5714     91.5310   7.9603911381e+01   3.2111179503e+01    0.1525796    0.1470428 -75.01  9.25108e-05    1.086    0.079
       430  -8.0446    151.1200     89.1781   8.0411056992e+01   3.4067558420e+01    0.2136082    0.1813854 -70.12 0.0004884632    1.346    0.257
       431 -10.1470     86.3316     85.9457   9.6893655673e+01   4.8030212211e+01    0.6481889    0.3543104 -58.46  0.001864541    1.874    0.466
       432  -7.7298    164.3950     87.4828   7.6964171687e+01   3.1227447514e+01    0.1509148    0.1479226 -35.09 0.0001149555    1.028    0.028
       433  -9.9127     48.5294     84.1901   1.0846412289e+02   5.3729140778e+01    0.5548699    0.3322757 -89.16    0.0020457    2.306    0.566
       434  -9.8854    104.9454     83.3283   9.0677274274e+01   4.5232678163e+01    0.5011886    0.3271324 -70.13  0.001003013    2.126    0.530
       435  -8.9379    105.5114     77.2767   8.8748193637e+01   4.6381174974e+01    0.3926305    0.2196155  31.76  0.001420654    2.262    0.558
       436  -8.4335    157.8847     84.0715   7.7412952112e+01   3.3411485380e+01    0.2315135    0.2054809 -66.39 0.0004003899    1.234    0.190
       437  -9.1709    140.8793     82.7188   8.0973358235e+01   3.7676748809e+01    0.3580255    0.2085923 -42.92 0.0008485705    1.713    0.416
       438  -9.5480      9.8938     81.2298   1.2068249492e+02   5.7764143758e+01    0.3194023    0.1700992  65.66  0.001505618    2.316    0.568
       439  -7.3073    185.3168     82.6604   7.1354730884e+01   2.6960644838e+01    0.1588908     0.118579 -67.86 0.0007048605    1.706    0.414
       440  -9.7157     24.5350     80.5036   1.1571001814e+02   5.6884611050e+01    0.4231961    0.2315395  81.74  0.001380112    2.454    0.593
       441  -8.5000    150.2976     80.6325   7.8125039549e+01   3.5857986261e+01    0.3390884     0.211674 -58.93  0.001138162    2.075    0.518
       442  -9.0665    119.2791     80.1179   8.5745894451e+01   4.2984475712e+01    0.3992381    0.2459808 -56.75  0.001132726    1.874    0.466
       443  -8.7409     74.5628     80.8282   9.9202423353e+01   5.1035292256e+01    0.2560576    0.2038502  89.11 0.0008467247    1.509    0.337
       444  -7.9975    166.6714     79.9475   7.4310830894e+01   3.2012839484e+01    0.2153084    0.1903391 -28.98 0.0004552252    1.140    0.123
       445  -7.8017    184.2427     78.6215   7.0415644271e+01   2.7893597951e+01    0.1573878    0.1132792 -58.12 0.0003616407    1.635    0.388
       446  -9.9735     63.6919     74.3576   1.0104669333e+02   5.4035476768e+01     0.690379    0.3027868 -66.34  0.002529721    3.190    0.687
       447  -8.9060     64.4146     63.6769   9.7776924731e+01   5.6247330851e+01    0.5283793    0.2992701 -20.08  0.002056656    3.322    0.699
       448  -9.4224    128.0659     75.4500   8.2002463621e+01   4.1988632043e+01    0.3893207    0.2749842 -61.29 0.0006674068    1.710    0.415
       449  -8.0756    157.3502     76.2552   7.5226152737e+01   3.4948011608e+01    0.2180059    0.1382551 -44.88 0.0004864729    1.619    0.382
       450  -8.6440    140.3311     75.5670   7.8958815403e+01   3.9154470590e+01    0.2763459    0.1757061 -48.69 0.0006397991    1.659    0.397
       451  -8.4033    163.4635     73.4457   7.3059421720e+01   3.3933730426e+01     0.271659    0.1347488 -45.21  0.000943032    2.132    0.531
       452  -9.8326     82.2422     72.6089   9.4450753215e+01   5.1595464787e+01    0.4475753    0.2918271 -70.72 0.0009530354    2.055    0.513
       453  -8.7747    115.7418     72.8179   8.4488754621e+01   4.5188109898e+01    0.2973356    0.1980918 -50.31 0.0008678308    1.542    0.352
       454  -8.1624     42.5074     72.9919   1.0799450163e+02   5.6912958529e+01    0.1957405    0.1108708 -62.57 0.0005384045    1.540    0.350
       455  -7.5973    175.5217     72.5569   7.0335569415e+01   3.1071402115e+01    0.1507314    0.1502814  28.46 0.0001299898    1.012    0.012
       456  -9.4773     95.0683     70.9293   8.9923343406e+01   4.9687572737e+01    0.4703418    0.2541195 -60.89  0.001034502    2.492    0.599
       457  -9.5797     97.7596     60.1213   8.5599376644e+01   5.1337537592e+01    0.4873185    0.3084469 -32.19  0.001773719    1.640    0.390
       458  -9.5443     51.6226     70.0983   1.0407902825e+02   5.6528541206e+01    0.4636424     0.249727 -74.87  0.001506255    2.605    0.616
       459  -9.0455     28.6782     70.4985   1.1234243356e+02   5.8793353234e+01    0.2997418    0.1627063 -38.66  0.001519678    2.018    0.504
       460  -9.0741     16.6243     70.2743   1.1660638906e+02   5.9776037208e+01    0.2629289    0.1695808 -88.39 0.0008950281    1.612    0.380
       461  -8.7211    147.0019     68.4345   7.5157281824e+01   3.8857234495e+01     0.289736     0.205411 -51.43 0.0004529667    1.534    0.348
       462  -9.1583    138.4984     66.0732   7.6419576845e+01   4.1322770000e+01    0.4026798     0.221129 -50.69  0.001223232    2.103    0.525
       463  -8.7603    121.5156     65.9975   8.0733928212e+01   4.5249053172e+01    0.3221577    0.2319742 -51.99 0.0007373476    1.485    0.327
       464  -8.4380    121.2930     62.3106   7.9575434357e+01   4.5984149169e+01    0.2065661    0.1793988 -74.39 0.0003545868    1.347    0.258
       465  -8.7881     37.1999     64.1820   1.0778744879e+02   5.9411006030e+01    0.2992332    0.1976131 -89.47  0.001043212    2.018    0.505
       466  -9.0321    110.0990     63.6088   8.3111892734e+01   4.8167413617e+01    0.3252544    0.2280376 -53.44 0.0007746809    1.545    0.353
       467  -7.4976    187.6615     63.3582   6.5351824795e+01   2.9460833340e+01    0.1651362    0.1143557 -64.77 0.0007038782    1.816    0.449
       468  -7.7737    151.4731     73.5470   7.5720838290e+01   3.6862301509e+01     0.153623    0.1485539 -75.56 0.0008069451    1.079    0.073
       469  -8.0812    158.2438     61.9426   7.0604657209e+01   3.7182275757e+01    0.2137993    0.1936347 -32.89 0.0003444182    1.106    0.096
       470  -9.7242     73.2908     59.2465   9.3296492840e+01   5.5840791946e+01     0.505129      0.23092 -54.64  0.001391627    2.317    0.568
       471  -8.3137     75.1260     51.6885   9.0101037947e+01   5.7060163271e+01    0.3370609     0.189996  12.76  0.001218631    3.732    0.732
       472  -8.2208     88.8537     59.8123   8.8292404347e+01   5.3077556504e+01    0.1875348    0.1652508 -69.63 0.0004422803    1.293    0.226
       473  -9.4489    105.8746     71.6798   8.6932629916e+01   4.7448308184e+01    0.3861254    0.2075649 -51.86  0.001324458    1.977    0.494
       474  -7.6767    146.8022     59.0634   7.2183268401e+01   4.0520945102e+01    0.2060076    0.1192807 -34.89 0.0005147452    1.719    0.418
       475  -9.8097     23.4680     56.5115   1.1115809441e+02   6.2311668422e+01    0.4346172    0.2499925  87.57  0.002100217    2.686    0.628
       476  -8.5058    130.8440     58.1213   7.5681527705e+01   4.4541503642e+01    0.2305835    0.2021373 -63.23 0.0005022727    1.269    0.212
       477  -9.2948      7.4345     57.2325   1.1758401596e+02   6.3233228538e+01    0.2725063     0.174217  89.70 0.0009638533    1.691    0.409
       478  -9.4788    119.1409     55.3333   7.7771861852e+01   4.7727149374e+01     0.485971    0.2459154 -43.71  0.001343502    2.005    0.501
       479  -9.5476     54.3816     55.6411   9.8959926791e+01   5.9301309014e+01    0.3546871     0.212436 -66.58   0.00138941    2.020    0.505
       480  -8.7393    139.8877     56.1725   7.2819346838e+01   4.2705411571e+01    0.2356648     0.204511 -63.17 0.0005697724    1.283    0.220
       481  -8.8543     44.0398     55.4227   1.0282959099e+02   6.0590181964e+01    0.2753683    0.1612099 -63.94  0.001052475    1.732    0.423
       482  -8.5170    105.5600     53.3288   8.0891345448e+01   5.1037220965e+01    0.2941751    0.2185349 -69.55 0.0008058332    1.859    0.462
       483  -9.5126     92.3561     50.7133   8.3990882590e+01   5.4169012196e+01    0.4182628    0.2356554 -50.83  0.001107157    1.954    0.488
       484  -7.8591    216.7009     50.6574   5.7199518393e+01   2.3937366172e+01     0.149149    0.1100838  21.79 0.0004056028    1.671    0.402
       485  -8.4749    144.5580     49.0388   6.9315852291e+01   4.2708645308e+01    0.2313012    0.1469366 -33.95 0.0004986803    1.569    0.363
       486  -8.3740    129.7224     49.1843   7.2860719755e+01   4.6320723449e+01    0.2360699     0.182839 -52.19 0.0005877224    1.423    0.297
       487  -7.6711    149.7318     48.6853   6.8062648687e+01   4.1458603082e+01    0.1528012    0.1166638  17.90 0.0002078053    1.551    0.355
       488  -8.6119    120.9153     47.5977   7.4542429432e+01   4.8651154355e+01    0.2662141    0.2058356 -38.25 0.0005737431    1.288    0.224
       489  -8.4832    112.1738     46.8248   7.6630354285e+01   5.0756488969e+01    0.2576699    0.1864164 -46.56 0.0006779003    1.454    0.312
       490  -9.1932     82.0184     46.2877   8.5761907476e+01   5.6906686341e+01     0.338172    0.1862195 -42.60  0.001089598    1.704    0.413
       491  -8.4315     45.0897     44.7772   9.9065068812e+01   6.2683747532e+01    0.2121303    0.1558056 -59.75 0.0005223526    1.376    0.273
       492  -9.0565     16.5665     44.8608   1.1107459000e+02   6.5328559566e+01    0.2078398    0.1681269  88.29 0.0007194445    1.468    0.319
       493  -8.7569    132.7689     43.4078   7.0048782624e+01   4.6505613723e+01    0.3064167     0.232722 -66.84 0.0007056213    1.674    0.403
       494  -8.5806     92.8674     43.1705   8.1008192751e+01   5.5428988790e+01    0.2757607    0.1803654 -10.09  0.001091452    2.068    0.516
       495  -8.9915     58.1456     42.6006   9.3093056966e+01   6.1428712886e+01    0.3298636    0.2026504 -64.49  0.001258576    2.297    0.565
       496  -9.3578     69.6669     41.7836   8.8423355880e+01   5.9842943469e+01    0.3683157    0.2542884 -66.72  0.001039141    2.145    0.534
       497  -9.3243      5.1823     42.0312   1.1529708065e+02   6.6627085023e+01    0.3069938    0.1733672 -84.66  0.001338495    2.088    0.521
       498  -7.6041    191.0060     42.0171   5.8383558079e+01   3.1661520592e+01    0.1753445    0.1705655 -46.17 0.0009694739    1.023    0.023
       499  -9.2337    105.9068     40.9748   7.6202807855e+01   5.3103913793e+01    0.3793958    0.1845929 -41.51  0.001036215    2.065    0.516
       500  -8.4829     36.8069     40.9130   1.0120931446e+02   6.4386585965e+01    0.2159999    0.1588615 -67.14 0.0006602418    1.519    0.342
       501  -8.7303     95.4264     38.2051   7.8260388390e+01   5.5762269129e+01    0.2565255     0.201547 -59.75 0.0007363654    1.592    0.372
       502  -8.2022     80.7107     36.6204   8.2444980514e+01   5.8871568011e+01    0.2231375    0.1569046 -53.40 0.0006460354    1.682    0.405
       503  -9.6307     26.0718     35.0494   1.0395740335e+02   6.6607351044e+01    0.3840549    0.2096932 -59.72  0.001099887    1.695    0.410
       504  -7.9040    133.5249     36.4767   6.7333469848e+01   4.7357009882e+01    0.1469157    0.1438487  22.04 0.0001506744    1.023    0.023
       505  -8.1896    125.9851     35.7177   6.8835107774e+01   4.9312042216e+01    0.2005475    0.1879542  40.76 0.0003449227    1.052    0.049
       506  -8.5978    111.8801     34.8113   7.2117264024e+01   5.2753466161e+01    0.2643439    0.1759386 -55.55 0.0006025839    1.941    0.485
       507  -7.9727    140.4620     41.5138   6.7593120276e+01   4.4887761167e+01    0.1480189    0.1464756  21.66   2.2307e-05    1.025    0.024
       508  -7.8127     88.5353     34.5098   7.8959143365e+01   5.7747170266e+01    0.1386557    0.1283979 -14.38 0.0001167188    1.035    0.034
       509  -8.9932     48.4657     33.2416   9.3443599320e+01   6.4520362969e+01    0.2790652    0.1993365 -51.88 0.0008436091    1.405    0.288
       510  -8.1557    119.2079     33.2435   6.9571497136e+01   5.1290668604e+01    0.1983033    0.1675978 -55.64 0.0004937605    1.355    0.262
       511  -8.7570     60.6826     32.4969   8.8150774784e+01   6.2940438339e+01    0.2758728    0.1884122 -49.58 0.0009039626    1.526    0.345
       512  -8.7571     71.9942     31.1496   8.3275979451e+01   6.1346447158e+01    0.2577652     0.177341 -47.44  0.000736287    1.554    0.356
       513  -7.5134    139.3208     31.6845   6.4271404303e+01   4.6573370772e+01    0.1526148    0.1143644 -65.69 0.0007040659    1.658    0.397
       514  -8.9957     12.9112     30.5142   1.0862367550e+02   6.8549312577e+01    0.2517659    0.1511847 -68.14  0.001025824    1.677    0.404
       515  -8.0192    101.2485     29.2746   7.2864276677e+01   5.5940391534e+01    0.1874255    0.1630354 -55.06 0.0007016811    1.351    0.260
       516  -7.8391     42.2592     29.6630   9.4690852458e+01   6.5963503795e+01    0.1147604   0.09477419 -68.40 0.0003329917    1.579    0.367
       517  -8.7113     81.4503     27.4429   7.8330487664e+01   6.0242610085e+01    0.2661309    0.2140813 -65.37 0.0008905281    1.740    0.425
       518  -8.9798      3.6274     27.6596   1.1227547719e+02   6.9686193258e+01    0.2134087    0.1509825 -76.64 0.0007871428    1.518    0.341
       519  -7.7595    110.0000     27.0233   6.9484064544e+01   5.4315579623e+01    0.2341733    0.0797521 -29.85  0.000799204    2.920    0.658
       520  -8.8634     91.9044     26.5058   7.4509085465e+01   5.8321853249e+01    0.2599989    0.1804695 -45.55 0.0007966063    1.607    0.378
       521  -8.3598    104.5406     22.7952   6.9197592870e+01   5.6130716857e+01    0.1892849    0.1277115 -39.13 0.0005234252    1.552    0.356
       522  -8.0312     34.4105     23.2137   9.5609184098e+01   6.8056535889e+01    0.1668505    0.1046768 -54.52 0.0005067462    1.659    0.397
       523  -9.0723     63.5836     21.0903   8.1999262069e+01   6.4400786243e+01    0.3157902    0.1928838 -45.81  0.001063793    1.782    0.439
       524  -8.9717     48.3115     21.8143   8.8665401940e+01   6.6585274399e+01    0.2233084    0.1988719 -50.85 0.0006159599    1.361    0.265
       525  -8.0438    120.6146     20.8420   6.4273999230e+01   5.2629304494e+01    0.2135712    0.1223996 -38.80 0.0008776833    1.830    0.454
       526  -8.9171     74.1751     19.7449   7.7403938174e+01   6.2765168674e+01    0.2779679    0.1863127 -48.78 0.0007157172    1.826    0.452
       527  -7.9584     19.5247     21.5079   1.0219938816e+02   6.9816503932e+01    0.1176627   0.09444041 -40.46 5.374495e-05    1.045    0.043
       528  -8.3559     87.7212     17.4122   7.1768146851e+01   6.0463776341e+01    0.2409892    0.1498767 -37.30 0.0005564417    1.644    0.392
       529  -8.1154     38.5438     18.0899   9.1394822712e+01   6.8484469859e+01    0.1884046    0.1041487 -42.89 0.0009057607    1.574    0.365
       530  -7.7629    112.9428     17.0104   6.4536160726e+01   5.4933956229e+01    0.1691711    0.1569184  20.17  0.000394053    1.004    0.004
       531  -8.2722    218.7991    248.4982   9.8317530289e+01  -3.1159510707e+00    0.1567456    0.1418652 -49.94 0.0008683855    1.849    0.459
       532  -7.9347     17.1279     14.2137   1.0045754423e+02   7.1372062327e+01    0.1425627    0.1282792 -56.70 0.0006409244    1.355    0.262
       533  -7.5334    119.7248     11.3299   6.0548763908e+01   5.3951135105e+01    0.1396808    0.1066482 -56.42 0.0006632651    1.593    0.372
       534  -7.5943     83.6720     11.3078   7.0175742619e+01   6.2077852862e+01    0.1272264    0.1055615 -61.81 0.0007038501    1.657    0.397
       535  -8.9996    175.5937    247.6252   1.0520098945e+02   3.3510316667e+00    0.2482009    0.1829118  67.89  0.001178671    1.921    0.480
       536  -8.2643    113.1044    248.6582   1.1573597480e+02   1.2419517481e+01    0.1684153    0.1241697  76.91 0.0007807106    1.467    0.318
       537  -9.2046    103.8954    247.1152   1.1713852590e+02   1.3919992155e+01    0.3417357    0.1909014  84.63  0.001709572    2.583    0.613
       538  -8.5610      7.5081     15.5190   1.0620475534e+02   7.1843019967e+01    0.1933579   0.09910578 -66.95 0.0007931282    2.265    0.558
       539  -9.0778    242.5681    247.3256   9.4468814386e+01  -6.3403946681e+00    0.2063019     0.156491  -9.52 0.0009382606    1.437    0.304
       540  -9.0310    233.2413    246.4280   9.5777547072e+01  -4.9713438023e+00    0.3546704     0.188287 -10.07  0.001998475    2.444    0.591
       541  -8.5337    156.2706    248.1708   1.0847340442e+02   6.1849493133e+00    0.1946791    0.1097859  56.76 0.0005477667    1.883    0.469
       542  -8.7971    132.2510    247.7524   1.1244999511e+02   9.7938028447e+00    0.2460871    0.1373434  59.80 0.0007775697    1.849    0.459
       543  -9.9301    223.9577    244.1360   9.6913582038e+01  -3.4416628035e+00    0.3393386    0.2051312 -40.59  0.002267641    2.426    0.588
       544  -8.7761    169.3002    243.5791   1.0576982536e+02   4.7751436691e+00    0.2142519    0.1725084  71.59 0.0006818228    1.658    0.397
