#   1 NUMBER                 Running object number                                     
#   2 MAG_AUTO               Kron-like elliptical aperture magnitude                    [mag]
#   3 X_IMAGE                Object position along x                                    [pixel]
#   4 Y_IMAGE                Object position along y                                    [pixel]
#   5 X_WORLD                Barycenter position along world x axis                     [deg]
#   6 Y_WORLD                Barycenter position along world y axis                     [deg]
#   7 A_WORLD                Profile RMS along major axis (world units)                 [deg]
#   8 B_WORLD                Profile RMS along minor axis (world units)                 [deg]
#   9 THETA_WORLD            Position angle (CCW/world-x)                               [deg]
#  10 FWHM_WORLD             FWHM assuming a gaussian core                              [deg]
#  11 ELONGATION             A_IMAGE/B_IMAGE                                           
#  12 ELLIPTICITY            1 - B_IMAGE/A_IMAGE                                       
         1 -14.6561     68.4274    144.6988   9.6720337898e+01   3.7360680442e+01     4.865859     2.557796  80.44  0.002634547    4.791    0.791
         2 -12.7047      2.0000     80.0452   1.0756614635e+02   5.9936816646e+01      1.33889    0.1295878 -66.08  0.003549493    6.283    0.841
         3 -13.8044    207.4192     43.8231   3.8563902658e+01   2.8696256104e+01     1.364061     1.155588  23.26  0.005453108    1.743    0.426
         4 -13.4964    215.2453     39.1688   3.6666061535e+01   2.7623974315e+01     1.004612    0.6662356 -57.43  0.003843874    1.323    0.244
         5 -13.9792    235.0874     21.4516   3.1186516472e+01   2.5730583648e+01     1.562209     1.128425  33.71  0.006531596    2.544    0.607
         6  -9.9702    250.4389      2.7562   2.6653681506e+01   2.4866397443e+01    0.2639067    0.1045718 -38.97  0.001470868    2.197    0.545
         7 -10.0268      2.3898      2.7861   8.1849173702e+01   7.4514374492e+01    0.1588527   0.07862133 -28.94 0.0009569387    1.717    0.418
         8 -10.0169    111.2821    204.2422   9.5252491606e+01   1.5887006131e+01    0.2826909    0.1757935 -86.54  0.001163401    2.518    0.603
         9 -12.9546     83.3943    216.9660   1.0367267713e+02   1.7273617514e+01     1.431143    0.8092199  74.62  0.001540672    2.506    0.601
        10 -14.9967      9.2375    207.7978   1.1965734225e+02   2.8199420751e+01     2.149173     1.300411 -84.32  0.009847321    1.408    0.290
        11 -16.1883     33.5313    187.8683   1.1242244474e+02   3.0550649133e+01     9.823582     3.881814  72.53    0.0309986    4.580    0.782
        12 -10.8209    111.1938    173.3718   9.0030717890e+01   2.3199188373e+01    0.3397934    0.1377002  40.14  0.001206163    2.411    0.585
        13 -11.8825     71.9518    161.3429   9.8636577124e+01   3.2533452122e+01     0.410565    0.3594455 -64.95 0.0003860864    1.081    0.075
        14 -12.8789     79.4444    155.1504   9.5402773955e+01   3.3025556959e+01     1.001203    0.7137815 -50.21  0.001304979    1.369    0.269
        15 -13.6519     10.9917    232.4139   1.2077346252e+02   2.2604912580e+01    0.8870255    0.5576651  89.13  0.001370512    1.365    0.268
        16 -13.2406     25.7203    201.7726   1.1554898016e+02   2.8007399452e+01    0.5413606    0.4093413 -43.29  0.001095255    1.702    0.412
        17  -9.0373    110.5412    167.4908   8.9089067219e+01   2.4757404956e+01    0.1531478    0.1468814  83.85 0.0002527138    1.054    0.051
        18 -12.3169     35.3957    159.3308   1.0870007241e+02   3.7578360048e+01    0.7051557    0.3708153  72.04  0.001833204    2.479    0.597
        19 -13.5410     58.7559    156.5596   1.0163350658e+02   3.5579903798e+01    0.7980617    0.4413673 -56.03  0.002142078    1.661    0.398
        20  -9.4662    174.5148    149.0293   6.9361104884e+01   1.6777877624e+01    0.2341907    0.1438042 -45.88 0.0007466175    1.556    0.357
        21 -11.9350     21.8738    147.5916   1.1108015960e+02   4.1887484177e+01    0.4454898    0.3159743  29.70  0.001716628    1.603    0.376
        22 -10.2225    133.9220    146.1212   7.8393265739e+01   2.5569937444e+01    0.9250224    0.2215645 -55.56  0.001627343    9.473    0.894
        23  -9.7501    146.2885    143.6136   7.4686490032e+01   2.3672245599e+01     0.253614     0.148561 -51.70 0.0004714121    1.723    0.420
        24  -9.1922    144.4914    140.5628   7.4420108209e+01   2.4739864587e+01    0.2337002    0.1505841 -58.33 0.0001250807    1.720    0.418
        25 -10.5267     95.0641    141.6713   8.8155103856e+01   3.3945214932e+01    0.3438785    0.3182391 -21.13 0.0009010769    1.154    0.133
        26  -9.7867     98.3035    138.3954   8.6488026459e+01   3.4206580501e+01    0.3508438     0.246656 -20.59 0.0009964915    1.919    0.479
        27 -12.3807     82.9898    139.7800   9.1345799494e+01   3.6435669587e+01    0.3354187     0.288356 -49.19 0.0003960417    1.120    0.107
        28 -10.8374    106.7400    130.7805   8.2271081546e+01   3.4560878910e+01    0.4127417     0.350354  17.95  0.001229219    1.307    0.235
        29 -16.0148     23.6706    245.7112   1.1907119353e+02   1.8544730924e+01     9.534152     2.713597  24.19   0.02813375    7.837    0.872
        30  -9.8641     94.2545    126.5075   8.4964348695e+01   3.7893967341e+01    0.2673291    0.2384193 -39.00 0.0006052714    1.104    0.094
        31 -12.1010     66.1346    127.2979   9.3981000142e+01   4.2183312239e+01    0.6076175    0.4590744  82.73  0.002138919    1.648    0.393
        32  -9.9474    161.5511    118.8952   6.5072008503e+01   2.5934181081e+01    0.6208323    0.3282626 -67.49  0.001788561    4.308    0.768
        33  -9.8342    105.1214    119.1042   7.9874010881e+01   3.7698109791e+01    0.2255554    0.2163997 -32.37 0.0003511313    1.025    0.025
        34  -9.3000    135.0000    111.9968   6.9700566436e+01   3.3209140444e+01     0.262512   0.08812489 -44.91 0.0007981231    2.913    0.657
        35 -10.0725    205.1911    110.5994   5.4466152090e+01   1.8275504950e+01    0.3033337    0.2502424  32.43  0.001150035    1.459    0.315
        36 -12.0756     61.5050    170.3558   1.0296885077e+02   3.1648189553e+01    0.3590083     0.308798 -23.66  0.001188738    1.414    0.293
        37  -9.6133     64.6068    101.8270   8.8559439701e+01   4.8728381831e+01    0.2026459    0.1366476 -65.05 0.0003508361    1.635    0.388
        38 -10.0632    241.6421     99.3242   4.6552786900e+01   1.3170704417e+01    0.1381103   0.08920837 -66.35 6.492601e-07    1.773    0.436
        39 -11.2110     53.2839     91.8779   9.0069439902e+01   5.2628603051e+01    0.6747567    0.1936259 -55.93  0.002180218    3.335    0.700
        40 -10.3984     43.2077     90.9687   9.3646184251e+01   5.4066781144e+01    0.4076009    0.2546807 -23.43 0.0009326299    1.847    0.459
        41  -9.7389    173.1789    242.9300   8.7404740901e+01  -1.4404261778e+00     0.181407    0.1714837  39.44   0.00121042    1.312    0.238
        42 -10.5516     56.7266     76.1022   8.4249995389e+01   5.5674109132e+01    0.4572655    0.2659924  57.68   0.00180142    3.194    0.687
        43 -10.7778     13.4282     60.1624   9.7985503676e+01   6.3648779216e+01    0.2250217    0.1880812 -34.72 0.0004516972    1.052    0.050
        44 -10.8071    192.7337    194.2413   7.4910131562e+01   4.2657349195e+00    0.8604324    0.4385989 -63.35  0.002405929    6.371    0.843
        45  -9.4957     99.4472    180.9661   9.4463712291e+01   2.3316733673e+01    0.2252061    0.1973753  40.33 0.0005388343    1.137    0.120
        46 -12.6385    222.8161     32.1583   3.4409884048e+01   2.6927142491e+01     0.542017    0.3754695  50.31  0.001326187    1.887    0.470
        47  -9.7251     11.6651     53.3065   9.6850667872e+01   6.5185311742e+01    0.1094043    0.0955937  62.42 0.0007040537    1.670    0.401
        48  -9.6626     27.9178     52.2296   8.8788169767e+01   6.4006976876e+01    0.1714429    0.1595484  -7.06 0.0004061586    1.225    0.184
        49 -12.0954     55.6989    175.6608   1.0528599927e+02   3.1040925075e+01    0.4697042    0.3199802 -28.83  0.001928185    2.047    0.511
        50 -10.7674    127.3407     35.0339   4.8548351629e+01   4.8521653754e+01    0.2645522    0.2223173 -72.12  0.000446008    1.341    0.254
        51 -10.0896    129.9455     29.6208   4.6286287179e+01   4.8557210086e+01    0.2098347     0.188355 -53.41 0.0003476691    1.213    0.176
        52  -9.0715     73.6538     88.3519   8.1662067848e+01   5.0437612939e+01    0.1481219    0.1180791  80.64 0.0007039058    1.820    0.451
        53  -9.7994    189.6195     15.5142   3.3889258121e+01   3.6115144912e+01    0.2209695    0.1428248 -41.03 0.0009267552    1.556    0.357
        54  -9.4731    187.8164    175.9997   7.2310689726e+01   8.6679142532e+00    0.2334997    0.1742676 -72.35  0.001090155    2.036    0.509
