#   1 NUMBER                 Running object number                                     
#   2 MAG_AUTO               Kron-like elliptical aperture magnitude                    [mag]
#   3 X_IMAGE                Object position along x                                    [pixel]
#   4 Y_IMAGE                Object position along y                                    [pixel]
#   5 X_WORLD                Barycenter position along world x axis                     [deg]
#   6 Y_WORLD                Barycenter position along world y axis                     [deg]
#   7 A_WORLD                Profile RMS along major axis (world units)                 [deg]
#   8 B_WORLD                Profile RMS along minor axis (world units)                 [deg]
#   9 THETA_WORLD            Position angle (CCW/world-x)                               [deg]
#  10 FWHM_WORLD             FWHM assuming a gaussian core                              [deg]
#  11 ELONGATION             A_IMAGE/B_IMAGE                                           
#  12 ELLIPTICITY            1 - B_IMAGE/A_IMAGE                                       
         1 -13.4021    178.5224    100.4424   2.3327185820e+01   2.5541717315e+01     2.858593     1.534506 -19.84  0.008261988    3.427    0.708
         2 -15.2514    217.5732    106.9044   1.8899272680e+01   1.6858886028e+01     7.467166     5.194689  22.26   0.02676712    2.094    0.522
         3 -13.4979    234.5818     53.4372   5.2499369918e+00   2.1388269216e+01     2.833089      1.72094  13.65  0.009573299    5.317    0.812
         4 -14.7138    241.0622     45.8306   3.0940087284e+00   2.1152010052e+01      4.81727     1.208673 -38.17   0.02043609    2.632    0.620
         5 -13.7275    218.5701     27.7362   6.0740196766e-01   2.7761606222e+01     3.369302     1.977341  -8.12   0.01562011    3.115    0.679
         6 -11.4903    200.0631     17.1630   3.5929195240e+02   3.2972610425e+01    0.7639953    0.5132332 -73.76  0.003505565    1.308    0.235
         7 -13.8110    232.6980     78.4745   1.0913611117e+01   1.8344271633e+01     1.771417    0.9286628 -34.93  0.004542231    1.584    0.369
         8  -8.4584     96.2328     12.1038   9.9282627880e+00   5.9767791843e+01    0.2028699    0.1816897  54.40 0.0004844579    1.138    0.121
         9 -14.5420    243.1329    121.4676   1.8667978609e+01   1.0506523998e+01     2.957514    0.6239259 -40.39  0.007128108    3.702    0.730
        10  -9.1806    220.5208     10.3964   3.5644903378e+02   2.9304363122e+01    0.2277709    0.2032948 -82.33  0.001036652    1.283    0.221
        11  -9.1938    120.3875      9.6242   4.7137544876e+00   5.3655130262e+01    0.3003026    0.2600122 -47.94  0.001048714    1.191    0.160
        12 -10.4443    182.5274      3.7175   3.5689807869e+02   3.8431688800e+01    0.4114885    0.2570643 -75.67  0.002294752    1.384    0.278
        13 -10.0169    216.5909      2.1107   3.5471331272e+02   3.0977434136e+01       0.2107    0.1822999 -78.22 0.0004254977    1.239    0.193
        14 -10.4607    235.3474      2.6986   3.5407611422e+02   2.7129641051e+01    0.4941571    0.2156586  63.52  0.002608841    2.843    0.648
        15  -9.1766    247.1032      1.7581   3.5345258893e+02   2.4998657095e+01    0.2160578    0.1321326  77.29  0.001430345    1.854    0.461
        16  -8.4873    104.0984      1.6331   3.7957925003e+00   5.8684383141e+01    0.1899504    0.1570327  78.04 0.0007097875    1.066    0.062
        17  -7.6767    229.3156    197.7706   3.4408374809e+01   1.8594899758e+00    0.0888954   0.08364247  15.84 0.0002107791    1.495    0.331
        18  -9.3090    248.8218    249.5881   3.9170744686e+01  -6.0358804245e+00    0.1586933    0.1198301 -42.86  0.001241093    2.453    0.592
        19  -8.9322    179.7061    195.6394   4.2508549154e+01   8.6630476075e+00     0.227016    0.1998681 -16.93 0.0009946087    1.124    0.110
        20  -9.0727     30.6116    195.0899   7.7774315002e+01   2.9832491887e+01    0.2153166    0.1715131  30.72 0.0003503745    1.277    0.217
        21  -9.4738    226.0001    190.7342   3.3761480175e+01   3.1859432126e+00    0.2024579    0.1979388  11.91 0.0008600735    1.520    0.342
        22  -9.5937    237.2098    227.7054   3.7809108383e+01  -2.6227944067e+00    0.3876826    0.2252252  46.72  0.002261582    3.444    0.710
        23 -13.9026    246.3190    149.0488   2.3524243973e+01   6.2188554561e+00     2.650956     2.473027 -46.99   0.01185899    1.386    0.279
        24  -7.8587      1.6859    226.6578   8.6095853812e+01   2.5809194703e+01    0.1016918   0.08793898 -41.20  0.000704742    1.706    0.414
        25  -9.5320    248.9470    177.9494   2.8280641088e+01   2.0783129703e+00    0.2004877    0.1595447  -8.66 0.0003067374    1.083    0.077
        26  -9.0017    236.6170    185.6032   3.1310631539e+01   2.5649412231e+00    0.2585213    0.1328043 -42.63   0.00148556    2.081    0.520
        27  -9.0331    181.6999    182.7525   3.9960220401e+01   1.0445811194e+01    0.3153048    0.2441983 -10.59  0.001438973    1.285    0.222
        28  -9.8628    229.4081    181.6696   3.1711871585e+01   3.9798510420e+00     0.196029    0.1672178 -18.89  0.001456612    1.170    0.145
        29 -11.0759    185.7093    169.0030   3.6744433176e+01   1.2105242626e+01    0.8926705    0.5724326  60.22  0.004356847    2.524    0.604
        30 -11.7303    204.4996    169.1642   3.3459100544e+01   9.2079229356e+00    0.9328195    0.5492043 -43.11  0.005159263    1.695    0.410
        31  -9.8676    179.9517    175.6007   3.9027571508e+01   1.1900276953e+01    0.2821327    0.2406689 -34.44  0.001195799    1.183    0.155
        32  -8.7316    105.1861    175.1174   5.5714790548e+01   2.4253971277e+01    0.3046708    0.2240925 -31.18  0.001361638    1.715    0.417
        33  -7.6148     44.2049    172.9817   7.2295226185e+01   3.3574991206e+01    0.1734838    0.1066229 -78.43 0.0003423419    1.645    0.392
        34  -9.9222    188.2292    164.2194   3.5388079289e+01   1.2505632596e+01    0.4119518    0.3671893 -33.84  0.001786912    1.141    0.124
        35 -12.2986    196.1286    171.3121   3.5290865265e+01   1.0121026571e+01    0.5453847    0.3752788 -45.74  0.001790236    1.555    0.357
        36  -9.3918    222.1771    163.0720   2.9508904744e+01   7.5668064833e+00    0.3058352    0.2660917 -89.30  0.001118907    1.883    0.469
        37  -9.3770    197.0116    159.3527   3.2901750968e+01   1.1912400740e+01    0.4220343    0.2511533 -40.43  0.001935538    1.578    0.366
        38 -10.8566    191.0452    152.3830   3.2593261859e+01   1.4038736820e+01    0.5024679    0.4758216  38.14  0.001006212    1.194    0.162
        39  -8.0106     32.6749    223.2680   7.8889584930e+01   2.3487212634e+01    0.1331502   0.06683323  51.45 0.0005189354    1.570    0.363
        40 -13.1245    200.5332    108.1890   2.1606428594e+01   1.9796010515e+01     1.993281    0.8154286  56.09  0.008276192    2.896    0.655
        41  -8.7910    203.5089    152.0269   3.0383075418e+01   1.2065543911e+01    0.2577346    0.2379107 -50.25  0.001309939    1.260    0.207
        42  -9.2897    200.4271    146.7371   2.9851057022e+01   1.3424332163e+01    0.5021293    0.2019773 -49.75  0.001873372    3.112    0.679
        43  -7.9010    225.6156    219.2751   3.8332928985e+01  -4.1199593133e-01    0.1281196    0.1235847  -5.58 0.0004734401    1.677    0.404
        44 -12.9933    249.8339    115.1600   1.6647678442e+01   1.0383162490e+01    0.8524767    0.3049814 -39.65 0.0008002775    2.164    0.538
        45  -7.9210     28.6753    148.2450   7.4700102047e+01   4.1664764782e+01    0.2093864    0.1222691   8.17 0.0008036625    2.316    0.568
        46 -10.5575     68.1782    143.9968   6.1325571157e+01   3.7694590511e+01    0.7993832    0.4586526  65.22  0.003246132    2.091    0.522
        47  -9.8889    213.6015    143.2899   2.7048386883e+01   1.1842956722e+01    0.3779418    0.2345564 -20.94  0.001277198    1.739    0.425
        48 -10.3216    192.9102    143.5773   3.0494649020e+01   1.5216490553e+01    0.4296528    0.3014581  25.86  0.001309638    1.643    0.391
        49  -8.3193     82.0338    145.0043   5.7196980806e+01   3.5226455938e+01    0.2269923    0.2041385 -89.62 0.0005303478    1.096    0.087
        50 -10.6712     16.6411    134.3083   7.7503051351e+01   4.6523623593e+01    0.2661588    0.2449025  57.56  0.000197208    1.109    0.098
        51 -12.8076      5.8892    121.0327   8.0327883606e+01   5.0921070597e+01     2.251266     1.772458 -10.05  0.008617484    1.580    0.367
        52 -11.8951     60.7632    116.3983   5.8893218820e+01   4.6100081203e+01     1.737562     1.465644  56.33  0.008954206    1.144    0.126
        53 -12.2103     39.7257    118.1772   6.7067717101e+01   4.8526442632e+01     1.064373    0.7346427 -58.29  0.003135898    1.440    0.306
        54 -11.4265     31.4996    118.9144   7.0322301167e+01   4.9266279076e+01    0.5643809      0.42862  23.36  0.001375722    1.435    0.303
        55 -10.9437    136.5275    128.2211   3.8708230553e+01   2.8892639203e+01    0.6274293    0.3591119 -58.18  0.002591988    1.987    0.497
        56 -10.5638    134.5522    121.3512   3.7580301256e+01   3.0781520313e+01    0.7672284    0.4617481 -20.69  0.002700584    3.181    0.686
        57 -10.0652    149.8750    126.6659   3.5267181422e+01   2.6498464005e+01     0.354683    0.2577206 -53.67  0.001020896    1.398    0.285
        58  -9.6475    151.8421    122.8217   3.3941866543e+01   2.6877093308e+01    0.2681361    0.2162688 -45.46 0.0009966645    1.206    0.171
        59  -9.0206    250.4352    186.9103   2.9574675889e+01   7.8536140953e-01    0.3093365    0.1156662 -39.86  0.001071632    2.538    0.606
        60 -11.4441    159.7678    114.6961   3.0333073230e+01   2.6842235751e+01    0.6447001    0.5251216 -56.49  0.001556663    1.222    0.182
        61  -9.7443    159.4835    110.0196   2.9250943794e+01   2.7811809241e+01    0.2700616    0.2577748 -72.03  0.000786581    1.033    0.032
        62 -11.4955    159.6743    104.1596   2.7750787335e+01   2.8901421052e+01    0.6918768    0.4650323 -51.19    0.0011179    1.450    0.311
        63  -7.9757    199.1321    219.0888   4.2653911554e+01   2.6807339724e+00    0.1356433    0.1218175  -0.94 0.0003833882    1.273    0.214
        64  -9.9792    122.4213    104.6609   3.6454019323e+01   3.7044001980e+01    0.4324897    0.3206465  66.76  0.001853693    1.477    0.323
        65  -9.4176    143.8813    103.2823   3.0871125561e+01   3.2560482680e+01    0.3651471    0.2612139  68.89 0.0008326849    1.596    0.373
        66 -11.7316     47.6301    120.2449   6.4434489525e+01   4.6959556277e+01    0.8153206    0.6137625 -66.97  0.002540894    1.285    0.222
        67 -10.1840    134.9886    106.6291   3.3809342033e+01   3.3840921313e+01      1.17058    0.2944093 -43.35  0.003226181    4.027    0.752
        68 -11.3905    243.6857    179.7006   2.9303596909e+01   2.4795537623e+00    0.3971945    0.3334628  87.85 0.0006194552    2.621    0.619
        69  -7.8192     93.4919    112.9955   4.6969009721e+01   4.1176313632e+01    0.2121061    0.1534094 -57.19 5.347082e-05    1.384    0.277
        70  -8.1128     68.0201     94.6101   5.1153146699e+01   5.0582798504e+01    0.2071722    0.1867454  51.51  0.001068916    1.101    0.092
        71  -8.0374    154.2365     94.2471   2.6274987151e+01   3.2010863575e+01    0.1990338    0.1628337 -72.29 0.0003315315    1.279    0.218
        72 -10.1931    194.3703     89.9699   1.8262400888e+01   2.4018976001e+01    0.4948205    0.2255466 -35.96  0.001539149    2.008    0.502
        73  -7.3635    149.6490     89.6945   2.5984123792e+01   3.3933606467e+01    0.1493358    0.1213791  15.02 0.0004523455    1.706    0.414
        74  -9.7281    150.1139    111.2403   3.1521824396e+01   2.9582074433e+01    0.3264322     0.257523  40.73 0.0007546108    1.368    0.269
        75  -7.9399    120.0929     81.8715   3.0578554734e+01   4.2452919363e+01    0.1896656    0.1803307  31.07            0    1.208    0.172
        76  -8.1931    135.9293     81.2979   2.6564282067e+01   3.8788353775e+01    0.2058162    0.1935312  80.96 0.0004303693    1.056    0.053
        77 -10.9390    206.4958     68.3656   1.1450469909e+01   2.4869868913e+01    0.5259172    0.3644796 -47.11  0.002033341    1.211    0.174
        78 -10.4134    198.2029     76.0733   1.4347645711e+01   2.5435905032e+01    0.6633292    0.1939842 -42.55  0.002407804    2.807    0.644
        79 -10.7225    199.6642     68.4297   1.2279410545e+01   2.6293542739e+01    0.5661426    0.2441758 -32.38  0.001682473    2.237    0.553
        80 -10.5852    192.4255     77.7030   1.5526868824e+01   2.6406816007e+01    0.4645168    0.3222289  61.92   0.00185048    1.581    0.367
        81 -10.5636    190.3237     72.9153   1.4610167139e+01   2.7617354337e+01    0.5030063    0.4438838  28.98  0.001757666    1.462    0.316
        82  -7.9811    139.5187     78.9832   2.5086021363e+01   3.8370819611e+01    0.1937269    0.1391996  -9.74 0.0004950254    2.236    0.553
        83  -7.7422    204.3398     77.2560   1.3849334961e+01   2.3979889187e+01    0.1210291     0.103351  19.12 0.0001668257    1.579    0.367
        84  -8.9974     88.9730     69.7769   3.5868204302e+01   5.2216946115e+01    0.2458967    0.2154976 -50.65 0.0004079355    1.158    0.136
        85  -8.7908    160.3302     68.4401   1.7983768268e+01   3.5237015847e+01     0.297213    0.2057207 -62.46 0.0006318995    1.468    0.319
        86  -9.7564    173.2919     65.3764   1.5050511442e+01   3.2664846930e+01     0.265924    0.1474265 -53.46 0.0008348463    1.756    0.430
        87  -9.0214    182.2115     62.0128   1.2872870180e+01   3.1124520207e+01    0.2885954    0.1974402 -32.58 0.0004755843    1.473    0.321
        88  -9.7748    184.5379     59.5031   1.1897114715e+01   3.0972810092e+01    0.3856659    0.2994893  73.84  0.001763979    1.342    0.255
        89 -10.3668    199.7479     49.5919   7.5562584021e+00   2.8990639121e+01    0.4488208    0.2935135 -22.51   0.00123315    1.810    0.448
        90  -9.4372    199.0281     61.9987   1.0756111520e+01   2.7383794314e+01    0.2699755    0.1866061 -62.27  0.001467036    1.372    0.271
        91 -10.0281    196.2256     56.2240   9.6226354250e+00   2.8832225215e+01    0.3909933    0.2612941 -34.89  0.001928966    1.411    0.291
        92  -8.7788    144.5624     59.7932   1.8230640281e+01   4.0557713535e+01    0.2779966     0.222336 -79.67 0.0005783951    1.244    0.196
        93  -9.5943    170.2487     56.8771   1.3130427194e+01   3.4714824009e+01    0.2573214    0.2033298 -15.00  0.001334813    1.632    0.387
        94  -9.8018    178.3400     52.2686   1.0741957584e+01   3.3483091598e+01    0.2823569    0.2305311  23.55  0.001033131    1.752    0.429
        95  -9.2025    165.9146     49.8590   1.1735500955e+01   3.6820402624e+01    0.2590503    0.1986941  44.44  0.001142696    1.615    0.381
        96  -9.5571    161.9913     50.5094   1.2493374987e+01   3.7686803113e+01    0.2171956    0.1366302  68.08 0.0006970244    1.590    0.371
        97 -10.6046    191.4716     47.8890   8.0028851676e+00   3.1071226938e+01    0.4493842    0.2815689  75.52  0.001598762    1.668    0.400
        98  -8.5193    139.3143     44.9959   1.4430022395e+01   4.4241471919e+01    0.2195488    0.1271919  -4.01 0.0007030381    4.150    0.759
        99  -9.4530    196.2328     40.0172   5.4647292171e+00   3.1058548974e+01    0.2639937     0.229108 -35.67 0.0004426113    1.255    0.203
       100 -10.0926    192.1135     39.6313   5.7695964073e+00   3.2041421155e+01     0.399517    0.2806632 -49.97  0.002246023    1.199    0.166
       101  -9.3290    180.9691     42.2044   7.6510493291e+00   3.4284520266e+01    0.2515296    0.2014568  30.79  0.001079987    1.774    0.436
       102  -8.5406    204.5428     41.9504   5.1696452366e+00   2.8970158056e+01    0.2065947    0.1930455 -38.75 0.0006496764    1.263    0.208
       103  -8.3334    201.2242     41.8606   5.4571045862e+00   2.9707080117e+01    0.1799667    0.1699453 -81.51 0.0002465581    1.223    0.183
       104  -8.8147    164.3892     40.8551   9.2928011785e+00   3.8485636870e+01    0.2362469    0.1915312  70.98 0.0004659394    1.256    0.204
       105  -8.1714    154.6974     37.6578   9.6330096767e+00   4.1356744200e+01    0.1381359    0.1111241  31.60 0.0007039117    1.678    0.404
       106  -8.8440    149.1685     31.8436   8.5545008703e+00   4.3546152075e+01    0.3419558    0.1818917  -3.81  0.001090126    4.684    0.786
       107  -7.4312     85.2492     29.3143   2.0717446376e+01   6.0434130422e+01    0.1374831     0.110158  22.88 0.0001979937    1.519    0.342
       108  -9.2906    179.3953     23.6558   2.6584714727e+00   3.7022789699e+01    0.4295836    0.2709867  70.99  0.002277685    1.588    0.370
       109  -7.6228    125.3100     25.2845   9.9288332979e+00   5.0612058623e+01    0.1411048      0.10589  42.21 0.0002390701    1.571    0.363
       110  -9.3651     86.3179    217.6790   6.5794968309e+01   1.8113776190e+01    0.2038309    0.1880582  21.86 0.0004705433    1.186    0.157
       111  -8.0997    106.9221     17.5480   1.0181797368e+01   5.6379741534e+01    0.2156415    0.1289344  70.05 0.0004382978    1.525    0.344
       112  -9.0588    221.0601    216.5170   3.8634093892e+01   4.3611903427e-01    0.2301329    0.1964642  49.42  0.001383441    1.980    0.495
       113  -8.4700     90.1884     17.9050   1.4012647743e+01   6.0684812524e+01    0.2139085    0.1764954 -68.65 0.0004850613    1.266    0.210
       114  -8.5133    215.4510    212.3138   3.8893051283e+01   1.6185133778e+00    0.1808191    0.1649336  57.33 0.0007599059    1.894    0.472
       115  -8.5845    249.5503    211.9082   3.3664414183e+01  -2.0898260619e+00    0.2324451    0.1584193  50.06  0.001502736    3.020    0.669
       116  -8.2665    245.4748    208.2298   3.3677839620e+01  -1.2396660515e+00    0.1684784    0.1098987 -35.37 0.0004308729    1.587    0.370
       117  -8.3926    214.5329    206.3429   3.8112586267e+01   2.5107466904e+00    0.2462139    0.1874864 -68.63  0.001414743    3.113    0.679
       118  -7.3107    241.6109    205.2838   3.3775858765e+01  -4.7470912882e-01   0.08639122   0.08471305  -6.25 0.0007004947    1.748    0.428
       119  -7.9758    177.8031    205.2203   4.4396118643e+01   7.4348252549e+00    0.1596153    0.1218796   1.38 0.0004331936    1.243    0.195
       120  -8.5333     12.6735    205.3274   8.2856956197e+01   2.9315643085e+01    0.1418155    0.0656138  54.55 0.0007050162    1.700    0.412
       121 -11.3391    195.6021    196.0212   3.9665069150e+01   6.3914027183e+00    0.8222746    0.6551957  87.31  0.003730543    2.716    0.632
