#   1 NUMBER                 Running object number                                     
#   2 MAG_AUTO               Kron-like elliptical aperture magnitude                    [mag]
#   3 X_IMAGE                Object position along x                                    [pixel]
#   4 Y_IMAGE                Object position along y                                    [pixel]
#   5 X_WORLD                Barycenter position along world x axis                     [deg]
#   6 Y_WORLD                Barycenter position along world y axis                     [deg]
#   7 A_WORLD                Profile RMS along major axis (world units)                 [deg]
#   8 B_WORLD                Profile RMS along minor axis (world units)                 [deg]
#   9 THETA_WORLD            Position angle (CCW/world-x)                               [deg]
#  10 FWHM_WORLD             FWHM assuming a gaussian core                              [deg]
#  11 ELONGATION             A_IMAGE/B_IMAGE                                           
#  12 ELLIPTICITY            1 - B_IMAGE/A_IMAGE                                       
         1 -12.8529    187.1421     37.5113   5.5582420043e+01   3.3545227991e+01      1.35152     1.005214  25.22  0.004505058    1.639    0.390
         2 -11.8987    191.3245     31.4223   5.3121510149e+01   3.3242981416e+01    0.7465526    0.5499981  40.43  0.001363677    1.489    0.329
         3 -12.0832    213.3546      6.0114   4.3292930026e+01   3.0465982329e+01    0.7806759    0.6690904  31.79   0.00461411    1.409    0.290
         4 -11.1904    206.5687      3.7133   4.3342496478e+01   3.2410168208e+01    0.5992233    0.4236326 -13.35  0.003186064    1.693    0.409
         5  -9.8886    164.0491    217.6986   1.0316785200e+02   6.7251016487e+00    0.1885564    0.1425132  41.96 0.0007938504    1.102    0.093
         6 -11.1635    247.0994    244.7620   9.2722376874e+01  -1.0060908591e+01    0.4356818    0.2061517  32.04  0.002570586    1.662    0.398
         7 -11.6982     47.4347    216.2437   1.2473510178e+02   2.4730357851e+01    0.2807787    0.1521674  63.44  0.001281434    1.514    0.340
         8 -11.2574     40.3358    213.5235   1.2578799975e+02   2.6072839820e+01     0.190129     0.126514  69.00 0.0003317033    1.144    0.126
         9 -10.0421     54.5878    210.7669   1.2303053564e+02   2.4890425289e+01    0.1871878    0.1231301  63.69 0.0004801877    1.213    0.176
        10  -9.8251    142.9820    209.4881   1.0601160377e+02   1.1727795538e+01    0.1855744    0.1736175 -85.56  0.001162142    1.194    0.163
        11  -9.7292     70.6180    209.9872   1.2000406553e+02   2.2959191580e+01    0.1875113     0.129512  62.35 0.0004443175    1.176    0.150
        12 -10.0510     39.8657    207.8182   1.2546476086e+02   2.7211383309e+01     0.169948    0.1162911  60.15  0.000418802    1.197    0.165
        13  -9.7235    249.8058    204.9943   8.5575579001e+01  -6.1281521242e+00    0.3104841   0.08778957 -25.69   0.00102467    5.185    0.807
        14  -9.1929     62.4390    205.4846   1.2112390538e+02   2.4909279149e+01    0.1956871    0.1618316  72.77 0.0007104223    1.112    0.101
        15 -10.4060     96.1388    200.8335   1.1410927018e+02   2.1040388275e+01    0.4449967    0.3346609 -37.20  0.002392622    2.026    0.506
        16  -9.5850      3.6225    207.0616   1.3169055113e+02   3.1060132071e+01   0.08769161   0.03750307  43.28  0.000317927    2.084    0.520
        17  -9.9761    141.0132    200.0303   1.0501955566e+02   1.3731968724e+01    0.2886069    0.1818264 -84.01   0.00133154    2.612    0.617
        18 -10.5938     63.2668    198.7637   1.2034128448e+02   2.6123202021e+01    0.3273903    0.2122026 -48.54  0.001575767    2.191    0.544
        19  -9.3887    193.5792    196.1557   9.4051286113e+01   4.7803067257e+00    0.7695186     0.387183 -62.29  0.002084719    8.206    0.878
        20  -9.5571    152.4777    196.9666   1.0224950770e+02   1.2220670579e+01    0.2169289    0.1668769  45.62  0.001252166    1.139    0.122
        21  -8.3173     81.7797    195.7101   1.1637947608e+02   2.4188803791e+01    0.2683414    0.1728685 -39.37  0.001386959    2.615    0.618
        22  -9.8855     97.6082    194.5143   1.1304250173e+02   2.2052074538e+01     0.247142    0.2058319   2.96  0.001459173    1.941    0.485
        23 -11.0835    126.3971    189.1453   1.0636445875e+02   1.8339286282e+01    0.3568349    0.2107314  51.78  0.001797887    1.555    0.357
        24 -11.0065     73.1400    185.8024   1.1701617304e+02   2.7432817996e+01    0.6583727    0.4797374 -72.32  0.003344414    1.318    0.242
        25  -8.3668     94.4628    189.4565   1.1304829965e+02   2.3553709897e+01    0.1292989    0.1083145  71.23 3.293073e-05    1.012    0.012
        26  -8.6928    154.0344    185.6258   1.0006013525e+02   1.3976303313e+01     0.244337    0.1526707 -68.73  0.001113959    2.326    0.570
        27  -8.6167    147.4649    185.4679   1.0139299055e+02   1.5233458138e+01    0.1372834    0.1222407  55.52 0.0001203894    1.035    0.033
        28  -8.3573     72.0413    231.1501   1.2159771985e+02   1.8907404252e+01    0.1216441   0.09371184  73.83 0.0003791789    1.083    0.077
        29 -10.2215     99.2631    180.7211   1.1087116158e+02   2.4592409994e+01    0.2535384    0.2175273 -81.43 0.0005923024    1.136    0.119
        30  -8.4951     70.6926    179.3122   1.1677875426e+02   2.9133043392e+01    0.1879008    0.1134053 -76.27 0.0004755816    1.574    0.365
        31  -8.5444    204.4201    175.7137   8.8117704745e+01   5.9691209622e+00    0.2474065    0.1319452 -40.86  0.001128056    2.020    0.505
        32 -11.3232    105.2983    172.3757   1.0833546653e+02   2.5360026314e+01    0.6297947    0.3239633  36.50  0.002857923    2.096    0.523
        33 -10.0949    118.8723    173.1094   1.0545862939e+02   2.2879780572e+01    0.2240333    0.1759237  73.40 0.0008029019    1.298    0.229
        34 -10.2882     94.5871    167.7860   1.1002709480e+02   2.8085836590e+01    0.2739801    0.1767617  59.38  0.001420429    1.531    0.347
        35 -10.4165     70.6772    160.2737   1.1437875241e+02   3.3285409017e+01     0.325967    0.1990966  63.15 0.0009940072    1.679    0.404
        36  -9.2034     72.3259    250.4221   1.2303216870e+02   1.5650326872e+01    0.1951662   0.09234289  51.17 0.0009970873    1.564    0.361
        37 -10.2699     92.8316    159.5178   1.0915775246e+02   3.0178551575e+01    0.2627361    0.2355839 -67.90 0.0002852934    1.157    0.135
        38 -11.1409     98.1865    152.6041   1.0676369396e+02   3.0855900168e+01    0.5664036    0.4355709 -35.90  0.002390671    1.668    0.400
        39  -8.8168    113.4638    151.4973   1.0293809080e+02   2.8476011522e+01    0.2484758    0.1790423  78.00 0.0006150685    1.635    0.388
        40  -9.8886    133.8566    145.1358   9.6865079863e+01   2.6021571275e+01    0.9745585    0.2338677 -54.76   0.00226347    6.469    0.845
        41  -8.1225    115.4984    144.5282   1.0112151675e+02   2.9653174385e+01    0.1475997    0.1315351  82.73  0.000808064    1.100    0.091
        42 -10.3562    108.8531    138.8425   1.0162268639e+02   3.2130779532e+01    0.5061023    0.2816696 -40.40  0.002137424    2.163    0.538
        43 -10.8149     97.4105    138.2234   1.0435647411e+02   3.4247441839e+01    0.2708565    0.2610916 -52.45 0.0004610332    1.163    0.140
        44  -9.6946    105.7954    130.7602   1.0074132414e+02   3.4513556270e+01    0.3872245    0.2971717 -64.54  0.001293511    1.273    0.215
        45  -9.4948    103.4651    125.4101   1.0020565176e+02   3.6151354482e+01     0.277492    0.2379252 -25.41   0.00077655    1.403    0.287
        46  -9.5596    115.5229    129.5467   9.8008992275e+01   3.3011387821e+01    0.2878841    0.2581376 -17.98 0.0007105404    1.331    0.249
        47  -8.9118    160.8246    127.8115   8.6686643141e+01   2.4006532663e+01    0.2200763     0.189304 -89.82  0.001088903    1.365    0.268
        48  -9.0469    135.3512    125.1726   9.2066202621e+01   3.0054716965e+01    0.2236709    0.1388311 -57.17 0.0009452653    1.742    0.426
        49  -8.3832    110.8779    118.5255   9.6717261104e+01   3.6378186053e+01    0.2085032     0.146732  43.52 0.0004778432    1.477    0.323
        50  -8.1070     45.4347    222.9375   1.2555827092e+02   2.3735904358e+01    0.2539012    0.1086988  67.21  0.001063778    2.229    0.551
        51  -9.4644    120.0229    111.2053   9.2537547730e+01   3.6259000806e+01    0.2566982    0.1782205  75.70  0.001088638    2.050    0.512
        52  -8.8684    205.8827    110.2604   7.2856173741e+01   1.7012282231e+01    0.2805503    0.2031458  33.07 0.0009671829    1.512    0.339
        53  -9.2831    134.5287    104.1000   8.6935521807e+01   3.4790726446e+01    0.3753583    0.1443452 -49.88  0.001219107    2.783    0.641
        54  -8.8443    168.0621    113.0138   8.1331179021e+01   2.5359919042e+01    0.2539587    0.1947302 -77.12 0.0009772596    1.736    0.424
        55 -10.5461    165.7883     66.3508   6.8426226864e+01   3.4700319057e+01    0.4292158    0.3256601 -78.52  0.001009481    1.702    0.413
        56 -11.8849    172.1638     51.9606   6.2644902103e+01   3.5390582737e+01    0.6914302    0.6032766  29.35  0.001531345    1.220    0.180
        57 -19.4445     24.5486    141.6534   1.2282185588e+02   4.2738733501e+01     18.65785     3.165627 -72.62   0.05633234    5.418    0.815
        58  -8.3683     60.2731    217.2093   1.2252967952e+02   2.2960962108e+01    0.3203438    0.1545625 -87.62  0.001728364    2.243    0.554
        59  -9.1058    189.7382     15.3601   4.8556425776e+01   3.5544387505e+01    0.2651055    0.1579458 -39.10  0.001218241    1.675    0.403
        60 -10.3102     61.6344    234.7672   1.2365360726e+02   1.9640953952e+01     0.192753     0.137021  87.65 0.0007458743    1.271    0.213
