#   1 NUMBER                 Running object number                                     
#   2 MAG_AUTO               Kron-like elliptical aperture magnitude                    [mag]
#   3 X_IMAGE                Object position along x                                    [pixel]
#   4 Y_IMAGE                Object position along y                                    [pixel]
#   5 X_WORLD                Barycenter position along world x axis                     [deg]
#   6 Y_WORLD                Barycenter position along world y axis                     [deg]
#   7 A_WORLD                Profile RMS along major axis (world units)                 [deg]
#   8 B_WORLD                Profile RMS along minor axis (world units)                 [deg]
#   9 THETA_WORLD            Position angle (CCW/world-x)                               [deg]
#  10 FWHM_WORLD             FWHM assuming a gaussian core                              [deg]
#  11 ELONGATION             A_IMAGE/B_IMAGE                                           
#  12 ELLIPTICITY            1 - B_IMAGE/A_IMAGE                                       
         1  -8.9508    132.1261     18.4432   5.2657594559e+01   4.9986471928e+01    0.3257255    0.2112741 -29.53 0.0004211864    1.655    0.396
         2  -8.6814    238.2239      4.2328   3.5439969943e+01   2.5519830745e+01    0.2350147       0.1801 -83.66 0.0002491267    1.130    0.115
         3  -7.2013    124.0183      3.7658   4.8937296321e+01   5.3355742200e+01    0.1784994    0.1516019  56.09 0.0002403856    1.044    0.042
         4  -7.7715    234.9304    239.5149   8.6695047801e+01  -8.8058228899e+00    0.1708045   0.09444209  30.91  0.001002533    1.512    0.339
         5 -10.0707    108.8605    249.9882   1.1162273580e+02   8.9932826889e+00    0.2009475    0.1553392  48.17  0.000344428    1.061    0.057
         6  -6.7609    195.5038    236.4908   9.3376585629e+01  -2.5302173750e+00    0.1249845    0.1003933  23.24 -4.561345e-05    1.014    0.014
         7  -7.6365    111.8372    236.0648   1.0957400214e+02   1.0930897888e+01    0.1857989    0.1360457  60.87 -0.0006383859    1.245    0.196
         8  -8.4239    221.9514    227.8333   8.7088134667e+01  -5.4360757491e+00    0.1878687       0.1544  -4.19 0.0003235456    1.146    0.128
         9  -7.1203    248.3039    218.3303   8.0788846581e+01  -8.0757464014e+00    0.1257539    0.0773888   3.07 0.0003806504    1.654    0.395
        10  -9.1094    220.1748    210.1455   8.4354769731e+01  -2.6935191117e+00     0.309586    0.2651104 -75.75  0.001842334    2.041    0.510
        11  -7.0049    101.7756    208.4083   1.0834671710e+02   1.7754109169e+01    0.1322851   0.08990024  78.95 0.0004418879    1.665    0.399
        12  -9.1054    208.6289    204.8761   8.5583837601e+01   1.8474095543e-03    0.3573761    0.2031453  39.91 0.0009625207    1.644    0.392
        13  -9.0469    209.5092    200.1544   8.4551087453e+01   5.9060910267e-01    0.2351708    0.1964109  20.10 0.0003146191    1.057    0.054
        14 -10.3620    239.9150    203.2030   7.9512235272e+01  -4.8139946932e+00    0.2266521    0.1938834  14.93 0.0003343933    1.155    0.135
        15  -7.6120    132.1245    203.1451   1.0107175392e+02   1.3774053625e+01    0.1954781    0.1801096   7.77 0.0005789877    1.263    0.208
        16  -6.9794    244.6399    200.6941   7.8217632432e+01  -5.1878880317e+00    0.1336793   0.08363365   5.58 0.0007039646    1.730    0.422
        17  -8.5393    210.0351    195.3144   8.3546207380e+01   1.2697221763e+00    0.2138215    0.1847483 -28.05 0.0002649605    1.225    0.183
        18  -6.8892     69.4642    195.4881   1.1380089426e+02   2.5265105974e+01    0.1303778    0.1085178  73.88   0.00054265    1.009    0.009
        19  -8.1464    236.4321    191.0480   7.7829656024e+01  -2.5099880849e+00    0.2418335    0.1807697 -45.59 0.0009123323    1.677    0.404
        20 -10.1531    177.8036    190.9419   8.9208662885e+01   7.8240859740e+00    0.2594599    0.2463317  27.45 0.0003710309    1.075    0.070
        21  -8.6380    129.9951    190.1316   9.9497820494e+01   1.6776280099e+01    0.2081731    0.1958257 -77.92 0.0002947314    1.122    0.109
        22  -6.7654    104.2490    191.3030   1.0550148497e+02   2.0937416440e+01    0.1222025    0.1070542 -26.00 0.0006880946    1.499    0.333
        23  -9.1639     62.7024    184.5543   1.1407530723e+02   2.8599828308e+01    0.2242164    0.1938124 -76.79 0.0004864446    1.174    0.148
        24  -8.8274    198.8787    175.2290   8.1810545595e+01   6.7004233426e+00      0.22903    0.2136188  15.36 0.0002651226    1.056    0.053
        25  -8.1070    184.5237    173.6671   8.4448231674e+01   9.7459379763e+00    0.3235758    0.1947793 -51.21   0.00104028    1.927    0.481
        26  -6.8656    245.5406    171.5540   7.2363271294e+01  -1.0590177144e+00    0.1308654    0.1134203 -10.67 7.866856e-05    1.056    0.053
        27  -7.4265    108.2258    169.7816   1.0120693870e+02   2.5050043596e+01    0.1849328    0.1631076 -39.01 0.0003780267    1.309    0.236
        28  -9.0858     63.4432    169.0732   1.1202149449e+02   3.2065498454e+01    0.2190959     0.193319  56.38 0.0003110251    1.165    0.142
        29  -7.8216    126.7109    167.1008   9.6252953265e+01   2.2335498910e+01    0.1958362    0.1843005 -69.52  0.000291213    1.084    0.078
        30  -7.5773    131.8741    163.0929   9.4247222684e+01   2.2253707317e+01    0.2188512    0.1925477  78.63 0.0003497495    1.204    0.169
        31  -7.0353    218.3457    151.2621   7.2917100561e+01   7.2108626951e+00    0.1933611    0.1254064 -43.12 0.0003508072    1.552    0.356
        32  -7.1543    165.6970    150.3006   8.3606173205e+01   1.8206079241e+01    0.1497388    0.1222976  87.10 0.0003389976    1.588    0.370
        33  -6.7817     85.6269    148.2727   1.0321542536e+02   3.3848927294e+01    0.1508725    0.1032704  68.50 0.0005769599    1.682    0.406
        34  -7.4451    156.5171    146.9294   8.4972423647e+01   2.0845868835e+01    0.2156586    0.1514346 -44.92 -9.975419e-05    1.442    0.307
        35  -9.6674    201.9761    121.2567   6.9056851304e+01   1.6126298325e+01    0.3025209    0.2743654  -2.91 0.0003210911    1.151    0.131
        36  -8.1954    206.8653    117.8999   6.7306041234e+01   1.5674219783e+01    0.2921205    0.2292297  14.37 0.0007703548    1.547    0.354
        37  -8.3922    145.4528    123.0780   8.2001462530e+01   2.8427145060e+01    0.2708892    0.2240103  43.08 0.0003431511    1.220    0.180
        38  -7.5170    108.1179    117.8851   9.0638642222e+01   3.7282627063e+01    0.2156567     0.197219  89.11  0.001130144    1.156    0.135
        39  -7.5571    212.2233    112.6006   6.5024699825e+01   1.5463954946e+01    0.1988374    0.1392912  39.38 0.0003037846    1.565    0.361
        40  -7.0539    108.6794    108.6785   8.8167980403e+01   3.9318458681e+01    0.1563167    0.1213107 -12.17 0.0007044688    1.672    0.402
        41  -7.2052    230.0000    106.9092   6.0627213714e+01   1.2620316547e+01    0.2400647   0.07583861 -36.43 0.0007933783    2.880    0.653
        42  -8.6130     91.1659     97.6840   9.0501837118e+01   4.5062973841e+01    0.2587692    0.2121412 -36.24 0.0002318396    1.207    0.171
        43  -7.1932    148.5292     97.0252   7.4300675050e+01   3.3303374314e+01     0.222373    0.1544713 -41.47 8.406558e-05    1.426    0.299
        44  -8.0744    124.5899     83.0068   7.6390903697e+01   4.1616563312e+01    0.3707502    0.2627331  -2.94 0.0008636339    2.061    0.515
        45 -10.1110    107.2882     77.4422   7.9630366228e+01   4.6417334763e+01    0.2918113    0.2550215 -35.86  0.000311318    1.110    0.099
        46  -9.2754    203.4449     73.6864   5.6591063871e+01   2.4319972483e+01    0.4001577    0.2685702 -29.39  0.001119163    1.554    0.356
        47  -7.8524    119.0146     75.9497   7.5749340825e+01   4.4246778199e+01    0.2194222    0.2134876  -3.05 0.0003510672    1.005    0.005
        48  -7.4210    178.0346     63.7552   5.8271485296e+01   3.2231884302e+01    0.2054619    0.1912608  76.59 0.0003624327    1.059    0.055
        49  -7.4065    153.2439     51.0398   5.9285727277e+01   4.0486563231e+01    0.1973349    0.1861136 -29.90 0.0003188379    1.101    0.092
        50  -7.4745    214.3550     29.7669   4.3644571534e+01   2.8084683864e+01    0.1741025    0.1283746 -21.63            0    1.601    0.376
        51  -7.7787    134.1711     30.1106   5.6347249789e+01   4.8132339467e+01    0.2121827    0.1800987  25.45 0.0003594155    1.217    0.178
        52  -7.8795    172.9546     22.3082   4.6911184232e+01   3.9296954389e+01    0.1910611    0.1693031  76.49 0.0004507308    1.031    0.030
        53  -8.6041    164.9320     21.4767   4.7864464649e+01   4.1432045125e+01    0.2299867    0.2030879 -26.29 0.0003030954    1.250    0.200
        54  -7.3594    226.4627    244.4379   8.8967156715e+01  -8.2026355490e+00     0.118365   0.08975322  16.00  0.000806161    1.012    0.011
        55  -8.3139    250.3926    238.1862   8.3819415282e+01  -1.0763294184e+01    0.1752414    0.1163297 -16.33 0.0004490915    1.391    0.281
