#   1 NUMBER                 Running object number                                     
#   2 MAG_AUTO               Kron-like elliptical aperture magnitude                    [mag]
#   3 X_IMAGE                Object position along x                                    [pixel]
#   4 Y_IMAGE                Object position along y                                    [pixel]
#   5 X_WORLD                Barycenter position along world x axis                     [deg]
#   6 Y_WORLD                Barycenter position along world y axis                     [deg]
#   7 A_WORLD                Profile RMS along major axis (world units)                 [deg]
#   8 B_WORLD                Profile RMS along minor axis (world units)                 [deg]
#   9 THETA_WORLD            Position angle (CCW/world-x)                               [deg]
#  10 FWHM_WORLD             FWHM assuming a gaussian core                              [deg]
#  11 ELONGATION             A_IMAGE/B_IMAGE                                           
#  12 ELLIPTICITY            1 - B_IMAGE/A_IMAGE                                       
         1 -16.2334    238.3519    144.1628   3.4862816114e+01   5.0870994685e+00     9.912876     4.559338  56.91   0.01059141    3.191    0.687
         2 -15.9026    243.6989     57.4529   1.4972434912e+01   1.7924196382e+01      6.99882     2.643707  54.57   0.01158574    2.925    0.658
         3 -16.5960    248.1688     82.0080   1.9814861966e+01   1.3386532000e+01     7.563537     5.372978 -12.65   0.02327524    1.943    0.485
         4 -10.2440    246.2055     18.2208   6.4632574521e+00   2.2442050222e+01    0.4045883    0.2851829  -0.46  0.002240705    2.620    0.618
         5  -8.7650    188.6733     13.6833   1.0778713457e+01   3.5805828580e+01    0.1290235   0.09093128  42.67    0.0007045    1.675    0.403
         6 -11.2200    248.4912    237.6503   5.1186709413e+01  -1.0475547872e+01    0.3467779     0.245061  17.14  0.002354406    1.182    0.154
         7 -12.3079    234.1006    247.4071   5.5283099268e+01  -9.7621387257e+00    0.6011117    0.3277288  14.36  0.003343521    1.913    0.477
         8 -10.3760    238.2412    249.4235   5.4889137939e+01  -1.0560919381e+01    0.2983997    0.2281319 -14.74  0.001517948    1.252    0.201
         9 -11.6341    248.3639    247.8871   5.2907753710e+01  -1.1693699330e+01     0.610477    0.3993925 -15.05  0.004106762    1.374    0.272
        10 -12.1797    239.8000    244.0100   5.3737936876e+01  -1.0108621664e+01    0.4975186    0.3670474  45.07  0.002833019    1.881    0.468
        11  -9.4747    250.0089    222.5147   4.8312116912e+01  -8.7467114077e+00    0.2112828    0.1580324 -38.64  0.001365584    1.644    0.392
        12  -9.4321    213.5612    217.8290   5.3989325301e+01  -2.7131003294e+00    0.2686692    0.1948606  70.74  0.001293045    3.018    0.669
        13  -8.9675    229.0308    206.8117   4.9139992461e+01  -3.4767247530e+00    0.1836098    0.1492455  62.69  0.001042093    1.988    0.497
        14  -8.7159    175.3681    188.2970   5.6120222754e+01   8.8890552692e+00    0.1483711    0.1072685   5.66 0.0007030487    1.728    0.421
        15  -9.4119    157.1982    187.4144   5.9865327276e+01   1.2443717532e+01     0.203798     0.129281  49.73  0.000555501    1.632    0.387
        16 -10.5079    141.6974    186.5752   6.3165009462e+01   1.5488775815e+01    0.2879792    0.1356901  35.63  0.001142881    2.166    0.538
        17  -9.1674    226.6697    184.9930   4.5378114273e+01   3.1837809925e-01    0.2335955    0.1559992  47.77 0.0008936467    1.766    0.434
        18 -10.6906    152.5106    184.5389   6.0360468162e+01   1.3898930371e+01    0.2970026    0.1429089 -47.73  0.001213377    2.174    0.540
        19  -9.8316    159.7369    182.5687   5.8383592963e+01   1.2936791317e+01    0.2077664    0.1317009  50.97 0.0009456985    1.679    0.404
        20  -9.2695    219.0868    180.3375   4.5838077482e+01   2.3860733194e+00      0.30023     0.216429  76.03   0.00136179    2.824    0.646
        21 -10.0101    180.0591    180.4870   5.3599325146e+01   9.4939351972e+00    0.2660725    0.2062022 -61.15  0.001060646    1.612    0.380
        22 -12.2095    169.8853    178.3129   5.5331678253e+01   1.1851787101e+01    0.6505763    0.3240594  43.71  0.002712816    1.969    0.492
        23 -11.2283    158.3653    176.4726   5.7492975525e+01   1.4433119437e+01     0.362288    0.2552458 -80.40  0.001571706    2.293    0.564
        24  -9.4300    136.6524    177.3407   6.2606781154e+01   1.8375192169e+01     0.153441    0.1139257  76.86 0.0007045953    1.791    0.442
        25 -11.6419    144.3732    171.7927   5.9741151452e+01   1.8102089241e+01    0.4714756    0.2599604 -57.31  0.001945025    2.105    0.525
        26 -11.6796    213.6489    245.4907   5.8624405824e+01  -6.6532484707e+00    0.3668743    0.2806521  63.54  0.002145547    2.420    0.587
        27 -12.0649    155.8349    136.4462   4.9346682631e+01   2.3366326031e+01    0.5776242    0.3498803 -58.40  0.002341492    2.006    0.502
        28 -11.7525    150.9728    130.9736   4.9170940705e+01   2.5571383820e+01    0.4000099    0.2821147  77.15  0.001536326    2.118    0.528
        29 -11.1995    134.0856    152.6917   5.8242615893e+01   2.4284491169e+01    0.2711543    0.2160838 -62.66  0.001332584    1.346    0.257
        30 -11.9357    145.5107    146.7698   5.4173541669e+01   2.3298615987e+01    0.5636072     0.356948  87.60   0.00185991    3.664    0.727
        31 -12.4636    146.3003    138.0872   5.1985432654e+01   2.5027412366e+01    0.7046939    0.4632142 -81.47  0.002609566    2.797    0.642
        32 -11.9186    139.1252    137.2388   5.3529101261e+01   2.6704677841e+01    0.4706337    0.2882431 -57.50  0.001955747    1.843    0.457
        33  -9.5747    215.4846    170.4382   4.4481237452e+01   4.7271138770e+00    0.3297479    0.2143266 -59.56  0.001282571    2.328    0.570
        34 -11.5575    220.3743    241.7242   5.6798263725e+01  -7.1236893105e+00    0.3146469    0.1987086  49.51  0.001754073    2.192    0.544
        35 -12.6318    160.9687    118.7568   4.3817411157e+01   2.5941717116e+01     1.286477    0.3525759 -35.71  0.003100309    5.284    0.811
        36 -11.9969    166.6724    123.3395   4.3695025821e+01   2.3740288482e+01    0.5079352    0.3994682 -63.96  0.002421977    1.467    0.319
        37 -11.8602    166.1573    118.2394   4.2528776904e+01   2.4888667168e+01        0.648    0.3116545 -55.72   0.00219825    2.848    0.649
        38 -11.6434    153.2622    117.9013   4.5370076544e+01   2.7829640673e+01    0.4208741    0.3031341 -59.21  0.001238093    1.578    0.366
        39 -11.4748    109.8566    157.1226   6.5206920655e+01   2.7833552696e+01     0.621915    0.3549135 -75.93  0.002299502    2.821    0.645
        40 -10.2067    228.2532    162.7400   4.0543405081e+01   3.7538272754e+00    0.4145581    0.2915722  63.63  0.002059762    2.130    0.531
        41 -10.9208    148.4977    112.0356   4.4974201605e+01   3.0101751163e+01    0.2938007    0.2254068  69.56 0.0009635881    1.575    0.365
        42 -12.3104    159.0009    106.8560   4.1177254906e+01   2.8786701021e+01    0.7827809    0.3051144 -34.78  0.002528062    2.950    0.661
        43  -9.1984    226.2136    171.0012   4.2628252845e+01   2.7149750148e+00    0.2328555    0.1890147  34.90  0.001141827    1.291    0.225
        44 -12.2027    168.0833    104.6663   3.8607999670e+01   2.7137284461e+01     0.688121    0.3394988 -39.55  0.002672535    1.993    0.498
        45 -11.9125    163.9613     95.5434   3.7057750705e+01   2.9834700764e+01    0.7995597    0.2477712 -50.10  0.002049437    4.873    0.795
        46 -13.2047    154.9055    148.0014   5.2241124433e+01   2.1098877046e+01     1.091127    0.5337198 -57.78  0.003819576    2.778    0.640
        47 -14.2072    246.5419     98.2815   2.3591373288e+01   1.1153579505e+01     1.222919    0.8069956 -61.13  0.002993422    1.705    0.413
        48 -11.9082    153.0000     94.0235   3.9060891139e+01   3.2669834711e+01    0.6589394    0.2266942 -37.26  0.002094765    3.028    0.670
        49 -10.6600    158.5599     93.7028   3.7729085640e+01   3.1440494116e+01    0.2940239    0.1503167 -34.95  0.001134917    2.042    0.510
        50 -10.7928    235.8981    235.2282   5.2953114022e+01  -8.4658601575e+00    0.2487815    0.2273917  72.98  0.001685346    2.015    0.504
        51 -12.7689    172.6667     77.6481   3.0396965769e+01   3.0984641451e+01     1.005992    0.3975038 -39.11  0.003665327    2.458    0.593
        52 -10.6003    168.6109     80.2351   3.1903143933e+01   3.1509214970e+01    0.2613285    0.1902393 -40.11 0.0007315254    1.364    0.267
        53 -10.9773    159.6713    171.1106   5.6121706812e+01   1.5280000952e+01    0.2655307    0.2001333  51.04 0.0009023752    1.382    0.276
        54  -8.7321    249.9182    171.0000   3.8555824974e+01  -1.2629554930e+00     0.189324   0.07273749  42.97 0.0007913683    2.866    0.651
        55 -10.7624    154.5228     76.6854   3.3819523823e+01   3.5479690616e+01    0.4328909    0.1500261 -35.43  0.001419932    2.995    0.666
        56 -12.4607    151.1029    165.7474   5.6962517123e+01   1.8081528961e+01     0.691929    0.4548736 -86.70  0.002593046    3.012    0.668
        57 -10.0783    135.4931    169.5014   6.1365556609e+01   2.0292455947e+01    0.1464987    0.1422501  59.94 -2.643122e-05    1.021    0.020
        58 -11.2014    160.0434     66.1011   2.9620479326e+01   3.5925948943e+01    0.3732935    0.2914091  10.32  0.001618122    1.649    0.394
        59 -10.9995    172.5108     61.6926   2.6011818647e+01   3.3602118552e+01    0.3197671    0.2500873  -6.89  0.001607461    1.617    0.381
        60  -9.9160    237.5194    163.9929   3.9195480701e+01   1.9205097998e+00    0.3470739    0.1966549  47.48  0.001694809    2.035    0.509
        61 -11.1433    179.0491     57.5496   2.3736929034e+01   3.2643311848e+01    0.4140609    0.1990612 -38.87  0.001364506    2.039    0.510
        62 -12.0923    187.9265     51.1663   2.0608972771e+01   3.1423631629e+01    0.5573015    0.4028751   7.39  0.002686191    2.086    0.521
        63  -9.4765    221.7418    164.4257   4.2066476108e+01   4.6364865189e+00    0.2935451    0.1679507  49.01  0.001167551    2.001    0.500
        64 -10.6227    142.9072     55.6747   3.0056293788e+01   4.1658249354e+01    0.5958561    0.1366864 -43.54  0.001566884    5.266    0.810
        65 -10.3569    149.7621     47.6891   2.6202507317e+01   4.1171881808e+01    0.3595167    0.2060681 -21.84  0.001539165    2.104    0.525
        66  -9.1908    180.1719     42.8286   1.9551044217e+01   3.4435361559e+01    0.1921944     0.163533  32.83  0.001079008    1.368    0.269
        67 -10.4906    174.4177     41.9285   2.0191498508e+01   3.5951911997e+01    0.3923303    0.1781772 -25.94  0.001577134    2.605    0.616
        68 -11.6978    197.8111     38.3144   1.5905513738e+01   3.0790640126e+01    0.5865454    0.2162923  46.17  0.002060051    3.674    0.728
        69  -9.9483    178.5800     35.3445   1.7756925140e+01   3.5780589208e+01    0.3924962    0.1650017 -27.87  0.001585836    2.667    0.625
        70 -10.6932    167.3514     32.6698   1.8699872934e+01   3.8838372608e+01    0.3545991    0.1997279 -21.77  0.001634523    2.142    0.533
        71  -9.4869    147.5772     32.6883   2.2027296982e+01   4.3641789746e+01    0.2466937    0.1399121 -21.19 0.0009673786    2.085    0.520
        72 -10.4353    138.8105    164.8215   5.9643248568e+01   2.0680311317e+01      0.33454    0.1124981  35.82  0.001011086    3.506    0.715
        73 -10.2214    204.0829     30.2991   1.3152727187e+01   3.0313726039e+01    0.2996335    0.1809141  -5.10  0.001170867    2.989    0.665
        74 -10.4833    212.1592     28.3569   1.1789735780e+01   2.8679882238e+01    0.2108953    0.1831869 -26.54 0.0008494633    1.358    0.263
        75 -10.2155    186.2896     28.7397   1.4937947854e+01   3.4717128877e+01    0.2427802    0.1836966  69.90  0.001377939    1.220    0.180
        76  -9.0722    155.0000     28.9723   1.9610646360e+01   4.2279905778e+01    0.2139535   0.07853777 -27.84 0.0008074849    2.978    0.664
        77 -10.5841    228.4294     25.1727   9.4411912683e+00   2.5412221146e+01    0.3527509    0.2031422 -39.89  0.001934412    1.622    0.384
        78  -9.7780    241.2783     23.6199   7.9724622084e+00   2.2837559942e+01    0.2077365    0.1420094  67.68 0.0006878722    1.502    0.334
        79 -10.9214    219.8338    235.0027   5.5787231040e+01  -6.1396458000e+00    0.2611763    0.2325576 -75.13  0.001697574    1.990    0.498
        80  -9.5010    233.1593     20.5807   8.0212266262e+00   2.4922777386e+01    0.2060658     0.201736 -50.66 0.0008922359    1.309    0.236
        81  -9.3982    239.1712     13.3218   6.0048564840e+00   2.4464271679e+01    0.2527815    0.1174828  63.50  0.001313015    2.142    0.533
