#   1 NUMBER                 Running object number                                     
#   2 MAG_AUTO               Kron-like elliptical aperture magnitude                    [mag]
#   3 X_IMAGE                Object position along x                                    [pixel]
#   4 Y_IMAGE                Object position along y                                    [pixel]
#   5 X_WORLD                Barycenter position along world x axis                     [deg]
#   6 Y_WORLD                Barycenter position along world y axis                     [deg]
#   7 A_WORLD                Profile RMS along major axis (world units)                 [deg]
#   8 B_WORLD                Profile RMS along minor axis (world units)                 [deg]
#   9 THETA_WORLD            Position angle (CCW/world-x)                               [deg]
#  10 FWHM_WORLD             FWHM assuming a gaussian core                              [deg]
#  11 ELONGATION             A_IMAGE/B_IMAGE                                           
#  12 ELLIPTICITY            1 - B_IMAGE/A_IMAGE                                       
         1  -7.5392    172.5372      1.4212   5.1922292339e+01   4.0547015998e+01    0.1294162    0.1085936 -80.03 4.132876e-05    1.031    0.030
         2  -7.7293    139.0487      1.3839   5.4894750600e+01   4.9055090077e+01    0.1984704    0.1143315  76.99 0.0003052887    1.507    0.337
         3  -6.9662     86.6674    246.2974   1.2485586051e+02   1.3552479989e+01     0.126783   0.07166925  49.45 0.0007029704    1.644    0.392
         4  -8.3145     90.0176    249.9718   1.2444554257e+02   1.2523508774e+01    0.1782575    0.1307433   2.34 0.0009892767    1.666    0.400
         5  -7.8408     77.7961    250.3948   1.2712507480e+02   1.3933666516e+01    0.2163895    0.1013269  20.30  0.001039059    2.300    0.565
         6  -8.2080     81.7239    247.4241   1.2603238369e+02   1.3965515735e+01    0.2368087    0.1562439 -19.02  0.001312105    2.429    0.588
         7  -9.7502     52.3755    249.3869   1.3255618498e+02   1.7032614563e+01    0.5662144    0.2545295  15.53  0.002497497    3.194    0.687
         8  -9.3070     26.1792    249.4124   1.3814088316e+02   1.9757912672e+01    0.2224464    0.1606306 -54.68  0.001526111    1.927    0.481
         9  -9.4480     33.2920    247.0269   1.3653100763e+02   1.9476998650e+01    0.2121604    0.1809401 -15.06  0.001526406    1.678    0.404
        10 -10.4927     18.9816    248.9140   1.3962737660e+02   2.0539102889e+01    0.4843266    0.2421448  16.97  0.002634201    2.361    0.576
        11 -10.3488      9.0590    238.8717   1.4139042727e+02   2.3290303444e+01    0.4393237    0.2779681 -19.91  0.002450624    2.996    0.666
        12 -10.1972      3.2716    247.7122   1.4282732241e+02   2.2172855114e+01    0.4014214    0.2841034  73.89  0.002971607    1.338    0.252
        13  -9.8354      8.7356    247.5675   1.4170590587e+02   2.1720568332e+01    0.2241617    0.1385868  19.15  0.001266701    1.755    0.430
        14  -9.1954     60.2157    243.8475   1.3049058019e+02   1.7136071811e+01    0.2150918    0.1436852   3.92  0.001229133    2.058    0.514
        15  -7.3856     88.3193    243.2944   1.2422828144e+02   1.3860971754e+01    0.1153691   0.08642201   2.89  0.000701487    1.609    0.379
        16  -9.5694     23.1815    243.1796   1.3852812696e+02   2.1180845772e+01    0.2865587     0.141139 -79.67   0.00166648    2.293    0.564
        17  -9.8140     11.6659    243.0140   1.4096435993e+02   2.2287649155e+01    0.1830272    0.1490463   6.10 0.0008359263    1.625    0.385
        18  -9.2784     52.1954    245.1456   1.3233793832e+02   1.7807109040e+01    0.2070487    0.1377494  22.88 0.0009464012    1.453    0.312
        19  -9.3306     18.6959    241.9655   1.3944043127e+02   2.1832767644e+01    0.1621732    0.1208005  53.50 0.0005977335    1.067    0.063
        20  -8.1478     68.8510    238.7128   1.2819061993e+02   1.7052929554e+01    0.1899822    0.1356851  19.15 0.0007666029    1.423    0.297
        21  -9.4976     64.8408    246.8472   1.2968207001e+02   1.6070628816e+01    0.5265559    0.2670755   3.43   0.00190146    5.275    0.810
        22  -7.6614    105.7848    237.6264   1.1980679830e+02   1.2596687526e+01    0.1896767   0.08754458  37.91 0.0009502609    1.693    0.409
        23  -8.8193     57.4179    240.0920   1.3085627282e+02   1.8136721193e+01    0.3347564    0.2000916   0.50  0.001644922    2.842    0.648
        24  -8.0451     97.5224    236.4894   1.2153376670e+02   1.3868772227e+01    0.1261605   0.09995563  30.71 7.030862e-05    1.038    0.037
        25  -9.3794      1.6755    232.5114   1.4279274269e+02   2.5132949066e+01    0.2289409    0.1399443  87.17  0.001497026    1.640    0.390
        26  -9.5311    220.0578    233.3778   9.6544597517e+01  -1.3448633760e+00    0.2763961     0.109028  27.69  0.001492895    2.217    0.549
        27  -8.4046     78.9894    233.1756   1.2542656539e+02   1.6825901339e+01    0.2235158    0.1011713  47.83  0.001081538    1.993    0.498
        28  -7.0851     72.6720    232.6770   1.2683396839e+02   1.7700406712e+01    0.1177784   0.09153882  -6.01 0.0006033645    1.693    0.409
        29  -7.7277     61.3110    232.3445   1.2942103172e+02   1.9127869583e+01    0.1145426   0.09164622 -12.83 0.0007045731    1.704    0.413
        30  -8.2546    176.5135    228.4989   1.0373458916e+02   4.5857040254e+00    0.1216163   0.09469499  13.09 0.0008105175    1.011    0.011
        31  -9.2516     43.3510    245.7592   1.3430091423e+02   1.8658415471e+01    0.2187529    0.1659157  25.34  0.001495303    1.303    0.233
        32  -7.2350    168.3209    226.6482   1.0508800212e+02   5.9348241637e+00     0.112941   0.09101155  51.06 0.0007047773    1.748    0.428
        33  -9.9117    216.9389    224.7186   9.5770461541e+01   5.7784958335e-02    0.2715759    0.1733566  45.20  0.001619603    2.486    0.598
        34  -9.8300    205.6815    223.9890   9.7620094395e+01   1.4988088088e+00    0.3109359    0.1543722   9.17  0.001541565    2.509    0.601
        35  -7.1014    127.3430    225.3306   1.1358501601e+02   1.1773890275e+01    0.1307082   0.08959072  -0.28 0.0006805966    1.750    0.429
        36  -9.2346    225.4924    223.4979   9.4146814712e+01  -7.8275235241e-01    0.2403633    0.1232474  44.95  0.001228451    3.374    0.704
        37  -7.5476    141.3182    220.3091   1.0984221002e+02   1.0653587895e+01    0.1291638   0.08881614   1.25 0.0007032749    1.638    0.390
        38  -8.7884    194.9746    219.1305   9.8817874061e+01   3.4912985360e+00    0.1499256    0.1358084 -36.86   0.00106699    1.584    0.369
        39  -7.2974    157.6622    218.7042   1.0612122463e+02   8.6056028818e+00    0.1298623   0.08562654   3.22 0.0007030386    1.653    0.395
        40  -7.4013     55.9401    216.9885   1.2951106787e+02   2.2777164360e+01    0.1525386    0.1215137  43.18 0.0009560484    1.018    0.018
        41  -9.0814    210.7005    216.5938   9.5587691505e+01   1.8405536816e+00    0.2162351   0.09439115  27.98  0.001129544    2.085    0.520
        42  -8.1303    170.5025    211.5761   1.0239677244e+02   7.9087398528e+00    0.2934617    0.1677354  -1.26  0.001379119    2.455    0.593
        43  -7.3826    194.3046    209.3588   9.7400606433e+01   4.9459407040e+00    0.1284555   0.07981702  -2.80 0.0003708112    1.724    0.420
        44  -7.6736    161.3204    209.3337   1.0394596982e+02   9.5803855398e+00    0.1334645   0.08869806  -0.78 0.0007049457    1.700    0.412
        45  -8.2987    218.5408    206.6623   9.2638819447e+01   2.1629276567e+00    0.2119865    0.1640888  12.81  0.001493198    1.146    0.128
        46  -7.5485    139.6848    205.6584   1.0809926073e+02   1.3404807708e+01     0.136188   0.09493998  -2.98 0.0007047924    1.707    0.414
        47  -8.0040    144.8141    195.7869   1.0540852678e+02   1.4386096006e+01    0.2327447     0.137076  -5.87 0.0009554318    2.854    0.650
        48  -7.3391    157.3177    193.2956   1.0222320147e+02   1.2875512157e+01    0.1358656   0.09489185   1.24 0.0004308223    1.608    0.378
        49  -9.0048    186.4478    190.8072   9.5790650350e+01   8.8330601764e+00    0.3023322    0.1161242 -38.28  0.001309644    2.639    0.621
        50  -8.6679    155.2991    189.3111   1.0199318515e+02   1.3894023456e+01     0.200663    0.1105219 -21.82 0.0008415067    2.626    0.619
        51  -7.4236    174.2845    188.6532   9.7842552648e+01   1.1025074994e+01    0.1170106    0.1062703  75.91 0.0007018226    1.648    0.393
        52 -10.4138    203.1392    183.2436   9.1318564361e+01   7.5319769516e+00    0.4852431    0.2645566  -3.60  0.002135829    2.866    0.651
        53  -9.0516    184.9897    182.0423   9.4519012156e+01   1.0448851044e+01    0.1592741    0.1361894  -3.16 0.0007226092    1.037    0.036
        54  -7.4204    134.3022    182.6745   1.0569642266e+02   1.8539980920e+01    0.1365494    0.1074169  63.91 0.0003821393    1.639    0.390
        55  -8.4736    177.8651    183.5551   9.6210952373e+01   1.1311547728e+01    0.2997575    0.1378031 -27.65  0.001230494    2.793    0.642
        56 -11.0305    168.6969    179.2007   9.7317305573e+01   1.3514869853e+01    0.7280612    0.3542548 -22.04  0.002676535    3.530    0.717
        57  -7.4469    145.3035    179.3597   1.0252639634e+02   1.7353505772e+01    0.1449349    0.1030389  -5.92 0.0002707742    1.723    0.420
        58  -7.2618    130.3227    178.3157   1.0591853016e+02   2.0065048491e+01    0.1447373    0.1066215  -3.13 0.0007042061    1.663    0.399
        59 -10.1265    200.0033    170.3075   8.9501878499e+01   9.9845258052e+00    0.3279285    0.2084263   4.24  0.001172434    1.909    0.476
        60  -8.9619    153.2162    173.3837   9.9631246727e+01   1.7146474495e+01    0.2624401    0.1247976  33.47 0.0009347046    2.012    0.503
        61  -7.6073    142.6922    170.6636   1.0156588194e+02   1.9477980316e+01    0.1464162    0.1067658  -4.51 0.0007042235    1.677    0.404
        62  -9.0432    186.0316    168.5086   9.1792005400e+01   1.2502842105e+01    0.2337769    0.1311828 -30.19 0.0009192636    1.814    0.449
        63  -8.3969    158.7653    169.4450   9.7649457804e+01   1.6929693046e+01    0.1983598    0.1248093  25.82  0.000299967    1.612    0.380
        64  -8.5493    152.4019    168.8599   9.8969272702e+01   1.8140580232e+01    0.1958893    0.1269008 -30.67 0.0009395325    1.697    0.411
        65  -7.8584    128.6502    168.1203   1.0452813013e+02   2.2433630737e+01    0.2039627    0.1290408 -37.52 0.0009382293    1.771    0.435
        66  -9.1999    176.1448    178.4482   9.5633866689e+01   1.2439026850e+01    0.4279928    0.2025068  16.99  0.001446195    4.109    0.757
        67  -8.3545    171.0439    163.4606   9.3841954612e+01   1.5896648625e+01    0.2919667    0.1629517  -9.56  0.001043825    3.567    0.720
        68  -7.5762    160.0181    164.0000   9.6322521542e+01   1.7723463730e+01    0.2274126   0.07561156  39.30 0.0007925534    2.874    0.652
        69  -8.3735    138.6839    162.4151   1.0097094913e+02   2.1831254479e+01    0.2523725     0.175315 -22.65 0.0009220152    1.752    0.429
        70  -8.8871    189.7707    176.3969   9.2556795611e+01   1.0614579874e+01    0.1819959    0.1120353  25.18 0.0007175751    1.615    0.381
        71  -7.7289    146.4900    162.5225   9.9121610415e+01   2.0410545822e+01    0.1446867     0.131073  12.83 2.997508e-05    1.036    0.035
        72  -8.5466    153.3859    160.8002   9.7183403322e+01   1.9508922527e+01     0.200399    0.1297482 -32.64 0.0009503549    1.658    0.397
        73  -7.9511    207.8078    160.0267   8.6139843015e+01   1.0362308641e+01    0.2155151    0.1314783 -10.93  0.001070971    1.993    0.498
        74  -7.3511    144.3243    158.3505   9.8813416460e+01   2.1630521077e+01    0.1522727    0.1104119  -4.00  0.000704853    1.754    0.430
        75  -8.7271    219.0376    155.1122   8.3302244652e+01   9.3600546739e+00    0.2844881    0.1498121 -12.53  0.001219202    2.899    0.655
        76  -8.5726    167.0283    156.1927   9.3238661677e+01   1.7921814467e+01    0.2305698    0.1519166  12.80 0.0009083098    1.920    0.479
        77  -7.4972    159.3509    159.3307   9.5546645920e+01   1.8717499209e+01     0.150198    0.1061325   0.22 0.0007047691    1.772    0.436
        78  -7.4464    184.4573    152.5318   8.8928319325e+01   1.5473864055e+01    0.1370793    0.1209292  -3.89 0.0002098482    1.043    0.041
        79  -7.2440    138.3105    152.3311   9.9058548250e+01   2.3965251911e+01    0.1513636      0.11357  -4.12 0.0007042433    1.670    0.401
        80 -10.6743    164.3055    176.5360   9.7765079390e+01   1.4705114589e+01    0.5308264    0.3033143 -22.88  0.002378467    2.252    0.556
        81  -7.8823    146.3441    151.3101   9.6901420039e+01   2.2668571312e+01    0.1518458    0.1119356   1.14 0.0007045138    1.701    0.412
        82  -8.0079    170.5776    150.1653   9.1243350396e+01   1.8381920345e+01    0.1998324    0.1263382 -27.30 0.0009382806    1.718    0.418
        83  -6.9585    138.3388    148.3031   9.8217438651e+01   2.4794207914e+01    0.1524885    0.1145728   0.86 0.0004563369    1.672    0.402
        84  -7.5346    235.3074    147.3512   7.9299824012e+01   8.0348528758e+00    0.1254785   0.08250657  -5.18 0.0007043044    1.712    0.416
        85  -7.1042    226.6645    146.6983   8.0455693717e+01   9.4281661683e+00     0.125979   0.08628291  -0.35   0.00059261    1.661    0.398
        86  -7.5839    152.6328    146.7002   9.4458809242e+01   2.2396060831e+01    0.1525784    0.1112115   4.23 0.0005898073    1.733    0.423
        87  -7.6005    133.4927    146.5318   9.9061334080e+01   2.6088209107e+01    0.1506461    0.1393214  13.00 0.0002426215    1.070    0.065
        88  -7.5305    202.3791    144.3045   8.3925322273e+01   1.3736795899e+01    0.1384786   0.09547575   4.27 0.0007025836    1.777    0.437
        89  -7.8422    183.9661    141.5329   8.6717266838e+01   1.7465866757e+01     0.191496    0.1131628  19.62 0.0006298167    2.403    0.584
        90  -7.8731    148.9880    141.5121   9.4187322400e+01   2.4129443672e+01    0.2074802    0.1256618  18.09 0.0008087613    2.414    0.586
        91  -7.4359    175.6640    138.6175   8.7724576941e+01   1.9530866309e+01    0.1518165    0.1062344  -0.69 0.0007007919    1.884    0.469
        92  -7.6341    149.4631    134.5134   9.2515520495e+01   2.5439248321e+01    0.1476855    0.1406026   7.75 0.0001409294    1.022    0.022
        93  -9.5789    245.1060    132.4944   7.5053675073e+01   8.6541508756e+00    0.3522224    0.1709392 -12.80  0.001365075    4.045    0.753
        94  -9.5256    243.7732    127.1018   7.4165003343e+01   9.5969617484e+00    0.3240989    0.1367318  56.33  0.001477817    3.556    0.719
        95  -7.6004    174.3321    127.3330   8.5464756100e+01   2.1831319305e+01    0.1483895    0.1096151   3.06 0.0005043548    1.728    0.421
        96  -8.4278     18.5067    114.4872   1.3115522456e+02   5.1490647849e+01    0.1374283    0.1272399 -86.07 9.628094e-05    1.010    0.010
        97  -7.9718    250.3104    105.6821   6.9090064167e+01   1.1506091417e+01    0.1177238   0.07905064 -54.08 0.0007033817    1.640    0.390
        98  -8.1620     31.3639    102.3227   1.2417553054e+02   5.3580121086e+01    0.1554382   0.09981075 -33.98 0.0002210277    1.786    0.440
        99  -9.8098    248.8183     98.0526   6.7711815791e+01   1.2765970446e+01    0.2784527    0.1740362  -4.42  0.001451593    2.470    0.595
       100  -9.0990     13.7397     94.7570   1.3065134695e+02   5.7028200007e+01    0.2185479    0.0887386  31.54 0.0008936851    2.417    0.586
       101  -8.9936    219.2251     99.0280   7.1510963334e+01   1.7771067310e+01    0.1885988    0.1859453 -71.43 0.0004056915    1.146    0.127
       102 -10.0043     53.3993     91.8001   1.1257225568e+02   5.3630385540e+01    0.3627765    0.2256785 -37.38  0.001575332    1.824    0.452
       103  -8.4770    106.8473     83.8943   9.0520921862e+01   4.5290721981e+01    0.2263497    0.2064904   7.63            0    1.225    0.183
       104  -9.8294     49.0040     84.0000   1.1248643482e+02   5.6211449061e+01    0.2304173    0.1978167  28.07  0.001099555    1.177    0.150
       105  -8.1228     22.3097     82.3202   1.2463086020e+02   5.9624740651e+01    0.1490691   0.09410506 -37.49 0.0007035007    1.644    0.392
       106  -8.7399     73.7219     81.7663   1.0140612286e+02   5.2688610590e+01    0.2513387    0.1135364  47.54  0.000890421    2.379    0.580
       107  -8.3050      3.1659     80.9797   1.3374944704e+02   6.1187970534e+01    0.2431544    0.1094766 -50.23 0.0008111258    1.999    0.500
       108  -8.4495     46.6518     71.3200   1.0998985440e+02   5.9640148132e+01    0.1509728    0.1114747  64.98 0.0007048811    1.736    0.424
       109  -7.8095     32.3189     71.6788   1.1721635505e+02   6.1354426915e+01     0.144308    0.1060253  62.69 0.0005580648    1.667    0.400
       110  -9.5981    121.0088     62.3944   7.9523369513e+01   4.6040653655e+01    0.2696786      0.25897  64.95 0.0002044954    1.023    0.022
       111  -7.8134    217.0054     50.9926   6.0740529216e+01   2.4891744144e+01    0.1604171      0.12626 -44.86 0.0004549773    1.100    0.091
       112  -9.2669     70.6176    249.1682   1.2858932499e+02   1.4993116658e+01    0.3775922    0.1496389  22.87  0.001685441    2.620    0.618
