#   1 NUMBER                 Running object number                                     
#   2 MAG_AUTO               Kron-like elliptical aperture magnitude                    [mag]
#   3 X_IMAGE                Object position along x                                    [pixel]
#   4 Y_IMAGE                Object position along y                                    [pixel]
#   5 X_WORLD                Barycenter position along world x axis                     [deg]
#   6 Y_WORLD                Barycenter position along world y axis                     [deg]
#   7 A_WORLD                Profile RMS along major axis (world units)                 [deg]
#   8 B_WORLD                Profile RMS along minor axis (world units)                 [deg]
#   9 THETA_WORLD            Position angle (CCW/world-x)                               [deg]
#  10 FWHM_WORLD             FWHM assuming a gaussian core                              [deg]
#  11 ELONGATION             A_IMAGE/B_IMAGE                                           
#  12 ELLIPTICITY            1 - B_IMAGE/A_IMAGE                                       
         1  -8.8369    119.1169     32.9014   7.9359841045e+01   5.0777968240e+01    0.3313982    0.1352847 -32.31  0.001272006    2.608    0.617
         2  -9.7584    190.3380     14.7253   6.2146119008e+01   3.6047041031e+01    0.2857504    0.2075195 -86.52  0.001685833    1.256    0.204
         3  -8.6315     55.8307     10.1556   8.8938202480e+01   6.5228099937e+01    0.1595694    0.1448708   8.47  0.000731112    1.304    0.233
         4  -7.9951     90.5259      9.0312   7.7972905966e+01   5.9198697462e+01    0.1507961   0.09545799 -49.11 0.0007157269    2.356    0.576
         5  -9.2901      6.4874      8.8708   1.0926924185e+02   7.1263290890e+01    0.1828636    0.1218383  33.12  0.001308568    2.053    0.513
         6 -10.5041    246.5537      4.9855   5.4836635249e+01   2.4468401295e+01    0.4725274    0.3163196  58.03  0.002149043    1.818    0.450
         7  -8.6750     33.2467      5.2252   9.5427905924e+01   6.8914094228e+01    0.2207846    0.1567165 -49.79  0.001362897    2.782    0.640
         8  -8.2686     79.1406      3.9090   7.9044427581e+01   6.1808318287e+01    0.1582972    0.1557426  -0.27 0.0007447985    1.340    0.254
         9  -7.9478    115.3378      2.6731   7.0121272053e+01   5.4569047970e+01    0.1190728   0.09085261 -75.22 0.0007051675    1.727    0.421
        10  -9.0928    235.7415      1.4085   5.4954710702e+01   2.7156905639e+01    0.2312576   0.09723555  81.00  0.001142835    2.142    0.533
        11  -8.2435     62.2862      1.4115   8.3040071747e+01   6.4993456455e+01    0.1402721   0.09933737  50.66 0.0003217002    1.524    0.344
        12  -7.8290     39.3080      1.6629   9.1338305779e+01   6.8477026554e+01   0.09147577   0.08585045 -23.56 0.0007042543    1.679    0.404
        13  -8.3187    144.2160    248.2037   1.2357153094e+02   2.4017455843e+00    0.2144836   0.07984094  48.14 0.0008651423    2.468    0.595
        14  -9.0714    210.9972    246.4664   1.1030663377e+02  -8.4086700710e+00    0.2322764    0.1939379 -70.69  0.001083796    1.935    0.483
        15  -8.2677     94.0395    249.7338   1.3353080280e+02   1.0336826473e+01    0.2509298    0.1339931  80.07  0.001151819    2.627    0.619
        16  -9.1343     65.5445    249.4639   1.3881919968e+02   1.4599686014e+01    0.2695983    0.1578629  67.41  0.001037109    1.515    0.340
        17  -9.4712     52.6828    249.9502   1.4117607448e+02   1.6259368370e+01    0.2561606      0.13473  48.25 0.0004545762    1.601    0.375
        18  -8.8646     27.0348    250.5213   1.4564541505e+02   1.9351453551e+01    0.1650512   0.09062092  47.41  0.001038056    1.613    0.380
        19  -8.4023    131.9941    247.9496   1.2594893383e+02   4.5102557208e+00    0.1998033    0.1374516  68.54 0.0005159096    1.625    0.385
        20  -9.0053     34.7654    248.0388   1.4416530059e+02   1.8909766072e+01     0.219602    0.1110158  62.27 0.0008300428    1.624    0.384
        21 -10.1518    224.0705    244.0610   1.0746377160e+02  -1.0076925939e+01    0.4222355    0.2599698 -44.38  0.002034813    1.972    0.493
        22  -9.0340    120.0656    245.5344   1.2799308159e+02   6.9451517457e+00    0.3435148    0.2044813  78.79  0.001456455    2.455    0.593
        23  -7.6010     89.6386    247.3186   1.3411280059e+02   1.1476699172e+01    0.1373689   0.07837828  66.57 0.0007042414    1.768    0.434
        24  -7.7673     76.5662    247.5337   1.3660386019e+02   1.3395074426e+01    0.1248071   0.09728739  68.45 0.0001116363    1.015    0.015
        25  -8.3838    146.9631    245.9758   1.2271949582e+02   2.3251041276e+00    0.2106949     0.144963  68.49   0.00112242    1.782    0.439
        26  -8.1801     67.4363    245.2506   1.3808893524e+02   1.5157263665e+01    0.1642678    0.1010782 -89.57 0.0009439876    1.592    0.372
        27  -9.0863     46.0236    244.6773   1.4194079918e+02   1.8162779105e+01    0.1660468    0.1214939  63.28 0.0004923605    1.114    0.102
        28  -8.8299    201.9994    243.4985   1.1153179099e+02  -6.5335114537e+00    0.2143281     0.176079 -57.80 0.0008231815    1.664    0.399
        29  -8.5525    169.2870    243.5260   1.1792768911e+02  -1.0735059404e+00    0.2268253    0.1702094  57.65 0.0006776875    1.453    0.312
        30  -9.5447    160.0442    241.0197   1.1939129373e+02   9.4391121645e-01    0.4478018    0.2582723 -56.45  0.001817694    2.142    0.533
        31  -8.8286    194.3943    240.7137   1.1254587424e+02  -4.8548520790e+00    0.3585755    0.2067967 -58.12  0.001236534    2.744    0.636
        32  -7.9224     77.4896    243.0225   1.3598470549e+02   1.4144617695e+01     0.177137   0.09124914  82.51 0.0008092134    2.514    0.602
        33  -8.7248    179.2067    242.3720   1.1578781533e+02  -2.5712146184e+00    0.3599503     0.144087  41.30  0.001556542    2.173    0.540
        34  -9.1696    182.8837    240.2094   1.1472011466e+02  -2.8404968706e+00    0.3444585    0.2327174  65.40  0.001343018    2.225    0.551
        35  -8.6558    152.3042    242.5105   1.2116109776e+02   2.0190040205e+00    0.4240787    0.1566623  35.55  0.001636818    2.768    0.639
        36  -7.9689     88.3262    242.1876   1.3381781801e+02   1.2677972261e+01    0.1693205    0.1059712 -83.00 0.0005958638    1.717    0.418
        37  -9.0770     30.0496    242.0481   1.4455919177e+02   2.0654737828e+01    0.1803691    0.1273867  72.98 0.0004921015    1.051    0.048
        38  -9.5100      3.3444    240.7771   1.4897926424e+02   2.3832449892e+01    0.2318329    0.1375647  83.45 0.0006569137    1.250    0.200
        39  -8.5992    214.1398    241.1051   1.0882313807e+02  -8.1138984805e+00    0.1987018    0.1540439   5.10  0.001231768    1.242    0.195
        40  -8.7841     37.9772    241.4505   1.4312343553e+02   1.9817417434e+01    0.1651499   0.09738258  47.11 0.0004483519    1.548    0.354
        41  -8.1694    209.2090    238.7713   1.0936664642e+02  -6.9774563916e+00    0.1797678    0.1364634  79.54 0.0007098195    2.596    0.615
        42  -7.6646    146.2878    239.6803   1.2196111945e+02   3.5647661355e+00    0.1307787   0.09580991  69.73 0.0006163177    1.597    0.374
        43  -8.7596    135.7275    238.9363   1.2398954125e+02   5.5258996913e+00    0.2057159    0.1411628  80.02 0.0009180981    1.928    0.481
        44  -8.1845    129.0271    238.8335   1.2532991765e+02   6.6938134052e+00    0.2243706    0.1289342  61.47 0.0008696097    1.964    0.491
        45  -8.0507    125.7027    239.6799   1.2611384578e+02   7.0992437701e+00    0.1208705    0.1035285   3.07 0.0004032419    1.617    0.382
        46  -8.4164    107.1996    238.8165   1.2971593949e+02   1.0348740620e+01    0.2074229    0.1530376  66.97 0.0007901039    1.257    0.204
        47  -8.1082     83.8811    238.8313   1.3432014289e+02   1.4023883932e+01    0.1793837     0.119778  63.30  0.000458437    1.306    0.234
        48  -8.4502     53.0528    239.0752   1.4020073838e+02   1.8366081966e+01    0.2007527    0.1105718  68.52 0.0005770436    1.655    0.396
        49  -9.1272    231.0885    237.1904   1.0499590010e+02  -1.0156617571e+01    0.2381786    0.2053338 -62.99  0.001134606    1.832    0.454
        50  -8.0155    189.5276    237.4840   1.1296970765e+02  -3.5211389919e+00    0.1299454    0.1141559  30.72 0.0001491988    1.049    0.046
        51  -7.9822     25.3384    236.9965   1.4502809488e+02   2.2213978492e+01    0.1970019   0.06843811  83.25  0.000704981    4.477    0.777
        52 -10.1030    214.5545    232.6746   1.0730411203e+02  -6.9040453106e+00    0.5582075    0.3790257 -72.70  0.002439612    3.707    0.730
        53  -9.0246    203.1440    234.8449   1.0986925995e+02  -5.3774976748e+00    0.2791426    0.2036369 -65.26  0.001145086    2.197    0.545
        54  -9.6861    175.7877    233.3122   1.1502402636e+02  -4.5673741798e-01     0.464237    0.2658077 -61.58  0.002109828    2.645    0.622
        55  -8.1878    170.2917    235.8317   1.1653385862e+02   6.5997600980e-02    0.1891958    0.1622405 -85.14 0.0006178058    1.494    0.331
        56  -9.1529     19.3356    238.4334   1.4616470064e+02   2.2601606400e+01    0.2237926     0.153874 -89.22 0.0009781541    1.182    0.154
        57  -7.9543     44.6708    236.3095   1.4151028307e+02   2.0017990908e+01    0.1293308   0.06974758  68.29 0.0003813829    1.664    0.399
        58  -9.0998    108.6051    234.4150   1.2888643678e+02   1.0987205220e+01    0.3503614    0.2082534  62.95  0.001065742    1.742    0.426
        59  -8.5422     95.0722    234.5621   1.3163104015e+02   1.3148205335e+01    0.2549994    0.1643976  85.02  0.001286485    1.729    0.422
        60  -8.6810     78.9181    234.5286   1.3483044972e+02   1.5642884486e+01    0.2447338    0.1510212  84.11 0.0009401957    1.705    0.413
        61  -8.7978     13.5223    234.9730   1.4693914979e+02   2.3926251819e+01    0.1637616   0.08778804 -80.71 0.0006093277    1.544    0.352
        62  -7.9987      7.5964    235.1818   1.4795726882e+02   2.4503961429e+01    0.1469348   0.08204618 -73.71 0.0008039704    1.602    0.376
        63  -8.3331    132.1844    233.5983   1.2396357715e+02   7.1479818407e+00    0.2461564    0.1602918 -45.12  0.001282755    1.846    0.458
        64  -8.0300    122.6136    233.8207   1.2595525489e+02   8.7517308889e+00     0.175326    0.1230822 -77.29 0.0004848818    1.659    0.397
        65  -8.1080     99.3969    234.2401   1.3072473395e+02   1.2522838539e+01    0.1764927    0.1148335 -83.91 0.0008759435    1.715    0.417
        66  -9.4064     68.6132    232.6285   1.3664672851e+02   1.7540730491e+01    0.4476007    0.1891845  68.72  0.001712772    3.496    0.714
        67  -8.9759     53.7440    234.3731   1.3965809929e+02   1.9233833342e+01    0.1666901   0.08683656 -74.48 0.0008949332    1.812    0.448
        68  -9.8582     61.8987    228.3575   1.3752888161e+02   1.9377835740e+01    0.4313791    0.1823158  47.06  0.001749374    2.053    0.513
        69  -9.6983    235.7489    231.3202   1.0311391482e+02  -1.0009915738e+01     0.369176    0.2327302  -4.08  0.001326011    1.845    0.458
        70  -8.6292    194.5539    232.7601   1.1119423251e+02  -3.6009264271e+00    0.1623721     0.127974 -54.66 0.0005865577    1.593    0.372
        71  -9.3342    186.3194    230.8154   1.1249993735e+02  -1.8628205873e+00    0.3000742    0.2229396 -80.83  0.001286123    2.273    0.560
        72  -7.7855    157.6789    232.3037   1.1854081333e+02   2.9112038688e+00    0.1346979   0.09949905  67.82 0.0002833814    1.633    0.387
        73  -8.5434      1.6972    231.3137   1.4872437057e+02   2.5870217381e+01    0.2077009   0.09842877  85.79  0.001225221    1.719    0.418
        74  -9.9243    149.2959    226.2380   1.1932766824e+02   5.5384902587e+00     0.623587     0.419667  88.00  0.002900247    2.351    0.575
        75  -8.6994    140.1799    230.1080   1.2181057745e+02   6.4193418390e+00    0.2577131    0.1563075  62.57  0.000938924    1.961    0.490
        76  -8.5528     32.4600    230.1626   1.4325399047e+02   2.2781719095e+01    0.1765117    0.1429722  55.58 0.0003767856    1.312    0.238
        77  -8.9696    229.7576    228.5763   1.0372666000e+02  -8.6885009302e+00    0.2423627    0.1436286 -48.10  0.001051955    2.156    0.536
        78  -8.7854    162.0859    228.0806   1.1696934186e+02   2.9004686151e+00    0.2473127    0.1842083  53.68 0.0008627933    1.335    0.251
        79  -9.0674    128.0229    227.3595   1.2393656827e+02   9.0919786916e+00     0.282256    0.1847223  74.48  0.001096586    1.950    0.487
        80  -8.6553     48.9747    227.4943   1.3994443739e+02   2.1293003994e+01    0.2644091    0.1982796 -64.85  0.001699677    1.484    0.326
        81  -8.1636    119.5293    227.5216   1.2572973953e+02   1.0530009834e+01    0.1368701    0.1174197  62.05 0.0001105877    1.022    0.022
        82  -8.9775     94.4398    224.6177   1.3055886773e+02   1.5300185253e+01     0.439128    0.2265394  81.35  0.001698079    3.273    0.694
        83  -8.5590      6.3416    226.4787   1.4764603816e+02   2.6389510857e+01    0.2228795     0.110738  60.02 0.0008856916    1.672    0.402
        84  -8.7177    206.0029    225.8050   1.0774928713e+02  -4.4004168918e+00    0.2172927     0.168958 -54.45 0.0007193016    1.646    0.393
        85  -8.8502    216.5235    223.7107   1.0534532702e+02  -5.8166790969e+00    0.2744575    0.1794746 -49.11 0.0008242647    1.874    0.466
        86  -9.1129    180.7774    224.3401   1.1252127534e+02   2.3546224085e-01    0.2742152    0.2013541  64.58  0.001226875    1.772    0.436
        87  -8.5112     74.3317    225.3799   1.3475337138e+02   1.8230369314e+01    0.2560067    0.1621834  26.77  0.001074282    2.241    0.554
        88  -8.7243    173.0789    223.1425   1.1389242020e+02   1.8304156197e+00    0.2988065     0.218365 -75.76   0.00113963    2.020    0.505
        89  -7.4882    113.6636    224.2806   1.2650872161e+02   1.2193191040e+01    0.1415811   0.09319188  67.09 0.0002843099    1.618    0.382
        90  -8.6856    104.6505    223.7210   1.2832089560e+02   1.3823975306e+01    0.2899886    0.1798006  83.93   0.00137939    2.046    0.511
        91  -9.0926    238.9650    221.5175   1.0076392415e+02  -9.0461937689e+00    0.2150662     0.171485 -46.04 0.0007003352    1.563    0.360
        92  -9.6354    225.9374    220.8453   1.0304401325e+02  -6.8963593506e+00     0.456762    0.2624854 -14.56  0.002088762    2.339    0.572
        93  -9.2601    192.3066    221.1632   1.0963948504e+02  -1.2512624194e+00    0.3237713    0.2509446 -73.48  0.001148308    1.929    0.482
        94  -8.6526     55.0443    221.8945   1.3823892458e+02   2.1685538453e+01     0.191238    0.1514213  76.93 0.0005506346    1.004    0.004
        95  -8.6633     19.0083    221.4643   1.4505845530e+02   2.6116851081e+01     0.219098    0.1234094  81.16 0.0006802071    1.485    0.327
        96  -8.6226    159.0035    220.5629   1.1638570581e+02   4.8671906211e+00    0.2384957    0.1942803 -80.93 0.0006427399    1.518    0.341
        97  -8.8031     82.8307    220.7202   1.3248626002e+02   1.7948962476e+01     0.302402    0.1609785  73.51  0.001331461    2.388    0.581
        98  -7.9314     27.4816    221.5017   1.4349854996e+02   2.5173431326e+01    0.1197829   0.09131546  81.85 3.759163e-05    1.033    0.032
        99  -8.4373    202.5436    220.0284   1.0739939169e+02  -2.8467486950e+00    0.1923339    0.1299322 -40.91 0.0004852122    1.573    0.364
       100  -9.2669    132.7565    216.1084   1.2125111533e+02   1.0531478862e+01    0.5010872    0.3034471  87.16    0.0020093    2.911    0.656
       101  -9.0214    120.3312    219.3039   1.2439482262e+02   1.2074659336e+01    0.3870972    0.2191108  70.74  0.001601286    2.578    0.612
       102  -7.9998     43.7833    220.6357   1.4032457780e+02   2.3413512915e+01    0.1666133   0.09357694  52.29 0.0006183948    1.580    0.367
       103  -8.6326    249.0500    218.4228   9.8390522439e+01  -1.0102032944e+01    0.2973825    0.2023537  62.14  0.001469921    2.981    0.665
       104  -8.6176    209.9617    219.0011   1.0576010259e+02  -3.9486312000e+00    0.2225226    0.1769135 -42.52 0.0007286263    1.389    0.280
       105  -7.9331    154.1358    219.1419   1.1717620719e+02   6.0309196085e+00    0.1905493    0.1574182  69.14 0.0004919526    1.324    0.245
       106  -7.8758     98.9612    219.4725   1.2895704714e+02   1.5658835689e+01    0.1885929   0.09540381  60.61 0.0005147351    2.213    0.548
       107  -8.1180      1.4819    219.5172   1.4806468717e+02   2.8295542694e+01    0.1144861   0.08086265  81.69 4.855125e-05    1.006    0.006
       108  -8.8164    108.2080    217.6472   1.2674681027e+02   1.4508636870e+01    0.2174157    0.1487209  58.52 0.0005516896    1.368    0.269
       109  -8.7623    169.3066    216.5588   1.1355084731e+02   3.7407543337e+00    0.2792202    0.2179257  79.43 0.0007927937    1.720    0.419
       110  -8.6460    142.7849    216.5101   1.1916250291e+02   8.6291825164e+00     0.257879    0.1813468 -79.63 0.0008871086    1.866    0.464
       111  -8.7390     51.4672    217.4786   1.3851578055e+02   2.3113111834e+01    0.2328014    0.1500492 -89.68 0.0006626047    1.389    0.280
       112  -7.5018     76.3193    217.2961   1.3343253904e+02   1.9674932193e+01    0.1162074    0.1048977 -30.60 0.0002825201    1.613    0.380
       113  -8.1509     61.5250    217.0292   1.3644455382e+02   2.1858914289e+01    0.1813059   0.09290577  82.40 0.0007950601    2.362    0.577
       114 -10.2627    160.8407    214.7710   1.1502593637e+02   5.6476659158e+00    0.3447226    0.2577414 -40.33 0.0005075375    1.483    0.326
       115 -10.3261     34.0002    213.9368   1.4163138906e+02   2.6047210854e+01    0.4687423    0.2841264  78.76  0.002750627    1.449    0.310
       116  -8.4024     12.8457    216.1070   1.4580269408e+02   2.7892403739e+01    0.1738404    0.1161732  76.65 0.0003193143    1.159    0.137
       117  -8.7517    232.2255    214.9602   1.0078827137e+02  -6.9785076046e+00    0.2220822    0.2088107 -34.84  0.000991756    1.300    0.230
       118  -8.5416    185.7592    214.6658   1.0981077844e+02   1.0794049861e+00    0.2359088     0.180384 -78.73  0.000894121    1.974    0.493
       119  -8.3350    154.3964    215.1775   1.1646363875e+02   6.7606176174e+00    0.1899612    0.1340336 -67.20 0.0008312083    1.741    0.425
       120  -8.2461     87.0301    215.5212   1.3097079837e+02   1.8424630389e+01    0.2033215    0.1181423  46.16  0.001019194    1.580    0.367
       121  -8.5697     93.0064    213.9125   1.2949169654e+02   1.7827092601e+01    0.2858577    0.1646627  72.07  0.001001473    2.111    0.526
       122  -9.8694     72.1783    212.1281   1.3369271612e+02   2.1423118775e+01    0.6739929    0.2865276  51.60  0.002971686    2.230    0.552
       123  -8.1383    224.7702    212.9292   1.0180111532e+02  -5.4374811152e+00    0.1907392    0.1515057 -63.82  0.001055286    1.870    0.465
       124  -9.1734    213.8929    212.2003   1.0374436502e+02  -3.4798990760e+00    0.3183318    0.2573033  74.22   0.00129462    1.907    0.476
       125  -8.8100    204.3819    210.9829   1.0538155431e+02  -1.6100433810e+00    0.2521939    0.2027558 -63.54 0.0008648924    1.661    0.398
       126  -8.3320      3.9627    212.2617   1.4716046356e+02   2.9578821719e+01    0.1521035    0.1151378  76.75 0.0003405385    1.099    0.090
       127  -9.4725    175.4070    210.0171   1.1112000352e+02   3.8548262425e+00    0.3887525    0.2845113  77.73  0.001479113    2.045    0.511
       128  -8.7930    147.8681    210.6292   1.1710117660e+02   8.8853721268e+00    0.2638374    0.2060202 -72.12 0.0008641219    1.483    0.325
       129  -8.6901    116.1990    210.5403   1.2399120391e+02   1.4655914360e+01    0.3016645    0.2024527  74.16 0.0008028835    1.754    0.430
       130  -8.3714     85.6619    209.7262   1.3052245338e+02   1.9916581593e+01    0.2696052    0.1490513  88.48 0.0009786426    2.414    0.586
       131  -8.9279    236.4196    208.4637   9.8796008329e+01  -6.6174811891e+00    0.2426121    0.2125511 -56.09 0.0007824257    1.521    0.343
       132  -9.0173    137.8236    208.5101   1.1893371415e+02   1.1187713546e+01    0.4252396    0.2308585  33.07  0.001817131    2.040    0.510
       133  -7.3347     46.3295    209.6673   1.3877920772e+02   2.5489741268e+01    0.1373797   0.07784453  70.93 0.0007051946    1.721    0.419
       134  -9.4196     25.7454    207.7949   1.4271601816e+02   2.8323995309e+01    0.4017621    0.1680906 -81.80  0.001513416    2.204    0.546
       135 -10.0573    123.9412    205.9446   1.2157518609e+02   1.4273197565e+01    0.3670307    0.2329468  74.18  0.001618577    2.108    0.526
       136  -9.2403     99.5659    206.4585   1.2704551011e+02   1.8399298912e+01     0.428495    0.2511161  80.79  0.001442199    2.365    0.577
       137  -9.3226     79.4396    206.3956   1.3143903578e+02   2.1622317984e+01    0.4000254    0.1934985  44.52  0.001183723    1.930    0.482
       138  -9.4832     12.7351    203.8701   1.4492389598e+02   3.0535122522e+01     0.272971    0.1548057 -79.48  0.001319067    1.409    0.290
       139  -9.2990    194.8750    203.5711   1.0589874748e+02   1.4458150648e+00    0.3621284    0.2782033 -59.37  0.001373454    1.601    0.375
       140  -9.4840    192.4942    197.2889   1.0518131568e+02   3.0706000444e+00    0.4078941    0.2684235 -55.81  0.001131173    1.824    0.452
       141  -9.0348    183.6797    204.0186   1.0828965421e+02   3.4505587040e+00    0.3034796    0.2293817  69.44 0.0008758852    1.772    0.436
       142  -8.6951    131.3014    204.3309   1.1968133900e+02   1.3279840069e+01    0.3116113    0.1953753  64.37 0.0009000301    1.899    0.473
       143  -8.2073     98.7819    210.5727   1.2779522017e+02   1.7618059180e+01     0.204989    0.1119098  52.61 0.0009457375    1.735    0.423
       144  -9.4750    250.1507    201.9779   9.5101365060e+01  -7.7547317055e+00    0.4114545    0.1729994 -37.20   0.00164824    2.197    0.545
       145  -8.3603    179.2272    204.0264   1.0922252874e+02   4.2885379147e+00     0.193269     0.185029  39.95 0.0004872287    1.054    0.051
       146  -9.6547    163.7949    203.1773   1.1235277520e+02   7.3920386833e+00     0.431311     0.268631  62.81  0.001050944    2.127    0.530
       147  -9.1988    243.0474    200.8820   9.6145728235e+01  -6.4612761795e+00    0.2902547    0.1760266 -40.10 0.0007955827    1.610    0.379
       148  -8.4067    211.0096    202.0002   1.0237157182e+02  -1.2065478876e+00    0.2005803    0.1726802 -86.55 0.0005577083    1.656    0.396
       149  -8.7484    140.4810    201.3015   1.1713005359e+02   1.2219267326e+01    0.3139745    0.2157593  79.50  0.001080078    2.005    0.501
       150  -8.6322     80.0382    201.5208   1.3067472917e+02   2.2637164954e+01    0.3183029    0.1746924  73.47  0.001367997    2.337    0.572
       151  -8.8488     56.4926    205.4968   1.3623928304e+02   2.5104932329e+01    0.2954649    0.1498447  71.47 0.0009220209    2.310    0.567
       152  -8.9206    237.0424    198.6860   9.6802622763e+01  -5.1249277228e+00    0.2766443    0.1759123 -50.15  0.001162863    1.893    0.472
       153  -9.3619    149.6475    198.9231   1.1467698843e+02   1.0981797764e+01    0.3904277     0.270353  85.87  0.001212937    2.145    0.534
       154  -8.8728    124.0785    199.5125   1.2050083741e+02   1.5657116183e+01    0.3061537    0.2103484  83.38  0.001412522    1.869    0.465
       155  -9.2311    112.6090    198.2659   1.2289216581e+02   1.7997864461e+01    0.4175489    0.2478513  80.43  0.001665521    2.603    0.616
       156  -9.4118    246.3521    207.3978   9.6805127630e+01  -8.0165277414e+00    0.2684755    0.2012625 -32.78  0.000666075    1.275    0.216
       157  -8.4664    176.9652    199.1373   1.0878373208e+02   5.6749114573e+00    0.2167037    0.1915036  76.01 0.0006287554    1.317    0.241
       158  -8.9659    105.5349    199.0283   1.2461310432e+02   1.9059106449e+01    0.2522662     0.194505  50.04 0.0004799791    1.227    0.185
       159  -9.0649     88.6841    198.4907   1.2833411872e+02   2.1980039583e+01    0.3611538      0.22182  83.51  0.001494879    1.989    0.497
       160  -7.8758     22.3114    199.3307   1.4267223825e+02   3.0564139496e+01    0.1142199   0.08280922 -54.25  0.000704299    1.672    0.402
       161  -8.0773    230.6321    198.6739   9.7978312138e+01  -4.0503463665e+00    0.1433973   0.09733615   1.34 0.0007035488    1.807    0.447
       162  -8.2845    202.0744    198.0256   1.0337554915e+02   1.1390137748e+00    0.2088125    0.1757455 -88.86  0.000563218    1.667    0.400
       163  -9.9248     61.5145    197.3084   1.3421565616e+02   2.6293368104e+01    0.3845268    0.2152339  72.32  0.001320293    2.009    0.502
       164 -10.2047     52.5605    197.4672   1.3618020115e+02   2.7451049769e+01    0.2996339    0.2366169 -66.73  0.001605691    1.280    0.219
       165  -8.2812    133.2443    196.4034   1.1790406091e+02   1.4644079559e+01    0.2466463    0.1746628 -82.74  0.000505989    1.776    0.437
       166  -8.2102     44.6426    199.2873   1.3806806115e+02   2.8034324189e+01    0.1363733   0.07959757  68.64 0.0007023747    1.679    0.404
       167  -7.8426     36.3164    197.6308   1.3964630354e+02   2.9404694705e+01    0.1381463    0.0771255  73.03  0.000703634    1.783    0.439
       168  -8.6021    215.9642    195.7035   1.0017790074e+02  -9.7378914524e-01    0.2281643    0.1915323 -67.26 0.0006924086    1.585    0.369
       169  -9.2298    245.7196    193.8025   9.4292892280e+01  -5.7386083492e+00    0.3144245    0.2481348 -72.37  0.001222564    2.108    0.526
       170  -8.7125    224.4969    194.2107   9.8250337511e+01  -2.2252404168e+00    0.2927058    0.2049675 -58.48 0.0009542986    1.941    0.485
       171  -8.7010    185.2700    194.8274   1.0620422792e+02   4.9253015304e+00    0.2510779    0.2134054 -78.25 0.0006822924    1.478    0.323
       172  -9.1059    161.0173    194.5401   1.1136223216e+02   9.7016780574e+00    0.2911042    0.2231281 -86.80 0.0008382642    1.731    0.422
       173  -8.3551    230.6506    194.2193   9.7100494146e+01  -3.2948950829e+00     0.192207    0.1165008 -30.51 0.0009447529    1.621    0.383
       174  -8.5883     76.8727    194.0622   1.3038030623e+02   2.4837663010e+01    0.2192233    0.1612835  78.79 0.0006209909    1.314    0.239
       175  -9.3269     43.7488    193.5235   1.3764249006e+02   2.9463851429e+01    0.4104508    0.2028565  69.35  0.001870803    2.345    0.574
       176  -8.5426      6.0328    194.0674   1.4547519027e+02   3.3319317544e+01     0.182561    0.1338531  85.89  0.000525096    1.029    0.028
       177  -7.9685    241.4335    192.4375   9.4785411495e+01  -4.8113057422e+00     0.132293    0.1153484 -11.82 0.0001021981    1.008    0.008
       178  -7.9379    199.0117    191.9742   1.0280502338e+02   2.8465589234e+00    0.2090766     0.176649 -85.54 0.0005378959    1.598    0.374
       179  -8.2509    172.3077    191.8659   1.0838966192e+02   8.0420020709e+00     0.223625    0.1804238 -72.51 0.0006580362    1.507    0.336
       180  -9.0672    139.3848    190.5781   1.1547331346e+02   1.4760159187e+01    0.3398436    0.2442095  89.10 0.0009375805    1.839    0.456
       181  -8.1548    117.9967    192.3243   1.2068773850e+02   1.8378102132e+01    0.2036728    0.1787537  58.50 0.0004974523    1.074    0.069
       182 -10.4273     92.1693    188.9505   1.2613096764e+02   2.3631029778e+01    0.9222023    0.3310671  52.57  0.003110863    3.339    0.701
       183  -8.4090    178.8891    191.3885   1.0688297738e+02   6.8478024988e+00    0.1996667    0.1843698 -68.41 0.0004780803    1.196    0.164
       184  -8.9258    129.3140    188.7393   1.1745288803e+02   1.7093132823e+01    0.3412079    0.2339346  81.19  0.001013677    1.948    0.487
       185  -8.9038    216.5822    188.0866   9.8540335121e+01   2.8869877909e-01    0.2857293    0.2303487 -69.41 0.0008617442    1.700    0.412
       186  -9.2806    155.9924    187.6641   1.1117049202e+02   1.2147605343e+01    0.3738675    0.2327987 -61.21 0.0008296154    1.883    0.469
       187  -8.2325    148.3750    189.2271   1.1318217163e+02   1.3310014559e+01    0.2029279    0.1402917 -63.91 0.0005245844    1.637    0.389
       188  -9.6934    120.8941    186.8511   1.1907439236e+02   1.9097854358e+01    0.5901905    0.3112843 -74.83  0.002099675    3.042    0.671
       189  -8.2545     70.9223    189.1333   1.3106202591e+02   2.6871325629e+01    0.2097879    0.1593834  74.09 0.0003772281    1.239    0.193
       190  -8.7686     34.3438    188.3390   1.3911872699e+02   3.1757049101e+01    0.2630581    0.1394244  72.92 0.0009668647    2.024    0.506
       191  -8.3194    237.3433    187.9715   9.4633564769e+01  -3.3686783870e+00    0.2680546    0.1508832 -26.94  0.001053321    1.875    0.467
       192  -8.8670    191.3093    187.4941   1.0349321160e+02   5.1942761567e+00    0.3303731    0.2474564 -76.99  0.001075626    1.963    0.491
       193  -9.2913     54.7913    187.0610   1.3445733229e+02   2.9580716163e+01    0.4414344      0.22115  70.93  0.001802668    2.591    0.614
       194  -8.6906     49.9398    188.5045   1.3571818545e+02   2.9863709894e+01    0.1789033    0.1210316  45.35   0.00044835    1.514    0.340
       195  -7.9015    230.4533    187.5042   9.5799331575e+01  -2.0962444787e+00    0.1348955    0.1242319 -18.06 0.0003146638    1.062    0.059
       196  -8.6743    164.8063    186.8929   1.0905985522e+02   1.0560351692e+01    0.2647431    0.2046477 -74.61 0.0006183333    1.605    0.377
       197  -9.0214    109.4182    186.1405   1.2164145310e+02   2.1343534804e+01    0.3750834    0.2454367  82.84 0.0009785965    2.004    0.501
       198  -8.8595     28.4851    187.2164   1.4026341009e+02   3.2655946209e+01    0.1977075    0.1603744  54.88 0.0005508825    1.303    0.232
       199  -8.5133    249.3178    185.7924   9.2081727719e+01  -4.9994250554e+00    0.2395272    0.1884671 -55.14 0.0009171508    1.588    0.370
       200  -8.5367    182.8828    185.3825   1.0483973859e+02   7.2731538092e+00    0.2714445    0.2081982 -44.83 0.0008874777    1.330    0.248
       201  -8.9871    210.0673    184.2610   9.9036773509e+01   2.2099043004e+00    0.2365758    0.1966226 -38.51 0.0005354027    1.188    0.158
       202  -8.8071    202.8010    184.7022   1.0057540543e+02   3.5110042764e+00    0.2494814    0.1853638 -70.18 0.0006768371    1.916    0.478
       203  -9.0675     66.3735    184.3927   1.3146348182e+02   2.8642331793e+01    0.3636479    0.2142078  79.03 0.0009768426    2.014    0.503
       204  -8.5836    224.0683    183.6218   9.6206066399e+01  -2.6676767951e-01    0.2368322    0.1774923 -45.15 0.0006537202    1.366    0.268
       205  -8.5470    197.0068    183.9331   1.0159628838e+02   4.7814019319e+00    0.2231482    0.1820179 -87.58 0.0007788619    1.691    0.409
       206  -9.1090    174.1714    183.5755   1.0634880107e+02   9.3824748797e+00    0.2885738    0.2245062 -77.74 0.0008211256    1.672    0.402
       207  -8.9521    241.2267    181.7826   9.2694227433e+01  -2.9680969627e+00    0.4013163    0.2716802 -73.33  0.001710587    3.174    0.685
       208  -9.0490     44.4389    182.5960   1.3625228587e+02   3.1926087599e+01    0.3414514    0.1868707  72.60  0.001308907    2.065    0.516
       209  -9.1046    147.5541    180.6939   1.1173478080e+02   1.5351278976e+01    0.3601757    0.2614678  83.95  0.001078955    1.860    0.462
       210  -8.3531     17.1228    191.8640   1.4307384580e+02   3.2763097144e+01    0.1932085    0.1283822  75.13 0.0007127565    1.298    0.229
       211  -8.4104     60.1039    181.9277   1.3258408404e+02   3.0091364281e+01    0.2114015    0.1582781  74.67 0.0004673905    1.267    0.211
       212  -9.4149     25.4656    178.8692   1.4006981920e+02   3.4898865164e+01    0.6025726    0.2359186  85.21  0.002072052    4.300    0.767
       213  -8.6602    137.8560    179.6922   1.1378886841e+02   1.7496552193e+01    0.2878728    0.1973664 -88.86  0.001214727    2.078    0.519
       214  -7.9008    114.5094    180.5114   1.1945981796e+02   2.1742286776e+01     0.151733    0.1348574  79.32 0.0001305007    1.078    0.073
       215  -8.6558    205.1155    177.8701   9.8703763111e+01   4.3795473260e+00    0.3039225    0.1829926 -45.86 0.0009977965    1.672    0.402
       216  -9.5415    191.5474    178.4883   1.0160501061e+02   6.9379280926e+00    0.3414572    0.2579297  63.26 0.0008677026    1.606    0.377
       217  -7.8588    169.4337    178.9212   1.0644406781e+02   1.1318560302e+01    0.2025129    0.1324934 -73.24 0.0008035456    2.340    0.573
       218  -9.5892    248.4073    176.5193   9.0376379201e+01  -3.2838884810e+00    0.4612221    0.2590791 -48.33  0.001778511    1.910    0.476
       219  -8.3242    217.7463    177.5008   9.6150594979e+01   2.0268812238e+00    0.2434873    0.1825959 -76.15 0.0008816057    2.076    0.518
       220  -8.4770    129.0484    177.3444   1.1541487076e+02   1.9748937309e+01    0.2743414    0.2042348 -87.48 0.0006786457    1.622    0.384
       221  -8.0630    101.4026    178.2306   1.2220396548e+02   2.4612422248e+01    0.2050657    0.1344972 -72.12 0.0005418822    1.608    0.378
       222  -8.9516     35.7238    176.5783   1.3752414842e+02   3.4346880757e+01    0.4688805    0.1981491  83.08  0.001599937    4.207    0.762
       223  -8.5190    231.1772    176.8250   9.3492700412e+01  -3.2877102754e-01    0.2512586    0.1719117 -47.33 0.0009971944    1.507    0.336
       224  -8.8167    183.1839    176.3182   1.0291908407e+02   9.0659822219e+00    0.2734066    0.2360083 -72.30 0.0004293266    1.337    0.252
       225  -8.8135     88.8997    176.7248   1.2497250502e+02   2.7067148459e+01    0.2823539    0.1793045 -85.21 0.0009020008    1.860    0.462
       226  -9.9272     57.1196    173.1203   1.3209031306e+02   3.2594360849e+01    0.8056306    0.3683157  85.13  0.002497371    4.735    0.789
       227  -8.4752     12.9801    176.9244   1.4259664722e+02   3.6545255370e+01     0.200666     0.113887  71.50 0.0007717231    1.725    0.420
       228  -8.0231    211.5097    176.4868   9.7149163123e+01   3.4065136761e+00     0.143379    0.1344587 -11.95 0.0003979398    1.012    0.012
       229  -9.3186    158.9173    175.2390   1.0804602194e+02   1.4260353044e+01    0.4361285    0.2902838  77.20  0.001417519    2.365    0.577
       230  -9.3152    104.2112    174.7913   1.2092457807e+02   2.4942669519e+01    0.4736332    0.2593731  64.56  0.001816722    2.524    0.604
       231 -10.6786     75.8767    170.5133   1.2714908608e+02   3.0597264036e+01     1.200752    0.4644347 -75.03  0.003440148    4.766    0.790
       232  -8.2695    224.4729    174.1183   9.4172168668e+01   1.3938979858e+00    0.2138185    0.1311474 -40.25 0.0006751907    1.542    0.351
       233  -7.9847    153.3147    174.3080   1.0913566545e+02   1.5610237065e+01    0.1514111    0.1228043  -3.17 0.0003162036    1.628    0.386
       234  -9.6282    175.8007    172.1269   1.0363598546e+02   1.1455979874e+01    0.3850505    0.2621931 -44.00 0.0008465333    1.479    0.324
       235  -8.6483    143.0182    172.9714   1.1125763509e+02   1.7997745639e+01    0.2396441    0.1840065  84.40 0.0006766669    1.605    0.377
       236  -8.6293    198.3137    170.0621   9.8434226083e+01   7.2686419707e+00    0.2244395    0.2041005  -3.75  0.001217919    1.142    0.124
       237  -8.6660    134.6711    172.1709   1.1307255080e+02   1.9846767637e+01    0.2571892    0.2250528  48.86 0.0008494427    1.128    0.114
       238  -9.4816    121.3390    170.5321   1.1596311622e+02   2.2817482989e+01    0.3867242    0.2799307 -85.18 0.0009529907    1.676    0.403
       239  -8.9004     45.0168    170.8901   1.3467265746e+02   3.4635209366e+01    0.3554331    0.1908649  89.77   0.00144094    2.127    0.530
       240  -8.8142    230.6241    170.2611   9.2231133189e+01   9.6160187510e-01    0.2455446    0.2277884   2.47 0.0007240651    1.078    0.072
       241  -8.5216    205.7165    170.3544   9.7002386850e+01   5.7262874667e+00    0.2608796    0.1716031 -52.19 0.0006924583    1.643    0.391
       242  -8.7020     39.2025    170.4909   1.3599366357e+02   3.5400604813e+01    0.3340814    0.1320807  41.02  0.001289743    2.564    0.610
       243  -8.2638    237.1347    169.6676   9.0936603817e+01  -1.1793864187e-01    0.2342743     0.174557 -47.48 0.0006609723    1.363    0.266
       244  -9.1597    167.2912    168.7493   1.0480422066e+02   1.3948178032e+01    0.3797862    0.2675754  76.18   0.00104499    2.025    0.506
       245  -8.2450    149.8174    169.7052   1.0900039924e+02   1.7356224951e+01    0.2798559    0.1978422 -82.33 0.0008422263    1.960    0.490
       246  -8.6897     20.0093    170.5164   1.4041524424e+02   3.7375597854e+01    0.1590166    0.1185543  41.95 0.0004807446    1.532    0.347
       247  -8.5359    250.5277    172.8981   8.9279887270e+01  -3.0218022183e+00    0.2016611    0.1182685 -38.88 0.0005938102    1.526    0.344
       248  -8.2103    218.9467    168.3478   9.4000348447e+01   3.5208623212e+00    0.1930003    0.1839497  30.50 0.0006274805    1.106    0.096
       249  -8.9685    111.5192    167.4926   1.1778998086e+02   2.5375178603e+01    0.3313807     0.211552  79.38 0.0008618766    2.282    0.562
       250  -8.9358    191.9626    166.7190   9.9027959749e+01   9.2431644269e+00    0.2784756    0.2119148 -53.46 0.0006018422    1.379    0.275
       251  -9.0624    185.0547    166.6861   1.0047723755e+02   1.0681139934e+01    0.2591347    0.2021699 -57.03  0.000575253    1.374    0.272
       252  -9.7636    105.5503    157.9732   1.1744531475e+02   2.8752515302e+01    0.4680246    0.3071397  81.85  0.001043616    2.160    0.537
       253 -10.4679     95.0963    162.5699   1.2098084880e+02   2.9464576829e+01    0.9702411    0.5627416 -83.50  0.003329579    2.549    0.608
       254  -8.8405    100.2066    156.1553   1.1845744677e+02   3.0143116337e+01    0.3287363    0.2256957  73.43 0.0009412248    1.821    0.451
       255  -9.0377     20.3123    166.1146   1.3987674597e+02   3.8374040635e+01    0.3143148    0.1462861  69.29  0.001089676    2.727    0.633
       256  -9.9100    136.6706    164.5289   1.1104443004e+02   2.1217743098e+01    0.6291869    0.3366257  62.60  0.002204434    2.772    0.639
       257  -8.5448    240.0212    164.4364   8.9337852681e+01   2.9978509153e-01    0.2186675     0.169124 -37.67 0.0005352886    1.175    0.149
       258  -8.2198    233.8633    165.1215   9.0568053668e+01   1.3019918982e+00    0.2097228    0.1758226 -49.03 0.0005420957    1.229    0.186
       259  -8.6539    159.4699    164.4603   1.0566203314e+02   1.6528109511e+01    0.2842998    0.2164953 -60.27 0.0006479126    1.397    0.284
       260  -9.2184     63.1166    164.5033   1.2936811442e+02   3.3879728486e+01    0.4439705    0.2643633  56.31  0.002009818    1.820    0.451
       261  -8.5639     60.4122    160.1772   1.2937739699e+02   3.5295496798e+01    0.3241643    0.1996232 -75.94  0.001228967    1.576    0.366
       262  -8.5587    212.9698    163.5408   9.4117550531e+01   5.6141429756e+00     0.271309    0.1922895 -55.12 0.0005879141    1.561    0.359
       263  -9.2539     33.1068    163.2147   1.3653590989e+02   3.7793944611e+01    0.4443175    0.1967254  59.02  0.001893329    2.863    0.651
       264  -8.7637    246.0123    163.0400   8.8017125372e+01  -5.2387388029e-01    0.2069625    0.1826148 -40.54 0.0005386125    1.110    0.099
       265  -8.2427    204.7895    162.7976   9.5562456434e+01   7.4059674260e+00    0.2001787    0.1711149 -65.56 0.0004729123    1.326    0.246
       266  -7.8642    127.6472    163.2762   1.1298043787e+02   2.3308671854e+01    0.1588759     0.116985  75.03  0.000498262    1.644    0.392
       267  -9.1069      3.3888    162.4950   1.4334610304e+02   4.0651619106e+01    0.3527001    0.1664708  63.18  0.001766099    2.373    0.579
       268  -8.7565    151.7311    161.1255   1.0673989675e+02   1.8899509219e+01    0.3414862    0.2351201 -73.09  0.001080474    1.897    0.473
       269  -9.0378    177.4181    160.7229   1.0082621314e+02   1.3548055194e+01    0.2923987    0.2588497 -65.11  0.000824131    1.194    0.162
       270  -8.6286    243.4174    159.5389   8.7726650691e+01   5.6396156634e-01    0.3531688    0.2096764  25.85  0.001352492    2.330    0.571
       271  -8.8248     78.8208    158.5581   1.2441366829e+02   3.3066059742e+01     0.301056    0.1505687  28.59  0.001207203    2.591    0.614
       272  -8.9033     84.4971    159.5322   1.2312975006e+02   3.1944337428e+01    0.2418326    0.2062283  50.50 0.0004956072    1.216    0.178
       273  -9.8872     81.7045    154.7501   1.2298686408e+02   3.3552806119e+01    0.6039361    0.3526521  78.80  0.001869468    2.751    0.636
       274  -9.7327    250.2233    157.7000   8.6201984698e+01  -3.2603740946e-01    0.3530396    0.1688163 -39.82 0.0007853649    1.845    0.458
       275  -8.4027    227.3401    158.9236   9.0426137202e+01   3.6809417171e+00    0.2291903    0.1645972 -55.24  0.001137197    1.537    0.349
       276  -8.3026    128.0374    159.0403   1.1200877321e+02   2.4230415095e+01    0.2527451    0.1851472  82.31 0.0007867071    1.741    0.426
       277  -8.5610    196.7877    158.1122   9.6150686664e+01   1.0002195814e+01    0.2284855    0.2029041 -77.85 0.0005631224    1.281    0.220
       278  -8.3124    187.9973    157.7384   9.7893990287e+01   1.1932381822e+01    0.2721301    0.1923014 -59.03 0.0006203793    1.593    0.372
       279  -9.0769    167.5092    157.4006   1.0229140280e+02   1.6383682413e+01    0.3160094    0.2599432 -83.29 0.0007884866    1.446    0.308
       280  -8.4681    144.6567    155.0565   1.0709817397e+02   2.1767337956e+01    0.3029816    0.2297373 -88.14 0.0009706534    1.681    0.405
       281  -9.3029     42.3777    157.4306   1.3350365358e+02   3.8172556386e+01    0.2433971    0.1943844 -89.85 0.0005817864    1.139    0.122
       282  -8.0652    218.1296    156.6913   9.1647093850e+01   5.9126834389e+00    0.2785098    0.1540051 -53.45 0.0008189481    2.070    0.517
       283  -8.7569    157.6655    156.1804   1.0427284018e+02   1.8760102311e+01    0.3304014    0.1910159 -58.82 0.0009361762    1.995    0.499
       284  -9.2272    119.5413    155.5365   1.1339810508e+02   2.6725658549e+01     0.444438    0.2953094 -86.38  0.001637858    2.168    0.539
       285  -9.1195     49.5564    155.2156   1.3137186293e+02   3.7872595765e+01    0.3709555    0.2080461  77.61  0.001619929    2.423    0.587
       286  -9.5113    237.4340    150.5255   8.6836851392e+01   3.3107017442e+00    0.3642296    0.2099972  32.89  0.001621409    2.204    0.546
       287  -9.1355    242.7097    154.9848   8.6887398057e+01   1.5121244041e+00     0.227256    0.1944417  60.78 0.0005032574    1.397    0.284
       288  -7.8516    204.5603    155.5042   9.4007927781e+01   8.9101324712e+00    0.1485369    0.1410441 -51.49 0.0001503002    1.061    0.057
       289  -9.8369     67.6522    153.7693   1.2647487401e+02   3.5872724199e+01    0.4417228    0.3074012 -81.71  0.001655552    1.476    0.322
       290  -9.4719    132.8779    153.0208   1.0952585807e+02   2.4674221024e+01    0.4661185    0.3388505  80.07  0.001272004    1.796    0.443
       291  -8.7171    133.6015    148.2232   1.0828765294e+02   2.5650279570e+01    0.3483217     0.246165 -41.40  0.001115913    1.482    0.325
       292  -8.4287    151.6149    152.8223   1.0494293435e+02   2.0808567050e+01    0.2292427    0.1455481 -59.99 0.0009419876    1.756    0.431
       293  -8.9257     20.6059    153.1366   1.3832122197e+02   4.1394257514e+01    0.1712034    0.1362607  83.27 0.0006588309    1.174    0.148
       294  -7.8400      8.6673    153.3123   1.4120889211e+02   4.2354372009e+01    0.1249202   0.07668278  73.14 0.0006849499    1.678    0.404
       295  -9.6374     29.1114    150.6213   1.3589709431e+02   4.1196331627e+01    0.4200778    0.2087145  78.98  0.001765767    2.902    0.655
       296  -9.4547    248.8617    149.4596   8.4699021278e+01   1.3796999184e+00    0.3419105    0.1712385 -40.97 0.0008657068    1.758    0.431
       297  -9.1009    247.1268    143.8520   8.3793450387e+01   2.7038840811e+00    0.3427159    0.2108117 -26.14 0.0006885232    1.803    0.446
       298  -8.2993    250.5045    141.0620   8.2660798792e+01   2.5786291090e+00    0.2099841    0.1211543 -40.07 0.0004420872    1.517    0.341
       299  -8.8802    189.3677    150.1936   9.5911714822e+01   1.3216788200e+01     0.326268    0.2180148 -56.57 0.0008059832    1.641    0.391
       300  -7.8117    182.3040    151.5787   9.7723912245e+01   1.4451893182e+01    0.1650561    0.1207812 -79.47 0.0005263621    1.902    0.474
       301  -8.3249    162.9168    150.9856   1.0189531506e+02   1.8790728384e+01    0.2569236    0.1937696 -88.00  0.001122292    1.767    0.434
       302  -8.7884     98.1697    150.6736   1.1789923358e+02   3.1831125097e+01    0.3077805    0.2182593 -87.09 0.0009383704    1.723    0.419
       303  -8.6179      3.2668    150.9873   1.4223850548e+02   4.3298896216e+01    0.1640447   0.08225789 -74.01 0.0008923199    1.534    0.348
       304  -8.4592    243.3055    150.0768   8.5746250158e+01   2.2897385026e+00    0.2075737     0.155286 -42.12 0.0008352758    1.205    0.170
       305  -8.0690    213.1761    150.1456   9.1143702110e+01   8.1928468129e+00    0.1957296    0.1705562 -71.99 0.0003493757    1.299    0.230
       306  -9.0006     53.3393    149.7887   1.2955225720e+02   3.8729562084e+01    0.3199531     0.170609  46.44  0.001150328    2.037    0.509
       307 -10.5700     54.9294    144.4681   1.2825464915e+02   3.9825088053e+01    0.9251885    0.5013666 -85.23  0.003208121    2.498    0.600
       308 -10.3764     62.5157    136.0550   1.2468063190e+02   4.0889227091e+01    0.5933251    0.3053056  43.72  0.002081163    2.131    0.531
       309 -10.0343     73.0411    129.2713   1.2036892709e+02   4.1056065710e+01    0.4682102    0.2771613 -73.74   0.00120897    2.043    0.511
       310 -11.1316     69.5541    141.2795   1.2372733153e+02   3.8654242090e+01    0.7548531    0.4887806 -49.99  0.002718235    1.467    0.318
       311 -10.0978     71.6867    134.5999   1.2184081816e+02   3.9969848834e+01    0.8948902    0.3991758  25.74  0.003337233    3.182    0.686
       312  -9.6904     40.1815    148.2383   1.3273841161e+02   4.0629354266e+01    0.5323319    0.2500999  62.29  0.002121126    3.203    0.688
       313  -8.3850    198.8557    149.0815   9.3710912785e+01   1.1410333400e+01    0.2288742    0.1994224 -75.18  0.000474889    1.291    0.226
       314 -10.3330     89.1604    146.3375   1.1941307295e+02   3.4413334199e+01    0.6735448    0.4018744 -89.81  0.002539089    2.792    0.642
       315  -8.5456    233.5046    147.4568   8.6853026670e+01   4.6339641734e+00    0.2949973    0.1297574 -40.64  0.001063438    2.068    0.516
       316  -9.7714    221.3620    147.0439   8.8927318685e+01   7.1235393537e+00    0.3654883    0.2634881  57.37 0.0005898636    1.581    0.367
       317  -9.3944     77.9844    146.9209   1.2251466021e+02   3.6040091612e+01    0.3340364    0.2173099 -85.21 0.0009785297    1.901    0.474
       318 -10.1725    148.9851    145.1056   1.0381635811e+02   2.3128063730e+01     0.566259    0.3827013 -88.27  0.001721288    2.367    0.578
       319  -9.4614    139.1953    145.2929   1.0623999710e+02   2.5169012293e+01    0.4447813    0.2986571 -71.06  0.001175651    1.898    0.473
       320 -10.3588    106.6404    144.3396   1.1435430992e+02   3.1848499078e+01    0.7600471    0.4772198 -88.41  0.002402798    2.627    0.619
       321  -8.9779     13.0546    146.1168   1.3933502478e+02   4.3679470577e+01    0.2734924    0.1572273  77.89  0.001163875    1.924    0.480
       322  -7.6717    206.5468    146.4912   9.1601470524e+01   1.0301193993e+01    0.1501078    0.1410187 -55.56 0.0007088042    1.062    0.058
       323  -8.2117    175.6230    146.3337   9.7975118700e+01   1.7033846823e+01    0.2317627    0.1817427 -84.94  0.000612323    1.618    0.382
       324  -9.0746     33.0015    145.3918   1.3418381822e+02   4.2060095398e+01     0.365069    0.1885489  61.64   0.00166644    2.532    0.605
       325  -8.4695    240.4299    145.4742   8.5243368676e+01   3.6686849612e+00    0.2206739    0.1619366 -45.49 6.102035e-05    1.254    0.203
       326  -9.9931    242.7632    143.0456   8.4333883782e+01   3.6691560648e+00    0.5154099    0.2127376 -31.70  0.001871419    2.852    0.649
       327  -8.8257    165.7970    144.1739   9.9670526064e+01   1.9668682591e+01    0.3121515     0.215819  60.80 0.0009148579    1.632    0.387
       328  -7.5592    194.3229    143.7139   9.3405803758e+01   1.3489383329e+01    0.1524978    0.1209595 -85.20 0.0003133711    1.600    0.375
       329  -8.1958    181.9717    141.9486   9.5579095983e+01   1.6572487840e+01    0.2420863    0.1886739 -82.14 0.0004922497    1.625    0.385
       330  -9.3191      2.5678    141.6118   1.4140393491e+02   4.5501541374e+01    0.3121688    0.1531355  81.47   0.00152664    2.393    0.582
       331  -8.5328     46.1885    140.6182   1.2996210247e+02   4.1798461781e+01    0.2269583     0.166104 -79.48 0.0008802861    1.289    0.224
       332  -9.8568     23.2293    138.2025   1.3571802112e+02   4.4684008535e+01    0.4733128    0.2516422  72.31  0.002112597    2.597    0.615
       333  -8.7928     18.9859    139.4814   1.3699923596e+02   4.4747001304e+01    0.1626495    0.1123536  45.27  0.000713833    1.657    0.397
       334  -8.7028    172.0551    138.4615   9.6920534207e+01   1.9527701836e+01    0.3096414    0.2157134 -62.38   0.00077401    1.646    0.392
       335  -9.7542    124.9853    142.8571   1.0925541502e+02   2.8665296569e+01    0.5299979    0.3546596  89.25  0.001669165    2.334    0.572
       336  -7.7669    218.5282    138.5457   8.7547196610e+01   9.3507496878e+00    0.1473061    0.1369449 -49.57 0.0001202464    1.029    0.028
       337  -8.1190    207.4082    138.1428   8.9534615396e+01   1.1787358792e+01    0.2162211    0.1336266 -52.86 0.0006124112    1.684    0.406
       338  -8.4062    197.4058    137.3941   9.1319571636e+01   1.4113767524e+01     0.259032    0.2240541 -67.23 0.0007126631    1.223    0.182
       339  -8.9380    114.2845    138.1846   1.1097668440e+02   3.1881359934e+01    0.3172145    0.2079886  54.54 0.0007949481    1.667    0.400
       340  -9.0708    112.7521    133.4342   1.1029270724e+02   3.3302041201e+01    0.3625483    0.2635083 -84.04 0.0009360706    1.792    0.442
       341  -8.5745     93.1349    137.4987   1.1650961699e+02   3.5892129502e+01    0.3053455    0.2018355  55.10 0.0009983632    1.701    0.412
       342 -10.2940     83.3128    133.5851   1.1838450163e+02   3.8452437022e+01    0.6113312      0.37475 -57.63  0.001864875    1.515    0.340
       343  -9.0754     39.1475    136.3225   1.3117121908e+02   4.3599795630e+01    0.2488289    0.1719601  73.97  0.000757129    1.685    0.406
       344  -9.0135    250.7279    130.1357   8.0302669658e+01   4.4895626641e+00     0.469146    0.1155045 -39.21  0.001462944    3.659    0.727
       345  -9.1543    248.3774    135.3747   8.1786118711e+01   3.9951829165e+00    0.3955742    0.2030891 -46.96 0.0008366354    1.791    0.442
       346  -7.7307    187.7970    136.0026   9.2952893267e+01   1.6529885728e+01    0.2093081    0.1201786 -43.27 0.0005227395    1.691    0.409
       347  -8.0694    162.7607    136.5654   9.8567835515e+01   2.2018846796e+01    0.2114469    0.1509853  60.52 0.0005821227    1.540    0.351
       348  -8.7506    151.2570    135.8498   1.0109379643e+02   2.4729114994e+01     0.307498    0.1877089  36.70  0.001244258    1.828    0.453
       349 -10.3906    132.3203    131.9823   1.0483911632e+02   2.9692654233e+01    0.6394541    0.4994455 -65.19  0.002251745    1.365    0.267
       350  -7.7009    231.4478    134.4706   8.4359119712e+01   7.4731567444e+00      0.14455    0.1302321 -47.76  7.78559e-05    1.029    0.028
       351  -8.3857    179.4725    134.0435   9.4247217622e+01   1.8809659436e+01     0.240711    0.1505211 -46.56  0.000858828    1.565    0.361
       352  -7.9854    237.4638    133.5433   8.3147213558e+01   6.4416492473e+00    0.1428162    0.1273081 -49.05 0.0008075712    1.044    0.042
       353 -10.4250     98.2215    130.3182   1.1352278260e+02   3.6729250485e+01    0.6685641    0.2774303 -55.42  0.001692314    2.378    0.579
       354  -7.9463     10.3066    133.6882   1.3849775016e+02   4.6778582572e+01    0.1212387   0.08081231  76.95 0.0004462586    1.619    0.382
       355  -9.0205    143.0172    131.5587   1.0205709037e+02   2.7500089635e+01    0.2980862    0.2152036 -64.82 0.0006823639    1.562    0.360
       356  -9.4907    152.9954    128.7589   9.8954827114e+01   2.5925991223e+01    0.6064343    0.2691992 -53.30  0.001362846    2.529    0.605
       357  -9.7274     13.0387    129.3760   1.3720328901e+02   4.7574179073e+01    0.4225173    0.2218169  77.21  0.001839991    2.622    0.619
       358  -7.9815    204.4495    130.2724   8.8278251455e+01   1.4003566068e+01    0.2117247    0.1373018 -52.52 0.0007318742    1.562    0.360
       359  -7.9730    192.8002    130.2294   9.0558712226e+01   1.6604417101e+01    0.2466572    0.1608359 -80.94 0.0006534341    2.595    0.615
       360  -9.0342    168.3346    129.5176   9.5597470320e+01   2.2299607108e+01    0.3250568    0.2527744 -74.50 0.0007815862    1.528    0.346
       361  -8.6093     30.9574    130.5170   1.3248848437e+02   4.5795412413e+01    0.1657707    0.1275722  34.64 0.0005969706    1.537    0.349
       362  -8.0213    211.5131    129.0276   8.6660362443e+01   1.2704803475e+01    0.2134319    0.1207754 -61.32 0.0007452714    2.379    0.580
       363 -10.7584     44.8128    123.6597   1.2738050669e+02   4.6004845962e+01    0.9779607    0.5288268  80.89  0.003632326    3.770    0.735
       364  -7.7200    220.6364    129.7120   8.5167520495e+01   1.0614854694e+01    0.1463973     0.116174   8.24 0.0007023773    1.695    0.410
       365 -10.4947     60.0497    125.3547   1.2329380565e+02   4.3781667419e+01    0.7076691    0.4244847  79.70   0.00237474    2.867    0.651
       366  -9.3779     36.5867    115.0764   1.2819061440e+02   4.8869136665e+01    0.2667468    0.1669274  47.93 0.0009402418    1.942    0.485
       367  -9.9592    117.9131    125.3765   1.0699174883e+02   3.4173514240e+01    0.5359261    0.3762954 -85.90  0.001453084    2.076    0.518
       368  -7.9288    228.2835    125.6355   8.2923147566e+01   9.7836875087e+00    0.1511618    0.1065419 -66.62 0.0007018067    1.687    0.407
       369  -8.7635    179.2072    124.7801   9.2060966017e+01   2.0822311212e+01    0.2866668    0.2258542 -73.76 0.0007269644    1.473    0.321
       370  -8.6695     84.2434    123.6017   1.1592675087e+02   4.0686881786e+01    0.4855647    0.2731259 -21.27  0.001590439    3.995    0.750
       371 -10.4392     28.5496    122.5290   1.3186510095e+02   4.7892859857e+01     0.690278    0.3591523  80.18  0.002767246    3.481    0.713
       372  -8.4544    247.0429    130.3391   8.0915316643e+01   5.1562078931e+00    0.1859198    0.1690557 -52.07 0.0005922883    1.060    0.057
       373  -9.0348     77.1129    124.1363   1.1809836268e+02   4.1674557666e+01    0.3781383    0.1647724  47.79  0.001432271    2.758    0.637
       374  -8.8161    158.7086    121.6769   9.5847066709e+01   2.6184032132e+01    0.3895738    0.2526108 -83.91 0.0006965735    2.720    0.632
       375  -8.7864    171.8610    121.8844   9.2932633018e+01   2.3120248680e+01    0.2757785    0.2091739 -52.70 0.0004560536    1.316    0.240
       376  -9.7556     70.9874    119.8919   1.1894387404e+02   4.3581786374e+01    0.3539476    0.2492557  85.88 0.0009241984    1.971    0.493
       377  -9.6955    141.5132    118.7716   9.9236570133e+01   3.0685854152e+01    0.4397241    0.3072518 -70.05  0.001045873    1.824    0.452
       378  -9.1759    102.1769    119.1444   1.0977116029e+02   3.8634897823e+01     0.412569    0.1790141  27.11  0.001216436    4.225    0.763
       379  -9.0373     21.2675    118.9609   1.3336565172e+02   4.9342670784e+01    0.1864593    0.1799499 -62.18 0.0005247935    1.194    0.163
       380  -9.7747      2.7058    117.1007   1.3834058074e+02   5.1079260464e+01    0.5152314    0.2375763  86.67  0.002241094    3.178    0.685
       381  -8.1734    125.2809    118.3512   1.0328043788e+02   3.4270560235e+01    0.1568432    0.1233378 -13.26 0.0005310312    1.650    0.394
       382  -7.9887    185.5311    116.0235   8.8585164639e+01   2.1165277913e+01    0.2169015    0.1275905 -63.65 0.0005272512    2.304    0.566
       383  -9.8031    109.2818    114.3238   1.0657644559e+02   3.8395574640e+01    0.4551561    0.3224103 -84.02  0.001196232    2.082    0.520
       384  -9.2235    250.1371    115.1446   7.7180321276e+01   7.2709789874e+00    0.2175005    0.1889589 -54.22 0.0009859205    1.035    0.034
       385 -10.1193    248.7220    107.9187   7.5828959042e+01   8.8249441103e+00    0.4161047     0.297674 -22.39  0.001811381    1.738    0.425
       386 -10.7278    249.1467    102.7498   7.4655199858e+01   9.6425202288e+00     0.455602    0.3330963 -39.37  0.002497983    1.272    0.214
       387  -8.0157    192.8538    115.1645   8.6910385792e+01   1.9642276659e+01    0.2018245     0.178266 -20.31 0.0004395549    1.281    0.220
       388  -9.9395     78.7986    112.5411   1.1493090863e+02   4.4124996945e+01    0.5061377    0.3449663 -85.48  0.001753216    2.203    0.546
       389  -9.4038     77.8573    105.4193   1.1346253384e+02   4.5886987125e+01    0.5087376    0.2688847  18.68  0.001932798    3.066    0.674
       390  -8.3339     59.3510    115.3042   1.2139800681e+02   4.6238664138e+01    0.1422628   0.09862314 -28.22 0.0007040899    1.703    0.413
       391  -7.9076    167.0305    114.7298   9.2195724693e+01   2.5739771717e+01    0.2025372    0.1376992  51.91 0.0008816388    1.489    0.328
       392 -10.3431    133.8890    109.5851   9.8762062808e+01   3.4361592207e+01    0.7443852    0.3159539 -50.11  0.002525449    2.479    0.597
       393  -9.9919     92.6035    112.4479   1.1084190042e+02   4.1880158959e+01    0.5067763    0.3060977 -64.76  0.001221079    1.990    0.497
       394  -9.4879     51.3390    113.3298   1.2339527336e+02   4.7681746212e+01    0.2666644    0.2215867  79.16  0.000588783    1.420    0.296
       395  -9.8329    130.6741    118.5122   1.0191553684e+02   3.3097437993e+01    0.4425947    0.3038863 -78.98  0.001096072    2.152    0.535
       396  -9.8908    121.9032    112.4680   1.0265616125e+02   3.6283184036e+01    0.3583299    0.2576816 -59.02 0.0007451512    1.487    0.327
       397  -8.2802    174.7368    112.1188   8.9854811132e+01   2.4478674947e+01    0.2545889    0.1850948 -60.70 0.0005657894    1.493    0.330
       398  -8.1592    159.2974    112.0009   9.3238650652e+01   2.8106008916e+01    0.2219993    0.1946466 -55.63 0.0005753669    1.132    0.117
       399 -10.2979     66.1827    110.0304   1.1814152812e+02   4.6548023241e+01    0.5194902     0.263391 -62.27  0.002215734    2.078    0.519
       400  -9.4559     14.2992    111.4908   1.3418049078e+02   5.1580507575e+01    0.2822498    0.1790934  82.47 0.0009485012    1.977    0.494
       401  -9.5176      8.4871    110.0652   1.3565971845e+02   5.2298524618e+01    0.2906258    0.1600853  50.90  0.001573641    2.394    0.582
       402  -8.1932    189.1958    108.0347   8.5866816852e+01   2.1904843410e+01    0.2088681    0.1177326 -41.04 0.0004943208    1.736    0.424
       403  -9.1323    109.9690    107.2723   1.0454626794e+02   3.9832172987e+01    0.5617622    0.3002399  17.58  0.001549844    5.179    0.807
       404 -10.5223    109.4611     99.3059   1.0253095339e+02   4.1651199677e+01    0.7607998    0.4779871  73.07  0.002833413    2.964    0.663
       405  -9.0846    108.8093     92.3384   1.0075948549e+02   4.3230944048e+01    0.6158816      0.28035  28.49  0.001930862    3.808    0.737
       406  -9.3010    140.0233    104.7603   9.5925078793e+01   3.4028365692e+01    0.3859352    0.2903194 -77.14 0.0007962399    1.717    0.418
       407 -10.5332     45.8737    102.5913   1.2276152095e+02   5.0752474053e+01    0.7496999    0.4465463  72.48  0.003079497    3.426    0.708
       408 -10.6404     22.9659    102.8791   1.3003981304e+02   5.2861377245e+01     0.651168    0.3913493  77.85  0.002836272    2.691    0.628
       409  -9.4708    150.6261    103.2362   9.2946024743e+01   3.1929553241e+01     0.424964    0.2811588 -70.88  0.001151341    2.143    0.533
       410  -8.8651     94.0096    104.3586   1.0835065660e+02   4.3446826358e+01    0.4452496    0.2619524  10.04  0.001538287    3.569    0.720
       411  -8.4508    166.6167    104.1806   8.9561437668e+01   2.7998394760e+01     0.243054    0.1823377 -59.03  0.000654235    1.413    0.292
       412  -9.9946    128.2504    101.9578   9.8162656631e+01   3.7207558910e+01    0.3803152    0.2684973 -60.27  0.000955651    1.611    0.379
       413  -9.8909      6.8437    102.3946   1.3492177611e+02   5.4109828851e+01    0.3985326    0.1832204 -76.49    0.0017192    2.256    0.557
       414  -8.2079    159.7465    101.1734   9.0291368277e+01   3.0221208979e+01     0.247906     0.185899 -63.54  0.000621428    1.490    0.329
       415  -9.4107     82.1540    100.0769   1.1077537190e+02   4.6391162455e+01    0.3316773    0.2341659 -69.26 0.0008001821    1.763    0.433
       416  -9.0037     95.0342     97.1100   1.0609450684e+02   4.4835533863e+01    0.3140548    0.2253359 -59.77  0.000714407    1.543    0.352
       417 -10.1048     63.9058     95.9003   1.1539918134e+02   5.0017370809e+01    0.5337389    0.3553902 -85.85   0.00158563    2.640    0.621
       418  -8.2099    151.3141     95.3674   9.0653069805e+01   3.3352569652e+01    0.1593407    0.1241458   5.73 0.0007037798    1.772    0.436
       419  -9.1830     56.6608     95.0467   1.1751586622e+02   5.1151176546e+01    0.2399361    0.1823193  52.10  0.000880214    1.639    0.390
       420  -8.0951    176.3441     93.6100   8.4744162861e+01   2.7745863105e+01    0.2346333    0.1743811 -79.04 0.0006672431    1.637    0.389
       421  -8.2459    164.6900     94.1076   8.7312630049e+01   3.0439683813e+01    0.2493045    0.1830447 -60.47 0.0008202866    1.488    0.328
       422 -10.2045    123.5374     91.6389   9.6519928264e+01   4.0336568895e+01    0.6759171     0.450628  31.61  0.001267982    1.716    0.417
       423  -9.2685    139.0915     92.3118   9.2731492292e+01   3.6770087874e+01    0.3483406    0.2598124 -73.89 0.0008096052    1.738    0.425
       424  -9.3984     46.9389     92.6127   1.2009223662e+02   5.2834631595e+01      0.44367     0.165628  23.93  0.001736949    3.481    0.713
       425  -8.7083     30.0371     92.0475   1.2554901254e+02   5.4650949422e+01    0.2323246    0.1539839 -63.41  0.001040587    1.399    0.285
       426  -9.5390      4.9806     92.2099   1.3375722127e+02   5.6440690240e+01    0.2674949    0.1810535  65.51  0.001161851    2.060    0.515
       427  -9.5882     34.7232     89.7835   1.2347736511e+02   5.4708871028e+01    0.4406222    0.2539207 -78.36  0.001788166    2.664    0.625
       428  -9.1230     23.3492     90.1581   1.2735568892e+02   5.5622475555e+01    0.2754931    0.1813059  21.66  0.001066317    1.803    0.446
       429  -8.3345    150.9851     89.3063   8.9058536379e+01   3.4606378190e+01    0.2112838    0.1971194  72.36 0.0004986261    1.071    0.066
       430  -9.9793     86.3164     86.0464   1.0561122032e+02   4.8659568271e+01    0.5690962    0.3371332 -54.85  0.001549025    1.868    0.465
       431  -8.7569     65.4152     87.4419   1.1266983903e+02   5.1612607282e+01    0.3830438    0.2212665   2.04  0.001526461    3.143    0.682
       432 -10.1483     48.4187     84.3750   1.1751515714e+02   5.4417154984e+01    0.4181577    0.2981149  85.10  0.001696408    2.447    0.591
       433  -8.8636     15.1169     86.1271   1.2925734146e+02   5.7097520410e+01    0.1754956    0.1373945  79.73  0.001122433    1.692    0.409
       434  -9.7201    104.8271     83.2958   9.9264855402e+01   4.5818650675e+01    0.4219792    0.2959271 -62.70 0.0009354313    1.840    0.457
       435  -8.6844    105.3261     77.3103   9.7320617746e+01   4.6861715500e+01    0.2165808    0.1245377  22.64 0.0006440519    2.587    0.614
       436  -8.1419    158.1232     84.0957   8.6013281397e+01   3.3893038554e+01    0.2061264     0.175025 -75.16 0.0003737683    1.280    0.219
       437  -9.2400    140.8711     82.9128   8.9630702231e+01   3.8163558571e+01    0.4231712    0.2037614 -48.71  0.001163842    2.277    0.561
       438  -7.4943    170.3419     83.6755   8.3325786067e+01   3.1033116487e+01    0.1604006    0.1160145 -78.42 0.0007050944    1.731    0.422
       439  -9.5745     24.5864     80.5089   1.2476686883e+02   5.7562723117e+01    0.3781222    0.2397089 -82.48  0.001404442    2.399    0.583
       440  -9.6032      9.9853     81.1274   1.2995818648e+02   5.8487204980e+01    0.2768185    0.1850013  71.65  0.001254265    2.381    0.580
       441  -8.5812    150.1129     80.5868   8.6812156990e+01   3.6435496176e+01    0.2885477    0.2020783 -56.61 0.0007953618    1.594    0.373
       442  -8.7022    119.4687     80.4608   9.4346639275e+01   4.3371280900e+01    0.3048523    0.2188004 -81.68  0.000715151    2.226    0.551
       443  -8.8069     74.5118     80.4973   1.0773230898e+02   5.1690248236e+01    0.2795723    0.2158386 -70.04  0.001030917    1.737    0.424
       444  -8.3411    166.7102     79.7312   8.2998366494e+01   3.2618159351e+01    0.2522582    0.1790012 -36.96 0.0005744456    1.466    0.318
       445  -9.0283     65.0000     77.9959   1.1013516581e+02   5.3592808702e+01    0.2769848    0.1748276 -44.82 0.0008184044    1.448    0.309
       446  -9.8305     63.4091     73.6667   1.0939076750e+02   5.4663038574e+01    0.4429188     0.232439 -57.40  0.001647748    2.384    0.581
       447  -8.1459    184.1702     78.1822   7.9204109930e+01   2.8656442890e+01    0.2070832    0.1651946 -68.24 0.0006848801    1.299    0.230
       448  -8.4383    248.6613     75.9931   6.8987022540e+01   1.4240638970e+01    0.2387771   0.07090259 -53.53 0.0003533128    4.423    0.774
       449  -8.9371    140.1961     75.4097   8.7618702394e+01   3.9679865012e+01    0.2844326     0.184005 -55.55   0.00071335    1.815    0.449
       450  -9.2808    128.0616     75.2627   9.0550677263e+01   4.2456271034e+01    0.3385203    0.2200097 -53.48 0.0006759723    1.777    0.437
       451  -8.7807    235.1524     73.4210   7.0136755892e+01   1.7552984985e+01     0.218286     0.173444 -39.20 0.0003489813    1.306    0.234
       452  -8.6249    163.4397     73.6373   8.1993420467e+01   3.4471832620e+01    0.2714401    0.1974056 -59.13  0.001283103    1.507    0.337
       453  -9.6179     82.3785     72.7356   1.0285450928e+02   5.1917297573e+01    0.3647108    0.2558332 -60.11 0.0008973262    1.852    0.460
       454  -7.6936    151.2774     73.3455   8.4491274665e+01   3.7440677144e+01    0.1479322    0.1174233  12.54 0.0004825887    1.631    0.387
       455  -8.6923    115.7365     72.9188   9.3072142678e+01   4.5539479683e+01    0.2644877    0.1981373 -57.15   0.00102718    1.578    0.366
       456  -7.9835     42.5743     72.7839   1.1640366265e+02   5.7422684536e+01    0.1724623    0.1127877 -60.27 0.0005871701    1.696    0.410
       457  -7.7604    175.5088     72.5473   7.9326368041e+01   3.1725481434e+01    0.1476952    0.1389266  83.46  9.34845e-05    1.013    0.013
       458  -8.9516    105.8336     71.9072   9.5511478012e+01   4.7749430586e+01    0.2506497    0.1949471 -59.67 0.0006553154    1.569    0.363
       459  -9.4663     95.0238     70.5076   9.8239780383e+01   5.0085005427e+01    0.5716504    0.2065692 -46.51  0.002050111    3.013    0.668
       460  -9.5910     51.3921     69.6383   1.1235615863e+02   5.7014897795e+01     0.429896    0.2313207 -59.69  0.001485729    2.406    0.584
       461  -8.7056     28.3193     70.9935   1.2105738971e+02   5.9177505067e+01    0.2232955    0.1402121 -24.52  0.000819808    1.615    0.381
       462  -8.2689     32.7041     68.3567   1.1873905255e+02   5.9294284778e+01     0.217224    0.1165149  16.70 0.0007499559    2.185    0.542
       463  -8.8488     16.6193     70.1457   1.2511378109e+02   6.0280658224e+01    0.2331769    0.1799444 -82.97 0.0009089545    1.747    0.428
       464  -8.5321    156.7742     70.0298   8.2365370214e+01   3.6690528423e+01     0.189199    0.1221712 -38.59 0.0003922344    1.600    0.375
       465  -8.8138    147.1119     68.3175   8.3961993347e+01   3.9280480768e+01    0.2707399    0.2066691 -48.87 0.0005764659    1.378    0.274
       466  -8.8942    138.6592     66.4667   8.5338998625e+01   4.1565272804e+01     0.284315    0.2070491 -64.32 0.0008457734    1.715    0.417
       467  -9.0890    121.4914     66.2658   8.9494816836e+01   4.5459341663e+01    0.3065664    0.2247343 -49.47 0.0009976286    1.505    0.336
       468  -9.0355    110.1120     64.0091   9.1824129821e+01   4.8248946284e+01    0.2776308     0.224062 -26.73 0.0006200633    1.265    0.210
       469  -8.8393     37.2808     64.2331   1.1586970372e+02   5.9632805176e+01    0.2536253    0.1906123  89.65 0.0009114057    2.479    0.597
       470  -8.7096     65.1201     62.9827   1.0547845584e+02   5.6405979872e+01      0.40819    0.2100931  12.22  0.001533239    3.667    0.727
       471  -9.3386     97.7366     61.1105   9.4414284803e+01   5.1197147620e+01    0.3139464    0.2809615  83.50  0.001135599    1.457    0.314
       472  -8.3025    158.2535     61.9886   7.9781548395e+01   3.7642164480e+01    0.1960344    0.1881274 -68.44 0.0003710865    1.068    0.064
       473  -9.5894     73.3076     59.6944   1.0162344884e+02   5.5734013899e+01    0.3459272    0.2200207 -50.36  0.001106309    1.827    0.453
       474  -8.4563    146.9853     59.2933   8.1347934024e+01   4.0761604421e+01    0.1985983    0.1870258  62.99 0.0005326968    1.011    0.011
       475  -9.9112     23.5008     56.6671   1.1887978914e+02   6.2330857350e+01    0.4015133    0.2698804 -79.45  0.002115112    2.865    0.651
       476  -8.6066    130.7942     58.0638   8.4641958553e+01   4.4713423051e+01    0.2114888    0.1885092 -70.26 0.0005859451    1.278    0.218
       477  -9.4654      7.3928     57.0547   1.2527769470e+02   6.3428549542e+01    0.2864435    0.1795789 -72.66  0.001403726    2.127    0.530
       478  -9.1068    119.0995     55.6573   8.6770444316e+01   4.7681390595e+01    0.3507431    0.2155629 -47.96  0.001047535    1.884    0.469
       479  -9.4800     54.3473     55.6296   1.0687490228e+02   5.9189367165e+01    0.3261912    0.2057658 -55.11  0.001349367    2.031    0.508
       480  -8.3919    139.8251     56.3330   8.2032591566e+01   4.2899526776e+01    0.1929874     0.176707 -51.60 0.0003963937    1.164    0.141
       481  -8.9417     44.0347     55.3741   1.1059959450e+02   6.0510925901e+01    0.2633099    0.1567779 -51.71  0.001385515    1.814    0.449
       482  -8.3989    152.6210     54.1565   7.8671504972e+01   4.0194803998e+01    0.1931848    0.1396867 -19.29 0.0009483219    1.683    0.406
       483  -8.7893    105.8375     53.3084   8.9530220431e+01   5.0832562603e+01    0.2238943    0.1840162 -43.77 0.0005575868    1.346    0.257
       484  -9.3733     92.4098     50.5681   9.2469802994e+01   5.3882234714e+01    0.3413687     0.214608 -49.81  0.001161383    2.012    0.503
       485  -8.3206    144.6368     49.1976   7.8851769956e+01   4.2814090103e+01    0.1816336    0.1360335 -17.34 0.0003765139    1.591    0.371
       486  -8.1657    129.8716     49.1458   8.2084676538e+01   4.6247292633e+01     0.202999    0.1849828 -79.83 0.0004265205    1.245    0.197
       487  -8.7690    163.6084     48.2187   7.4873102130e+01   3.8395537940e+01    0.1854382     0.139193 -17.12 0.0009445621    1.664    0.399
       488  -8.6610    120.9893     47.6637   8.3730575601e+01   4.8443438100e+01    0.2146449    0.1852928 -44.95 0.0005294221    1.283    0.221
       489  -8.4674    112.0775     47.0378   8.5777645919e+01   5.0455965767e+01    0.2012136    0.1913652  22.89 0.0005848689    1.052    0.049
       490  -8.7530     82.0206     46.4594   9.4240559180e+01   5.6389718002e+01    0.2231521    0.1768066 -46.54 0.0006257411    1.516    0.340
       491  -9.7903    133.1123     44.7417   7.9973619091e+01   4.6119045738e+01    0.2999378    0.2165971 -40.85 0.0004404133    1.502    0.334
       492  -8.4272     45.0792     44.7271   1.0659223405e+02   6.2177481449e+01    0.1945999     0.148423 -40.82 0.0005396166    1.368    0.269
       493  -9.0794     16.7938     44.8996   1.1798107747e+02   6.4972748001e+01    0.1846116    0.1465122 -59.49 0.0007169591    1.592    0.372
       494  -8.5020     92.9898     42.9983   8.9676776051e+01   5.4872877448e+01    0.3287733    0.1896486  13.29  0.001408847    2.663    0.625
       495  -8.9749     58.0465     42.5551   1.0097409782e+02   6.0800112510e+01    0.2859629    0.1713213 -50.84  0.001478214    2.270    0.559
       496  -9.2256     69.6750     41.8347   9.6631476028e+01   5.9144328281e+01    0.2810242    0.2150411 -50.42  0.001130833    1.732    0.423
       497  -9.6721      5.2000     42.0593   1.2195206778e+02   6.6276161540e+01    0.2755012    0.1773227 -66.74  0.001294408    2.105    0.525
       498  -8.4961    105.9720     41.3976   8.5492158978e+01   5.2508694472e+01    0.2185986    0.1857961 -64.87 0.0006193983    1.541    0.351
       499  -8.0224    206.4439     41.5009   6.6558989882e+01   2.8955752553e+01    0.1359078    0.1177611 -84.36 0.0001035016    1.012    0.011
       500  -7.9167    140.2961     41.6684   7.7485742041e+01   4.4862447166e+01    0.1379004    0.1048836 -73.26  0.000533252    1.639    0.390
       501  -8.5998     36.7783     40.9122   1.0848259286e+02   6.3751427740e+01    0.1985608    0.1533202 -48.59 0.0007388233    1.571    0.364
       502  -8.5091     95.4759     38.1285   8.7246892669e+01   5.5051296311e+01    0.1835763    0.1251544 -30.50 0.0006827842    1.528    0.346
       503  -8.2414     80.5216     36.9954   9.1312144445e+01   5.7989172038e+01    0.1829466    0.1192592 -31.13 0.0004630544    1.555    0.357
       504  -9.5472     26.1571     35.5799   1.1091100395e+02   6.5692245600e+01    0.2589405    0.1976855 -52.31 0.0008296684    1.708    0.415
       505  -8.5839    200.8646     35.8412   6.5929260019e+01   3.1036097070e+01    0.1945253    0.1692737  64.79 0.0004992046    1.204    0.169
       506  -7.6484    133.4510     36.4725   7.7320734348e+01   4.7115290442e+01    0.1355698     0.122609  49.84 0.0002501977    1.007    0.007
       507  -8.9508    111.6912     35.1330   8.1892306947e+01   5.2114920351e+01    0.2792344     0.177389 -35.05 0.0008694906    1.707    0.414
       508  -7.9936    125.8077     35.5965   7.8710037599e+01   4.8963061269e+01    0.1782925    0.1227669  67.21 0.0003339435    1.539    0.350
       509  -9.2936    246.5213    229.6668   1.0088031595e+02  -1.1362751231e+01    0.3133323    0.1849668 -37.94  0.001392637    1.741    0.426
       510  -8.8250     72.1855     31.4486   9.1925452703e+01   6.0153570497e+01    0.1870637    0.1615212 -35.67 0.0007773642    1.396    0.284
       511  -7.6985    139.3089     31.6885   7.4643651579e+01   4.6335298555e+01    0.1332684    0.1013049 -75.89 0.0007025925    1.623    0.384
       512  -9.5621     12.8541     30.1741   1.1470089521e+02   6.7701001104e+01    0.2928182    0.1463134 -53.16  0.001605893    2.322    0.569
       513  -8.3170    101.4871     29.1426   8.2432026484e+01   5.4960401891e+01    0.1779819    0.1248807 -26.31 0.0005495477    1.522    0.343
       514  -8.6480     60.7718     33.0126   9.6430748725e+01   6.1769498110e+01    0.1713256    0.1571105 -19.31 0.0006483744    1.299    0.230
       515  -8.4602    208.8496     27.5975   6.3025711008e+01   3.0196643753e+01    0.1885486    0.1792318 -57.94 0.0005703577    1.258    0.205
       516  -8.7913     81.3638     27.6082   8.7564503490e+01   5.9023308387e+01    0.2295601    0.2004264 -70.00 0.0008939777    1.743    0.426
       517  -8.7482      3.7335     27.8218   1.1796839299e+02   6.8727266871e+01    0.1742089     0.132861 -52.97 0.0008207372    1.600    0.375
       518  -8.6330     91.9573     26.5472   8.4079448763e+01   5.7156367055e+01    0.2206144    0.1672652 -42.49 0.0006369711    1.616    0.381
       519  -9.0327    228.7402     24.6657   6.0277757994e+01   2.6006040494e+01    0.2228303    0.1649696 -43.60 0.0008568644    1.402    0.287
       520  -8.8431    183.9700     23.9915   6.5226558354e+01   3.6538088454e+01    0.3097458    0.1611336 -85.36  0.001307429    2.545    0.607
       521  -8.4373     34.9443     23.7880   1.0271208830e+02   6.6474296497e+01    0.1583921    0.1305201  49.28  0.001073966    2.008    0.502
       522  -7.8746    167.3439     23.6684   6.7491826959e+01   4.0575294315e+01    0.1408282   0.09300139 -73.20 0.0007050612    1.755    0.430
       523  -8.0607    104.3941     23.2054   7.9601115812e+01   5.5022508662e+01    0.1642608    0.1152883 -38.46 0.0004142622    1.656    0.396
       524  -8.9062     63.6996     21.3219   9.0820624807e+01   6.2779356340e+01    0.2437906    0.1726961 -38.88  0.001094158    1.730    0.422
       525  -8.8688     48.2948     21.7236   9.6555083886e+01   6.5036323590e+01    0.1844242    0.1568251 -17.43 0.0007439901    1.272    0.214
       526  -8.6971     19.0013     22.1361   1.0891670107e+02   6.8372368086e+01    0.2108326    0.1270442  -2.51  0.001359835    1.601    0.376
       527  -8.9284     48.4883     33.4649   1.0113720108e+02   6.3449412606e+01    0.2086176    0.1932968 -25.18 0.0006830663    1.394    0.283
       528  -8.8098     74.0404     19.5326   8.6723856970e+01   6.1243546988e+01    0.2033899    0.1587628 -35.44  0.000636852    1.539    0.350
       529  -8.0377     87.6799     17.7947   8.2027013663e+01   5.8923728868e+01    0.1591919    0.1060382 -32.05 0.0005628925    1.680    0.405
       530  -7.9086     39.2778     18.6422   9.8817997580e+01   6.6611852806e+01   0.09706937   0.08825788 -37.58 0.0005042048    1.658    0.397
       531  -7.5904    112.6988     16.7201   7.5402743569e+01   5.3921600294e+01    0.1299956   0.08314881  33.42 0.0002934953    1.545    0.353
       532  -8.2619     29.9996     16.0309   1.0157237392e+02   6.8052449695e+01    0.1437568    0.1368631 -27.94 0.0007591376    1.705    0.414
       533 -10.5070    248.5042    242.4901   1.0277924969e+02  -1.3403471635e+01    0.6336253     0.415473 -38.93  0.003336388    1.733    0.423
       534  -8.7049      7.1983     15.0896   1.1153503235e+02   7.0368655868e+01    0.1458518    0.1187995 -55.52  0.001076397    2.042    0.510
       535 -11.6075    247.8404    236.6499   1.0188214480e+02  -1.2524203978e+01    0.3444824    0.2459936  23.68 0.0004309958    1.260    0.206
       536  -7.8472    191.3203    249.6570   1.1456878600e+02  -5.7375947264e+00    0.1204045   0.09648712  66.67 0.0007049865    1.723    0.420
       537  -8.8773    175.8185    247.9758   1.1731738302e+02  -2.9104766103e+00    0.2766533    0.2014896  72.96  0.001493092    2.074    0.518
       538  -8.8766    155.9389    248.7564   1.2133649711e+02   3.1799258004e-01     0.326756    0.2120869  36.62  0.001162104    1.365    0.267
       539  -9.1184    103.8345    247.4732   1.3140060062e+02   9.2248558576e+00    0.3890021    0.1768613 -72.61   0.00169399    3.018    0.669
       540  -9.3547     21.6211    248.3322   1.4640989417e+02   2.0398618866e+01     0.198672    0.1497985  74.54 0.0005395145    1.100    0.091
       541  -9.3496    242.9433    246.6354   1.0447236474e+02  -1.3178635744e+01    0.3541206    0.1732703 -27.66  0.001876512    2.114    0.527
       542  -9.0561    232.7972    247.3061   1.0640956365e+02  -1.1821430817e+01     0.183606    0.1576882 -28.44 0.0006904501    1.362    0.266
       543  -8.3962    218.6758    248.1617   1.0914732815e+02  -9.8378949069e+00    0.1680637     0.150844 -35.20 0.0007018191    1.390    0.280
