#   1 NUMBER                 Running object number                                     
#   2 MAG_AUTO               Kron-like elliptical aperture magnitude                    [mag]
#   3 X_IMAGE                Object position along x                                    [pixel]
#   4 Y_IMAGE                Object position along y                                    [pixel]
#   5 X_WORLD                Barycenter position along world x axis                     [deg]
#   6 Y_WORLD                Barycenter position along world y axis                     [deg]
#   7 A_WORLD                Profile RMS along major axis (world units)                 [deg]
#   8 B_WORLD                Profile RMS along minor axis (world units)                 [deg]
#   9 THETA_WORLD            Position angle (CCW/world-x)                               [deg]
#  10 FWHM_WORLD             FWHM assuming a gaussian core                              [deg]
#  11 ELONGATION             A_IMAGE/B_IMAGE                                           
#  12 ELLIPTICITY            1 - B_IMAGE/A_IMAGE                                       
         1 -13.3695     47.0485     27.0533   5.2114778404e+01   6.5506120924e+01    0.3415807     0.280998  56.43 0.0009692272    1.401    0.286
         2 -13.0376     31.9377     32.3270   6.1481123469e+01   6.7326649592e+01    0.3726627     0.310225 -13.71  0.002415099    1.228    0.186
         3 -13.2518     84.2193     23.8558   3.8358851041e+01   5.8293005596e+01    0.4577968      0.30956 -69.72  0.001670334    2.097    0.523
         4 -11.3662    114.1272      6.9214   2.6929162629e+01   5.3261285381e+01    0.1778653    0.1415426  77.17            0    1.010    0.010
         5 -12.7141    120.9899     13.1422   2.7657452512e+01   5.1163916512e+01    0.2499771    0.2045673  79.83 0.0005756651    1.022    0.022
         6 -12.3147    117.1386     10.8227   2.7589072928e+01   5.2240307947e+01    0.2158955    0.1914358 -86.05 0.0003926608    1.148    0.129
         7 -11.3388     90.5231     11.5252   3.2641425948e+01   5.8131635441e+01    0.1752995    0.1238156 -25.55  0.000818955    1.784    0.439
         8 -12.0323     92.3247      8.3143   3.1191256655e+01   5.8015948084e+01    0.2295225      0.16374  61.33 0.0008110837    1.121    0.108
         9 -12.7672     88.3866      4.4078   3.0675855447e+01   5.9219839841e+01    0.3379267    0.2131668  78.71 0.0005598697    1.509    0.337
        10 -11.4073     54.9334     10.8831   4.2191571353e+01   6.5811296637e+01     0.236548    0.1617054  40.00  0.001227542    1.229    0.186
        11 -12.4491     82.5713      9.2649   3.3635879624e+01   6.0093121372e+01     0.286285    0.1833275  38.33  0.001678318    1.640    0.390
        12 -10.6085    103.7560      7.5916   2.8815363603e+01   5.5523902415e+01    0.1699955   0.09764704  77.03 0.0006031586    1.556    0.357
        13 -11.1645    106.8065      4.9000   2.7480982611e+01   5.5069899090e+01     0.262459    0.1158687 -53.36  0.001244822    2.889    0.654
        14 -11.1488      5.1347      3.3135   6.3978733461e+01   7.5042388622e+01    0.1819084    0.1300358  -8.10 0.0003812304    1.302    0.232
        15 -10.8062    133.9567      3.0153   2.3229614544e+01   4.9210825880e+01    0.1809197    0.1158955  51.97  0.000860696    1.691    0.409
        16 -11.2635    100.8401      2.0164   2.7580428356e+01   5.6637987400e+01    0.2227661     0.140433  70.34  0.001151439    1.253    0.202
        17 -10.5034    128.9600      1.2046   2.3348570777e+01   5.0458286578e+01    0.1573936    0.0749891  74.00 0.0003379542    1.678    0.404
        18 -10.7728    147.8334    239.1558   7.1849228167e+01   3.8883415909e+00    0.1845405    0.1329374  -7.60  0.000415917    1.291    0.225
        19 -13.1928    246.8555    248.9366   5.4500594578e+01  -7.2887821113e+00    0.3240774    0.1977176  -7.38  0.001000813    1.411    0.291
        20 -11.8112    237.4166    249.0456   5.6009225001e+01  -6.5826990485e+00    0.2937922    0.1849467 -32.84  0.002091146    1.268    0.212
        21 -11.7187     94.3853    249.8800   8.6025707215e+01   8.0950254350e+00    0.3055971    0.1891445  51.72  0.001180432    1.975    0.494
        22 -11.3676     85.4557    250.5477   8.8312719224e+01   8.9948865756e+00    0.2435061     0.152236  27.34 7.913949e-06    1.367    0.269
        23 -12.3487     85.5132    246.5840   8.7859142236e+01   9.8217951805e+00    0.4523438    0.2454866  32.79 0.0008666335    1.596    0.374
        24 -11.9129     70.4385    248.3585   9.1837181909e+01   1.1175784111e+01    0.3338962     0.257791 -28.27  0.001074832    1.460    0.315
        25 -13.2782     67.7180    245.0799   9.2195625480e+01   1.2193996198e+01    0.6097211    0.3240209 -43.28  0.002773451    2.183    0.542
        26 -12.4456     51.5950    250.1563   9.6722520125e+01   1.2852042968e+01    0.2735055    0.2074365  28.81  0.001380698    1.143    0.125
        27 -11.9580     42.6801    249.9437   9.8917396546e+01   1.3828125094e+01    0.3114631    0.2164612   6.31   0.00169842    1.566    0.361
        28 -16.3657     92.5846    195.5604   7.9189931239e+01   2.0716683600e+01     3.111695     1.578063 -51.82   0.01277204    1.962    0.490
        29 -14.8704     27.8074    247.1265   1.0237834604e+02   1.5923384963e+01     1.757272    0.8164332   2.91  0.006838248    3.372    0.703
        30 -14.4707     68.8096    207.6835   8.7669054262e+01   2.0843277449e+01     1.001521    0.5419409  17.13  0.003442096    1.928    0.481
        31 -14.2272     76.8153    202.8398   8.4745057577e+01   2.1037406111e+01    0.6772366    0.4831344 -24.90  0.002824179    1.599    0.375
        32 -14.5565     28.5206    233.1451   1.0121570919e+02   1.9048562409e+01    0.7925118    0.6484301  38.05  0.004736278    1.093    0.085
        33 -17.3253     11.5798    236.9879   1.0574505435e+02   1.9695378765e+01     3.946659       1.5989 -76.16   0.01749981    2.531    0.605
        34 -15.3202     16.3857    227.5058   1.0395200117e+02   2.1500950221e+01     1.096676    0.5833607  47.63   0.00536226    1.716    0.417
        35 -12.2087     97.5393    235.0404   8.3430283073e+01   1.0859373377e+01    0.2968552    0.2497639 -49.89 0.0006845772    1.302    0.232
        36 -10.9096    239.9522    239.6324   5.4230401801e+01  -5.4259676370e+00    0.1454856    0.1073108 -11.27 0.0003993453    1.136    0.120
        37 -13.1087     77.4000    218.8805   8.6695361740e+01   1.7046931764e+01    0.3338708    0.2930702 -68.47 0.0006352811    1.262    0.208
        38 -10.9455     64.9524    224.5799   9.0753647111e+01   1.7191637724e+01    0.3146943    0.2118022   5.99 0.0007844019    1.618    0.382
        39 -12.0833     71.8451    229.7770   8.9491418846e+01   1.5161578754e+01    0.6037461    0.3423484  29.14  0.002358241    1.558    0.358
        40 -10.7054     68.0000    225.9694   9.0087789173e+01   1.6504936040e+01     0.267402    0.1585002 -54.07 0.0006281136    1.776    0.437
        41 -11.2508     56.8156    233.3627   9.3847233896e+01   1.6058169371e+01    0.4525646    0.1742864 -57.12  0.001823067    2.638    0.621
        42 -10.6727     65.7052    228.7008   9.1005917459e+01   1.6132713279e+01    0.2169494    0.1595532 -35.73 0.0002495341    1.515    0.340
        43 -10.9897     59.9818    235.2084   9.3199994218e+01   1.5278678470e+01    0.2526458    0.1801625  22.53 0.0002278561    1.281    0.219
        44 -12.9966     63.4899    232.7534   9.2026883176e+01   1.5446416374e+01     0.612833    0.3150386  46.29   0.00268423    1.974    0.493
        45 -14.2243    114.2614    227.2257   7.8133933566e+01   1.0450924465e+01    0.6694058    0.4407791 -31.24  0.002764656    1.601    0.375
        46 -12.7798    103.5847    232.6982   8.1586446207e+01   1.0617873729e+01     0.473754    0.2932147 -19.12  0.002189515    1.962    0.490
        47 -12.8875    106.0625    227.1098   8.0197737527e+01   1.1525081167e+01    0.3127001    0.2927712  -0.59 0.0004403024    1.074    0.069
        48 -11.5361    214.0608    233.4984   5.7636401197e+01  -2.2158838307e+00    0.2113686    0.1388122 -33.87 0.0003402286    1.257    0.204
        49 -13.5090    219.7386    230.4043   5.6175226441e+01  -2.2593147662e+00    0.3820557    0.2289084 -22.91  0.001506148    1.394    0.283
        50 -12.2664    133.4593    230.4828   7.3906253647e+01   7.3350548341e+00    0.2715312    0.1590226 -18.15  0.001028564    2.035    0.509
        51 -12.5019    126.0149    231.6745   7.5869081730e+01   8.0218984270e+00     0.304269    0.2008225 -11.40 0.0004657837    1.656    0.396
        52 -11.8740    162.8518    246.4715   6.9614900364e+01   8.4495939235e-01    0.2525997      0.16575 -16.80 0.0006470738    1.419    0.295
        53 -11.0767    193.3697    230.6451   6.1006874327e+01   3.2723960769e-01    0.2507785    0.1554442  -5.89  0.001422439    1.618    0.382
        54 -12.4255    232.3358    227.6552   5.3656342990e+01  -2.9838335090e+00    0.2653839    0.1946564 -42.41   0.00158211    1.460    0.315
        55 -11.2444    178.0112    228.4775   6.3714643847e+01   2.3842727213e+00    0.1837593    0.1459665 -21.38 0.0001707282    1.069    0.064
        56 -11.7242    149.6105    229.2526   6.9964874111e+01   5.5837881157e+00    0.1914424    0.1108447 -37.10 0.0009507177    1.654    0.396
        57 -10.8324     84.2880    229.5254   8.6172688792e+01   1.3717564118e+01    0.2623474    0.1201262  30.05 0.0007749573    1.905    0.475
        58 -11.4784    127.4198    227.2202   7.4877369733e+01   8.7696877826e+00    0.2395495    0.1292183 -51.39 0.0008336896    1.934    0.483
        59 -11.9679    100.4979    227.1865   8.1639679980e+01   1.2217034772e+01    0.2207143    0.1797246  41.49 0.0005027635    1.284    0.221
        60 -11.7202     91.3878    225.7401   8.3824907500e+01   1.3695728714e+01    0.2914852    0.2376783 -61.38   0.00125987    1.375    0.273
        61 -12.1431    248.5236    225.6807   5.0839668242e+01  -4.0821458902e+00    0.2191145    0.1310853 -45.38  0.001454911    1.657    0.396
        62 -11.0209    182.1476    230.6136   6.3209263859e+01   1.5416383633e+00    0.3967384    0.1406222 -30.90  0.001418887    3.552    0.718
        63 -14.9019     51.6265    187.4330   9.0145666860e+01   2.8135110745e+01     2.768582     1.085299 -64.44   0.01006777    2.508    0.601
        64 -11.1356    212.7628    223.0634   5.6248816419e+01  -3.9586770976e-01    0.3349991    0.1315325 -31.91  0.001557862    2.413    0.586
        65 -11.6444     71.6378    233.9501   9.0012793686e+01   1.4228429773e+01    0.2868091    0.1844829  19.19 0.0007737644    1.457    0.314
        66 -12.2795    159.5133    222.0903   6.6632699718e+01   5.7643881029e+00     0.396956    0.2222276  25.10 0.0008451824    1.729    0.422
        67 -13.6104    125.6865    221.0807   7.4382887365e+01   1.0291921619e+01    0.5543128    0.3571458  -1.13 0.0008581227    1.750    0.429
        68 -11.7414    173.6463    220.0483   6.3276579582e+01   4.4392606508e+00    0.3574019    0.2609601 -72.03  0.001842846    2.422    0.587
        69 -10.6517    150.4577    222.4612   6.8718566366e+01   6.8186249857e+00    0.1370126    0.1167427  -7.74 4.152536e-05    1.002    0.002
        70 -11.3924    237.9752    221.4850   5.1818337122e+01  -2.5405486877e+00    0.1496224    0.1008249  15.71  0.001039329    1.610    0.379
        71 -11.9625    223.3148    220.3656   5.4015677528e+01  -9.9812957839e-01    0.2021905    0.1576718 -29.37 0.0003268819    1.145    0.127
        72 -11.7869    189.6078    220.1689   6.0078624528e+01   2.5665440200e+00    0.2570493    0.1548467 -13.81  0.000408671    1.754    0.430
        73 -10.8548    194.5728    219.9474   5.9086461189e+01   2.0522712552e+00    0.1848974    0.1664393  16.35 0.0008155194    1.353    0.261
        74 -13.4827     48.6779    213.5041   9.4039413365e+01   2.1743272196e+01     1.368642    0.5082287 -66.90  0.005125656    2.749    0.636
        75 -11.8476    231.3290    218.6076   5.2428239559e+01  -1.4832378987e+00     0.207121    0.1485317 -33.86 0.0007057456    1.161    0.139
        76 -13.4329    114.2999    217.9573   7.6773920558e+01   1.2476465253e+01    0.3651438    0.2908579 -27.61  0.001653285    1.250    0.200
        77 -13.7921    110.1273    214.3601   7.7312232880e+01   1.3842202493e+01    0.5984396    0.3038999 -36.90  0.002463628    2.207    0.547
        78 -10.5078     83.4137    219.4040   8.5128745102e+01   1.6169757700e+01    0.1428297    0.1299328   9.80 0.0001043038    1.031    0.030
        79 -11.7967    145.7871    216.4377   6.8835463444e+01   8.6343953674e+00    0.3592862    0.2589127 -46.79  0.001939629    1.417    0.294
        80 -13.3162    141.3432    210.9462   6.8990454784e+01   1.0366024896e+01    0.6267089    0.3393978 -61.27 0.0007324867    2.449    0.592
        81 -10.7313    225.7737    216.4220   5.2990241781e+01  -6.0313038309e-01    0.1447233   0.09606643   1.13  0.000334171    1.545    0.353
        82 -11.9355    155.4611    213.3025   6.6115382563e+01   8.0133778064e+00    0.3958801    0.3038751 -81.12  0.002017029    2.209    0.547
        83 -12.6173    125.0910    213.0906   7.3297357592e+01   1.2102839630e+01    0.3187829    0.2147834 -42.54 0.0007208657    1.470    0.320
        84 -12.3655    248.4492    212.2580   4.8821475873e+01  -2.0675057036e+00    0.3244749    0.1666916 -20.30  0.001583268    2.042    0.510
        85 -11.1895    162.0607    212.9853   6.4600078743e+01   7.2273658489e+00    0.2062832    0.1707182 -14.16 0.0003441548    1.050    0.048
        86 -12.9256    119.3900    210.4017   7.4315407451e+01   1.3476532772e+01    0.4281648    0.2341345  12.88    0.0012699    2.121    0.529
        87 -14.0880     99.2814    208.9528   7.9379465697e+01   1.6559396355e+01    0.9901347    0.5756777   0.85  0.003992377    2.302    0.566
        88 -12.1389    242.4522    210.6667   4.9466739273e+01  -1.2798514245e+00    0.2879567    0.1382631 -12.50  0.001343179    3.403    0.706
        89 -11.4697    210.0203    211.5412   5.4895862585e+01   1.8221676733e+00    0.1641471    0.1122996  22.17 0.0005209586    1.577    0.366
        90 -11.9312    229.4995    208.8845   5.1196461449e+01   2.4493673143e-01      0.33468    0.1854795 -29.96  0.002008313    1.490    0.329
        91 -11.4144     26.1083    208.5961   9.9918790173e+01   2.5283260371e+01     0.258664     0.180384 -75.25 0.0006905904    1.455    0.313
        92 -11.0315    181.7413    207.7436   5.9597753972e+01   5.7667375859e+00    0.3269802    0.1580141 -26.28   0.00140797    2.468    0.595
        93 -11.1605    160.3496    206.4493   6.3887516380e+01   8.7527538644e+00    0.2154478    0.1693984 -67.90  0.001159757    1.768    0.434
        94 -10.9853     36.4275    191.6962   9.5283799621e+01   2.8665091526e+01    0.3254634    0.2361619  15.83  0.001615724    1.413    0.292
        95 -12.0316     36.9072    184.8337   9.4373334774e+01   3.0443919602e+01    0.6177679    0.2740804 -72.30  0.002366173    2.336    0.572
        96 -12.4394     31.4600    203.2909   9.7921169269e+01   2.6129965654e+01     0.803896    0.3425825  87.55  0.002738829    3.473    0.712
        97 -13.5644     26.4816    192.9979   9.8403553499e+01   2.9290998221e+01     1.117028    0.3276904 -78.31  0.003326534    4.186    0.761
        98 -10.9422     33.2004    176.8820   9.4620081335e+01   3.2962807774e+01    0.2332988    0.1870259 -37.23 0.0004684841    1.310    0.237
        99 -12.5720     31.4498    187.0265   9.6298298334e+01   3.0403863076e+01    0.5645003    0.2993281 -83.02  0.001243662    2.116    0.527
       100 -12.3754     29.1831    181.6688   9.6427270331e+01   3.2059426994e+01    0.4932377     0.291749   0.41  0.001128027    2.056    0.514
       101 -11.1858    205.0264    206.0736   5.4892111444e+01   3.3184129450e+00    0.1811099    0.1435191 -23.01            0    1.011    0.011
       102 -12.0989    123.8077    205.4393   7.2397260407e+01   1.3977428001e+01    0.2639458    0.2063139 -31.22 0.0003903878    1.255    0.203
       103 -11.5536    145.6585    204.6779   6.6932698230e+01   1.1102153329e+01    0.3130633    0.1623415 -32.98  0.001336367    2.080    0.519
       104 -12.0365    145.6372    201.3163   6.6368089261e+01   1.1817944741e+01     0.269144    0.2018502  52.18  0.001372812    1.754    0.430
       105 -12.8260    141.3844    197.8167   6.6776867489e+01   1.3170746466e+01    0.3631516    0.2356562 -48.44  0.001082643    1.524    0.344
       106 -12.9135    138.1701    196.8859   6.7391539783e+01   1.3834838472e+01    0.3904097    0.2538341 -15.94  0.001072767    1.838    0.456
       107 -10.9393    188.0191    211.9465   5.9051308652e+01   4.2324305945e+00    0.1573873    0.1256201 -24.88 0.0004356915    1.049    0.047
       108 -10.9667    195.8422    202.8323   5.6037819629e+01   4.9634672556e+00    0.2605316    0.1404476   4.48   0.00116935    2.769    0.639
       109  -9.9423     37.2938    202.6782   9.6174436627e+01   2.5704367142e+01    0.1518173   0.09948459  57.29 0.0007016481    1.613    0.380
       110 -11.8919    212.0074    199.4149   5.2563047171e+01   3.6887910967e+00    0.3715802    0.1602066 -52.33  0.001667379    2.697    0.629
       111 -10.8559    180.8320    200.9834   5.8638073783e+01   7.1608774597e+00    0.2135545    0.1508283 -22.92 0.0007850937    1.318    0.241
       112 -12.3720    121.4925    200.0183   7.2098273231e+01   1.5532898580e+01    0.2770057    0.2156047 -45.44  0.001352652    1.287    0.223
       113 -13.5775    123.0138    195.9848   7.1029215580e+01   1.6236237949e+01    0.4990679    0.3445264  31.32  0.002010403    1.415    0.293
       114 -11.9685    225.0576    198.2482   5.0199792901e+01   2.4492529909e+00    0.2620391    0.1514524 -49.00  0.001380145    1.702    0.412
       115 -10.4064     35.3815    198.8011   9.6340481941e+01   2.6904688749e+01    0.1810064    0.1306791 -60.36 0.0007024443    1.398    0.285
       116 -15.8987     69.2379    184.0399   8.4280574705e+01   2.6842707379e+01     2.803576     1.462387 -49.11   0.01138111    1.928    0.481
       117 -10.4450      1.0000    197.9409   1.0618099424e+02   3.0081483850e+01    0.1962298   0.07271732 -78.71            0    2.591    0.614
       118 -12.6823    111.7331    196.4779   7.4072004924e+01   1.7761147866e+01    0.5075396    0.1954824  38.01  0.001623473    2.545    0.607
       119 -11.8207    246.0106    195.9845   4.6651606633e+01   6.7078250798e-01    0.1576007    0.1242477 -55.62 0.0009126163    1.647    0.393
       120 -12.5111    168.0264    195.5507   6.0349918508e+01   9.9135264429e+00    0.2472848     0.216244  -5.01 0.0003321813    1.073    0.068
       121 -11.7877    193.7396    193.6019   5.4863378462e+01   6.9136688195e+00    0.3403004    0.2009849 -22.34  0.001292642    1.847    0.459
       122 -12.6909    189.4633    193.4946   5.5655431497e+01   7.4763982073e+00    0.3827557    0.2937778   6.63  0.001807387    1.349    0.259
       123 -11.1974    217.4881    193.7456   5.0695106932e+01   4.0456289129e+00    0.1940287    0.1750112 -56.03 0.0007349636    1.457    0.314
       124 -10.4808      4.2722    194.2762   1.0501292842e+02   3.0793441103e+01    0.1319867   0.09726358 -42.49 0.0002512505    1.488    0.328
       125 -11.1281    212.6714    193.1586   5.1406003773e+01   4.7005828993e+00    0.1864485    0.1346596 -49.02 0.0005804555    1.424    0.298
       126 -11.5896    162.9596    192.9891   6.0992121208e+01   1.1132148694e+01     0.256749    0.1719423  27.02  0.001331062    1.536    0.349
       127 -11.9311    149.2457    190.9976   6.3726293625e+01   1.3507364418e+01    0.1976715    0.1754349 -26.22 0.0004318217    1.047    0.045
       128 -12.5675    128.0343    187.3295   6.8237246768e+01   1.7475749085e+01    0.3491784    0.2168394 -64.97  0.001053238    2.052    0.513
       129 -13.5224    135.4124    186.3986   6.6218431582e+01   1.6570940601e+01    0.7052431    0.2665241 -40.90  0.002472291    2.798    0.643
       130 -12.7218    131.7951    184.5367   6.6784120915e+01   1.7541748738e+01    0.3343193     0.289835   6.44  0.001317411    1.126    0.112
       131 -11.6324      2.8195    190.6273   1.0517986275e+02   3.1848125743e+01    0.2523347    0.1894621 -57.43 0.0006084063    1.342    0.255
       132 -11.1831    234.4852    190.5207   4.7475035529e+01   2.7191859025e+00    0.1173177    0.0887097 -31.39 0.0003158774    1.002    0.002
       133 -12.1758    196.3865    188.7228   5.3528486317e+01   7.4814092845e+00     0.302947    0.1897998 -54.75  0.001607144    1.804    0.446
       134 -12.8577    111.1817    188.3669   7.2852697454e+01   1.9770398343e+01     0.394734    0.2753647 -25.33  0.001373239    1.597    0.374
       135 -11.3385     18.9528    187.7361   1.0017308846e+02   3.1356481334e+01    0.3801769     0.237032  15.86  0.001225141    1.677    0.404
       136 -12.7626     12.2505    184.5872   1.0192409831e+02   3.2742384498e+01    0.6568583    0.4251215  69.98  0.003184662    1.632    0.387
       137 -11.5986     11.4249    188.8042   1.0251888319e+02   3.1688254866e+01    0.2560325    0.2345999 -46.73  0.001053485    1.150    0.130
       138 -13.0390      8.3772    187.1833   1.0329617722e+02   3.2349781390e+01    0.5997252    0.4104541  59.88  0.003070446    1.469    0.319
       139 -12.6473      4.5654    181.5303   1.0400279763e+02   3.4124615945e+01    0.5032198    0.3602122 -45.66  0.002411755    1.462    0.316
       140 -11.6673    152.8422    195.8400   6.3752024660e+01   1.1963827141e+01    0.2206195    0.1758477 -15.70 0.0007037116    1.207    0.171
       141 -14.1373    118.6746    179.5412   6.9273042731e+01   2.0730538469e+01    0.7410591    0.5150838  83.41  0.003056969    2.481    0.597
       142 -12.5327    119.6021    187.7545   7.0496554569e+01   1.8651091195e+01    0.3643904    0.2621837 -72.01  0.001003606    1.809    0.447
       143 -12.5903    122.4953    186.4768   6.9513231186e+01   1.8511998919e+01    0.3235115    0.2440225  31.77 0.0009431425    1.313    0.239
       144 -11.1440    186.2959    187.1234   5.5151982176e+01   9.0982393795e+00    0.1880848    0.1469089 -36.41 0.0005315134    1.118    0.105
       145 -11.8950    248.5625    185.7543   4.4676029680e+01   2.0240552509e+00    0.1992204     0.155646 -30.61  0.000461226    1.074    0.069
       146 -13.0581    152.2833    181.6241   6.1328626060e+01   1.5066685415e+01    0.5410965    0.2119858 -37.13   0.00175848    2.927    0.658
       147 -11.9150    166.8210    181.9671   5.8179987587e+01   1.2838002673e+01    0.2273289    0.1995198 -19.73 0.0003596923    1.032    0.031
       148 -11.2274    166.9857    178.0243   5.7420910417e+01   1.3621798065e+01    0.1675211    0.1478163 -26.96 0.0003123627    1.009    0.009
       149 -14.3408     78.8491    212.3571   8.5457397157e+01   1.8433442763e+01     2.125422     0.694904  17.43  0.005925804    4.444    0.775
       150 -11.0315    220.9755    180.5150   4.7908751864e+01   5.9164016836e+00    0.1523558    0.1177055  25.87 0.0004434461    1.527    0.345
       151 -11.3553    198.9162    179.9756   5.1538857266e+01   8.7710374244e+00    0.1893939    0.1581959 -31.79  0.000339744    1.022    0.022
       152 -10.9487    177.6080    179.5483   5.5507183475e+01   1.1771207013e+01    0.1969141    0.1531074 -61.35  0.001088074    1.546    0.353
       153 -12.1060    192.2204    178.2707   5.2456024075e+01   9.9840991908e+00    0.2532279    0.2036408 -64.36  0.001137471    1.573    0.364
       154 -10.4894     17.4930    179.4722   9.9856598609e+01   3.3691095953e+01    0.1403757    0.1357255 -73.87 0.0003974141    1.031    0.030
       155 -11.8433    250.6125    176.3665   4.2904389784e+01   3.2907606301e+00    0.2019436   0.08135782 -42.99 0.0002358809    1.848    0.459
       156 -11.5888    162.3481    177.1286   5.8250501858e+01   1.4499420472e+01     0.217383    0.1832896   3.89  0.000409279    1.212    0.175
       157 -12.8554    136.4806    175.8065   6.4004490402e+01   1.8793142517e+01    0.3392639    0.2613529  79.28  0.001598732    1.968    0.492
       158 -12.4330     56.3829    176.0849   8.7110471969e+01   3.0593567415e+01    0.4766984    0.2921397  59.93  0.001640588    2.036    0.509
       159 -13.0780    106.7080    175.4618   7.1802551492e+01   2.3584497029e+01    0.3380203    0.2763571 -63.03  0.001103232    1.333    0.250
       160 -11.1149      3.2420    174.3486   1.0384993204e+02   3.6133270008e+01    0.4919161    0.3356007  71.42  0.002491239    1.504    0.335
       161 -12.9149    126.6114    173.7862   6.6119279878e+01   2.0828316293e+01    0.3798725    0.2590086 -56.48  0.001723377    1.547    0.354
       162 -14.1071    124.9918    167.6639   6.5369707757e+01   2.2520593220e+01    0.9118093    0.3464695  39.24  0.003209039    2.644    0.622
       163 -12.0817     32.9698    172.1561   9.4132273294e+01   3.4270345810e+01     0.525711    0.2766838  18.72  0.002185867    1.954    0.488
       164 -11.4594    244.0266    171.9990   4.3090877954e+01   4.6931519642e+00    0.1697657    0.1282281 -36.70            0    1.011    0.011
       165 -10.7077     19.2119    176.1495   9.8994273477e+01   3.4444856094e+01    0.2033959    0.1557071  56.48 0.0004891816    1.337    0.252
       166 -11.0735     14.5960    171.5489   1.0001492790e+02   3.6067240533e+01    0.2246054    0.1770107 -30.96 0.0006107696    1.366    0.268
       167 -10.9428    236.1911    171.1815   4.4051228327e+01   5.7091520162e+00    0.2181201    0.1514291  13.21  0.001354201    1.889    0.471
       168 -12.3227    192.8150    171.2023   5.1072895834e+01   1.1239183160e+01    0.2971547    0.1732134  16.41   0.00140216    2.482    0.597
       169 -13.7283    152.6098    167.3904   5.8567941326e+01   1.8078001223e+01    0.6652277    0.2787844 -50.69  0.002013472    2.333    0.571
       170 -13.1736     65.9873    160.4734   8.1536036155e+01   3.3527774039e+01    0.4999937    0.4083349  -1.07  0.001647532    1.311    0.237
       171 -11.5575     63.0222    156.9759   8.1914335938e+01   3.4868267346e+01    0.2622966    0.2198102  80.30 0.0003108582    1.380    0.275
       172 -13.1304     66.0177    153.9981   8.0388360856e+01   3.5250339872e+01    0.5995926    0.2742946  27.81  0.001838822    2.140    0.533
       173 -12.4904    105.1802    169.1222   7.1062679638e+01   2.5386260149e+01    0.2397772    0.2079473 -16.19 0.0006531026    1.183    0.155
       174 -14.3963     39.0536    225.0957   9.7795157125e+01   1.9919253050e+01     2.304958      1.57568  14.48   0.01190777    1.492    0.330
       175 -11.8736     40.4551    166.8896   9.0994490118e+01   3.4931948723e+01    0.4056386    0.2525414 -87.80 0.0001807861    1.918    0.479
       176 -13.2089     34.4302    155.8351   9.1515926719e+01   3.8592181291e+01    0.5987315    0.4714853  76.43  0.001785129    1.421    0.296
       177 -14.5072     24.2671    132.5028   9.1808227479e+01   4.5934339908e+01    0.9682685    0.7410081  81.06  0.003400756    1.515    0.340
       178 -13.4456     21.5177    115.8201   9.0179602373e+01   5.0618708097e+01    0.7066705    0.5358606  41.06  0.002375185    1.443    0.307
       179 -13.9551     21.1055    160.3261   9.6673105967e+01   3.8601602678e+01     1.271318    0.8152334  56.63  0.005454214    1.731    0.422
       180 -13.0521     39.4964    152.0883   8.9198860118e+01   3.9084944764e+01    0.4814724    0.3925214  88.73  0.001249106    1.350    0.260
       181 -15.0354     11.3024    131.1451   9.6609220772e+01   4.7326698997e+01     1.961166     1.310214 -52.64  0.006872456    1.365    0.267
       182 -14.2830     33.9300    145.8408   9.0238649021e+01   4.1380858371e+01     1.164216    0.5874068 -27.25  0.003309147    2.629    0.620
       183 -13.3904      3.7384    119.7546   9.8095630740e+01   5.0847168662e+01    0.5310493    0.4190769 -63.74  0.001313162    1.173    0.148
       184 -13.3055      9.4201    116.5354   9.5319186846e+01   5.1350751569e+01    0.3852647    0.3455219   5.29  0.001214116    1.152    0.132
       185 -14.1528      8.5240    148.7758   9.9735083696e+01   4.2722738285e+01     1.300807     0.729487   9.37  0.005839712    1.940    0.485
       186 -14.5781     33.8223    138.2689   8.9095738765e+01   4.3453770557e+01     1.560604    0.6949778 -15.95  0.004519028    4.360    0.771
       187 -14.1789     34.7150    130.2826   8.7419273564e+01   4.5513462545e+01    0.7871357    0.5199912  40.51  0.001676393    1.600    0.375
       188 -14.0709     20.8962    153.9611   9.5987649608e+01   4.0366029214e+01    0.9643238    0.7051014 -36.37  0.004802446    1.407    0.289
       189 -12.4083     59.2782    158.3187   8.3395247909e+01   3.5007747969e+01    0.4516593     0.311983  39.57            0    1.458    0.314
       190 -11.8807     10.4383    166.8107   1.0090564670e+02   3.7668914547e+01    0.3511568    0.2353686  -8.95 0.0008717765    1.728    0.421
       191 -11.7307    199.5645    165.0647   4.8756860498e+01   1.1444375737e+01    0.2392026    0.1629265  84.15  0.001047928    3.507    0.715
       192 -12.4755    110.9358    164.3594   6.8529658001e+01   2.5621791549e+01    0.3150842    0.2915073 -45.35 0.0003900067    1.089    0.082
       193 -11.5430     88.3401    164.7069   7.5206432873e+01   2.9145034848e+01    0.2971996    0.1776122  39.70 0.0009867304    1.674    0.403
       194 -12.3401     47.2032    163.1971   8.8217680074e+01   3.5181701417e+01    0.5011399    0.3271828 -22.96    0.0018367    1.840    0.457
       195 -13.2296     42.0801    159.9038   8.9465054522e+01   3.6663194235e+01     0.864153    0.3202159  20.67  0.002921128    2.801    0.643
       196 -10.0673    242.6588    162.3056   4.1688581239e+01   6.4125980864e+00     0.106829   0.08050438 -64.66 0.0006274079    1.683    0.406
       197 -11.3103    205.9989    164.3353   4.7530202593e+01   1.0689129033e+01    0.1686423    0.1521501 -19.48  0.000607967    1.127    0.113
       198 -13.1298    170.0124    159.6197   5.3304767649e+01   1.6923038018e+01    0.3925045    0.2389046 -47.41  0.001930545    1.512    0.339
       199 -13.3981     61.3280    168.9281   8.4445008702e+01   3.1887588146e+01    0.8156675    0.5005149 -46.64  0.003523517    1.646    0.393
       200 -12.6032    158.6870    160.0604   5.5783852791e+01   1.8657097591e+01    0.2718548    0.2323855  49.49 0.0006863051    1.332    0.249
       201 -10.0124      7.2590    160.3262   1.0133769426e+02   3.9657030649e+01    0.1483563   0.09505261 -45.41  0.000189288    1.557    0.358
       202 -12.5191     56.4635    163.1599   8.5123784624e+01   3.4065146038e+01    0.4127502    0.2881589 -39.47 0.0008121204    1.494    0.331
       203 -13.0374     75.8191    156.7542   7.7669469727e+01   3.3106465084e+01    0.4570751    0.2943649 -76.90  0.001280103    1.985    0.496
       204 -11.4085    105.1669    157.9896   6.8916398370e+01   2.8135651551e+01    0.2711444    0.2321687   9.17 0.0007096836    1.210    0.173
       205 -11.6485      3.6681    162.4721   1.0272205026e+02   3.9310309824e+01    0.4184695    0.2181218  54.84  0.001794151    2.118    0.528
       206 -12.9407     92.5337    161.7309   7.3377189312e+01   2.9251180318e+01    0.4702458    0.3593201  67.88  0.001799871    1.671    0.401
       207 -12.1088    121.8171    156.0452   6.3900934984e+01   2.5782458224e+01     0.219193    0.2053545  89.38 0.0002474023    1.212    0.175
       208 -11.8619    112.2982    156.4095   6.6574328244e+01   2.7321934084e+01    0.2175115    0.1408529  43.25 0.0009460189    1.604    0.377
       209 -12.2487     81.9184    155.9923   7.5574286677e+01   3.2383231082e+01    0.3883781     0.226594  22.19 0.0009013313    1.823    0.451
       210 -11.8573    141.4170    154.7102   5.8665662979e+01   2.2712286682e+01    0.2800203    0.1401165 -53.87 0.0008900896    2.071    0.517
       211 -12.2318     88.6036    153.0404   7.2901178800e+01   3.2091766790e+01    0.4276109    0.2603927 -71.95  0.001683402    2.146    0.534
       212 -10.6415    230.8834    169.8610   4.4597987949e+01   6.5494868489e+00      0.15029     0.119858 -49.92 0.0003570033    1.265    0.210
       213 -12.4128     50.6941    152.6818   8.5381791164e+01   3.7623984951e+01    0.3233928    0.2662854  82.90 0.0007849253    1.386    0.279
       214 -12.5328     45.5511    151.8665   8.7040070101e+01   3.8462271828e+01    0.4223477    0.2443937 -17.70  0.001619582    2.344    0.573
       215 -12.4021     58.2798    151.3184   8.2533506580e+01   3.7022628333e+01    0.4321871    0.2236804 -41.47  0.001176179    2.085    0.520
       216 -10.8261    232.3178    151.8915   4.1345708002e+01   9.3794104454e+00    0.1644134    0.1160794 -41.19 0.0003418541    1.110    0.099
       217 -12.5126    147.6870    149.8658   5.6200573941e+01   2.2690640878e+01    0.3355611    0.2728691 -63.94 0.0004320996    1.355    0.262
       218 -13.0694    130.9852    150.3668   6.0344782530e+01   2.5502689517e+01    0.4491355    0.2934365  14.55  0.001349861    2.048    0.512
       219 -13.1126     84.6617    148.0218   7.3143085379e+01   3.4006630782e+01    0.6058379    0.2958294 -56.95  0.001656188    2.083    0.520
       220 -12.7976    170.0145    149.9107   5.1400002429e+01   1.8891158904e+01     0.320437    0.2314459  56.02  0.001289582    1.701    0.412
       221 -12.8983    108.8103    148.7317   6.5982157657e+01   2.9776600858e+01    0.4084879    0.3371668 -50.02  0.000951279    1.211    0.174
       222 -12.6266     98.0680    149.7780   6.9347898345e+01   3.1357691887e+01    0.4213375    0.2635694  42.71  0.001801113    1.638    0.390
       223 -11.1240    224.0983    148.1896   4.1859035262e+01   1.1077504735e+01    0.2263869    0.1350786 -61.14 0.0009151572    2.055    0.513
       224 -11.3858    180.5201    148.4799   4.9076302786e+01   1.7463390957e+01    0.1350738    0.1194256 -37.70 -1.672513e-05    1.022    0.022
       225 -11.3459    206.4551    146.7530   4.4262443155e+01   1.3802872709e+01     0.188024    0.1738044  29.01 0.0005584478    1.282    0.220
       226 -11.6971     79.9592    147.4795   7.4548575719e+01   3.4891271405e+01    0.2406611    0.1521664  29.91 0.0005788748    1.558    0.358
       227 -12.5192     43.6880    146.4839   8.6827672889e+01   4.0143091396e+01    0.2788971    0.2131511  47.39 0.0009184661    1.397    0.284
       228 -11.5832    121.1969    146.6260   6.2110390317e+01   2.8096910345e+01    0.2109579    0.1437173  23.77 0.0003778635    1.640    0.390
       229 -12.6764    101.4780    142.2700   6.6752308610e+01   3.2623253631e+01    0.5729011    0.3792371  67.02  0.001635036    2.270    0.559
       230 -11.4148     59.6132    144.8450   8.0905193825e+01   3.8576087938e+01    0.2149038    0.1502189 -79.40 0.0003914825    1.720    0.418
       231 -12.0135     69.6951    142.0653   7.6890573911e+01   3.7869447406e+01    0.2852903    0.2093876  41.77  0.000970877    1.394    0.282
       232 -13.4812    230.0852    139.2628   3.9471751809e+01   1.1773071917e+01    0.2685634    0.2389219 -41.81 0.0007981618    1.132    0.116
       233 -11.9316     94.6841    140.2849   6.8384912220e+01   3.4288039479e+01    0.3194193     0.226848 -33.28  0.001309101    1.543    0.352
       234 -13.0645     55.2136    140.5978   8.1669113463e+01   4.0300040531e+01     0.510918    0.2488483  19.85  0.001900355    2.227    0.551
       235 -11.5502    139.9781    140.9644   5.6143643710e+01   2.5994988283e+01    0.2248914    0.2090235 -40.43  0.000540707    1.034    0.033
       236 -10.7268    189.7080    140.3471   4.5835004717e+01   1.7545071166e+01    0.1305967   0.09752728 -71.71 0.0004750151    1.665    0.399
       237 -12.4984    118.6308    135.3992   6.0365437341e+01   3.1160933985e+01    0.4425601    0.3249723 -89.62  0.001627757    2.001    0.500
       238 -12.2369    170.6490    135.5348   4.8375982361e+01   2.1654755120e+01    0.2908779    0.2243086 -18.39 0.0009691448    1.574    0.365
       239 -12.7176    103.4469    133.7741   6.4305210142e+01   3.4322048750e+01    0.6353462    0.2570341 -41.07  0.002100053    2.855    0.650
       240 -12.0441     54.1711    135.8507   8.1146809995e+01   4.1700038484e+01    0.2284373    0.2081297  60.05 0.0004273161    1.201    0.167
       241 -11.5831    179.9051    135.0241   4.6530674342e+01   2.0167937621e+01    0.1972861    0.1762907 -45.93 0.0002801955    1.006    0.006
       242 -13.8845     63.1611    133.8397   7.7511332914e+01   4.0977876969e+01    0.6306742    0.4309703  23.20  0.002843332    1.474    0.321
       243 -12.0858     46.8255    135.0373   8.3691907964e+01   4.2855432096e+01    0.2498402    0.2159305  16.43 0.0002707918    1.154    0.134
       244 -11.6637    211.2322    133.1568   4.1025631141e+01   1.5499239676e+01    0.2932367    0.2234272  60.97  0.001601567    1.635    0.388
       245 -11.8961    206.6615    129.0567   4.0942263075e+01   1.6913733891e+01    0.2190304    0.1881824 -64.72 0.0003741196    1.174    0.148
       246 -12.4595    126.6614    131.8365   5.7448978014e+01   3.0469078316e+01    0.3234395    0.2701905  77.75 0.0006245166    1.445    0.308
       247 -13.5298     83.0291    128.8965   6.9604981971e+01   3.9096993285e+01    0.4922701    0.4272963  12.50  0.002491975    1.180    0.152
       248 -11.9601    201.6851    130.8784   4.2046113908e+01   1.7371458639e+01    0.2215188    0.1798472  46.78 0.0004295069    1.450    0.310
       249 -12.3883     49.6464    129.8709   8.1658379063e+01   4.3871197488e+01    0.3105789    0.2184422  33.23   0.00144267    1.416    0.294
       250 -11.4070    192.5227    128.7685   4.3105741150e+01   1.9229895352e+01    0.2394079    0.1126249 -41.63 0.0007267022    1.918    0.479
       251 -10.6075    130.4731    128.4956   5.5731289042e+01   3.0484647181e+01    0.1460169    0.1431753 -57.03 6.888837e-05    1.016    0.016
       252 -11.1122    122.0011    128.0343   5.7804428223e+01   3.2196489998e+01    0.1817762    0.1806001 -15.71  0.001009447    1.005    0.005
       253 -13.3058     60.2886    125.7604   7.6861707858e+01   4.3483138401e+01    0.5043976    0.2524861 -54.15  0.001533815    1.948    0.487
       254 -11.3674    162.4661    127.5256   4.8323904493e+01   2.4695797654e+01    0.1381364    0.1283887 -47.55  7.32828e-05    1.020    0.020
       255 -12.0912     71.5229    124.5242   7.2548485091e+01   4.2081367540e+01    0.2649969    0.2055268  38.47 0.0008725803    1.285    0.222
       256 -12.8795    104.2341    121.1215   6.1151070135e+01   3.7133016361e+01    0.4334684    0.3909204   8.61  0.002024479    1.177    0.150
       257 -12.1988     99.2840    118.4438   6.1991010265e+01   3.8678902246e+01    0.2901864    0.2564371  75.50 0.0002489995    1.291    0.225
       258 -12.5953     58.7675    117.5885   7.5633408218e+01   4.5778764506e+01    0.4353383    0.1469709  29.43  0.001329253    2.881    0.653
       259 -12.1359     51.3088    116.3745   7.8221720638e+01   4.7141002023e+01    0.6118877    0.2631861  36.20  0.001643718    2.261    0.558
       260 -13.5610     44.0337    120.6426   8.1971023658e+01   4.6990905219e+01    0.5925807    0.4065108 -15.30  0.002549763    1.676    0.403
       261 -12.5475     36.0407    119.8116   8.4978478615e+01   4.8141641327e+01    0.4305337    0.3207914  48.27  0.001108148    1.510    0.338
       262 -12.8961     51.1902    123.1784   7.9723220440e+01   4.5415867361e+01    0.4121232    0.2163217  18.88  0.001343436    2.057    0.514
       263 -11.3331    188.9991    121.5239   4.2255070556e+01   2.1137772405e+01    0.2315441    0.1650249 -35.05 0.0003126963    1.426    0.299
       264 -12.4286     67.9642    121.8886   7.3219270840e+01   4.3304012977e+01     0.279053    0.2304765 -51.31  0.001178669    1.225    0.184
       265 -12.3014     14.2871    156.5470   9.8574029072e+01   4.0185251521e+01    0.3104187    0.2276211 -58.94  0.000659698    1.280    0.219
       266 -11.7440    230.8473    119.5823   3.5935908181e+01   1.4885998267e+01     0.272764    0.2319354 -22.00  0.001958288    1.435    0.303
       267 -11.4482    199.8702    120.8902   4.0413083621e+01   1.9430336648e+01    0.1957217     0.164098 -31.92  0.001246934    1.263    0.208
       268 -10.6389    165.3120    121.6816   4.6518990953e+01   2.5319598108e+01    0.1385355    0.1049758 -80.37 0.0005797422    1.645    0.392
       269 -12.6738     73.1459    120.1357   7.0974708762e+01   4.2906732099e+01    0.2975872     0.204444  37.04  0.001192059    1.426    0.299
       270 -11.6045     93.9375    116.7518   6.3233260984e+01   4.0066243750e+01    0.3187007    0.2198834 -54.90 0.0007361937    1.522    0.343
       271 -10.6119    124.2691    114.2820   5.4002052134e+01   3.4744632223e+01    0.1964091    0.1695752  84.96  0.001022662    1.313    0.238
       272 -12.2565    107.5894    113.0508   5.8223362657e+01   3.8298566389e+01    0.4532322    0.3182251  10.62  0.001876203    2.034    0.508
       273 -12.4930     63.7610    113.6053   7.2840899997e+01   4.6010890102e+01    0.3202614    0.2771227  23.71 0.0008611858    1.122    0.109
       274 -13.0583     14.9661    108.8813   9.1749486789e+01   5.2954767526e+01    0.6145059    0.2902218 -65.37  0.002576837    2.009    0.502
       275 -11.2729     82.3628    112.5771   6.5980210000e+01   4.3142367502e+01    0.2871933    0.1461297 -67.13 0.0006034484    3.150    0.683
       276 -12.6276     61.5786    110.2819   7.2868347831e+01   4.7159539693e+01    0.3891793    0.2669344 -40.19  0.001058936    1.493    0.330
       277 -12.7474     54.1956    111.1091   7.5905457044e+01   4.8055453130e+01    0.6414605    0.3638883  51.52  0.002320023    2.268    0.559
       278 -11.9453    219.1487    111.4977   3.5955491226e+01   1.7940277912e+01    0.2898135    0.1588662 -37.18  0.001588326    1.779    0.438
       279 -10.0936     41.7076    110.7206   8.0815806847e+01   4.9816456923e+01    0.1525624    0.1072923 -24.11 0.0002540645    1.528    0.346
       280 -10.6778    121.1070    107.1614   5.3088879317e+01   3.6865286586e+01    0.1985261    0.1697692  80.58 0.0003974618    1.312    0.238
       281 -12.8071      2.5513    106.1039   9.6686413719e+01   5.4475930832e+01    0.4069155    0.2379793 -51.07  0.001137138    1.488    0.328
       282 -10.6083    153.6255    106.3285   4.5455365425e+01   3.0494773698e+01     0.209745     0.155579 -82.07 0.0005126299    1.667    0.400
       283 -12.8726      9.4931    106.5140   9.3724347633e+01   5.3953523499e+01    0.2381361    0.2121615 -39.60  0.001306957    1.013    0.013
       284 -13.2356      9.2046     98.8549   9.2544183806e+01   5.5919202102e+01    0.5186735    0.2932106  73.85  0.002114099    2.820    0.645
       285 -10.3506    230.0145    103.0378   3.3122957535e+01   1.7623143497e+01    0.1363513    0.1066097 -54.20 0.0003209306    1.003    0.003
       286 -10.5219    116.3883    104.2097   5.3592521761e+01   3.8429244370e+01    0.1971867    0.1393682 -57.46 0.0008140986    1.528    0.346
       287 -12.2266     79.0353    101.2974   6.4244739962e+01   4.6320529792e+01    0.3645403    0.2812788  67.10 0.0008497682    1.649    0.394
       288 -12.3695     75.0818     97.6075   6.4655441149e+01   4.7852623743e+01    0.2679454    0.2531649  -7.72 0.0003799007    1.060    0.057
       289 -12.6455     59.3386     97.0434   7.0406808870e+01   5.0638504810e+01    0.5168898    0.3140988 -42.07  0.001694986    1.695    0.410
       290 -11.9431    105.5314     99.4442   5.5372293245e+01   4.1611376316e+01    0.2405061    0.2355211 -55.22 0.0001836283    1.055    0.052
       291 -11.5533     31.6387     98.8189   8.2450774711e+01   5.3949433816e+01    0.4024491    0.2070291 -35.45    0.0016524    2.079    0.519
       292 -12.1512     23.7588     97.4549   8.5664268680e+01   5.5091536637e+01    0.6218457    0.2039019  36.47  0.002120946    3.183    0.686
       293 -10.7674    208.1846     99.6294   3.5159456355e+01   2.1636045917e+01    0.1429984    0.1129608  48.90 0.0002641552    1.564    0.361
       294 -11.3663     94.0340     99.3062   5.8776299155e+01   4.3925991340e+01    0.2126397    0.1912665  45.22 0.0006267953    1.080    0.074
       295 -11.2218    188.6120     97.8091   3.7530311579e+01   2.5354918966e+01    0.1798643    0.1034601 -53.13  0.000386995    1.591    0.371
       296 -11.0153    178.7604     98.0055   3.9096507499e+01   2.7142637415e+01    0.1740734    0.0998555 -45.33 0.0005585831    1.596    0.374
       297 -12.2860     89.5433     96.5988   5.9478237084e+01   4.5374319167e+01    0.4686372     0.268199 -47.85  0.002025353    1.826    0.452
       298 -10.7680    244.0962     92.7507   2.9860607412e+01   1.7092109369e+01    0.1980949    0.1293904 -27.32   0.00122775    2.153    0.535
       299 -11.3792     70.2747    101.9505   6.7538956390e+01   4.7713573247e+01    0.2074462    0.1946521 -24.41 0.0003611313    1.074    0.069
       300 -11.7575     79.0312     92.4779   6.1870014866e+01   4.8246122011e+01    0.2332869    0.1407531  36.81  0.001026921    1.580    0.367
       301 -11.7742    161.8551     99.8228   4.2404586742e+01   3.0075773040e+01    0.1918651    0.1539372 -79.55  0.001076672    1.330    0.248
       302 -12.1868    171.0331     89.8960   3.8611520176e+01   3.0008365456e+01    0.3728335       0.1594 -33.02  0.001411552    3.335    0.700
       303 -12.1681     25.4074     89.7170   8.3179506707e+01   5.6804590444e+01    0.6393972    0.3483943  36.48  0.002236651    1.939    0.484
       304 -11.9894    231.5388     89.2544   3.0530530991e+01   1.9482815387e+01    0.2391747    0.1744875  60.83  0.001037443    1.657    0.397
       305 -11.4058    103.2908     90.1594   5.3551069713e+01   4.3943428789e+01    0.3311589    0.1635419  62.54  0.001094514    3.415    0.707
       306 -12.0114      4.1482     88.2046   9.2975571239e+01   5.8869080638e+01    0.3701467     0.186844 -42.73  0.001712964    1.739    0.425
       307 -11.0603    219.9535     89.3032   3.1800160876e+01   2.1311995571e+01    0.1557797    0.1298398 -69.97 0.0005970515    1.098    0.089
       308 -11.6862    138.5066     88.2103   4.4309276777e+01   3.6925802906e+01    0.2384737    0.2216478  80.58 0.0002398586    1.023    0.022
       309 -12.1844    149.4366     86.9030   4.1778195318e+01   3.4877214944e+01    0.3847531    0.1764133 -32.92  0.001484425    2.987    0.665
       310 -12.2604     63.5743     82.0740   6.4589850442e+01   5.3213862635e+01    0.3783098     0.244536  21.36  0.000980217    1.672    0.402
       311 -11.5090     51.1699     78.9224   6.8711063461e+01   5.5913137099e+01    0.2837271    0.2227317  56.25  0.001057777    1.577    0.366
       312 -11.8522     54.0972     85.9240   6.9497802704e+01   5.3954366068e+01    0.5720807     0.438002  18.94  0.002949812    1.266    0.210
       313 -12.1385     59.7583     85.7338   6.7148354612e+01   5.3085547025e+01    0.3025195    0.2267382 -66.31  0.001487537    1.681    0.405
       314 -11.6556     11.1952     86.9520   8.9322085895e+01   5.8707128761e+01    0.3119425    0.2522113  54.02   0.00118825    1.538    0.350
       315 -10.8445    125.2349     86.0275   4.6732811686e+01   4.0124028393e+01    0.2982048    0.1785263  27.38  0.001194621    2.720    0.632
       316 -11.8236     65.7809     86.0079   6.4877228981e+01   5.2006468711e+01    0.1996968    0.1906828  -3.24 0.0003487298    1.056    0.053
       317 -11.9053    153.3164     89.5013   4.1647215596e+01   3.3625191405e+01    0.2494204    0.1193261 -43.50  0.001092903    2.049    0.512
       318 -12.1806    171.0426     83.9528   3.7309030129e+01   3.0996229846e+01    0.1988402    0.1730856 -67.94 0.0005667814    1.029    0.028
       319 -10.3565    110.2871     83.6626   4.9853648256e+01   4.3728515374e+01    0.1440186    0.1115081 -86.96 0.0002686496    1.633    0.388
       320 -11.4363     77.4129     81.3611   5.9270974879e+01   5.0839845814e+01    0.3314784    0.2081913  54.44  0.001328147    1.809    0.447
       321 -12.1692    182.1429     81.1214   3.5019564482e+01   2.9292004506e+01    0.1775597    0.1668236 -59.26 0.0004593716    1.188    0.158
       322 -10.8474    206.5227     80.5591   3.1720750308e+01   2.4906879972e+01    0.1179538   0.09809934 -63.46  0.000110552    1.032    0.031
       323 -11.9012    153.3564     79.9252   3.9396485026e+01   3.5250094415e+01    0.2286159    0.1867712  56.67 0.0003770477    1.249    0.200
       324 -12.5656     29.1263     79.6308   7.8904318043e+01   5.8739242211e+01    0.3922099    0.2248532  32.76  0.001494591    1.726    0.421
       325 -13.6294    215.1262     75.7519   2.9838771042e+01   2.4136261729e+01    0.3460502    0.2347847 -50.09  0.001053632    1.234    0.190
       326 -11.5808     88.2443     78.9941   5.4960756313e+01   4.9173820693e+01    0.2895289    0.2253008  61.35 0.0008028602    1.403    0.287
       327 -10.9257     86.0364     75.2478   5.4564274683e+01   5.0322506060e+01    0.2297979    0.1689539  30.04 0.0006406931    1.407    0.289
       328 -11.3417     86.3342     71.9775   5.3489110627e+01   5.0861427578e+01    0.2349794    0.1933174 -44.48 0.0003507036    1.325    0.246
       329 -11.3681    112.0404     76.1239   4.7331754891e+01   4.4717188354e+01    0.3326189    0.2589087 -43.92  0.001498842    1.370    0.270
       330 -11.5529    116.7811     74.9671   4.5830645833e+01   4.3897606213e+01    0.3443189    0.2589491  72.46  0.001798085    1.438    0.304
       331 -11.5770    178.6427     86.9115   3.6763433051e+01   2.9029964461e+01    0.1888758    0.1701673  66.28 0.0003083644    1.210    0.174
       332 -11.4730    188.8545     77.1590   3.3267066356e+01   2.8635258795e+01    0.1539639    0.1501617 -13.37 0.0006127027    1.379    0.275
       333 -12.0365     23.2403     79.5042   8.1719403621e+01   5.9400576458e+01    0.3763694    0.2331881 -45.37  0.001123568    1.519    0.342
       334 -11.6689    161.5164     76.3271   3.7148714680e+01   3.4151891783e+01    0.2636048    0.1984125 -69.16 0.0009974416    1.315    0.240
       335 -12.0827     75.1324     75.1664   5.8226294767e+01   5.2483247341e+01    0.3676396    0.2279686 -35.45 0.0009899768    1.825    0.452
       336 -11.1420     78.5117     71.5620   5.5948774095e+01   5.2503828110e+01    0.2223412    0.1953327 -16.97  7.92767e-05    1.249    0.200
       337 -11.5405     32.4997     74.4453   7.5858170154e+01   5.9481324640e+01    0.4266582    0.2201058   4.94  0.001681257    2.598    0.615
       338 -11.1271    169.0096     73.9643   3.5421163522e+01   3.3001884270e+01    0.1767781    0.1581971  18.85 0.0005063337    1.576    0.366
       339 -10.9358     66.1338     73.8351   6.1128057952e+01   5.4417093423e+01    0.1938545    0.1609467  -2.07 0.0003880456    1.308    0.235
       340 -12.2201     51.0000     73.0272   6.7010869782e+01   5.7157143221e+01    0.2571369    0.1897497 -38.43 0.0009302708    1.408    0.290
       341 -11.7987    187.3926     69.9538   3.1974843095e+01   3.0001120186e+01     0.212371     0.165828  74.49 0.0001554752    1.276    0.216
       342 -11.0269    180.8583     70.3029   3.2912982325e+01   3.1210878840e+01    0.1963573    0.1401608 -87.11 0.0008829747    1.428    0.300
       343 -10.9814    114.2737     70.0250   4.5084579047e+01   4.5279058539e+01     0.239738    0.1839405  33.17 0.0008730188    1.495    0.331
       344 -11.5848      1.9653     68.6785   9.0073965264e+01   6.3567451982e+01    0.2540867    0.1963059 -73.13 0.0008373307    1.520    0.342
       345 -10.6188    236.3097     69.2753   2.6606570150e+01   2.1594934092e+01    0.1644113    0.1080318 -50.63 0.0004746036    1.206    0.170
       346 -11.5055    234.9781     65.7451   2.6119416360e+01   2.2285908563e+01    0.2455351    0.1081538 -54.55  0.001273964    1.858    0.462
       347 -10.5254    132.8077     67.1507   4.0175906492e+01   4.1704906053e+01    0.1662914    0.1492913  45.48 0.0002266216    1.228    0.185
       348 -11.3995     47.6040     67.1637   6.6653421095e+01   5.8860046630e+01    0.2484049    0.1805104  38.34  0.001254142    1.343    0.256
       349 -10.3620    203.2099     66.3820   2.9367620605e+01   2.7579742653e+01    0.1460426   0.09988026  85.46 0.0002445414    1.483    0.326
       350 -11.0976    199.2778     65.6219   2.9661380452e+01   2.8404782046e+01     0.126926   0.07372807 -65.82 0.0007006027    1.706    0.414
       351 -11.9847    178.5423     64.1572   3.1915435323e+01   3.2575246683e+01    0.2160902    0.1830178 -83.58 0.0002668516    1.048    0.045
       352 -11.3967    110.0356     64.0093   4.4433856071e+01   4.7186851935e+01    0.2047926    0.1860322  67.58 0.0003120888    1.027    0.026
       353 -13.5768    107.6970     59.6477   4.3756371008e+01   4.8386565765e+01    0.3695762    0.3001465  65.86 0.0006896724    1.164    0.141
       354 -10.8164     55.4556     63.7162   6.2160643482e+01   5.8225083402e+01    0.2454945    0.1398067 -51.27  0.001125816    2.071    0.517
       355 -10.5699    193.2910     63.6769   2.9967536409e+01   2.9795683903e+01    0.1245989   0.07679636 -68.87 0.0002108927    1.610    0.379
       356 -11.2658      7.0308     59.6198   8.5002609110e+01   6.5201468175e+01    0.5138845    0.1486715  30.91  0.001620017    3.333    0.700
       357 -11.1901    226.0604     61.5458   2.6180974480e+01   2.4296487281e+01    0.1596715    0.1169873 -57.74   0.00031969    1.079    0.074
       358 -12.1842     45.0050     62.0023   6.6139861975e+01   6.0260127376e+01    0.2952227    0.2546706  11.61  0.001738342    1.031    0.030
       359 -11.6223    208.1013     59.3010   2.7491315569e+01   2.7689793442e+01    0.1582814    0.1243311 -74.56 0.0004039875    1.069    0.065
       360 -11.4923    193.2209     57.3982   2.8712234126e+01   3.0688816645e+01    0.1601237    0.1003704  83.81 0.0007896687    1.623    0.384
       361 -11.8303    100.3883     56.5034   4.4695877861e+01   5.0468544190e+01    0.2318518     0.170149 -35.40 0.0006790438    1.555    0.357
       362 -11.4702     52.8881     56.6737   6.0868087422e+01   5.9938835846e+01    0.4165421    0.1902763  49.00  0.001489027    2.567    0.610
       363 -11.3740     50.3335     52.2392   6.0412274864e+01   6.1145120216e+01     0.260473    0.2017538  50.88 0.0001410616    1.453    0.312
       364 -11.7010     14.2944     60.9619   8.1325890460e+01   6.4310245112e+01    0.2753067    0.1743212   8.82 0.0007916291    1.476    0.323
       365 -12.3399     28.4928     55.5542   7.2012534663e+01   6.3832795229e+01    0.3922575    0.2577021  47.97  0.001798152    1.981    0.495
       366 -11.3112    160.1672     57.3928   3.2998253623e+01   3.7298094308e+01    0.1769634     0.109516  77.88 0.0006592302    1.654    0.395
       367 -11.3969    126.9732     54.1922   3.7922973869e+01   4.4942573492e+01    0.2243343     0.188988 -59.82  0.001359349    1.229    0.186
       368 -11.7046    115.8791     54.1542   4.0249340179e+01   4.7407510386e+01     0.243898    0.1719828 -67.33  0.001252697    1.684    0.406
       369 -12.1562    233.5141     52.7811   2.4023592601e+01   2.4234369502e+01    0.1844067    0.1398734 -69.43 0.0002984185    1.063    0.059
       370 -12.8376     37.3716     52.0743   6.6331238339e+01   6.3250878373e+01    0.2918108    0.2460785 -25.45 0.0003636387    1.220    0.180
       371 -11.5067     43.4589     52.0555   6.3429749058e+01   6.2315713123e+01    0.2181292    0.1621129  21.46  0.001217653    1.214    0.177
       372 -13.1731     30.5471     49.4701   6.8837097994e+01   6.4691840916e+01    0.3847121    0.3317412  73.43  0.002067039    1.781    0.439
       373 -10.7728    203.9678     48.4827   2.5842292967e+01   2.9880187155e+01    0.2515829   0.09577484 -63.49  0.001045297    3.521    0.716
       374 -11.5107     18.4999     48.8797   7.5168834652e+01   6.6290928241e+01    0.2512144    0.1908302   6.68  0.000590535    1.139    0.122
       375 -11.7490    176.7307     47.0494   2.8474533142e+01   3.5304429866e+01    0.1665221    0.1348944 -63.94 0.0004476075    1.115    0.103
       376 -10.7207    155.6895     47.0616   3.1236761433e+01   3.9664817074e+01    0.1674037    0.1463767 -83.53 0.0004888442    1.055    0.052
       377 -10.7511    190.2591     43.4155   2.6215197166e+01   3.3107671600e+01    0.1524948    0.0956886  87.20 0.0007427408    1.513    0.339
       378 -11.7515      1.9514     42.4195   8.2963132979e+01   6.9056920733e+01    0.2127999    0.1682308 -37.00 0.0004360659    1.221    0.181
       379 -12.1650     35.6256     39.8701   6.2645817727e+01   6.5587374838e+01    0.3724679    0.2257153  22.32  0.001316874    1.570    0.363
       380 -11.6117    103.1308     39.6505   3.8869606646e+01   5.2234035763e+01    0.2604633    0.1770276  50.66  0.001001799    1.324    0.245
       381 -12.0225    135.6061     38.9172   3.2302262217e+01   4.5078216899e+01    0.2300583    0.1735845  68.57 0.0002915441    1.163    0.140
       382 -11.4474     23.5069     38.9912   6.8729503104e+01   6.7460077859e+01    0.1821381   0.09394217 -23.46 0.0006374615    2.498    0.600
       383 -12.9509    230.4226     34.6589   2.1171136706e+01   2.6983047615e+01    0.2081938    0.1508899 -66.58 0.0005101393    1.006    0.006
       384 -11.9029     44.1071     33.1451   5.5916203486e+01   6.5205788151e+01    0.2993674    0.2113083  -6.94  0.001123514    1.680    0.405
       385 -10.4165    221.2729    249.6729   5.8794981965e+01  -5.3586337284e+00   0.09297991   0.08372197 -29.39 0.0002981361    1.583    0.368
       386 -12.2468     22.2006     31.1957   6.6332931114e+01   6.8903844110e+01    0.2566558    0.2025952  -1.18 0.0004049871    1.132    0.116
       387 -12.6989     78.3665     30.8549   4.2436044335e+01   5.8755339822e+01    0.3151237    0.2480117  60.29  0.001420065    1.162    0.139
       388 -10.2730     65.6878     32.3414   4.7027203485e+01   6.1216610523e+01    0.1242546    0.1001561  86.23 0.0007046322    1.699    0.411
       389 -12.1671    137.5804    246.9257   7.5294248603e+01   3.6092318542e+00    0.5158509    0.2602634  39.96  0.002396702    2.251    0.556
       390 -10.6408      8.6915     31.9516   7.4899620521e+01   7.0373354328e+01    0.1666904    0.1366761  -5.99 0.0004114085    1.063    0.059
       391 -10.9190    159.3465     31.0126   2.7002097964e+01   4.0886353051e+01    0.1637676    0.1336255 -70.62 0.0004333866    1.116    0.104
       392 -11.1959    208.0769     29.4755   2.1911134938e+01   3.1468455700e+01    0.1554657   0.09172285  77.49  0.001028501    1.585    0.369
       393 -10.3794    146.8119     29.5590   2.8263529472e+01   4.3740615590e+01    0.1618424    0.1002278  84.64 0.0002688286    1.516    0.341
       394 -12.6545     68.3220     25.6165   4.3605858732e+01   6.1496209927e+01    0.2611212    0.2027983  85.84  0.001414111    1.714    0.416
       395 -12.6338    106.0811     31.5700   3.5739056188e+01   5.2566881654e+01    0.3262925     0.251536 -81.67  0.001954498    1.427    0.299
       396 -10.3974    125.0000    248.9541   7.8500542789e+01   4.6844920685e+00    0.1991715   0.07489772 -54.46  0.000802791    2.945    0.660
       397 -11.3162     63.4083     24.7887   4.4919760900e+01   6.2604877930e+01    0.1523101    0.1198603  -2.72 0.0002780558    1.527    0.345
       398 -11.5440    237.9532     22.7018   1.8704653431e+01   2.7126194378e+01    0.1384811   0.09634306 -73.13 0.0003315058    1.090    0.083
       399 -11.6070    250.2186     21.9486   1.7898323785e+01   2.5282152824e+01    0.1465522   0.09917115 -63.84 0.0005584032    1.018    0.018
       400 -11.2897    100.8667     21.3705   3.3670305175e+01   5.4862905107e+01    0.1884329    0.1618793 -60.76 0.0004216612    1.314    0.239
       401 -11.8917    189.6131     20.0243   2.1600579130e+01   3.5991634710e+01    0.1880921    0.1316554  87.20 0.0003154139    1.205    0.170
       402 -10.6227    172.5234     20.5331   2.3239255505e+01   3.9326959156e+01    0.1145713   0.09083314 -84.02 0.0001862118    1.028    0.027
       403 -10.4497     30.7581     15.9992   5.4850290780e+01   6.9739280440e+01    0.1351968    0.1004265 -24.27 0.0003869445    1.520    0.342
       404 -11.8370    224.3915     15.0100   1.8232983467e+01   3.0213507331e+01    0.1826677      0.11878 -86.20 0.0004473216    1.282    0.220
       405 -12.8638    115.3918    245.7178   8.0371136621e+01   6.4574247582e+00     0.508963     0.289138 -47.38  0.002549467    1.847    0.459
       406 -13.4001    112.1107    234.7110   7.9712917150e+01   9.1242052931e+00    0.4503034    0.2834823  -0.38  0.001424621    1.781    0.439
       407 -13.8008    117.5604    236.0359   7.8547071970e+01   8.1710504436e+00    0.5089325     0.350326  15.58  0.002697919    1.324    0.245
       408 -10.4695    110.4005     13.4992   2.9460358716e+01   5.3501184198e+01    0.1211541   0.09957726  72.79  0.000802047    1.024    0.023
       409 -10.3019     99.3354    246.3056   8.4378300189e+01   8.2501156037e+00    0.1414317   0.09536992 -13.58 0.0004987442    1.669    0.401
       410 -10.9935    180.5932    244.0983   6.5576014450e+01  -6.3346184044e-01      0.20061    0.1486212  19.89 0.0009081562    1.345    0.257
       411 -11.1755    134.0385    241.5159   7.5360427966e+01   5.0651945218e+00    0.2049227    0.1181379  21.33    0.0010214    1.562    0.360
       412 -12.1109     59.0545    242.7252   9.4173051061e+01   1.3681362872e+01    0.3003018    0.2117299   0.61  0.001501655    1.577    0.366
       413 -10.8987    197.4175    241.8505   6.1948497999e+01  -1.9587613315e+00    0.1717682    0.1308234  -3.51 0.0009020166    1.107    0.097
       414 -10.7213    247.6504    241.6889   5.3331918605e+01  -6.3297602536e+00    0.1142894    0.0592179 -18.44 0.0007045361    1.717    0.418
       415 -12.3872    117.2589    240.5628   7.9236390756e+01   7.2764055376e+00    0.4034368    0.1727682  33.55  0.001727939    2.111    0.526
       416 -12.7059     90.2102    238.5702   8.5738512363e+01   1.0985382448e+01    0.4983301    0.2934397 -44.46  0.001610233    1.824    0.452
       417 -11.8827     56.2245    250.0869   9.5562809657e+01   1.2371942838e+01     0.414656    0.3162884  43.56  0.002420142    1.210    0.174
       418 -11.6170     50.4807    238.2864   9.5965090053e+01   1.5617328656e+01    0.5356819    0.3418144 -23.32   0.00254419    2.048    0.512
