#   1 NUMBER                 Running object number                                     
#   2 MAG_AUTO               Kron-like elliptical aperture magnitude                    [mag]
#   3 X_IMAGE                Object position along x                                    [pixel]
#   4 Y_IMAGE                Object position along y                                    [pixel]
#   5 X_WORLD                Barycenter position along world x axis                     [deg]
#   6 Y_WORLD                Barycenter position along world y axis                     [deg]
#   7 A_WORLD                Profile RMS along major axis (world units)                 [deg]
#   8 B_WORLD                Profile RMS along minor axis (world units)                 [deg]
#   9 THETA_WORLD            Position angle (CCW/world-x)                               [deg]
#  10 FWHM_WORLD             FWHM assuming a gaussian core                              [deg]
#  11 ELONGATION             A_IMAGE/B_IMAGE                                           
#  12 ELLIPTICITY            1 - B_IMAGE/A_IMAGE                                       
         1 -14.1175    196.2503     34.3733   1.6828375302e+01   3.2478026428e+01    0.8279579    0.6913044 -71.36  0.003942796    1.099    0.090
         2 -10.9366    227.3125      9.6195   9.1693025645e+00   2.9098420385e+01    0.1997504    0.1616298 -53.17 0.0007361473    1.133    0.117
         3 -11.2728     77.5739      8.7315   2.5344098410e+01   6.4633830248e+01    0.3782385    0.1231145  72.56  0.001201274    3.569    0.720
         4 -11.9271    151.5127    240.8643   6.5628970646e+01   6.6040538906e+00    0.2151138    0.1587703  35.43 0.0008231277    1.480    0.324
         5 -18.5318     56.1304    204.3750   8.4069974159e+01   2.4392928420e+01     7.458512     6.507765  35.20   0.03758231    1.047    0.045
         6 -10.6191    158.8289    189.3347   5.6863393857e+01   1.3902341006e+01    0.2025455    0.1662078 -46.70 0.0006399423    1.412    0.292
         7 -12.8273    173.4942    172.9359   5.1118910940e+01   1.4651520752e+01    0.6659666    0.4985548 -30.69  0.003897811    1.248    0.199
         8 -11.8046    179.8727    166.4834   4.8739000544e+01   1.4819112661e+01    0.5885604    0.3470775 -56.41   0.00286637    2.444    0.591
         9 -10.7572     74.5905    250.9270   8.3190223670e+01   1.3369459638e+01    0.1176747   0.05062919  21.12 0.0002053842    1.985    0.496
        10 -10.1664      9.9337    166.2445   9.4980293629e+01   3.7928555238e+01    0.2423795    0.1152004   9.22  0.001019384    2.399    0.583
        11 -11.0765    138.8653    155.3405   5.5310012129e+01   2.3291650464e+01    0.2232437    0.1923229 -59.10 0.0003633805    1.311    0.237
        12 -14.4276    133.2150    146.2861   5.4894533882e+01   2.6115200552e+01     1.441514    0.5735082 -57.67   0.00479413    3.563    0.719
        13 -11.8345     11.5305    205.9415   9.6108173541e+01   2.8348200207e+01    0.3078024    0.1795725  16.75  0.001643048    1.689    0.408
        14 -10.4542     82.7774    229.6476   7.9547652580e+01   1.6266746313e+01    0.2117608    0.1593637  29.42  0.001325882    1.061    0.057
        15 -11.6806     13.4521    141.9280   9.2429346062e+01   4.4041789860e+01    0.4480788    0.2804598 -81.19   0.00168045    1.556    0.357
        16 -12.2939      5.6547    138.4157   9.5040916127e+01   4.5521178797e+01    0.5422823    0.4133419  68.24  0.002395457    1.202    0.168
        17 -11.4791    126.5966    135.9578   5.4418932239e+01   2.9495406361e+01    0.2570144    0.1988302  55.98 0.0003992963    1.427    0.299
        18 -10.6191    223.7596    132.5194   3.5206757883e+01   1.3790281961e+01    0.4395003    0.1513892 -49.23  0.001602831    4.379    0.772
        19 -10.1243    210.8884    198.8097   4.8763787590e+01   5.9655213701e+00    0.1675715    0.1203649  -7.40 0.0004448777    1.155    0.134
        20 -12.2182      2.6266    125.6058   9.5489997001e+01   4.9175480374e+01    0.3483916    0.3230564 -47.61  0.002009696    1.182    0.154
        21 -13.0567      5.4885    120.6811   9.4054582164e+01   5.0366188171e+01    0.6573667    0.4331182  22.00  0.002370183    1.531    0.347
        22 -10.6277    159.9619    248.8538   6.4938968250e+01   4.5908046543e+00    0.1673955    0.1330223  -6.20 0.0003827924    1.167    0.143
        23 -12.1741     99.2101    120.6854   5.8746892707e+01   3.8087505587e+01    0.4117696    0.2449758  55.74   0.00106676    1.958    0.489
        24 -11.8308    106.1038    119.2350   5.6331785454e+01   3.7120158273e+01    0.3096419    0.2587554   5.98 0.0005820781    1.444    0.307
        25 -11.7407     98.6673    115.9017   5.7805651683e+01   3.9333390357e+01    0.2828339    0.2541822  27.28  0.000255964    1.158    0.137
        26 -11.2841    112.2794    115.0027   5.3535408198e+01   3.6886237461e+01    0.2096352    0.1996046 -57.87 0.0003118078    1.061    0.058
        27 -11.9225      4.2786    112.2028   9.3985122381e+01   5.2772183881e+01    0.5095328    0.2984312 -10.56   0.00204292    2.040    0.510
        28 -12.1932     12.9268    110.1784   9.0074874049e+01   5.2809332849e+01     0.623073    0.2610559  -0.07  0.002062433    3.179    0.685
        29 -12.9342    118.9674    110.8406   5.0655729299e+01   3.6469641318e+01    0.5713841    0.4434423  87.09  0.002085327    1.648    0.393
        30 -12.5222    118.7612    104.5136   4.9106405145e+01   3.7894446177e+01    0.6051093    0.3669593  75.95   0.00211517    3.114    0.679
        31 -12.0408     95.6150    111.9404   5.7821144957e+01   4.0867159408e+01    0.3569138    0.2220734  39.29 0.0007787328    1.573    0.364
        32 -19.0631     42.5995     88.0778   7.2784371670e+01   5.5957444795e+01     20.35848     1.090204 -64.25   0.02622168   19.085    0.948
        33 -11.1400     15.1946    195.8806   9.4736941666e+01   3.0322047096e+01    0.1650729    0.1480464 -60.62  0.001053066    1.343    0.255
        34 -11.6525    111.7942    103.7376   5.0844789392e+01   3.9519400590e+01    0.4067996    0.2723181  68.63  0.001704887    1.959    0.490
        35 -11.8765    115.2213     94.5043   4.7398917287e+01   4.0809446529e+01    0.4159187     0.276492  58.40  0.001388161    1.608    0.378
        36 -10.6448    107.0384     93.0273   4.9329283721e+01   4.2900196621e+01    0.2482078    0.1878927  84.03 0.0007264723    1.664    0.399
        37  -9.8622    151.3186     87.3084   3.6917176262e+01   3.4303109621e+01    0.1401205    0.1151232   9.21 0.0002963394    1.637    0.389
        38  -9.4645    115.3026     80.6355   4.3376336649e+01   4.3685235163e+01    0.1611977     0.117843 -80.71  0.000703591    1.733    0.423
        39 -10.8731     73.6193     77.6815   5.6215629729e+01   5.3387568495e+01    0.2719268    0.1767355  57.79  0.001147255    1.723    0.420
        40 -13.2188    162.6098     70.9760   3.0491702012e+01   3.4623231457e+01    0.4504729    0.4410409 -64.00  0.001146385    1.129    0.114
        41 -14.2135    175.9484     58.8580   2.5279408653e+01   3.3555226904e+01     1.014575    0.9266601   8.85  0.004153061    1.419    0.295
        42 -12.6463    182.8083     51.8609   2.2599263517e+01   3.3064350782e+01    0.4281074    0.3785544 -67.52 0.0009290554    1.059    0.056
        43 -10.5767     87.3394    234.0093   7.8868226061e+01   1.4953739807e+01    0.2491309     0.148873   9.07  0.001327864    1.794    0.442
        44 -10.8162     15.3853     58.0344   8.0771846306e+01   6.6813114289e+01    0.4394816    0.2293101 -20.59  0.001793375    2.405    0.584
        45 -11.6981    249.2126    248.4630   5.0075018394e+01  -3.4254226000e+00     0.224283   0.09642928 -28.50   0.00157306    1.871    0.465
        46 -11.4711     60.6234     21.2668   3.7977823288e+01   6.7237976767e+01    0.2634698    0.1683103  65.44 0.0008833238    1.650    0.394
        47 -12.1275     83.4223    241.8101   8.0463567222e+01   1.4003152838e+01    0.2383487    0.1563805  24.71  0.001166223    1.205    0.170
