#   1 NUMBER                 Running object number                                     
#   2 MAG_AUTO               Kron-like elliptical aperture magnitude                    [mag]
#   3 X_IMAGE                Object position along x                                    [pixel]
#   4 Y_IMAGE                Object position along y                                    [pixel]
#   5 X_WORLD                Barycenter position along world x axis                     [deg]
#   6 Y_WORLD                Barycenter position along world y axis                     [deg]
#   7 A_WORLD                Profile RMS along major axis (world units)                 [deg]
#   8 B_WORLD                Profile RMS along minor axis (world units)                 [deg]
#   9 THETA_WORLD            Position angle (CCW/world-x)                               [deg]
#  10 FWHM_WORLD             FWHM assuming a gaussian core                              [deg]
#  11 ELONGATION             A_IMAGE/B_IMAGE                                           
#  12 ELLIPTICITY            1 - B_IMAGE/A_IMAGE                                       
         1 -14.8159     68.6372    144.2909   1.0672338813e+02   3.7383318070e+01     5.026837     2.463431  67.89   0.00749642    3.726    0.732
         2 -14.4674    199.9913     37.3226   4.6750685637e+01   3.0626105432e+01     2.099331     1.480701  32.23  0.007351981    1.895    0.472
         3 -14.4740    211.7739     25.1978   4.2178812473e+01   2.9275316434e+01     1.344853     1.042631   9.26  0.006395933    1.862    0.463
         4 -13.5646      2.7396      7.3647   9.5722629614e+01   7.3511268052e+01     1.298651    0.7638104 -19.59  0.008666634    1.432    0.302
         5 -12.4561    236.4032      2.5215   3.4646777189e+01   2.6114627016e+01    0.7250804    0.2759833  76.63  0.003311625    2.480    0.597
         6  -9.1318     43.5064    236.4398   1.2232298814e+02   2.0204738619e+01    0.1117719   0.08759978  67.99 4.330536e-05    1.080    0.074
         7 -11.5781    139.6825    248.3118   1.0533751416e+02   4.4843073312e+00    0.4139028    0.2699394 -68.08  0.002424978    2.128    0.530
         8 -13.1892     47.6069    221.3699   1.2047376242e+02   2.2638904681e+01     1.296951    0.6354883  65.65  0.001451292    1.926    0.481
         9 -14.4361     85.5185    229.2409   1.1376693895e+02   1.6057169413e+01     1.540869     1.225694  84.62  0.005613506    1.217    0.178
        10 -13.0102     13.6790    189.7200   1.2489612086e+02   3.2911236882e+01    0.4337912    0.2735126 -77.35   0.00243761    1.355    0.262
        11  -9.7862     33.9592    227.7881   1.2348808997e+02   2.2965746693e+01    0.1530556    0.1315571  68.30 0.0009614979    1.247    0.198
        12 -14.2071     53.1851    192.6270   1.1679885400e+02   2.8015918734e+01     1.279731    0.9163473  74.29  0.007779438    1.230    0.187
        13  -9.0220    111.5482    217.5273   1.0714068133e+02   1.4360125727e+01    0.1306811    0.1117018  56.23 0.0001347858    1.003    0.003
        14 -14.7329     44.8049    203.0574   1.1954118250e+02   2.6761622885e+01     3.678392       1.4355  65.96  0.004105786    3.219    0.689
        15 -10.4437    113.3099    207.5396   1.0545104281e+02   1.6048591529e+01    0.2597256    0.1962071  74.61 0.0005274061    1.420    0.296
        16 -11.9469    194.4446    196.7657   8.6457717483e+01   3.7598736420e+00     1.173885    0.6883125 -67.44  0.003899646    5.205    0.808
        17  -9.5066     33.2962    204.4156   1.2198610107e+02   2.7783053659e+01    0.1927779    0.1207084  53.84 0.0006826487    1.379    0.275
        18 -10.6925    208.5247    196.8738   8.3699340750e+01   1.2692626964e+00    0.2017238    0.1854848  41.92 0.0006161387    1.295    0.228
        19  -9.3117    159.8422    196.8872   9.3687097003e+01   1.0011783159e+01    0.1816949    0.1605669  69.81 0.0004361145    1.299    0.230
        20 -13.0615     24.9738    225.3215   1.2496964113e+02   2.4430962947e+01    0.4263234    0.3823893 -67.93  0.001769507    1.544    0.352
        21  -9.2855     82.0216    194.5303   1.1063690301e+02   2.3683672555e+01    0.2042698    0.1185673  42.25  0.001032338    1.605    0.377
        22  -9.7803     72.7160    229.7319   1.1632026915e+02   1.7756966774e+01    0.3024146    0.1801057 -50.74  0.001690763    2.261    0.558
        23  -9.1456     97.3076    190.3245   1.0662188655e+02   2.2265855236e+01    0.1287555    0.1087387 -21.07 -6.537724e-05    1.649    0.393
        24  -9.9308     44.1645    186.8928   1.1820963023e+02   3.0376356622e+01    0.1951223    0.1382454  76.04  0.000787201    1.230    0.187
        25  -9.2201     71.1083    185.5191   1.1199806335e+02   2.7253457876e+01    0.1784873    0.1214603  43.50 0.0003888027    1.424    0.298
        26 -14.6538     10.5024    206.3313   1.2653876657e+02   2.9697526508e+01    0.7281305    0.6131756  23.81  0.002466684    1.728    0.421
        27  -9.6027     41.2782    232.0434   1.2243165999e+02   2.1302960950e+01    0.2229138    0.1496028  32.25   0.00120512    1.796    0.443
        28 -10.6442    146.4511    182.6797   9.4109925432e+01   1.5297282275e+01    0.2783203    0.2556064  40.93 0.0007720435    1.023    0.022
        29 -10.2593     99.1365    180.9478   1.0482710088e+02   2.4056803994e+01    0.3195653    0.2477082  17.35  0.001669084    1.695    0.410
        30 -12.1839     68.3966    176.7158   1.1152756434e+02   2.9645043021e+01    0.4240998    0.2828583 -39.85  0.002145289    2.059    0.514
        31 -12.1587     72.8447    171.7579   1.0980134866e+02   3.0183497319e+01    0.3283284    0.2556928 -53.34  0.001194529    1.393    0.282
        32 -11.3715    141.1335    174.2707   9.3773230477e+01   1.8065390225e+01    0.6385647    0.4299666 -84.33  0.002702628    2.357    0.576
        33 -16.0043     59.6539    247.2792   1.2018072852e+02   1.6221820118e+01     9.374241     2.929735  29.24  0.007778917   10.823    0.908
        34  -9.4996     39.3173    177.0405   1.1833140009e+02   3.3160581847e+01    0.1780995    0.1367091  89.81 0.0004615791    1.085    0.079
        35 -12.5930     88.3663    155.4154   1.0336916741e+02   3.1753504758e+01    0.9844013    0.6989027 -68.83  0.004981833    1.377    0.274
        36 -13.1920     81.7325    162.4140   1.0622194178e+02   3.1100073226e+01     1.628872    0.5184667  52.23   0.00116801    4.607    0.783
        37 -13.6754     69.5860    157.8354   1.0861394197e+02   3.3954529034e+01      0.63033    0.5117077 -35.39  0.002630373    1.545    0.353
        38 -14.2323     29.3155    248.1251   1.2549623431e+02   1.9685349065e+01     0.762917    0.6181469  23.15  0.005713314    1.942    0.485
        39 -11.1352    133.5266    144.0218   8.9437324342e+01   2.6270790431e+01     1.236845    0.2859693 -54.33   0.00263511    6.874    0.855
        40  -8.9612    112.6027    150.7930   9.6215361077e+01   2.8721122410e+01    0.2024361    0.1409559 -68.06 0.0003966396    1.559    0.359
        41 -12.3819     55.6689    147.0558   1.1064697031e+02   3.8392817583e+01    0.6212043    0.5761327  77.25  0.003902251    1.112    0.101
        42 -10.7032    174.5153    148.8892   8.0819326039e+01   1.6668648515e+01    0.2981901     0.265211  48.47 0.0008475292    1.154    0.134
        43 -11.1541     38.7118    146.1672   1.1500576236e+02   4.0528946265e+01    0.3389574    0.2385183  59.52 0.0009284826    1.452    0.311
        44 -10.0450     83.4546    143.0272   1.0246739698e+02   3.5527749969e+01     0.256868    0.1876209  60.40 0.0006031975    1.468    0.319
        45 -10.8225    102.2839    140.3341   9.6821914965e+01   3.3066059969e+01    0.5464821    0.3462394 -25.91  0.002176688    2.501    0.600
        46 -12.4515     89.6064    140.4096   1.0028976913e+02   3.5192070125e+01    0.2930463    0.2543071 -50.74 0.0003165068    1.163    0.140
        47 -10.8936     37.2448    139.6872   1.1455007270e+02   4.2252105291e+01    0.3617178    0.1731707 -43.52  0.001589153    2.588    0.614
        48 -10.5814    159.3629    162.6350   8.7240100655e+01   1.6950675430e+01    0.3055824    0.2575691 -76.74 0.0008616165    1.435    0.303
        49 -10.4371    105.9774    130.4780   9.3691883849e+01   3.4771085477e+01    0.4117928    0.2827989 -56.93  0.001903264    1.426    0.299
        50 -11.3227     31.6216    131.1559   1.1494171889e+02   4.4872576756e+01    0.3007464    0.2190024 -59.57  0.001782951    1.236    0.191
        51 -10.2068    111.4548    130.6904   9.2234384374e+01   3.3703020182e+01    0.3074574      0.25282  -5.31 0.0007720725    1.562    0.360
        52 -11.1261    135.7385    128.1243   8.5178679424e+01   2.9438489634e+01    0.4582401    0.1796998 -50.27  0.001514121    2.630    0.620
        53 -12.1772     44.1864    129.1328   1.1109153269e+02   4.4110758363e+01    0.4921121    0.2422325  41.70  0.002310374    2.187    0.543
        54 -11.0591     98.7048    126.7486   9.4890723668e+01   3.6972108587e+01    0.3107086    0.2577585  -5.34 0.0008922038    1.532    0.347
        55 -11.1119    118.4828    123.8410   8.8703983637e+01   3.3958264048e+01    0.5708708    0.3536718   1.54  0.001755797    4.138    0.758
        56 -10.3044    160.7137    127.8762   7.8977803854e+01   2.4068231303e+01    0.3807171    0.2269198 -46.10  0.001568491    1.676    0.403
        57  -9.9871    107.8768    119.2687   9.0538730078e+01   3.7086024135e+01    0.2104701    0.1999371  78.72  0.000326976    1.089    0.082
        58 -10.8645     34.8197    166.7309   1.1833268853e+02   3.6031919330e+01    0.3573982     0.282507  67.71  0.001302032    1.166    0.142
        59  -9.8925    168.4595    113.2752   7.3461939095e+01   2.5369896192e+01    0.3237601    0.2441814  85.60  0.001291784    1.835    0.455
        60 -10.8921    134.7845    112.2901   8.1396612992e+01   3.3200199700e+01     0.477528    0.1256917 -47.25  0.001279848    3.864    0.741
        61  -8.7138     46.2891    159.2956   1.1471326899e+02   3.6540991867e+01    0.1240174   0.09373445 -46.41  0.000515152    1.552    0.356
        62 -11.8049     19.2613    109.6123   1.1550420523e+02   5.1107915126e+01    0.4260193    0.2198636 -38.47  0.002115189    2.226    0.551
        63 -10.2240    205.4462    110.1562   6.5089614890e+01   1.7463353530e+01    0.3182218    0.2171464  40.92 0.0009401709    1.593    0.372
        64  -8.6108    142.6993    109.3403   7.8568569156e+01   3.2097555071e+01    0.1622715    0.1269032 -81.54 0.0003980084    1.669    0.401
        65  -9.8985     33.3065    108.6416   1.1098544780e+02   5.0188047700e+01    0.1345346   0.09230145  77.33 0.0007040623    1.727    0.421
        66 -10.2377    134.5753    104.7570   7.9412418991e+01   3.4900379827e+01    0.4883308      0.15253 -42.38  0.001440794    3.199    0.687
        67 -12.0338     43.8805    104.9474   1.0692777393e+02   5.0046784390e+01     0.627082    0.2434398  45.51   0.00244168    3.281    0.695
        68 -11.1713    120.0190    104.0264   8.3155919651e+01   3.8186597366e+01    0.2478579    0.2394019 -56.06  0.001184751    1.036    0.035
        69 -10.2310     41.8119     91.7883   1.0486881309e+02   5.3396610533e+01    0.2213337    0.1903139 -47.60  0.000521673    1.054    0.052
        70 -10.0785     53.2306     90.9737   1.0073399200e+02   5.2325194972e+01    0.2040607     0.163523 -52.02 0.0005661304    1.086    0.079
        71  -9.8901    158.4701     81.4947   6.6848184251e+01   3.4030519414e+01    0.1540381    0.1530116 -54.37 4.208288e-05    1.002    0.002
        72  -9.0574     56.2359     66.3874   9.2845811365e+01   5.7425547608e+01    0.1642173    0.1267962  39.32  0.000278041    1.506    0.336
        73 -10.7262     13.4426     59.7406   1.0810936874e+02   6.2931375149e+01    0.2200475    0.1858566 -57.73 0.0004377097    1.148    0.129
        74 -13.2580    190.8816     44.0174   4.9859785589e+01   3.1992212230e+01    0.8239286     0.644747  44.11  0.001008868    1.412    0.292
        75 -16.4800      8.4144    242.1437   1.2867238723e+02   2.2957385599e+01     5.878612     1.327028 -76.30   0.02058397    3.815    0.738
        76 -15.7762      2.8395    198.0178   1.2753046582e+02   3.2111558556e+01     8.666471          nan -71.73   0.02013215    8.558    0.883
        77 -10.0979    146.5171     43.0204   5.7390812397e+01   4.3368630928e+01    0.2494149    0.2000935  79.67 0.0003965098    1.366    0.268
        78 -11.7649      2.4710     29.3533   1.0452278742e+02   6.9686180602e+01    0.2837273    0.1498997 -48.32   0.00106552    1.402    0.287
        79 -10.2495    172.2626    240.6033   9.8061607688e+01   5.0680854593e-01    0.3754855    0.2604245 -78.13  0.001939925    2.892    0.654
        80 -11.3686    143.9900     48.7927   5.9839799920e+01   4.3156128154e+01    0.4939547    0.3186128 -83.46  0.001966042    2.534    0.605
        81  -9.2762    189.5198     14.9880   4.2009012391e+01   3.5907978446e+01     0.190264    0.1324515 -30.37 0.0005863861    1.546    0.353
        82  -8.9724     66.7965     51.6352   8.3793458925e+01   5.8839544063e+01    0.1729533    0.1255322  41.79 0.0008687501    1.562    0.360
