#   1 NUMBER                 Running object number                                     
#   2 MAG_AUTO               Kron-like elliptical aperture magnitude                    [mag]
#   3 X_IMAGE                Object position along x                                    [pixel]
#   4 Y_IMAGE                Object position along y                                    [pixel]
#   5 X_WORLD                Barycenter position along world x axis                     [deg]
#   6 Y_WORLD                Barycenter position along world y axis                     [deg]
#   7 A_WORLD                Profile RMS along major axis (world units)                 [deg]
#   8 B_WORLD                Profile RMS along minor axis (world units)                 [deg]
#   9 THETA_WORLD            Position angle (CCW/world-x)                               [deg]
#  10 FWHM_WORLD             FWHM assuming a gaussian core                              [deg]
#  11 ELONGATION             A_IMAGE/B_IMAGE                                           
#  12 ELLIPTICITY            1 - B_IMAGE/A_IMAGE                                       
         1 -13.2921     67.8236    144.9155   2.9186219608e+02   5.6576262403e+00    0.0729302    0.0412375  80.43  0.005865625    3.276    0.695
         2 -14.0563      7.1560     15.4896   2.9180989791e+02   7.4401784900e+00    0.1660427   0.05651416 -53.90   0.01325482    2.647    0.622
         3 -14.5082    197.3016     16.5720   2.8961934582e+02   6.4027704279e+00    0.1411019   0.07260308 -32.16   0.01222255    2.483    0.597
         4 -11.1025    106.5600    247.5040   2.9201114856e+02   4.2936649838e+00   0.01604478   0.01107324  69.05  0.001639154    1.920    0.479
         5 -11.9008    140.7935    249.6949   2.9162966187e+02   4.0847739268e+00   0.02514647   0.01439362  30.44   0.00251489    1.702    0.413
         6 -11.3671     98.1872    248.7646   2.9211488608e+02   4.3244838470e+00   0.01816089   0.01566515  57.16  0.001297018    1.278    0.218
         7 -11.2948    101.1801    246.1615   2.9206532703e+02   4.3377168462e+00   0.01928149   0.01380013 -78.35 0.0003840085    1.618    0.382
         8 -11.3360     66.2725    250.2062   2.9249084225e+02   4.4797052419e+00   0.02101681  0.009437469  23.68  0.001836371    2.248    0.555
         9 -13.3865     52.1330    233.1579   2.9255504879e+02   4.7476882793e+00    0.1145357   0.02407533 -51.32  0.007468655    3.965    0.748
        10 -15.9736      5.0439    239.7255   2.9313567450e+02   4.9260748803e+00    0.8206587   0.03245907 -59.54   0.03378346    7.237    0.862
        11 -15.3393     54.7443    218.0706   2.9243757082e+02   4.9036748973e+00    0.3480098    0.1758443  23.93   0.02150114    1.983    0.496
        12 -12.4861     79.8563    247.1426   2.9231662781e+02   4.4412686712e+00   0.03634161   0.02193979  35.13  0.003727522    1.641    0.391
        13 -11.9386     35.0285    229.9623   2.9273366851e+02   4.8754480963e+00   0.01978234   0.01657601 -61.41   0.00221614    1.206    0.171
        14  -9.5629    229.5436    230.0182   2.9049401043e+02   3.8277114618e+00  0.009600123  0.006385492 -63.96 0.0005479177    1.538    0.350
        15 -10.8985    162.7513    226.3904   2.9124151512e+02   4.2289070633e+00   0.01597282   0.00678914  39.09  0.001356205    2.380    0.580
        16 -11.9697    127.3446    244.9526   2.9175699423e+02   4.2105804934e+00   0.01996898   0.01313939 -10.47  0.002008514    1.873    0.466
        17 -11.6867     71.8902    241.6229   2.9237642385e+02   4.5462443727e+00   0.02890067   0.01154764 -49.76   0.00243148    2.380    0.580
        18  -9.0160    152.5401    213.0070   2.9128131381e+02   4.4346481024e+00  0.009263596  0.006319844 -61.17 0.0003075837    1.468    0.319
        19  -8.9989    186.3104    239.2943   2.9104533604e+02   3.9566074055e+00  0.006769464  0.004738017 -26.18 0.0002302839    1.591    0.371
        20 -10.7039    193.1670    195.2970   2.9071046199e+02   4.4148951435e+00   0.04252193    0.0202866  89.02  0.002288082    7.261    0.862
        21 -11.6425     70.4567    195.9367   2.9212810483e+02   5.0686873668e+00    0.0223588   0.01168896 -39.99  0.001663521    2.069    0.517
        22 -11.7424     75.2793    188.7460   2.9203077016e+02   5.1237858643e+00   0.01581795   0.01144203 -38.25 0.0005788823    1.407    0.289
        23  -9.6444    120.2729    188.2140   2.9150897046e+02   4.8877143938e+00   0.01631843  0.009280209   0.01  0.001379318    2.390    0.582
        24 -11.2333     83.8672    176.1979   2.9185887801e+02   5.2189827458e+00   0.01705134   0.01080551 -47.78 0.0005819821    1.542    0.351
        25 -13.2952     71.4726    174.1121   2.9198971348e+02   5.3091122196e+00   0.02611853   0.01308477 -39.49  0.001866697    2.208    0.547
        26 -11.0796    119.9614    238.4324   2.9180419055e+02   4.3237520271e+00   0.01474128  0.009538852 -85.96  0.001260637    2.054    0.513
        27 -11.0130    125.8827    174.5982   2.9136514365e+02   5.0108489959e+00   0.01977865  0.006746095  20.17  0.001407971    3.433    0.709
        28 -11.9167     50.3007    130.0659   2.9197813728e+02   5.9190372257e+00   0.02054805    0.0162197  30.64  0.001378737    1.262    0.207
        29 -12.4864     89.9340    167.3789   2.9173767292e+02   5.2856966827e+00   0.07126005   0.02521612  39.90  0.005540676    2.906    0.656
        30 -11.6465     81.9533    242.2619   2.9226419615e+02   4.4849885866e+00   0.02058523   0.01558738  69.15   0.00227066    1.628    0.386
        31 -12.8211     58.1980    132.2625   2.9189974165e+02   5.8518739021e+00    0.1290394    0.0453247 -75.95  0.005956004    9.113    0.890
        32 -10.1154    101.9328    151.3220   2.9150592270e+02   5.4019803937e+00    0.0172151   0.01105883 -45.43 0.0008399111    1.539    0.350
        33  -9.6323    104.5615    147.1955   2.9145159526e+02   5.4343015976e+00   0.01347372   0.00691015 -45.89  0.001073833    1.943    0.485
        34 -12.1361     90.9584    150.6020   2.9162832821e+02   5.4691572695e+00   0.01396908   0.01121069 -27.72 0.0005779622    1.289    0.224
        35 -11.8461     45.7172    148.5095   2.9213819430e+02   5.7358908821e+00    0.0193174   0.01331065 -38.55   0.00172499    1.489    0.328
        36  -9.9831    134.2585    147.2624   2.9110949909e+02   5.2735353180e+00    0.0206165  0.006371669 -67.80  0.001327711    4.265    0.766
        37  -8.7813    192.1784    144.3733   2.9042512842e+02   4.9934047926e+00   0.00873889  0.005725823  35.99 0.0002747518    1.526    0.345
        38  -9.9770    111.9749    136.5362   2.9130404467e+02   5.5144101816e+00   0.01592004   0.01010856 -20.83  0.001211299    1.943    0.485
        39 -10.6728     99.7419    133.7213   2.9142878780e+02   5.6119920215e+00    0.0134077   0.01001817 -24.73 0.0008359392    1.448    0.310
        40 -11.7036     43.9281    128.2730   2.9204128734e+02   5.9734516842e+00   0.01878698   0.01140295 -78.91  0.001686707    2.084    0.520
        41  -8.9500    117.3596    129.3084   2.9119984495e+02   5.5667808243e+00  0.007055454  0.004703195 -24.83 0.0007041078    1.735    0.424
        42 -14.3836     11.2102    207.0647   2.9287573575e+02   5.2611323015e+00    0.1352992   0.08767036  -0.59   0.00906167    1.859    0.462
        43 -12.8750     46.6559    229.8631   2.9259909138e+02   4.8142022757e+00   0.02191206   0.01649245 -28.25 0.0008285993    1.410    0.291
        44  -9.3059    108.5260    123.5332   2.9126812457e+02   5.6794028877e+00  0.006465628   0.00618287 -19.12 0.0001138307    1.012    0.012
        45 -11.2342    168.2750    113.4636   2.9052030519e+02   5.4704048889e+00   0.01683618    0.0131731  59.94 0.0008558881    1.483    0.326
        46  -8.9620    203.6464    111.6860   2.9010228706e+02   5.2991841952e+00  0.007060687  0.004701175 -25.36 0.0007045557    1.735    0.423
        47 -10.3219    163.0134    249.5145   2.9137283542e+02   3.9671256677e+00   0.01030398  0.006297241  24.74  0.001043485    1.624    0.384
