#   1 NUMBER                 Running object number                                     
#   2 MAG_AUTO               Kron-like elliptical aperture magnitude                    [mag]
#   3 X_IMAGE                Object position along x                                    [pixel]
#   4 Y_IMAGE                Object position along y                                    [pixel]
#   5 X_WORLD                Barycenter position along world x axis                     [deg]
#   6 Y_WORLD                Barycenter position along world y axis                     [deg]
#   7 A_WORLD                Profile RMS along major axis (world units)                 [deg]
#   8 B_WORLD                Profile RMS along minor axis (world units)                 [deg]
#   9 THETA_WORLD            Position angle (CCW/world-x)                               [deg]
#  10 FWHM_WORLD             FWHM assuming a gaussian core                              [deg]
#  11 ELONGATION             A_IMAGE/B_IMAGE                                           
#  12 ELLIPTICITY            1 - B_IMAGE/A_IMAGE                                       
         1 -14.0568    193.2702     23.3992   6.6981997280e+01   3.4240222198e+01     1.854399     1.367065 -10.17  0.008836898    1.878    0.468
         2 -13.8262    200.3086     18.5277   6.4883661221e+01   3.3084789062e+01     1.339364    0.9502494 -71.49  0.005008075    1.391    0.281
         3 -13.8384    205.9158     11.1005   6.2460722052e+01   3.2557176766e+01     1.364526    0.7864968  53.29  0.001438467    1.807    0.447
         4 -13.1414      2.7354     10.1915   1.1585391070e+02   7.0996588771e+01     1.170741    0.4236276 -40.31  0.006786878    2.083    0.520
         5 -10.8859     57.2317    240.4092   1.4216764251e+02   1.8118966969e+01    0.2442095    0.1694789  41.77   0.00119123    1.590    0.371
         6 -12.0907    139.1855    248.5427   1.2792950425e+02   3.8854067053e+00    0.3499265    0.3236175 -82.47  0.002418185    1.245    0.197
         7 -13.6991    107.2518    247.0753   1.3374962950e+02   9.4434074146e+00     1.555064    0.3852702  42.38  0.005427591    3.364    0.703
         8 -12.2907    103.3586    242.9760   1.3402065820e+02   1.0816200350e+01    0.4705164    0.2426629  45.88  0.002483717    1.631    0.387
         9 -12.9791     79.5944    233.3669   1.3745046141e+02   1.6327195455e+01     0.687858    0.3861517  60.50  0.003801472    1.571    0.363
        10 -12.4677     89.5664    245.2723   1.3681591092e+02   1.2547556220e+01    0.6769361    0.3492065  64.81  0.001530748    1.946    0.486
        11 -12.2886     85.3059    239.8849   1.3705196464e+02   1.4208959560e+01    0.4756822    0.3138559 -75.51  0.001188133    1.539    0.350
        12 -10.9117     81.5026    249.5057   1.3868186985e+02   1.2977262999e+01    0.2687892    0.1693959  67.44  0.001646945    1.363    0.266
        13 -15.7828      7.2657    212.7271   1.4884351889e+02   2.9443416786e+01     9.075508    0.8377942 -71.87   0.02322427    6.083    0.836
        14 -10.1241     32.1434    227.9450   1.4557625517e+02   2.3718037082e+01    0.1859301    0.1299855  64.18 0.0005216171    1.172    0.147
        15 -10.1517    229.1987    206.4289   1.0362479417e+02  -5.0953873307e+00    0.2636898    0.2115577 -57.10 0.0009196918    1.706    0.414
        16 -10.3826    193.2618    195.3296   1.0851628105e+02   3.4294448472e+00    0.7642388     0.377724 -64.07  0.002076457    6.362    0.843
        17 -11.7537     68.2901    193.6120   1.3525891047e+02   2.6360567996e+01     0.408873    0.2574978 -45.99  0.002099094    2.102    0.524
        18 -11.7689     73.2289    186.6117   1.3329347943e+02   2.7233010581e+01    0.2961393      0.22842 -58.68 0.0005339091    1.369    0.270
        19  -8.7438    181.5162    192.4348   1.1038610897e+02   6.2821889618e+00    0.1438759    0.1336017  33.33 7.751689e-05    1.018    0.017
        20 -11.1533     82.0709    174.7509   1.2960317751e+02   2.8645668299e+01    0.2484827    0.2192917 -70.55 0.0003934231    1.137    0.121
        21 -13.2479     69.6327    172.1768   1.3211123806e+02   3.1080584312e+01     0.515197    0.2832376 -44.86  0.001769434    2.302    0.566
        22 -12.5786     57.9567    131.7345   1.2852140850e+02   4.2200617447e+01     3.029824    0.8830246 -69.92  0.006153795    9.954    0.900
        23 -12.5230     88.9191    166.4336   1.2665902628e+02   2.9520006139e+01     1.642805     0.612247  52.50  0.002765899    3.288    0.696
        24 -13.3684     67.5528    144.5507   1.2825658559e+02   3.7908134750e+01         1.39    0.7474674 -89.07  0.002094011    3.039    0.671
        25  -9.1969    164.4630    157.4923   1.0693770242e+02   1.7000585632e+01    0.1526388    0.1496298  68.31 0.0002122776    1.006    0.005
        26 -10.0852    101.0137    149.9933   1.2068743398e+02   3.1389128909e+01    0.3096927    0.2656756 -42.41 0.0008095019    1.273    0.214
        27  -9.3774    103.9030    145.7705   1.1910692599e+02   3.1880450208e+01    0.3086624    0.2139426 -24.79  0.001342474    2.163    0.538
        28 -12.2244     89.8146    149.2281   1.2338772091e+02   3.3457944551e+01     0.291921    0.2573975 -41.71 0.0004957981    1.263    0.208
        29 -13.6964     12.8928    238.9195   1.4950541136e+02   2.3727093136e+01     2.064152    0.6338099  57.31   0.01048433    2.669    0.625
        30 -14.4829     21.0263    173.6150   1.4309718855e+02   3.6484045137e+01     4.238669     1.529695  80.67    0.0117954    7.370    0.864
        31  -9.2952    134.0000    145.0181   1.1137181216e+02   2.6253726064e+01    0.2603823   0.08705401 -49.39 0.0008067088    2.972    0.664
        32  -9.8120    111.4480    135.5849   1.1498653654e+02   3.2898993889e+01    0.3224588     0.234248 -26.39  0.001104124    1.812    0.448
        33 -10.6571     99.0033    132.7971   1.1765556668e+02   3.5809644351e+01    0.2930426     0.235176 -25.54 0.0006073832    1.527    0.345
        34 -11.6714     44.6533    129.9223   1.3178883880e+02   4.4173334827e+01    0.2720303    0.2022475 -65.03   0.00161234    1.130    0.115
        35 -12.4012      3.6605    149.8894   1.4454174793e+02   4.3258895001e+01    0.6597058    0.2925484  36.42  0.001334773    2.535    0.606
        36  -8.5407    117.3214    128.3689   1.1180113210e+02   3.3449030459e+01    0.1582679     0.121332 -14.99 0.0007035986    1.796    0.443
        37  -9.5266    108.0297    123.0135   1.1300584375e+02   3.6459562113e+01    0.2124249    0.2039648 -56.42            0    1.026    0.025
        38 -13.4225     43.7702    226.8099   1.4343111028e+02   2.2541971384e+01    0.5791606    0.3649351  65.44 0.0008686539    1.293    0.226
        39 -15.5221     52.9472    215.5883   1.4073922804e+02   2.3676665352e+01     7.022509     2.198754  44.40   0.02196238    2.746    0.636
        40 -11.0331    168.0536    112.9956   9.5491813855e+01   2.5720349368e+01    0.3893173    0.3216811 -85.95 0.0008213975    1.407    0.289
        41  -9.5686    205.0070    110.8682   8.7351025277e+01   1.7396077299e+01    0.4107268    0.1825529  41.41  0.001426577    2.756    0.637
        42 -10.9942    103.6940    236.6107   1.3323594202e+02   1.1954585515e+01    0.2176253     0.196487 -72.45 0.0007074543    1.312    0.238
        43 -11.4332     43.8630    109.2551   1.2824598755e+02   4.9019967049e+01    0.3237266    0.2527839  55.46  0.001681346    1.529    0.346
        44 -11.4918      2.1260     80.8193   1.3564470423e+02   5.8435597550e+01    0.4494785   0.09186021 -61.66  0.001836634    3.099    0.677
        45  -9.7340    156.2297     76.9740   8.8334989048e+01   3.5552432485e+01      0.20136    0.1264121 -38.75 0.0005416623    1.629    0.386
        46 -10.0793    128.3135     54.5291   8.8097782334e+01   4.5824195406e+01     0.269553    0.2285378 -71.63 0.0004996011    1.455    0.313
        47 -11.1831    118.8000     48.6451   8.8587625415e+01   4.8806636888e+01    0.4259745    0.2951567  79.03  0.001065803    2.233    0.552
        48 -11.3398    124.5131    250.0123   1.3087148277e+02   6.1012855499e+00    0.2506355    0.1783354  60.62  0.001531861    1.236    0.191
        49 -11.0042    249.1076    244.6733   1.0688424505e+02  -1.3608626803e+01    0.1871891    0.1570784 -23.48  0.001327729    1.372    0.271
        50 -10.7824    238.5785    248.1958   1.0933016175e+02  -1.2505313985e+01    0.2284849   0.07982219  41.26  0.001024733    2.615    0.618
