#   1 NUMBER                 Running object number                                     
#   2 MAG_AUTO               Kron-like elliptical aperture magnitude                    [mag]
#   3 X_IMAGE                Object position along x                                    [pixel]
#   4 Y_IMAGE                Object position along y                                    [pixel]
#   5 X_WORLD                Barycenter position along world x axis                     [deg]
#   6 Y_WORLD                Barycenter position along world y axis                     [deg]
#   7 A_WORLD                Profile RMS along major axis (world units)                 [deg]
#   8 B_WORLD                Profile RMS along minor axis (world units)                 [deg]
#   9 THETA_WORLD            Position angle (CCW/world-x)                               [deg]
#  10 FWHM_WORLD             FWHM assuming a gaussian core                              [deg]
#  11 ELONGATION             A_IMAGE/B_IMAGE                                           
#  12 ELLIPTICITY            1 - B_IMAGE/A_IMAGE                                       
         1  -9.5501     26.2022     35.4219   1.0743758990e+02   6.6391565391e+01    0.3516287     0.173285 -61.39 0.0008907303    1.828    0.453
         2  -8.4434     38.5997     16.9270   9.4298735628e+01   6.8698056916e+01    0.3334629    0.1022579 -46.91  0.001322839    2.855    0.650
         3  -7.9980      7.5998     15.7800   1.0912937774e+02   7.1789358816e+01    0.1595772   0.09148557 -64.30 0.0004229569    1.680    0.405
         4  -8.6755     55.7935     10.1516   8.3365077712e+01   6.7426911609e+01    0.1900567    0.1558614 -36.93 0.0007038665    1.288    0.223
         5  -8.0000     47.5980      9.8743   8.6658618863e+01   6.8691542232e+01    0.1799845    0.1009814 -44.24 0.0009200863    1.788    0.441
         6  -8.0412     90.8094      9.0195   7.0692873567e+01   6.1140306294e+01    0.2226997    0.1388248 -46.67 0.0008572682    1.974    0.493
         7  -7.9624    101.2746      8.3838   6.7518131165e+01   5.8951200860e+01    0.1741755    0.1366598  71.10 0.0003136155    1.572    0.364
         8  -7.9036     17.1241     14.1955   1.0349718518e+02   7.1386079647e+01    0.1465532    0.1247827 -58.99 0.0005353171    1.353    0.261
         9  -8.5433     33.2472      4.8131   9.0509922788e+01   7.1378559496e+01    0.2868518    0.1364693 -49.70  0.001363639    2.510    0.602
        10  -7.6453     44.6892      3.3050   8.4259136331e+01   7.0093120472e+01     0.112495   0.09269998 -49.29 0.0005215696    1.613    0.380
        11  -7.9283     83.4301     11.1892   7.4009068688e+01   6.2372869910e+01    0.1918572    0.1132142 -36.61 0.0007538128    1.663    0.399
        12  -7.5855    115.4636      2.5119   6.1398877270e+01   5.6274789268e+01    0.1394991       0.1304   4.94 0.0001206279    1.052    0.050
        13  -8.3082     62.4253      1.4519   7.5922878405e+01   6.7520341361e+01    0.1763241     0.128875  61.17 0.0001453224    1.948    0.487
        14  -8.4305     78.9368      3.6363   7.1481233882e+01   6.4191164503e+01    0.2723047    0.1458191 -39.16  0.001209903    2.008    0.502
        15  -8.7404     67.5014    245.0414   1.2650190235e+02   1.9225033364e+01    0.1812105   0.08484347 -82.27  0.001189398    2.413    0.586
        16 -10.0919    248.7280    244.0097   9.8542426812e+01  -5.9896952015e+00    0.6038588    0.1812207 -28.06  0.003166174    3.917    0.745
        17  -9.2309    247.6509    234.5603   9.7354956760e+01  -5.0667590917e+00     0.205092    0.1479366   1.05 0.0009639537    1.311    0.237
        18  -9.2597    246.6120    229.6186   9.6782141007e+01  -4.4973367478e+00    0.2355552    0.1746305 -21.93 0.0009468046    1.596    0.373
        19  -8.7094    200.5597    249.7656   1.0642647261e+02   2.6768376090e-01      0.28812    0.1154046  27.29  0.001312598    3.683    0.729
        20  -8.0367    191.5704    249.7798   1.0779014675e+02   1.5620548205e+00    0.1105723    0.1001997 -69.31 0.0009328457    1.685    0.407
        21  -8.1440    184.4875    250.4549   1.0894703810e+02   2.5174035818e+00    0.1053913   0.07604719  38.14  0.000280072    1.011    0.011
        22  -7.4547     86.2892    250.6563   1.2402960263e+02   1.6119968298e+01    0.1028262   0.05489844  65.17 0.0007024104    1.652    0.395
        23  -8.4745    139.7999    245.1920   1.1531004363e+02   9.5912443125e+00    0.1685635   0.09073848  67.95 0.0009367883    2.766    0.638
        24  -8.9560    201.8951    242.9093   1.0537541342e+02   7.4755920363e-01    0.2141768    0.1437138 -44.20   0.00106955    2.134    0.531
        25  -8.7619    169.0634    243.2947   1.1051570593e+02   5.5503588293e+00    0.1618994    0.1459754  67.21 0.0004827572    1.349    0.259
        26  -9.4525     77.4256    242.8013   1.2484459775e+02   1.8337921964e+01    0.2280768    0.1372964  79.34  0.001485886    1.612    0.380
        27  -9.4441    194.1214    239.6727   1.0616791297e+02   2.2267776088e+00    0.1767448    0.1575807 -24.75 0.0005623733    1.455    0.313
        28  -9.4425    160.3047    240.4590   1.1157842284e+02   7.1773632728e+00    0.2783295    0.1888236 -79.65  0.001355462    2.563    0.610
        29  -8.1586     88.2986    242.3774   1.2313372164e+02   1.7022625935e+01    0.1591657   0.09447872  78.35 0.0009573163    1.749    0.428
        30  -9.3326    183.0957    240.0918   1.0794117758e+02   3.8249682943e+00    0.3420582    0.2313267  68.07  0.001777578    2.285    0.562
        31  -7.8773    153.4974    241.9987   1.1282401070e+02   7.9962582870e+00    0.1283602   0.08627173  86.41 0.0008098887    2.480    0.597
        32  -8.6637    146.8357    240.4612   1.1371792225e+02   9.1626082770e+00    0.2967305    0.1595151  67.16  0.001599399    2.920    0.658
        33  -8.0298    214.4191    241.2472   1.0325046211e+02  -9.1875163116e-01    0.1167158    0.1006727 -37.22 0.0008824011    1.666    0.400
        34 -10.1129    234.4282    248.9885   1.0129425440e+02  -4.4406723563e+00    0.2543019    0.2270361  55.88   0.00133595    1.802    0.445
        35  -7.9773     41.2914    239.9476   1.3015729497e+02   2.2976312236e+01    0.1500958    0.0509926  79.33 0.0007027033    4.147    0.759
        36  -9.3147    135.4827    238.9673   1.1537609247e+02   1.1007399385e+01    0.1979708    0.1132719  55.67 0.0007028781    1.516    0.340
        37  -8.2078    129.1770    238.7631   1.1636481145e+02   1.1942898967e+01    0.1735261   0.09035395  67.98 0.0009397757    2.733    0.634
        38  -9.0294    230.7399    236.9713   1.0020721503e+02  -2.8815228541e+00     0.211055    0.1863049 -63.95  0.001051728    2.136    0.532
        39  -8.5443    209.4625    238.1096   1.0359381320e+02   1.1157069808e-01    0.1338921    0.1023799 -21.78  0.001031292    1.594    0.373
        40  -7.8447     57.9960    237.1994   1.2747817585e+02   2.1510540874e+01    0.1342598   0.05961411  44.39 0.0008695446    1.789    0.441
        41  -8.3070     25.5964    236.7532   1.3233879798e+02   2.5112068808e+01    0.2090936   0.07025895  74.28  0.001146094    3.042    0.671
        42 -10.3490    214.5706    232.0393   1.0198561786e+02  -4.3646782194e-02    0.4993576    0.3402723 -57.27  0.003127241    2.936    0.659
        43  -9.0711    203.1244    234.3876   1.0408265012e+02   1.4325344652e+00    0.2636626    0.1644446 -49.46  0.001247497    2.507    0.601
        44  -9.7545    175.8546    233.5751   1.0829476715e+02   5.6542717627e+00     0.333622    0.1990759 -57.67  0.002076249    2.650    0.623
        45  -8.3679    170.4203    235.9713   1.0945320649e+02   6.1966347452e+00    0.1277613    0.1080985 -48.09 0.0005248705    1.570    0.363
        46  -9.4621    109.0726    234.6392   1.1921349030e+02   1.5348851445e+01     0.410577    0.1570396  55.14  0.001164849    2.397    0.583
        47  -7.6107    153.2919    235.6592   1.1216634313e+02   8.8090730121e+00    0.1049139   0.07201657  65.43 0.0007026634    1.651    0.394
        48  -8.5399    122.9474    234.4357   1.1694938726e+02   1.3421882201e+01    0.1874217     0.129126  80.66 0.0008675354    1.700    0.412
        49  -8.4602     99.7955    234.6845   1.2071187824e+02   1.6612297714e+01     0.190318    0.1063986  73.01   0.00107423    2.001    0.500
        50  -9.1855     78.7827    234.6081   1.2406135574e+02   1.9374240818e+01    0.1974528    0.1207531  71.61 0.0008838109    1.445    0.308
        51  -8.5888    194.6618    232.8799   1.0521300310e+02   2.8708475120e+00    0.2038899    0.1809649  81.18  0.001181483    1.662    0.398
        52  -9.2532     68.3138    232.4848   1.2557113802e+02   2.0997514758e+01    0.3761422      0.14973  68.17  0.001970351    2.953    0.661
        53  -9.3270    186.4952    230.9005   1.0625442077e+02   4.3367600267e+00     0.287538    0.2068645 -70.90  0.001307901    2.564    0.610
        54  -8.3402    145.0023    233.4945   1.1327033522e+02   1.0322969129e+01    0.2467428    0.1230218  62.33  0.001284658    2.721    0.632
        55  -8.5696    139.9998    230.0275   1.1371242836e+02   1.1528583493e+01    0.2333262    0.1291387  61.14 0.0008906461    1.972    0.493
        56  -8.4483    132.7293    232.8757   1.1520334701e+02   1.2218700045e+01    0.1639099    0.1063314  74.70  0.001063332    1.924    0.480
        57  -8.0703    157.8137    231.9790   1.1101740828e+02   8.5911713740e+00    0.1550089    0.1141492  79.54 0.0008285441    1.875    0.467
        58  -8.1132     92.3796    231.6890   1.2166034406e+02   1.8047250356e+01    0.2241827    0.1064422  70.12  0.001143336    2.607    0.616
        59  -9.3059    235.9603    230.4151   9.8489196793e+01  -3.0401520282e+00    0.2307781    0.1394127 -26.52  0.001240925    1.925    0.481
        60  -8.8670      1.8089    231.1082   1.3560574794e+02   2.8265001651e+01    0.1510251   0.07639598  66.28 0.0008119137    1.306    0.234
        61 -10.6675    148.3482    225.8075   1.1186007859e+02   1.0834886028e+01    0.4541952    0.2766183  67.51  0.002700379    2.141    0.533
        62  -7.9440    229.9650    229.1844   9.9218053874e+01  -2.0505476604e+00    0.1231038    0.1200574 -12.58 0.0006070806    1.576    0.365
        63  -8.7121    162.5657    228.1062   1.0978377190e+02   8.3539170671e+00    0.2847098    0.1806108  69.66  0.001168114    2.336    0.572
        64  -8.8754    128.1021    227.4610   1.1540572797e+02   1.3647327628e+01    0.2311156    0.1417093  66.44  0.001124686    1.768    0.434
        65  -8.0227    120.0593    228.0057   1.1679404416e+02   1.4742933626e+01    0.1749945    0.1059569  66.77  0.001116012    1.732    0.423
        66  -8.9925      8.3631    228.2147   1.3455392296e+02   2.8121581719e+01    0.1324378   0.06045442  80.98 0.0008204759    1.716    0.417
        67  -8.1254    223.3700    227.1865   9.9940039441e+01  -8.7919654418e-01    0.1931672     0.104744 -24.66  0.001210103    2.194    0.544
        68  -9.3576    225.5841    221.8996   9.8822027776e+01  -6.8851212523e-01    0.2471033    0.1937958  47.25   0.00130352    1.476    0.322
        69  -9.0389    206.1356    225.3331   1.0237319488e+02   1.9306836442e+00    0.2841675    0.1657967 -30.92  0.001378461    2.096    0.523
        70  -8.6316    200.0033    226.3062   1.0348380090e+02   2.7707031790e+00    0.1567374    0.1173087  36.80 0.0005105807    1.059    0.056
        71  -8.9536    180.7375    224.5113   1.0635378144e+02   5.9748121422e+00     0.250055    0.1530115  53.32   0.00105869    1.623    0.384
        72  -8.8806    104.7031    223.6212   1.1892933665e+02   1.7578171484e+01    0.2756835    0.1584893  77.07  0.001666555    2.119    0.528
        73  -8.9340     94.1866    224.2801   1.2074282411e+02   1.8927574162e+01    0.3142851    0.1390213  64.27  0.001643526    2.599    0.615
        74  -9.2217    216.5782    222.9191   1.0037901797e+02   5.8067396428e-01    0.2790235    0.1988495 -20.66  0.001558711    1.615    0.381
        75  -7.9418    114.1320    224.1570   1.1740152956e+02   1.6159040299e+01    0.1512652     0.104535  67.53 0.0006544369    1.355    0.262
        76  -7.8150     59.7683    224.1481   1.2638280849e+02   2.3335251100e+01     0.185008   0.06971276  65.49 0.0009440678    2.838    0.648
        77  -7.7080     38.2868    224.6718   1.2983790037e+02   2.5687958085e+01    0.1053893    0.0510954  66.47 0.0002837068    1.613    0.380
        78  -9.1320    238.9613    221.5479   9.6714464771e+01  -2.6584202629e+00    0.1687197     0.147967 -26.10 0.0007024662    1.578    0.366
        79  -9.3430    192.3609    221.2350   1.0401520863e+02   4.5364976983e+00    0.2404271    0.2083737 -84.55   0.00124561    1.758    0.431
        80  -9.1832    159.9246    221.0023   1.0935009639e+02   9.6825300728e+00    0.4079114     0.176503  56.79  0.001877906    2.988    0.665
        81  -8.7039     83.1775    221.0066   1.2230168682e+02   2.0908614251e+01    0.2684627    0.1176523  66.81  0.001391182    2.681    0.627
        82  -9.3195      7.2742    222.1211   1.3450136477e+02   2.9199931627e+01     0.191613   0.06827188  50.55  0.001277599    1.920    0.479
        83  -9.2236    120.4480    219.3046   1.1584096929e+02   1.5962314577e+01    0.4075741    0.1909412  65.22  0.001574214    3.116    0.679
        84  -8.2818     72.8893    220.7348   1.2399274558e+02   2.2275851396e+01    0.2049839    0.1029911  75.11  0.001215588    2.142    0.533
        85  -8.5496     27.5162    220.4985   1.3131844057e+02   2.7499962937e+01    0.1901002   0.07885819 -80.74  0.001221824    2.205    0.546
        86  -8.4076    202.5272    220.1021   1.0220864097e+02   3.0659255805e+00    0.1404013    0.1101266 -28.74 0.0005750759    1.544    0.352
        87  -8.6397    249.9491    218.9482   9.4657535070e+01  -4.0294567667e+00    0.1819102    0.1350461  55.12  0.001048326    2.076    0.518
        88  -8.7331    172.9975    223.2659   1.0746277592e+02   7.3400971735e+00    0.1790581    0.1452668  72.40 0.0006398087    1.570    0.363
        89  -8.2462    209.9346    219.1819   1.0088641002e+02   2.0065596645e+00     0.159905    0.1328551  41.23 0.0006015136    1.245    0.197
        90  -9.2573    132.9701    216.0974   1.1334357279e+02   1.4555769651e+01    0.3862455    0.2190375  73.19  0.002003746    2.744    0.636
        91  -8.5676     62.4482    217.7275   1.2550549728e+02   2.4056475018e+01    0.2739904    0.1155394  60.91  0.001576529    2.084    0.520
        92  -9.2058     51.3427    217.1546   1.2730181706e+02   2.5463242812e+01    0.2224057     0.132934  87.27 0.0009951099    1.493    0.330
        93  -8.6637    169.1261    216.0456   1.0716320084e+02   8.8769375607e+00    0.2260686    0.1573377 -62.53 0.0008999072    2.062    0.515
        94  -8.5434    142.8355    216.5273   1.1169978696e+02   1.2970584263e+01    0.1978986     0.141726 -87.67 0.0009223823    1.901    0.474
        95  -7.9463    111.8117    217.2440   1.1710450802e+02   1.7539731987e+01    0.1821268   0.09187968  68.27 0.0009264994    2.628    0.619
        96  -8.3658     18.8102    215.8533   1.3247322651e+02   2.9139606690e+01    0.1933013   0.05031241 -71.62  0.001022343    3.427    0.708
        97  -8.7582    232.4932    214.5277   9.6623630158e+01  -1.0020186071e+00    0.2491876    0.1774478 -12.77  0.001751939    1.475    0.322
        98  -8.6296    185.6236    214.4703   1.0417832314e+02   6.4238082600e+00    0.1845994    0.1686597  45.51 0.0006571244    1.208    0.172
        99  -8.5753    154.1729    214.9381   1.0956197405e+02   1.1412348044e+01    0.1724038    0.1347326  63.21 0.0008287628    1.315    0.239
       100  -8.9441     93.6272    214.2870   1.1994404984e+02   2.0580666486e+01    0.3924751    0.1306304  54.62  0.001806907    2.888    0.654
       101  -7.9881     41.5756    215.4097   1.2879563558e+02   2.6853673618e+01    0.1877022   0.08283128  65.40 0.0009406506    1.903    0.475
       102  -9.4800    214.0275    212.4197   9.9217644022e+01   2.1040361213e+00     0.302783    0.2162068  58.45  0.001260416    1.883    0.469
       103  -9.5270     73.2995    212.0506   1.2324508447e+02   2.3649070808e+01      0.57374    0.1901131  61.08  0.002414889    3.850    0.740
       104  -8.1732    224.8907    212.8886   9.7558294299e+01   3.4193460101e-01    0.1499758    0.1367107  67.17  0.000809356    1.685    0.407
       105  -8.7560    161.6510    212.4860   1.0796280079e+02   1.0555118895e+01     0.209209    0.1694322  57.50 0.0007954051    1.213    0.176
       106  -8.1725    106.4678    212.9104   1.1758776540e+02   1.8991238920e+01    0.1434812    0.1044196 -75.30 0.0006426973    1.515    0.340
       107  -8.9943    204.2914    210.8578   1.0056150873e+02   3.8416278251e+00    0.2188967    0.1931691 -56.50 0.0007448705    1.635    0.388
       108  -9.4785    175.5642    210.2435   1.0527751938e+02   8.5979855349e+00    0.3338073    0.2282815  74.41   0.00130319    2.398    0.583
       109  -9.2380      8.4814    211.9800   1.3393620927e+02   3.0767387543e+01    0.2430911   0.07116031  65.37  0.001299327    2.832    0.647
       110  -8.9240      5.6714    208.3334   1.3423784968e+02   3.1641411738e+01    0.1640634   0.08229062  75.62 0.0007239564    1.458    0.314
       111  -8.4480    192.3628    210.8045   1.0252599249e+02   5.7833803496e+00    0.1943808    0.1684351  76.86  0.001176932    1.607    0.378
       112  -8.8224    147.9777    210.6106   1.1008232275e+02   1.3012158940e+01    0.2408411    0.1633001  69.79   0.00107617    1.795    0.443
       113  -9.1432    116.1743    210.2744   1.1561314882e+02   1.7985596253e+01    0.2646492    0.1684484  81.82  0.001009458    1.946    0.486
       114  -9.1180    236.6798    208.5262   9.5018102673e+01  -1.0396434204e+00    0.2327931    0.2199904  87.27  0.001299368    1.806    0.446
       115  -8.6210     85.7140    209.6564   1.2089287474e+02   2.2419724340e+01    0.2808682    0.1268934  66.04  0.001426521    2.574    0.612
       116  -8.3173     32.2200    210.2495   1.3003719015e+02   2.8732440706e+01    0.1533028    0.0622311  88.14 0.0006439936    2.408    0.585
       117 -10.2871    124.2653    206.2468   1.1372581527e+02   1.7395893826e+01    0.2711042    0.1664246  69.22            0    1.879    0.468
       118  -9.4357    246.3418    207.2591   9.3323241113e+01  -2.3940058757e+00    0.2129264    0.1708876 -11.84 0.0005445623    1.326    0.246
       119  -8.2787    228.3841    208.4327   9.6302926121e+01   2.6406011509e-01    0.2308983   0.08640286  38.73  0.001135484    2.191    0.544
       120  -8.0359    156.6377    208.3588   1.0828099925e+02   1.1942424048e+01    0.1714465    0.1236934  67.80 0.0009560856    1.620    0.383
       121  -8.5706    139.0165    207.8772   1.1130846754e+02   1.4840168088e+01    0.1860444    0.1397661  85.97 0.0006928107    1.627    0.385
       122  -9.1592     99.3747    206.1622   1.1815025919e+02   2.1106228901e+01    0.3368986     0.185874  77.78  0.001503124    2.328    0.570
       123  -8.5247     56.6222    205.4339   1.2560834422e+02   2.6837843247e+01    0.2961584    0.1270925  68.55  0.001426303    2.427    0.588
       124  -9.4680    194.7840    203.7392   1.0105669497e+02   6.2625681113e+00    0.3424692    0.2697607  65.91  0.001584588    1.690    0.408
       125  -9.2841    192.3685    197.5410   1.0049937380e+02   7.4638723984e+00    0.3190847    0.2473474  85.64  0.001399191    2.181    0.541
       126  -8.8521    184.0110    204.1845   1.0295580995e+02   8.0002172309e+00    0.2785234    0.1905102  67.61 0.0009990226    2.139    0.533
       127  -7.9428    184.5140    200.4464   1.0230419260e+02   8.4102743751e+00    0.1808151    0.0950119  36.54 0.0005834954    1.691    0.409
       128  -8.7918    131.4534    204.3907   1.1222010892e+02   1.6569421218e+01    0.2595386    0.1491343  69.97  0.001143525    2.384    0.580
       129  -8.1163    109.0684    205.1014   1.1630942816e+02   1.9873628960e+01    0.1847564    0.1142852  70.32 0.0006796436    1.716    0.417
       130  -8.6045     24.6623    204.8428   1.3099827415e+02   3.0441823533e+01    0.1443456   0.06961247  85.29 0.0009377228    1.755    0.430
       131  -7.9625    238.3875    204.2570   9.4053235239e+01  -8.6833059441e-01    0.1221076   0.06922092  21.82  0.000696721    1.681    0.405
       132  -9.6695    163.9371    203.1332   1.0628580416e+02   1.1488352495e+01    0.3710651    0.2102545  58.20  0.001199169    1.996    0.499
       133  -9.4761    250.0166    201.9492   9.1876021288e+01  -2.4325217425e+00    0.2863643     0.166968 -21.58  0.001459795    1.756    0.430
       134  -8.5255    211.0552    202.1510   9.8091553343e+01   3.7590001675e+00    0.1838029    0.1546912 -73.73 0.0006171377    2.005    0.501
       135  -9.1897    243.1922    200.7709   9.2723600846e+01  -1.2603520415e+00    0.2711607     0.178929 -29.00 0.0009463888    1.702    0.412
       136  -8.8340    140.4573    201.0831   1.1018436380e+02   1.5648600533e+01    0.3077002    0.1938395  79.59  0.001249591    2.465    0.594
       137  -8.5794     79.9952    201.3588   1.2114851121e+02   2.4601143737e+01    0.2893667    0.1425989  76.02  0.001489009    2.560    0.609
       138  -7.7821     73.2673    202.6150   1.2246233018e+02   2.5264714323e+01    0.1167472   0.06589166  72.17 0.0006987259    1.698    0.411
       139  -8.5009     48.6251    202.3372   1.2677367428e+02   2.8314054046e+01    0.1805184   0.09007791  67.40  0.001112325    1.736    0.424
       140  -8.8530     10.4503    202.6481   1.3323654243e+02   3.2189575263e+01    0.1596108   0.07831151  40.29  0.001100724    1.974    0.493
       141  -7.8868    221.9838    201.4878   9.6199515687e+01   2.0455472493e+00    0.1413972   0.09779944  61.56 0.0004418389    2.228    0.551
       142  -9.0630    236.9311    198.6080   9.3333617230e+01  -4.7066567447e-02    0.2440159    0.1744074 -34.60  0.001282068    1.725    0.420
       143  -8.6710    177.1245    199.1355   1.0338862234e+02   9.8371898736e+00    0.2150441    0.1826079  87.99 0.0007344339    1.590    0.371
       144  -9.4199    149.6655    198.8187   1.0822142847e+02   1.4490745844e+01    0.3429925    0.2303583  80.88  0.001546138    2.244    0.554
       145  -8.9275    124.0161    199.3780   1.1294683473e+02   1.8537433306e+01    0.2553354    0.1673023  86.46  0.001182353    1.999    0.500
       146  -9.1527    113.0525    198.6043   1.1485726250e+02   2.0355180479e+01    0.3879841    0.2028452  68.62  0.001620547    2.559    0.609
       147  -9.1012     88.7600    198.7154   1.1930986556e+02   2.3869746500e+01    0.3173965    0.1729886  74.03  0.001755664    2.103    0.525
       148  -8.1603    202.6341    198.0820   9.8839464547e+01   5.6568639929e+00     0.158659    0.1496097 -64.41 0.0007460958    1.462    0.316
       149  -9.3437     61.3881    196.9233   1.2410850434e+02   2.7768434981e+01    0.3804741    0.1739565  72.98  0.001727879    2.468    0.595
       150  -8.8778     12.6225    197.3839   1.3264063393e+02   3.2919104918e+01    0.2599755   0.08652613  81.69  0.001314747    3.005    0.667
       151  -8.7606    215.9048    195.7352   9.6238286113e+01   3.7140672813e+00    0.2288497    0.1572373 -51.36 0.0009487937    2.238    0.553
       152  -7.8269     53.7236    196.9727   1.2548615094e+02   2.8680178542e+01    0.2111759   0.06960467  62.08 0.0009000071    3.550    0.718
       153  -8.9135    185.3722    194.9107   1.0129363220e+02   9.0105472671e+00    0.2324162    0.2021972 -58.30 0.0007693006    1.487    0.328
       154  -8.0537    133.0032    196.0610   1.1088128801e+02   1.7648951847e+01    0.1825102    0.1269695  71.18 0.0005321591    1.604    0.377
       155  -9.4615    245.7556    193.5507   9.1082613615e+01  -9.1601410644e-01    0.2393053    0.2148188  76.89  0.001178422    1.964    0.491
       156  -7.7265    209.4838    195.5210   9.7269612656e+01   4.8186135825e+00    0.1207977   0.09960679  27.97 5.227363e-05    1.022    0.022
       157  -9.0166    160.8777    194.1716   1.0553323813e+02   1.3312595850e+01    0.2769193    0.2091101  81.05  0.001020054    1.793    0.442
       158  -9.1688     43.8010    193.5424   1.2700772325e+02   3.0440698894e+01    0.3606766    0.1514069  70.12  0.001506154    2.439    0.590
       159  -7.7996    230.8077    194.5672   9.3615023123e+01   1.3824967593e+00    0.1549586    0.1021166  48.43 0.0006905687    1.633    0.388
       160  -8.7184     76.9753    193.8516   1.2099580319e+02   2.6333245797e+01    0.1883429    0.1381108  85.58 0.0005155326    1.222    0.182
       161  -9.0878      6.3757    190.9296   1.3340248762e+02   3.4644822398e+01    0.3505565    0.1080643 -68.38  0.001919906    2.989    0.665
       162  -8.6882    224.5756    194.1255   9.4545041853e+01   2.4587617131e+00    0.2424413    0.1611573 -47.16  0.001413205    2.215    0.549
       163  -8.0082    205.3660    192.1410   9.7398893360e+01   5.9403743074e+00    0.1496982     0.112339 -44.70 0.0005262739    1.698    0.411
       164  -8.1337    199.0471    191.8431   9.8427344929e+01   7.0651562945e+00     0.173688    0.1533571  53.31 0.0005857464    1.301    0.231
       165  -8.6025    178.9980    191.7023   1.0190694837e+02   1.0557035656e+01    0.1912446    0.1591991 -65.75 0.0006466658    1.592    0.372
       166  -8.4897    172.3560    191.7049   1.0309227159e+02   1.1707305320e+01    0.2411182    0.1844232  75.55 0.0009767396    1.769    0.435
       167  -9.1317    139.5796    190.7448   1.0894507652e+02   1.7436181256e+01     0.316387    0.2027078  73.01  0.001029398    2.087    0.521
       168 -10.4830     92.2622    188.7857   1.1761619664e+02   2.5141396563e+01    0.8442494    0.2199361  51.49  0.003148459    3.887    0.743
       169  -8.1801    148.5157    189.3372   1.0708353954e+02   1.6162876450e+01    0.1969625    0.1601588  84.41 0.0007194718    1.442    0.307
       170  -9.0383    129.2590    188.7887   1.1060816631e+02   1.9459146083e+01    0.2697911    0.1868819  75.68 0.0009970162    1.689    0.408
       171  -8.3740    237.2132    188.5405   9.1537145931e+01   1.0045737626e+00    0.2038789    0.1482591 -18.53 0.0006498979    1.394    0.283
       172  -8.7919    216.5870    188.1256   9.4823590119e+01   4.5187622483e+00    0.2025429     0.180345  55.03 0.0007527624    1.425    0.298
       173  -8.8539    191.6344    187.7035   9.9023182244e+01   8.9094344795e+00    0.2753245    0.2225561  83.98   0.00110804    1.882    0.469
       174  -9.2929    156.0098    187.6758   1.0544785952e+02   1.5143897188e+01    0.2849063    0.1958764 -64.61 0.0008199378    1.893    0.472
       175  -9.9162    120.9188    186.8129   1.1192391733e+02   2.1143770689e+01    0.4493559     0.249795 -78.55  0.002164074    2.750    0.636
       176  -8.8253     34.3408    188.1832   1.2834082596e+02   3.2455726399e+01     0.273341    0.1274039  78.94  0.001123664    2.000    0.500
       177  -9.2156     54.6091    186.7135   1.2450916510e+02   3.0463295523e+01    0.3758562    0.1755893  79.59  0.001586623    2.402    0.584
       178  -9.0362    249.2720    185.2775   8.9058694656e+01  -6.0247745322e-01    0.2827601     0.150518 -28.51  0.001038075    1.927    0.481
       179  -8.0308    230.5324    187.5170   9.2425696236e+01   2.2290511861e+00    0.1202451    0.1000976  20.36  6.61789e-05    1.060    0.057
       180  -8.7916    164.8334    186.8186   1.0369062323e+02   1.3744719569e+01    0.2465166     0.194295  78.02  0.001073369    1.621    0.383
       181  -9.1927    109.5884    186.1277   1.1400044377e+02   2.3043449740e+01    0.3310095    0.1947269  70.68  0.001168116    2.007    0.502
       182  -9.0991     66.5342    184.5547   1.2207208657e+02   2.9404800655e+01    0.3004199    0.1624546  75.72  0.001034745    1.907    0.476
       183  -8.9553    210.2128    184.4873   9.5258873360e+01   6.0786667736e+00    0.2026858    0.1623067 -20.34  0.000477253    1.332    0.249
       184  -8.7991    202.7711    184.8994   9.6605962445e+01   7.3299700444e+00    0.1949097    0.1739066 -59.75 0.0007217757    1.526    0.345
       185  -8.5438    182.9253    184.9005   1.0009835065e+02   1.0840782126e+01    0.1958016    0.1724793 -54.76 0.0006660131    1.396    0.284
       186  -8.5288    224.1557    183.7240   9.2787701390e+01   3.7580870537e+00    0.1912671    0.1567477 -29.81 0.0005812708    1.406    0.289
       187  -9.0637    174.2625    183.5319   1.0143696488e+02   1.2580411429e+01    0.2586205    0.2029532 -89.69  0.001004952    1.856    0.461
       188  -8.0630    196.9962    183.0981   9.7297111122e+01   8.5938483776e+00    0.2290996    0.1664601 -16.43  0.001361816    1.580    0.367
       189  -9.0465     44.5426    182.4887   1.2605219179e+02   3.2423430281e+01    0.3142135    0.1504109  67.73  0.001181664    1.941    0.485
       190  -8.6559     19.7008    182.9080   1.3065755429e+02   3.4911389717e+01    0.2371206   0.08444345  76.21  0.001144719    2.977    0.664
       191  -7.9392      1.7624    183.6329   1.3387508200e+02   3.6380139086e+01    0.1391099   0.06571547  51.24  0.000943455    1.705    0.414
       192  -9.1801    147.5428    180.7670   1.0597751037e+02   1.7726294473e+01     0.298792     0.216885  85.46  0.001037244    1.857    0.461
       193  -9.5820     25.5877    178.8977   1.2933542143e+02   3.5104434162e+01    0.5721127    0.1889285  77.67  0.002311224    4.248    0.765
       194  -7.4492    235.3068    181.6467   9.0594273304e+01   2.1060648688e+00    0.1065344   0.09909708 -72.85  0.000704224    1.715    0.417
       195  -8.5072    137.9753    179.6290   1.0763772927e+02   1.9566063451e+01    0.2596754    0.1756126  83.37  0.001368745    2.066    0.516
       196  -9.4581    191.5904    178.4416   9.7437514260e+01   1.0214839623e+01    0.2683651    0.2242611  66.91 0.0006803731    1.491    0.329
       197  -8.8724    240.8255    181.7606   8.9734909674e+01   1.1677927143e+00    0.2669051    0.1810533 -42.84   0.00156877    2.025    0.506
       198  -9.1099     35.7529    176.6331   1.2726815307e+02   3.4505784967e+01    0.4350196    0.1619445  78.96  0.001872698    3.579    0.721
       199  -9.8503    248.4867    176.6189   8.7571611788e+01   4.7145797266e-01    0.3745413    0.2331583 -37.71  0.002158493    1.951    0.488
       200  -8.6879    250.4991    172.9202   8.6553548157e+01   5.5031059382e-01    0.1967796    0.1517854 -10.61 0.0005814279    1.200    0.166
       201  -8.7761    217.6599    177.1146   9.2665308491e+01   5.7141087965e+00    0.2898116     0.153705 -44.10  0.001432449    2.434    0.589
       202  -8.6732    205.0558    177.5460   9.4903717682e+01   7.9086844015e+00    0.2132074    0.1744372 -48.44 0.0006543873    1.559    0.359
       203  -8.6665    129.1326    177.3693   1.0902033357e+02   2.1456792716e+01    0.2532066    0.1704189  79.87 0.0008490288    1.910    0.477
       204  -8.5419    231.0904    176.9286   9.0401610711e+01   3.3845566378e+00    0.2042479    0.1614045 -19.97 0.0007691056    1.299    0.230
       205  -9.0679    183.1690    176.3252   9.8584463000e+01   1.2054246561e+01    0.2162986    0.2006181  81.37 0.0004812445    1.312    0.238
       206  -9.3308    158.9802    175.2754   1.0291707785e+02   1.6610901473e+01    0.3712642    0.2413891  75.60  0.001279593    2.475    0.596
       207  -9.5669    104.5843    174.9834   1.1354648011e+02   2.5857722503e+01    0.4806964    0.2398742  69.64  0.002030259    3.110    0.678
       208  -8.0280     97.7970    177.1983   1.1518238492e+02   2.6472927802e+01    0.1479074    0.1433875  47.77 0.0004673854    1.329    0.248
       209  -9.0583     88.9791    176.8593   1.1689051069e+02   2.7830209671e+01    0.2476408    0.1573854  78.87 0.0009089943    1.655    0.396
       210  -9.9789     57.2867    173.2998   1.2280272760e+02   3.2723299527e+01     0.723711    0.2926402  78.17  0.002738853    4.390    0.772
       211  -8.6405     12.9213    176.9203   1.3155253046e+02   3.6675717866e+01    0.2288027    0.1066239  68.26  0.001350927    1.743    0.426
       212  -7.6146    211.4785    176.4797   9.3599842648e+01   6.8983022482e+00    0.1254381     0.109582  25.36 0.0008091856    1.062    0.058
       213 -10.7141     75.8108    169.9005   1.1872760456e+02   3.1022037055e+01     1.063743    0.3801855 -77.16  0.003803938    4.572    0.781
       214  -9.0247    241.1015    172.7105   8.7988090570e+01   2.1628426560e+00    0.2823373    0.1671607 -28.74 0.0009184526    1.716    0.417
       215  -8.5810    224.6050    174.1939   9.0955632791e+01   4.8554672815e+00    0.1754981      0.15083 -34.83 0.0007134922    1.408    0.290
       216  -9.4716    175.7291    172.3519   9.9255174736e+01   1.4025367413e+01     0.283061    0.2187327 -46.57  0.001155379    1.472    0.321
       217  -8.2631    143.0011    172.9190   1.0561927892e+02   1.9854704944e+01    0.2039789    0.1461906  75.93  0.000795736    1.730    0.422
       218  -8.5173    134.8558    172.0790   1.0709087402e+02   2.1423356351e+01    0.2006028    0.1593975  75.91  0.000714612    1.340    0.254
       219  -9.4865    121.4556    170.5910   1.0954102852e+02   2.3968872848e+01    0.3340521     0.220414 -88.06  0.001097984    1.980    0.495
       220  -9.1313     44.9616    170.8424   1.2501868312e+02   3.4644501687e+01    0.3690307    0.1699347  87.63  0.001426687    2.275    0.560
       221  -8.3455    205.6541    170.1180   9.3422956394e+01   8.8193885134e+00    0.2502857    0.1498103 -45.32 0.0009946667    2.051    0.512
       222  -9.6204    241.2222    166.0837   8.6677679482e+01   2.9287875466e+00    0.4329717    0.3112585 -66.19  0.001320168    3.179    0.685
       223  -8.1812    237.1331    169.6082   8.8024245130e+01   3.2183276734e+00    0.1948011    0.1597587 -26.47 0.0006434829    1.344    0.256
       224  -8.9763    229.9693    169.5451   8.9178670415e+01   4.4876920601e+00    0.3194108    0.1730875 -37.83  0.001643266    2.069    0.517
       225  -8.2962    198.5306    170.2044   9.4699429610e+01   1.0123451238e+01    0.1964616    0.1688093  60.67 0.0006480286    1.380    0.275
       226  -9.0983    167.2047    168.7940   1.0023305255e+02   1.6169677487e+01    0.3123696    0.2217202  69.70  0.001018562    1.836    0.455
       227  -8.6424    149.7417    169.3888   1.0371802321e+02   1.9265981701e+01    0.2608382    0.1947051 -69.65  0.001022692    1.634    0.388
       228  -8.4895     88.7835    168.7050   1.1593393658e+02   2.9438067950e+01    0.2290462    0.1368456  83.00 0.0009365644    1.963    0.491
       229  -8.2762    218.8136    168.2448   9.0792119474e+01   6.6615656634e+00    0.1772295    0.1640181  27.84 0.0004741064    1.186    0.157
       230  -8.8842    111.6019    167.4650   1.1108242934e+02   2.6174404390e+01    0.2785369    0.1755658  79.31  0.001270071    2.024    0.506
       231  -8.8016    191.9210    166.6132   9.5215593483e+01   1.1883732661e+01    0.2259886    0.1887615 -44.55 0.0005830621    1.381    0.276
       232  -8.7294    184.9387    166.6910   9.6512715566e+01   1.3186256718e+01    0.2322573    0.1889468 -50.92 0.0006652544    1.453    0.312
       233 -10.0391     95.0058    162.7088   1.1385211152e+02   2.9703216421e+01     0.800207    0.4444815  88.13   0.00320355    2.585    0.613
       234  -9.2370     20.6275    166.0975   1.2943611300e+02   3.8084318368e+01    0.3579024    0.1315017  65.44  0.001695606    2.685    0.628
       235  -9.9152    136.8586    164.3739   1.0544634133e+02   2.2463746382e+01    0.5895938    0.3160997  60.68  0.002386702    2.268    0.559
       236  -8.2977    233.9041    165.0974   8.7662513622e+01   4.3426016906e+00    0.1760703    0.1673501 -23.48 0.0005946597    1.341    0.254
       237  -8.9304    159.4146    164.4808   1.0097053365e+02   1.8336465290e+01    0.2560107    0.2118308 -89.86 0.0007480787    1.484    0.326
       238  -8.6409     57.5101    163.8495   1.2182236886e+02   3.4589413977e+01    0.3286299    0.2056698  18.55  0.001724556    2.981    0.664
       239  -8.6738     60.6734    160.3284   1.2078931751e+02   3.4921764670e+01    0.3026736    0.1614792  74.13  0.001123844    2.026    0.506
       240  -9.6831     33.5172    163.3035   1.2667279372e+02   3.7384995941e+01     0.501609    0.1689261  59.79  0.002233663    3.122    0.680
       241  -9.1235    246.0641    162.9661   8.5290512772e+01   2.4567617090e+00    0.2289001     0.161686 -21.91 0.0005503065    1.364    0.267
       242  -8.5991    212.8940    163.5505   9.0891426991e+01   8.3872466420e+00    0.2284562    0.1794363 -33.75 0.0005821159    1.386    0.278
       243  -8.5706    204.9287    162.7283   9.2126637884e+01   9.9989593177e+00    0.2297411    0.1864752 -40.28 0.0006736403    1.405    0.288
       244  -9.6886      3.7124    162.4709   1.3249168946e+02   4.0276409454e+01    0.3652345    0.1212039  55.81  0.001984113    2.491    0.599
       245  -8.8793    151.7679    161.1707   1.0189094762e+02   2.0332297069e+01     0.276962    0.1997189 -76.76 0.0008193787    1.877    0.467
       246  -9.1077    177.5051    160.5782   9.6753277656e+01   1.5563967059e+01    0.2535133    0.2249154  88.04  0.000817684    1.387    0.279
       247  -9.8874    250.1756    157.8738   8.3617396494e+01   2.3450210634e+00    0.3241479    0.1652102 -26.29 0.0006981543    1.873    0.466
       248  -7.8851    242.4299    160.4662   8.5361274197e+01   3.3969253682e+00    0.1271933    0.1068865   8.04 0.0001751397    1.026    0.026
       249  -8.6913    227.4507    159.1324   8.7530009206e+01   6.2784019430e+00    0.2671428    0.1891471 -48.91  0.001076065    1.933    0.483
       250  -9.7318    105.8921    158.0156   1.1086937913e+02   2.8940942747e+01     0.455646     0.284329  85.96  0.001344295    2.100    0.524
       251  -8.3571    236.9893    158.9858   8.5933276950e+01   4.5545067548e+00    0.1788969    0.1590484 -58.18 0.0005989121    1.649    0.394
       252  -8.3301    128.2384    159.1352   1.0634102835e+02   2.4961120781e+01    0.2498769    0.1555608  68.01  0.000868683    1.989    0.497
       253  -8.2689    245.2710    158.6590   8.4544244257e+01   3.1135717360e+00    0.1137725   0.09853559 -47.04 0.0003044006    1.608    0.378
       254  -8.5321    196.6007    158.0603   9.2699990275e+01   1.2277793604e+01    0.2119775    0.1791206  53.09  0.000610074    1.272    0.214
       255  -8.1978    188.1547    157.8838   9.4222522216e+01   1.3939436334e+01    0.2228868    0.1541515 -45.91 0.0005465033    1.637    0.389
       256  -9.1614    167.6038    157.3342   9.8044918963e+01   1.8003933165e+01    0.3024271     0.233808  84.20  0.001210949    1.775    0.437
       257  -8.5195     79.2809    158.5747   1.1663323410e+02   3.2829465575e+01    0.1917961    0.1214497  29.43   0.00102999    2.110    0.526
       258  -9.4669     81.5160    154.7883   1.1565349396e+02   3.3295917367e+01    0.4020219     0.225525  77.71  0.001232293    2.237    0.553
       259  -8.5377    217.9907    156.5843   8.8611540935e+01   8.3917496909e+00    0.2413809     0.174192 -44.83 0.0008223301    1.684    0.406
       260  -9.2002    157.5717    155.9081   9.9762263072e+01   2.0171712276e+01    0.3375675    0.2158753 -55.51  0.001293886    1.805    0.446
       261  -9.4678    119.5678    155.3024   1.0752588909e+02   2.7205342243e+01    0.4182995    0.2598588 -80.35  0.001674889    2.196    0.545
       262  -8.1778    204.7350    155.3785   9.0689162586e+01   1.1104597151e+01    0.2263345    0.1548178 -43.51 0.0005901242    1.669    0.401
       263  -8.5998    144.8672    155.2446   1.0221889931e+02   2.2684114806e+01     0.280198    0.1911476  65.61  0.001001803    1.696    0.411
       264  -9.2905     49.6085    155.0957   1.2257751807e+02   3.7329723308e+01    0.3741577    0.1838788  68.86  0.001531952    2.171    0.539
       265  -8.7422     33.8646    156.4695   1.2602973857e+02   3.8749469892e+01     0.268687    0.1048476  34.71   0.00137596    2.789    0.641
       266  -9.4788    242.5312    149.8146   8.3139603967e+01   4.7033639615e+00    0.4166494    0.2232949  44.58   0.00200986    1.830    0.454
       267  -8.6109    237.4279    150.4913   8.4100070772e+01   5.5577997229e+00    0.2002342    0.1202217  43.26 5.594708e-05    1.619    0.382
       268  -8.7959    242.6800    155.2850   8.4260787841e+01   3.9903817441e+00    0.2017291    0.1737769  37.43 0.0004958562    1.277    0.217
       269  -8.2877    239.7240    153.3408   8.4328611131e+01   4.7705519922e+00    0.1897665    0.1533486  30.79 0.0004458226    1.175    0.149
       270 -10.0044    133.1835    151.7019   1.0401289588e+02   2.5500021095e+01    0.6366608    0.3382556 -54.19   0.00190284    1.997    0.499
       271  -9.4045     68.1356    153.8435   1.1844047537e+02   3.5318342591e+01    0.3972737    0.2136992  74.83  0.001312271    2.183    0.542
       272  -7.8403    232.6303    154.1844   8.5655745904e+01   5.9679034093e+00     0.175005    0.1139822 -15.63 0.0003899506    1.549    0.354
       273  -8.3655    151.8161    152.8484   1.0034923687e+02   2.1815656931e+01    0.1835358     0.156744 -87.10 0.0006357718    1.338    0.253
       274  -9.3327     20.1581    152.8960   1.2859115754e+02   4.0809071383e+01    0.1804299    0.1107345  73.13 0.0006019725    1.333    0.250
       275  -8.3455      8.9470    153.5166   1.3093389387e+02   4.1650481172e+01     0.143196   0.09565096  44.94  0.001029441    1.582    0.368
       276  -9.5975     29.3733    150.6689   1.2647405660e+02   4.0406383692e+01    0.4490271    0.1749435  71.00  0.001991846    3.133    0.681
       277  -9.0989      2.6366    150.9391   1.3205500340e+02   4.2679702707e+01    0.2769749    0.1015396 -81.31  0.001506393    2.102    0.524
       278  -8.2034    250.5019    140.9516   7.9989652971e+01   4.3557461829e+00    0.1872255    0.1523589  -6.29 0.0005150867    1.067    0.063
       279  -9.5603    248.8643    149.4370   8.2065575949e+01   3.5993105007e+00    0.3204559    0.1873183 -22.56 0.0008772342    1.611    0.379
       280  -9.0678    246.9873    143.8382   8.1159938356e+01   4.6397658025e+00    0.2735078    0.1708277 -24.00 0.0005071408    1.493    0.330
       281  -9.0336    189.4096    150.1999   9.2434324529e+01   1.4908676409e+01    0.2967847    0.2350495 -61.46 0.0008362139    1.639    0.390
       282  -8.1680    182.4034    151.2370   9.3974930621e+01   1.6131035804e+01    0.1792484    0.1289494 -49.67 0.0005444671    1.590    0.371
       283  -8.3926    162.6421    150.7208   9.7744951721e+01   2.0110289091e+01     0.263781    0.1928755 -89.52  0.001053008    2.049    0.512
       284  -9.0348     97.6248    150.7595   1.1154728256e+02   3.1725888674e+01    0.3394735    0.2068194  52.33  0.001316764    1.570    0.363
       285  -8.2007    212.9922    149.9948   8.8109572867e+01   1.0284609007e+01    0.1889067    0.1663006 -70.11 0.0003767448    1.580    0.367
       286  -9.8155     39.8390    147.3351   1.2390055963e+02   4.0046863017e+01    0.5730142    0.2759575  86.65  0.002375702    2.151    0.535
       287  -8.3714    198.8928    148.9263   9.0409898685e+01   1.3222980613e+01    0.1991168    0.1686724 -83.22 0.0005519119    1.672    0.402
       288  -9.9662     89.1217    146.2236   1.1274331502e+02   3.3977708797e+01    0.5922524    0.3131213  86.00  0.002371653    3.215    0.689
       289  -9.4007    233.6855    147.4898   8.4070464646e+01   6.6513516827e+00    0.2576801    0.1906483  -7.67 0.0007810827    1.301    0.232
       290 -10.3569     54.7283    144.2558   1.2024638583e+02   3.9033649074e+01    0.8196203    0.3699784  78.31  0.002985556    3.393    0.705
       291  -8.1882    223.3006    146.9777   8.5690611393e+01   8.7080813777e+00    0.1840179    0.1592391 -12.29 0.0003952564    1.113    0.102
       292  -8.1514    206.7845    146.7383   8.8517477636e+01   1.1986440097e+01    0.1740275    0.1629594  79.42 0.0009335219    1.352    0.261
       293 -10.2703    149.0338    145.1050   9.9424678195e+01   2.3778751292e+01    0.5111648    0.3513892  88.26   0.00184107    2.270    0.560
       294  -8.8888    150.6424    136.6963   9.7366124514e+01   2.5051596357e+01    0.5049825    0.3157665  18.58  0.002037401    2.799    0.643
       295  -9.9878    139.2365    145.0475   1.0148542461e+02   2.5661438800e+01    0.4538744    0.2928455 -75.47  0.001520368    2.247    0.555
       296  -9.3756    139.7848    137.5480   9.9879986577e+01   2.7015587867e+01    0.3622409    0.2580439  12.08  0.001670941    2.242    0.554
       297 -10.2806    106.7440    144.3415   1.0848003203e+02   3.1584790789e+01    0.6892533    0.4156334  88.70  0.002492674    2.464    0.594
       298  -9.2096     77.9800    146.9127   1.1534996711e+02   3.5449554099e+01    0.2712314    0.1776298  85.64 0.0009521372    1.591    0.371
       299  -9.5758     13.2721    146.1375   1.2953520634e+02   4.2816116862e+01    0.3580641    0.1479953  62.28  0.001485084    2.273    0.560
       300  -9.0959    240.2083    145.2487   8.2534157023e+01   5.7185438485e+00    0.2251435    0.1762947   6.67 0.0005637194    1.165    0.141
       301  -9.5635    242.6736    143.3298   8.1726934335e+01   5.5055430367e+00    0.1973024    0.1723015 -23.30 0.0007906209    1.228    0.186
       302  -8.2102    175.4304    146.2635   9.4302718747e+01   1.8352474488e+01     0.181356    0.1317171 -52.25 0.0006486017    1.569    0.363
       303 -10.9980     69.4604    141.6097   1.1654566194e+02   3.7751505544e+01     0.932557    0.4780368 -75.91  0.004598883    1.972    0.493
       304  -9.8425    125.0601    142.7076   1.0411565145e+02   2.8741680714e+01    0.5203528    0.3309884 -88.84  0.001843763    2.451    0.592
       305  -8.9918    165.5230    143.7902   9.5762884327e+01   2.0769923659e+01    0.2552373    0.2233878 -78.27 0.0007385949    1.338    0.252
       306  -8.6235    229.5817    142.3347   8.3630876100e+01   8.1323307092e+00    0.2301012    0.1982275  38.18 0.0008244973    1.211    0.174
       307  -7.8189    194.3006    143.6741   9.0141208849e+01   1.4968034817e+01     0.132397     0.111529 -79.63 0.0002549325    1.637    0.389
       308  -9.5480      2.6634    141.7522   1.3148562766e+02   4.4573034307e+01    0.3485599    0.1384147  71.42  0.001395276    2.366    0.577
       309  -8.3217    181.9394    141.9135   9.2113678228e+01   1.7772659237e+01    0.2088901    0.1721743 -88.81  0.000597609    1.640    0.390
       310  -9.8720     23.3989    138.1512   1.2667479926e+02   4.3629956792e+01    0.4966561     0.209611  72.56  0.002111262    2.656    0.624
       311  -8.7265    172.3361    138.3361   9.3234379160e+01   2.0354863228e+01    0.3073392    0.2304555 -74.64  0.001082509    1.889    0.471
       312  -7.7378    218.5262    138.5465   8.4663872869e+01   1.0849543283e+01    0.1361421    0.1247471   6.99 8.408111e-05    1.050    0.048
       313  -8.2119    207.4891    137.5922   8.6391714495e+01   1.3229683694e+01    0.2334102    0.1232268 -44.28 0.0007627155    2.152    0.535
       314  -8.7077    197.5223    137.6210   8.8215862039e+01   1.5274436503e+01    0.2523062    0.2218307 -62.55 0.0008882917    1.405    0.288
       315 -10.3967     83.3398    133.0792   1.1199811063e+02   3.7668380177e+01    0.6044396    0.3294645 -66.75  0.001815153    1.756    0.431
       316  -9.0224     84.8573    122.7333   1.0982956223e+02   3.9729382123e+01    0.3660294    0.2404546  16.66   0.00169748    2.662    0.624
       317  -8.2994    162.6547    136.3863   9.4781297431e+01   2.2686877169e+01    0.2422164      0.16808 -55.13 0.0007135404    1.623    0.384
       318  -9.5926     39.1362    135.7367   1.2283276677e+02   4.2626571377e+01    0.3977308    0.1863366 -81.29  0.001792177    1.957    0.489
       319  -8.9998    248.3701    135.3947   7.9091736958e+01   5.4578097037e+00    0.2624262      0.19312 -27.18  0.000715945    1.302    0.232
       320  -8.5957    246.8466    130.3612   7.8193574796e+01   6.4000865942e+00     0.244727    0.1650161 -36.66 0.0006321225    1.545    0.353
       321  -8.0191    187.7924    135.9878   8.9686154301e+01   1.7558850767e+01    0.1850613     0.112049 -36.02 0.0004978741    1.689    0.408
       322  -8.3737     57.0375    135.5097   1.1861104470e+02   4.0662694613e+01     0.175689    0.1171866  42.91  0.001036403    1.601    0.375
       323  -8.0664    237.5413    133.7765   8.0428642678e+01   7.7485740511e+00    0.1842569    0.1180946 -37.84 0.0009343064    1.640    0.390
       324  -9.1481    112.7783    133.3016   1.0510623062e+02   3.2865137383e+01    0.3247493     0.221162  86.48   0.00113279    1.905    0.475
       325  -8.5614    179.3250    133.8568   9.0855828369e+01   1.9688651710e+01    0.2564974     0.207439 -63.79 0.0007409081    1.515    0.340
       326  -9.2560    143.0719    131.6851   9.7935753920e+01   2.7524675503e+01    0.3195583    0.2214853 -62.16 0.0007537948    1.635    0.389
       327 -10.1827    131.1574    118.9124   9.7800661552e+01   3.2457559518e+01    0.5722122    0.3743519  86.33  0.002053599    2.539    0.606
       328 -10.0269    132.1160    131.3452   1.0029700557e+02   2.9725251611e+01    0.4896583    0.3230707 -77.17   0.00114609    2.122    0.529
       329 -10.4360     98.0992    130.0732   1.0794940339e+02   3.6035986138e+01    0.6483641    0.2659252 -59.08  0.001864081    2.401    0.583
       330  -9.2323    250.6638    129.7406   7.7470337266e+01   5.7512022816e+00    0.4456978    0.1121498 -29.36  0.001474246    3.634    0.725
       331 -10.2227     73.3807    128.5367   1.1366074654e+02   4.0093313343e+01    0.5998716    0.2951245 -66.23  0.002187745    1.878    0.468
       332 -10.0662     12.8235    129.0355   1.2828626716e+02   4.6499556119e+01    0.4984897    0.2120205  82.28  0.002420495    2.335    0.572
       333  -8.0993    220.6314    129.7766   8.2310598884e+01   1.1704271346e+01    0.1892636    0.1231434 -37.30 0.0004955733    1.564    0.361
       334  -7.8755    204.5329    130.4939   8.5310625977e+01   1.4943743867e+01    0.1385572    0.1335905  -1.35 0.0003670339    1.091    0.083
       335  -8.2415    192.6870    130.1444   8.7425376889e+01   1.7500834056e+01    0.2168431     0.173656 -51.29  0.000553022    1.425    0.298
       336  -9.1777    168.3279    129.3893   9.2059272507e+01   2.2789077685e+01    0.3052698    0.2354932 -63.18 0.0008152273    1.558    0.358
       337  -9.6919    153.0349    128.1810   9.5001882142e+01   2.6195792418e+01    0.6334392    0.2273984 -44.38  0.002033757    2.826    0.646
       338  -8.0693      1.4227    130.1890   1.3098015760e+02   4.7103578745e+01    0.1571472   0.07777559  87.66 0.0005390319    1.589    0.371
       339  -7.8550    211.4446    129.1825   8.3768570671e+01   1.3698557695e+01    0.1908619    0.1269173 -43.84 0.0005175992    1.657    0.397
       340 -10.7020     44.8319    123.5367   1.1997463664e+02   4.4731677267e+01     1.014928    0.4484124  77.34  0.003850461    3.851    0.740
       341 -10.0423    118.0464    125.3901   1.0229158751e+02   3.3592345067e+01    0.5492936    0.3533455 -88.99  0.001623478    2.393    0.582
       342 -10.4473     59.9254    125.1698   1.1645158366e+02   4.2610262075e+01     0.682702    0.3522283  81.72  0.002576868    2.767    0.639
       343  -8.8907     58.8335    115.7430   1.1525123550e+02   4.4879929499e+01    0.3474361    0.2187817 -31.24  0.001494932    2.683    0.627
       344  -8.0090    228.4468    125.5090   8.0004385704e+01   1.0718882447e+01     0.139175    0.1252944  -3.93 0.0002001138    1.037    0.036
       345  -8.8960    179.1652    124.8611   8.8815822593e+01   2.1292922588e+01    0.2784795    0.2400571  64.27 0.0008145084    1.283    0.221
       346 -10.1848     28.3968    122.5474   1.2392349833e+02   4.6598107386e+01    0.6020283    0.2612593  75.58  0.002411426    3.006    0.667
       347  -9.1052     26.2197    114.6358   1.2355395736e+02   4.8569542868e+01    0.2853628    0.1798362 -27.09  0.001539507    2.830    0.647
       348  -8.0277    188.4977    124.0233   8.6788927990e+01   1.9423466197e+01    0.2149318    0.1402557 -36.99  0.000457542    1.533    0.348
       349  -9.5524    158.6216    121.7217   9.2315738576e+01   2.6264501489e+01    0.3475965    0.2608873 -88.81  0.001028776    1.873    0.466
       350  -8.6231    172.0824    121.6892   8.9490949705e+01   2.3387403457e+01     0.244249    0.1948641 -51.10 0.0004799177    1.337    0.252
       351 -10.2006    141.6148    117.7178   9.5118327119e+01   3.0598882286e+01    0.7449328    0.3310395 -46.39   0.00159955    2.236    0.553
       352  -9.6040     71.1087    119.4892   1.1271803262e+02   4.2435105608e+01    0.4722525    0.2133019 -69.27  0.001590533    2.240    0.554
       353  -9.5912      2.7852    117.2414   1.2967470730e+02   4.9808597982e+01    0.4697575    0.1906568  81.51  0.002337717    2.424    0.588
       354  -7.5393    231.5500    117.5506   7.7605546211e+01   1.1216158707e+01    0.1393858    0.1269779 -12.27 0.0001030354    1.074    0.069
       355  -8.2737    185.5165    116.4575   8.5528648962e+01   2.1373201189e+01    0.2906201    0.1425464 -36.59  0.001167654    2.019    0.505
       356  -7.5940    203.0000    121.9848   8.3580882583e+01   1.6622130319e+01    0.2276376   0.07987825 -34.27 0.0003705425    2.810    0.644
       357  -9.9205    109.2370    114.3432   1.0204693504e+02   3.7558279201e+01    0.5210477    0.3295174 -83.96  0.001517602    2.386    0.581
       358  -8.9720    109.1870    107.4875   1.0049691530e+02   3.9061269122e+01    0.4330092    0.3137629  11.81   0.00199712    2.220    0.550
       359  -7.2838    219.2906    116.6546   7.9416803975e+01   1.3939918740e+01    0.1411005    0.1107363 -58.57  0.000474696    1.658    0.397
       360  -8.1676    193.1662    115.2604   8.3760464404e+01   1.9881247698e+01    0.1959681    0.1713318 -62.31 0.0005138675    1.346    0.257
       361  -8.4773    167.4098    114.7226   8.8758530995e+01   2.5683148493e+01     0.201409    0.1416044 -28.69 0.0009380989    1.525    0.344
       362  -7.9756    194.8826    121.8754   8.5058111719e+01   1.8399380394e+01     0.194093    0.1697002 -54.68 0.0004268442    1.306    0.234
       363 -10.1093     92.7117    112.5535   1.0584203820e+02   4.0774592977e+01    0.4899061    0.2966301 -75.05  0.001351679    1.975    0.494
       364  -8.8934     92.2310    106.1531   1.0458718050e+02   4.2285859229e+01    0.6970017    0.4500889 -10.15  0.002559183    4.024    0.752
       365 -10.0964     78.6659    112.2246   1.0942779400e+02   4.3013349490e+01    0.6128721    0.3438644 -83.48  0.001992531    2.494    0.599
       366  -8.8562     78.7485    105.0348   1.0795451658e+02   4.4635444974e+01    0.2718841    0.1887184  22.15  0.001033907    2.041    0.510
       367  -8.7258    174.8850    112.0263   8.6538368196e+01   2.4521631624e+01    0.3045688    0.2000295 -56.84 0.0005574345    1.878    0.467
       368 -10.4862    133.5880    109.1787   9.4916606837e+01   3.3981912087e+01     1.072175    0.3106767 -51.00  0.003109212    3.990    0.749
       369 -10.2289    128.4608    102.1730   9.4381016036e+01   3.6481173819e+01    0.4629511    0.2963992 -50.61  0.001432345    1.522    0.343
       370 -10.0129    122.2072    112.5725   9.8459748978e+01   3.5528136034e+01    0.4535321    0.3021962 -81.33  0.001474979    2.183    0.542
       371  -9.6650    119.8225    106.0674   9.7485749611e+01   3.7372328558e+01    0.3877551    0.2865028  20.55  0.001846628    1.865    0.464
       372 -10.0292     14.0696    111.1681   1.2628590651e+02   5.0345800169e+01     0.413562    0.1904579  72.08   0.00196345    2.410    0.585
       373  -7.5437    199.7115    112.3058   8.1798070977e+01   1.8914888539e+01    0.1422698     0.116028 -66.24  0.000260639    1.570    0.363
       374  -8.5257    159.2249    111.7687   8.9760454741e+01   2.8032023635e+01    0.2528875     0.190957 -51.39 0.0004607207    1.376    0.273
       375 -10.2771     66.1577    109.7018   1.1226656355e+02   4.5327338739e+01    0.5752976     0.279092 -67.33  0.002037537    1.920    0.479
       376 -11.1057    248.3637    105.4889   7.2088616266e+01   9.4120060471e+00    0.7910104    0.2826636 -30.94  0.003046904    2.441    0.590
       377  -9.4795    139.9803    104.6876   9.2280139151e+01   3.3572761650e+01    0.3863204    0.2733423 -74.56   0.00088789    1.920    0.479
       378 -10.5080     45.4931    102.3256   1.1662325956e+02   4.9501280022e+01    0.7009236    0.3587069  81.14  0.002992905    2.933    0.659
       379 -10.6275     22.9987    102.7998   1.2293018824e+02   5.1529862510e+01    0.7234638    0.3251008  75.61  0.003074669    3.051    0.672
       380  -8.4687    166.7410    104.4234   8.6261559257e+01   2.7746073583e+01    0.2897885    0.1863408 -54.42 0.0008738099    1.798    0.444
       381  -9.5246    150.6015    103.2270   8.9463755518e+01   3.1574874988e+01    0.4632799    0.2825192 -59.54  0.001255252    2.067    0.516
       382  -8.6823    150.7112     96.1619   8.7535238355e+01   3.2932132170e+01     0.491823    0.2944045 -15.51  0.001771328    2.867    0.651
       383 -10.6134    109.6212     99.2977   9.8394669337e+01   4.0766683072e+01    0.8017162    0.4330933  67.94  0.002172213    3.483    0.713
       384  -8.9989    107.5307     92.8440   9.7279993614e+01   4.2558774336e+01    0.5521272    0.3200523  24.78  0.002151512    2.868    0.651
       385  -7.9493    175.4471    102.2461   8.3880209940e+01   2.6159468075e+01    0.2105703    0.1391723 -47.16 0.0006171507    1.577    0.366
       386  -8.7536     65.4466     87.4991   1.0788408971e+02   5.0521540393e+01     0.446385     0.275674   1.29  0.001801978    3.717    0.731
       387  -9.1857     64.4785    101.5303   1.1116689392e+02   4.7423915331e+01    0.2402896    0.1786643 -59.23  0.001386955    1.189    0.159
       388 -10.1576     63.8086     95.8616   1.1020384581e+02   4.8816416874e+01    0.5889502    0.3338146 -88.01  0.001776304    2.599    0.615
       389  -8.1804    159.8387    101.1021   8.6855386950e+01   2.9929512837e+01    0.2308583    0.1987739 -65.79 0.0004506537    1.286    0.222
       390  -9.3123     82.0494    100.1074   1.0598741117e+02   4.5260528362e+01     0.334189    0.2250058 -82.02 0.0007958525    1.753    0.430
       391  -9.2486     95.0063     97.1609   1.0175073917e+02   4.3836186298e+01    0.3261239    0.2131919 -62.41 0.0007594625    1.501    0.334
       392  -7.4707    171.2910     95.6221   8.2932064159e+01   2.8319968585e+01    0.1597393    0.1181426 -66.35  0.000528655    1.738    0.425
       393  -8.1897    164.8557     94.1596   8.3874688598e+01   3.0085485835e+01    0.2331457    0.2023011 -63.00 0.0004930636    1.266    0.210
       394  -9.3494    139.2505     92.4827   8.9171100746e+01   3.6193400996e+01    0.4910303    0.3306984 -79.11  0.001175818    2.398    0.583
       395  -7.8254    133.6677     94.2748   9.1009907426e+01   3.7031687729e+01    0.1495712    0.1181014 -87.05 0.0002094052    1.598    0.374
       396 -10.4370    123.9138     91.4586   9.2648290591e+01   3.9648470731e+01    0.5697613    0.4801739  33.21   0.00149825    1.321    0.243
       397  -8.5387     43.0537    109.4588   1.1843108710e+02   4.8120649457e+01    0.2518653    0.1300764  11.76  0.001027338    4.385    0.772
       398  -7.6793    188.5330     93.4772   7.8918808477e+01   2.4640606613e+01    0.1522125    0.1450621 -14.40  0.000259493    1.002    0.002
       399  -7.8629    176.3961     93.2255   8.1223982046e+01   2.7553502137e+01    0.2208357    0.1360415 -45.84 0.0007582172    1.671    0.402
       400  -8.5188     45.9081     92.7592   1.1480387630e+02   5.1667055897e+01    0.2799982    0.1841813  12.14  0.001496176    2.373    0.579
       401  -9.3558      5.1510     92.2441   1.2661745062e+02   5.5218071754e+01    0.2944183    0.1438114  68.21   0.00120942    2.295    0.564
       402  -8.2826    157.8398     91.6360   8.4680495013e+01   3.2181213988e+01     0.247159     0.181593 -45.21 0.0005068111    1.344    0.256
       403  -9.6932     34.8294     90.0846   1.1761113765e+02   5.3406160755e+01     0.462092    0.2260268 -86.16  0.001593973    2.506    0.601
       404  -9.0604     22.8156     90.2814   1.2122107804e+02   5.4409535771e+01     0.229496    0.2082304 -30.89 0.0009504947    1.438    0.305
       405  -9.3523      6.7751    102.9412   1.2733584173e+02   5.2708703123e+01    0.3326184    0.1548874  80.45  0.001148281    2.180    0.541
       406  -8.6176    227.1069     87.3336   7.0627214724e+01   1.6575477622e+01    0.2642465    0.1863557 -17.24 0.0006955187    1.385    0.278
       407 -10.0889     86.4848     85.8897   1.0128841823e+02   4.7768602360e+01    0.6644403    0.3666224 -58.18   0.00142912    1.722    0.419
       408  -7.9998    163.8516     87.3422   8.2148558789e+01   3.1579281121e+01    0.2184558    0.1881407 -49.71 0.0005661384    1.180    0.153
       409  -9.9495     48.3792     83.9902   1.1230335615e+02   5.3421672287e+01    0.5280506    0.3049678 -84.75  0.001995322    2.147    0.534
       410  -7.8496    179.2291     85.3146   7.8410310219e+01   2.8267307368e+01    0.2463948    0.1095621 -43.57 0.0006900125    2.291    0.563
       411  -9.8208    104.9689     83.4687   9.5402604832e+01   4.5063858597e+01    0.4509158    0.3101877 -73.63  0.001150957    1.908    0.476
       412  -8.3812    157.8809     84.1233   8.2495603714e+01   3.3581234602e+01     0.231163    0.2041897 -60.87 0.0003772912    1.210    0.173
       413  -9.2392    140.8343     82.6991   8.5961801074e+01   3.7781950166e+01    0.3482166    0.2009059 -45.80 0.0008910889    1.694    0.410
       414  -9.6697     24.5867     80.4960   1.1908642037e+02   5.6513811276e+01    0.4474119    0.2317349  88.48  0.001487138    2.351    0.575
       415  -9.4762      9.8483     81.0463   1.2378929639e+02   5.7457795765e+01    0.3371737    0.1666372  64.27   0.00143506    2.538    0.606
       416  -8.5025    150.3343     80.9471   8.3228446446e+01   3.5943224972e+01    0.2654069    0.2167097 -79.82 0.0009024009    1.512    0.339
       417  -8.9855    119.4013     80.2349   9.0575639710e+01   4.2905490593e+01    0.3812735     0.242118 -51.42  0.001237742    1.555    0.357
       418  -8.9210     74.4899     80.3794   1.0339714640e+02   5.0866051748e+01    0.3181705    0.2029453 -72.77  0.001009781    1.830    0.454
       419  -8.1961    189.4426    108.0607   8.2643623139e+01   2.1938383663e+01    0.2248648    0.1420025 -36.10 0.0004606458    1.545    0.353
       420  -8.3184    166.7290     79.8917   7.9342710867e+01   3.2242010192e+01    0.2208999     0.190662 -38.47 0.0004151477    1.121    0.108
       421 -10.1221     63.6323     74.5193   1.0523714293e+02   5.3716121970e+01    0.7128133    0.3046816 -67.26   0.00257451    3.210    0.688
       422  -8.8820     64.3746     63.7621   1.0196798526e+02   5.6005451109e+01    0.4678622    0.2547092 -23.50  0.001742351    3.655    0.726
       423  -7.6213    184.4119     78.5015   7.5417684707e+01   2.8165602125e+01    0.1549542    0.1456176 -27.13 0.0001233821    1.022    0.022
       424  -9.6382    128.1962     74.8726   8.6663200081e+01   4.2123718901e+01    0.5859985    0.2427625 -42.44 0.0008335876    2.268    0.559
       425  -9.0000    105.7239     76.7971   9.3238497086e+01   4.6341326496e+01    0.3700603    0.2302298  27.98  0.001464069    2.200    0.545
       426  -9.0389    105.9947     71.8647   9.1643309890e+01   4.7320097139e+01    0.3671905    0.2209026 -58.64 0.0005231349    1.906    0.475
       427  -7.6240    157.2858     76.6367   8.0366069575e+01   3.5101068174e+01    0.1620918    0.1187943 -64.13 0.0007021191    1.689    0.408
       428  -8.6023    140.4937     75.5070   8.3843485388e+01   3.9250215704e+01     0.265801    0.2028075 -70.61 0.0005786303    1.651    0.394
       429  -8.5242    113.8366     76.3804   9.0886425490e+01   4.4834138698e+01    0.2023678    0.1972234   1.48 0.0003484669    1.100    0.091
       430  -9.1093    115.5104     72.9917   8.9381429935e+01   4.5187828313e+01    0.3870884    0.1903487 -41.52  0.001107474    1.900    0.474
       431  -8.4066    163.6125     73.4867   7.8037432684e+01   3.4135500953e+01    0.3000988    0.1783916 -38.34 0.0007193608    1.605    0.377
       432  -9.7895     82.2235     72.5642   9.8857017888e+01   5.1404090268e+01     0.435061    0.2670899 -66.36  0.001149448    1.927    0.481
       433  -8.2693    151.4531     73.0674   8.0543914886e+01   3.7145869491e+01     0.245897     0.147927 -36.31 0.0009363632    1.590    0.371
       434  -8.4146     42.6775     73.0134   1.1169641800e+02   5.6556537771e+01    0.1888779    0.1378569 -65.53 0.0005607738    1.134    0.118
       435  -7.8928    175.4986     72.5113   7.5326738327e+01   3.1375006501e+01    0.1561162    0.1490963 -15.73 -3.067495e-05    1.017    0.017
       436  -9.3545     95.0817     70.9550   9.4500231989e+01   4.9553815837e+01    0.4010315    0.2333927 -61.41  0.001049149    2.056    0.514
       437  -9.1441     29.4660     70.1866   1.1550267922e+02   5.8465570725e+01    0.4276475     0.210244 -31.60  0.001906656    3.185    0.686
       438  -9.4993     51.3756     69.5435   1.0794583459e+02   5.6379312855e+01    0.4402754    0.2411288 -77.06   0.00153741    2.482    0.597
       439  -8.8664     16.6616     70.1836   1.1983559000e+02   5.9471915336e+01    0.2598996    0.1592249  88.29 0.0009222223    1.723    0.420
       440  -8.0918    156.8005     69.9839   7.8387449827e+01   3.6415252477e+01    0.2146403    0.1196504 -34.22 0.0004157758    1.725    0.420
       441  -8.9016    147.1553     68.4287   8.0032689630e+01   3.9015521152e+01    0.2992062    0.2345376 -52.08 0.0006323964    1.334    0.250
       442  -8.0714    171.4969     67.5080   7.4557480526e+01   3.3213993788e+01    0.3471018    0.1502563 -15.46 0.0008106021    5.747    0.826
       443  -9.0991    138.4713     66.1064   8.1300659134e+01   4.1484722751e+01    0.3350354    0.2111347 -52.78 0.0009671167    1.773    0.436
       444  -8.8940    121.6188     66.1564   8.5541166163e+01   4.5259699256e+01    0.3235525    0.2280579 -59.92 0.0006173401    1.662    0.398
       445  -8.4868     84.3738     64.7888   9.5804447831e+01   5.2722792641e+01    0.2978143    0.1730352  15.41  0.001091915    3.590    0.721
       446  -8.8330     37.3192     64.1163   1.1139663349e+02   5.9117627398e+01    0.3102656    0.1833989 -87.67  0.001037447    2.380    0.580
       447  -9.0542    109.9979     63.5258   8.7801465119e+01   4.8213990549e+01    0.3309772    0.1983108 -45.88 0.0009775376    1.570    0.363
       448  -8.2872     95.4645     64.4856   9.2318357870e+01   5.0836550601e+01    0.1468331    0.1306711 -33.69 0.0001098867    1.073    0.068
       449  -7.8571    158.3200     62.1251   7.5513670197e+01   3.7408870675e+01    0.2269814    0.1307086 -41.67 0.0004350912    1.694    0.410
       450  -9.3513     97.6507     60.6435   9.0378090957e+01   5.1212528512e+01     0.314542    0.2685625  68.90 0.0009859053    1.411    0.291
       451  -9.7289     73.2576     59.4848   9.7666500023e+01   5.5631885456e+01    0.3966179    0.2382759 -61.45  0.001091035    1.839    0.456
       452  -7.9137     88.8843     59.7839   9.2749368247e+01   5.2989056149e+01     0.190852    0.1613277 -65.54 0.0007105999    1.294    0.227
       453  -8.9927    146.3133     58.9600   7.7072592211e+01   4.0900313321e+01    0.3827336    0.2425092  71.36  0.001560005    2.093    0.522
       454  -9.9789     23.4942     56.6309   1.1457872099e+02   6.2022157340e+01    0.4680378    0.2578531 -89.98  0.002225019    2.658    0.624
       455  -8.8153    130.7271     57.8728   8.0384784803e+01   4.4780329557e+01    0.2848484    0.1931947 -50.72 0.0005163482    1.573    0.364
       456  -9.6956      7.3987     57.2030   1.2067312166e+02   6.2993406967e+01    0.2725086    0.1711874 -88.36 0.0009691429    1.601    0.376
       457  -9.1324    119.0736     55.2793   8.2454344673e+01   4.7870590757e+01    0.4821963    0.2048791 -46.06  0.001308969    2.427    0.588
       458  -9.5608     54.2397     55.5963   1.0298158223e+02   5.9117283730e+01    0.3720336    0.2247212 -68.83  0.001177193    1.964    0.491
       459  -8.4807    140.0012     56.0588   7.7519280955e+01   4.2924183616e+01    0.2421891    0.1794119 -60.71 0.0004985824    1.617    0.382
       460  -8.6985     44.2070     55.6289   1.0663012916e+02   6.0290670267e+01    0.2521655    0.1778992 -80.11 0.0008064281    1.715    0.417
       461  -8.8155    127.5376     53.6839   7.9695336718e+01   4.6261670978e+01    0.2879874    0.2256083 -27.11 0.0008308354    1.235    0.191
       462  -8.7501    105.6768     53.3367   8.5447458935e+01   5.1064979959e+01    0.2917952    0.2280093 -70.85 0.0008566145    1.660    0.398
       463  -9.6259     92.3668     50.4673   8.8359372632e+01   5.4210216652e+01    0.5606408    0.2215158 -48.74  0.001753506    2.643    0.622
       464  -8.2958     92.7402     42.6293   8.5236688664e+01   5.5606992736e+01    0.2265845    0.1773154  14.06 0.0009680017    1.485    0.327
       465  -8.3364     73.9884     52.1943   9.4947893329e+01   5.7035975774e+01    0.2205714    0.1557071  -4.49  0.001071604    2.022    0.505
       466  -8.1846    144.5823     49.0400   7.3990249193e+01   4.2991023025e+01    0.2404993    0.1446384 -32.43 0.0004807131    1.581    0.367
       467  -8.3562    129.8168     49.5651   7.7632124490e+01   4.6451315617e+01     0.198523    0.1516219  70.90  0.000530249    1.592    0.372
       468  -7.1702    149.6904     48.7001   7.2754921639e+01   4.1777829211e+01     0.158505    0.1179825  18.63 0.0002283165    1.600    0.375
       469  -8.6493    120.8543     47.4769   7.9119977368e+01   4.8866846106e+01    0.2636518    0.1970441 -33.31 0.0004540104    1.252    0.201
       470  -8.4100    112.1712     46.9888   8.1254820676e+01   5.0865693192e+01    0.2266379    0.1895851 -52.61 0.0006009383    1.279    0.218
       471  -8.7731     82.0045     46.4958   9.0178060573e+01   5.6841772346e+01    0.2558647    0.1810309 -53.99   0.00057832    1.483    0.326
       472  -8.4926     45.1089     44.7344   1.0284750764e+02   6.2527265037e+01    0.2229812    0.1522863 -60.12 0.0005948927    1.387    0.279
       473  -8.8707     16.7928     44.9600   1.1425874627e+02   6.5099967081e+01    0.2159611    0.1424689 -77.46 0.0007402568    1.536    0.349
       474  -8.7926    132.9778     43.5637   7.4637887168e+01   4.6699167375e+01     0.301009    0.1967493 -47.41 0.0007593032    1.630    0.387
       475  -9.0441     58.1586     42.7700   9.7160721878e+01   6.1285533308e+01    0.3446291    0.1870815 -59.10  0.001134069    2.109    0.526
       476  -9.2243     69.6709     41.7647   9.2576112323e+01   5.9792580550e+01    0.3794015    0.2474992 -64.31  0.001117825    2.128    0.530
       477  -9.6552      5.1881     42.1751   1.1833880335e+02   6.6433622106e+01    0.3210302    0.1707309 -85.36  0.001221352    2.214    0.548
       478  -8.7906    105.9188     40.9110   8.0633532371e+01   5.3256586961e+01    0.3676141    0.1723714 -37.03  0.001218756    1.951    0.487
       479  -7.9385    140.2641     41.6487   7.2246354638e+01   4.5229328612e+01    0.1572997    0.1133023 -55.54 0.0002906558    1.617    0.381
       480  -8.4691     36.6055     40.7937   1.0489228552e+02   6.4278609567e+01    0.2285496    0.1670804 -74.17 0.0007880875    1.629    0.386
       481  -8.7978    222.5337     38.5105   5.7498785055e+01   2.4401476735e+01    0.3130725    0.1357076 -25.81  0.001090408    2.129    0.530
       482  -7.3398    160.3587     39.6973   6.7388168522e+01   4.0423670229e+01    0.1624034    0.1167004 -64.20 0.0007038282    1.719    0.418
       483  -8.6319     95.3976     38.0526   8.2571828031e+01   5.5900955493e+01    0.3000209    0.1922672 -49.94 0.0008003806    1.716    0.417
       484  -8.1849     80.5124     36.5147   8.6701377948e+01   5.8965774248e+01    0.2562786    0.1162062 -48.06 0.0006937375    2.329    0.571
       485  -8.8795    218.7364    247.3743   1.0339861451e+02  -2.1064869924e+00    0.2537704     0.127262 -34.31  0.001638561    2.579    0.612
       486  -7.7939    133.4668     36.4880   7.1818056046e+01   4.7682500056e+01    0.1516095    0.1428096 -11.44 8.209056e-05    1.002    0.002
       487  -8.1248    125.7139     35.9354   7.3431141850e+01   4.9626719714e+01     0.213689    0.1814391 -25.30 0.0004359314    1.112    0.101
       488  -8.5861    111.7769     34.0899   7.6242487814e+01   5.3109775943e+01    0.4103595    0.1699102 -39.14  0.001238311    2.289    0.563
       489  -7.9246     88.4825     34.4976   8.3242576857e+01   5.7856369672e+01    0.1421994    0.1264028 -29.41 0.0008097261    1.059    0.056
       490  -9.0381     48.5123     33.5034   9.7333486300e+01   6.4393242984e+01    0.2441924    0.1977138 -59.83 0.0006172129    1.371    0.270
       491  -8.5558     60.8443     32.6373   9.2121327203e+01   6.2869525474e+01    0.2505408    0.1672281 -47.46 0.0006517551    1.392    0.282
       492  -8.5744     72.2319     31.3711   8.7376100805e+01   6.1306812069e+01    0.2349756    0.1956579 -68.07 0.0006405792    1.616    0.381
       493  -7.7420    196.2648     31.3522   5.8700477578e+01   3.2068288926e+01    0.1543744    0.1125973  20.09 0.0006983894    1.620    0.383
       494  -9.0385     12.8616     29.9896   1.1159683320e+02   6.8563480296e+01    0.3244646    0.1459858 -69.34  0.001461425    2.397    0.583
       495  -8.4491    119.0283     32.8592   7.3847869071e+01   5.1657201055e+01    0.2767503    0.1676089 -40.78 0.0006810538    1.643    0.391
       496  -8.2056    101.4100     29.2619   7.7075764264e+01   5.6110304568e+01    0.2039198    0.1235763 -40.13 0.0007700926    1.609    0.379
       497  -8.8345     81.5635     27.5753   8.2472844481e+01   6.0313310348e+01    0.2842807    0.1990531 -53.59 0.0006808102    1.756    0.431
       498  -8.6598      3.7691     27.9342   1.1519864727e+02   6.9549948624e+01    0.2059094       0.1347 -76.47 0.0009437967    1.563    0.360
       499  -8.9162     91.8335     26.4700   7.8686336597e+01   5.8514729379e+01    0.3156865    0.1799058 -41.07 0.0009079269    1.722    0.419
       500  -7.9427    145.6300     25.7927   6.5068590251e+01   4.6127062073e+01    0.2273327    0.1260795 -36.56 0.0009440245    1.756    0.431
       501  -8.0828    104.4721     22.9663   7.3446135535e+01   5.6382466884e+01    0.2146757    0.1318996 -28.22  0.000405126    1.509    0.337
       502  -8.0318     34.7579     23.5311   9.9068717509e+01   6.7926615004e+01    0.1440783    0.1188937  45.06 0.0009380367    1.646    0.392
       503  -8.8506     63.6230     21.2807   8.5938446030e+01   6.4440101109e+01    0.2888952     0.189623 -47.51  0.001093162    1.633    0.388
       504  -8.8451     48.3425     21.8931   9.2374330685e+01   6.6581542818e+01    0.2190931    0.1872844 -39.65 0.0006763698    1.181    0.153
       505  -8.0167    120.5430     21.4702   6.8704076257e+01   5.2908745902e+01    0.1456587    0.1365767 -14.39 0.0001862873    1.054    0.051
       506  -8.3841     19.2538     21.2215   1.0539823041e+02   6.9857086995e+01    0.1537631    0.1257609 -64.27 0.0009148121    1.362    0.266
       507  -8.7892     74.0380     19.5561   8.1296410654e+01   6.2952413354e+01    0.2559773    0.1657329 -43.64 0.0006647807    1.606    0.377
       508  -8.2271     87.8008     17.8023   7.5906478371e+01   6.0606399597e+01    0.1858703    0.1502416 -39.90 0.0004266683    1.313    0.238
       509  -9.4848    211.3246    246.9516   1.0445488456e+02  -1.0103004842e+00    0.2436208    0.1859454 -57.11   0.00127976    2.362    0.577
       510  -7.8737    112.6503     16.7807   6.8551769185e+01   5.5361957004e+01    0.1974135    0.1228759 -32.29 0.0002908987    1.541    0.351
       511  -8.3072     30.0144     16.0729   9.7919574652e+01   6.9820404944e+01    0.1753549    0.1412771 -68.36 0.0008390517    1.718    0.418
       512  -9.1760    175.6753    247.8860   1.1000622306e+02   4.0694164254e+00    0.2316092    0.1707095  68.90  0.001387717    1.842    0.457
       513  -8.7267    132.2661    247.9329   1.1674941459e+02   1.0318357494e+01    0.1905549    0.1307115  72.65 0.0006705719    1.655    0.396
       514  -8.1975    113.0431    248.7570   1.1980084185e+02   1.2870670505e+01    0.1647565     0.111561  84.18 0.0009492058    1.712    0.416
       515  -8.0125     28.1981     10.4290   9.6044010431e+01   7.1017881489e+01    0.1342971    0.1148502  37.33 0.0004864008    1.591    0.372
       516  -9.1442    104.0248    247.3796   1.2108049639e+02   1.4266423967e+01    0.2835987    0.1571112 -88.59  0.001779043    2.496    0.599
       517  -8.4600     93.6989    249.3477   1.2281374144e+02   1.5353400268e+01    0.1616126   0.08344188  63.50  0.001081292    1.753    0.429
       518  -9.2101    242.6608    247.0494   9.9837445111e+01  -5.4092138270e+00    0.2390842    0.1124888 -28.73    0.0015649    2.561    0.609
       519 -10.0864    224.0880    244.1078   1.0217317434e+02  -2.5727984919e+00    0.3419122    0.2108397 -36.61  0.001969205    2.211    0.548
       520  -8.8305    156.0592    248.0778   1.1306416936e+02   6.8999957285e+00    0.1596353    0.1180203  47.59 0.0004900955    1.055    0.052
       521  -9.0039    147.2787    246.3262   1.1425207974e+02   8.3764296266e+00    0.2730477    0.1510851  65.30   0.00162044    2.439    0.590
       522  -8.9411    120.2860    245.5372   1.1839957743e+02   1.2301029007e+01    0.2750353    0.1503246  69.86  0.001519272    2.311    0.567
       523  -8.3890     13.6709    247.2957   1.3444173952e+02   2.4703007472e+01   0.09817953   0.04032493  62.30 0.0003054077    1.633    0.388
