#   1 NUMBER                 Running object number                                     
#   2 MAG_AUTO               Kron-like elliptical aperture magnitude                    [mag]
#   3 X_IMAGE                Object position along x                                    [pixel]
#   4 Y_IMAGE                Object position along y                                    [pixel]
#   5 X_WORLD                Barycenter position along world x axis                     [deg]
#   6 Y_WORLD                Barycenter position along world y axis                     [deg]
#   7 A_WORLD                Profile RMS along major axis (world units)                 [deg]
#   8 B_WORLD                Profile RMS along minor axis (world units)                 [deg]
#   9 THETA_WORLD            Position angle (CCW/world-x)                               [deg]
#  10 FWHM_WORLD             FWHM assuming a gaussian core                              [deg]
#  11 ELONGATION             A_IMAGE/B_IMAGE                                           
#  12 ELLIPTICITY            1 - B_IMAGE/A_IMAGE                                       
         1 -12.0750    212.8033     32.0122   4.2768849034e+01   2.7990464308e+01    0.8895787    0.5566967 -82.04  0.003919641    1.759    0.431
         2 -12.5683    220.0905     25.1029   4.0277839095e+01   2.7107634850e+01    0.9425241    0.6388153  59.34  0.001626508    1.531    0.347
         3 -12.5259    235.3795      9.9861   3.5411844591e+01   2.5337320815e+01    0.7201521    0.5417981 -64.26  0.002572881    1.129    0.114
         4 -10.3624      2.3551      6.8269   9.4533509233e+01   7.3501605379e+01    0.3919513   0.07639399 -48.62  0.001534433    4.109    0.757
         5 -11.9227     48.4001    225.6549   1.2006080351e+02   2.1700464983e+01    0.4986199    0.4200769  -1.45   0.00334693    2.011    0.503
         6 -14.4001     94.4192    247.1511   1.1317053162e+02   1.1567352974e+01     6.420955     2.471163  35.84   0.02994373    2.431    0.589
         7 -12.4499     50.3514    218.7697   1.1913553430e+02   2.2834185600e+01    0.9234658    0.4161281  63.28  0.004562289    2.253    0.556
         8  -9.6579     33.6629    227.4278   1.2295091857e+02   2.3063036017e+01    0.1727419    0.1198956 -62.54   0.00079886    1.709    0.415
         9 -13.8508      5.2134    185.5374   1.2575827913e+02   3.4512009070e+01     2.460112     1.251358 -65.95  0.008863867    1.808    0.447
        10 -12.1302     19.0269    219.5415   1.2515207604e+02   2.6166033970e+01    0.6261656    0.4633427  62.01  0.001880552    1.131    0.116
        11 -15.1024      8.7556    241.7450   1.2807010853e+02   2.2970521198e+01     13.08534     1.831835 -78.26    0.0451019    6.756    0.852
        12 -14.3504     37.8840    200.4024   1.2013320921e+02   2.8116503257e+01     2.196719     1.297539  67.05   0.01087297    1.528    0.346
        13  -9.5387    192.5227    192.6219   8.5142724093e+01   4.8966628343e+00    0.3352299    0.2095794  45.74  0.001641879    1.648    0.393
        14 -10.9370     56.9687    182.1361   1.1417160111e+02   2.9902278215e+01    0.3851701    0.2778843 -36.21  0.002112993    1.979    0.495
        15 -10.8655     62.7060    176.2029   1.1211728886e+02   3.0531187709e+01    0.2995645    0.2624356 -52.85 0.0006570411    1.314    0.239
        16  -9.9459    103.0856    172.1770   1.0170365767e+02   2.5430672717e+01    0.2882678    0.1874627  57.25  0.001362011    1.630    0.386
        17 -10.4231     73.2735    165.9709   1.0814336235e+02   3.1496348297e+01    0.2705113    0.2325607 -77.45 0.0004211626    1.082    0.075
        18 -12.4577     59.9152    162.5131   1.1101177040e+02   3.4114025473e+01    0.5073674    0.2997341 -46.24  0.001403658    1.957    0.489
        19 -12.2852     79.8850    158.4792   1.0529998522e+02   3.2326630468e+01     1.190083    0.7129408  60.35   0.00177751    1.925    0.480
        20 -12.3333     67.6633    144.0030   1.0616270971e+02   3.7577050394e+01    0.8427117     0.561328  72.90  0.002375628    1.804    0.446
        21 -10.7955     22.8950    155.6696   1.1941095924e+02   3.9746515805e+01    0.2552387    0.1854283  72.60 0.0008459924    1.282    0.220
        22 -11.2069     18.8191    147.8558   1.1962472337e+02   4.1939928642e+01    0.3609649    0.2046219 -64.16   0.00108483    1.495    0.331
        23  -9.2785    134.0000    147.1602   8.9086353638e+01   2.5481712920e+01    0.6074723   0.08744173 -48.80  0.001258625    7.001    0.857
        24  -9.8658     95.8460    144.4977   9.8548481662e+01   3.3173777085e+01     0.341392    0.2766328  45.84  0.001054487    1.256    0.204
        25  -8.9711     99.0065    141.1631   9.7018322383e+01   3.3439643996e+01    0.3448424     0.216753 -23.45  0.001340206    2.636    0.621
        26 -11.1208     83.7980    143.0954   1.0156829233e+02   3.5455981883e+01    0.3174778    0.2578166 -55.32 0.0004453577    1.185    0.156
        27  -9.9435     30.9597    142.6628   1.1590252054e+02   4.2107353627e+01     0.239554    0.1698371  13.79  0.001371748    1.891    0.471
        28  -9.9332    107.1436    132.1043   9.2830173519e+01   3.4162580677e+01    0.4115586    0.3617159  58.76  0.001406884    1.190    0.160
        29  -9.8641     94.9878    128.6998   9.5490009355e+01   3.7132274690e+01    0.3131606    0.2521717 -10.55  0.000512926    1.582    0.368
        30  -8.6178    160.2838    126.6305   7.7755241374e+01   2.4425998394e+01    0.1609889    0.1261096 -77.37 0.0007017136    1.699    0.412
        31 -12.1765     58.6705    134.0491   1.0698479176e+02   4.1192481487e+01     2.372993    0.8295901 -76.25  0.005005241    9.084    0.890
        32  -8.9762    105.6558    120.6204   9.0562460271e+01   3.7159786590e+01    0.2465014    0.2185476 -23.26 0.0007351366    1.213    0.176
        33 -10.1600     32.3886    156.2417   1.1713189147e+02   3.8720668465e+01     0.233024    0.1420756 -82.55 0.0008129381    1.458    0.314
        34  -8.7116    168.3371    113.3405   7.2460546861e+01   2.5356721038e+01    0.3110114    0.2283871 -80.57  0.001036248    2.021    0.505
        35 -10.8932     52.5948    110.4778   1.0440957980e+02   4.7697872711e+01    0.4400416    0.2161954 -61.55  0.001956777    1.809    0.447
        36  -9.7767     34.9446    111.7320   1.1021538396e+02   4.9240326174e+01    0.2313139     0.165271  33.12  0.001270137    1.617    0.381
        37  -8.7976    205.4094    110.6997   6.4162207883e+01   1.7360546230e+01    0.3652617    0.1708408  39.59  0.001340505    2.555    0.609
        38 -13.8300      8.9837    207.2099   1.2630853832e+02   2.9619322662e+01     2.181453     1.044411 -57.23  0.002992524    2.512    0.602
        39 -12.0289     27.6041    210.9012   1.2298579502e+02   2.7026563453e+01    0.4053624    0.3106404 -60.65 0.0008889291    1.584    0.369
        40 -10.1641     13.1664     60.1418   1.0740494042e+02   6.2781193985e+01    0.1935453    0.1324892 -40.78 0.0006899291    1.193    0.162
        41  -9.5519      2.0000     54.9366   1.1084576198e+02   6.4486514610e+01    0.1990427   0.05341072 -64.14 0.0008028755    2.945    0.660
        42 -11.0502    198.2062     46.6618   4.8466498507e+01   2.9615559341e+01    0.4062095    0.2921405 -36.61   0.00208802    1.380    0.275
        43  -9.8188      2.3885     38.2233   1.0631065864e+02   6.7886714893e+01    0.2380057   0.09930681 -66.38  0.001125095    2.639    0.621
        44 -12.4171    206.2275     36.0082   4.4573039570e+01   2.9070910043e+01    0.7231306    0.6426408 -28.20  0.003257533    1.243    0.196
        45 -12.3545     30.5395    247.0529   1.2468799590e+02   1.9739933770e+01    0.8065737    0.6550888 -47.55  0.006034058    2.008    0.502
        46 -12.3941     40.5977    235.6745   1.2222933210e+02   2.0695519552e+01    0.6125083    0.3701095  48.08  0.001644082    1.381    0.276
        47 -10.6934     63.3055    238.1130   1.1822567160e+02   1.7451133150e+01    0.2921199    0.1721838  83.22 0.0008906881    1.749    0.428
        48  -8.8119    189.4915     15.4739   4.1144957541e+01   3.5600806593e+01    0.1350032    0.1196284  89.95 0.0001583265    1.004    0.004
