#   1 NUMBER                 Running object number                                     
#   2 MAG_AUTO               Kron-like elliptical aperture magnitude                    [mag]
#   3 X_IMAGE                Object position along x                                    [pixel]
#   4 Y_IMAGE                Object position along y                                    [pixel]
#   5 X_WORLD                Barycenter position along world x axis                     [deg]
#   6 Y_WORLD                Barycenter position along world y axis                     [deg]
#   7 A_WORLD                Profile RMS along major axis (world units)                 [deg]
#   8 B_WORLD                Profile RMS along minor axis (world units)                 [deg]
#   9 THETA_WORLD            Position angle (CCW/world-x)                               [deg]
#  10 FWHM_WORLD             FWHM assuming a gaussian core                              [deg]
#  11 ELONGATION             A_IMAGE/B_IMAGE                                           
#  12 ELLIPTICITY            1 - B_IMAGE/A_IMAGE                                       
         1  -8.4742    162.9314     13.2593   3.3711003613e+01   4.2873696313e+01    0.1919133     0.186407 -26.37 0.0002638748    1.223    0.182
         2  -7.5929    112.5075     11.4820   4.1870526520e+01   5.4774227139e+01    0.1298425    0.1092092  46.37 0.0002360238    1.024    0.023
         3  -6.9667    239.3179    241.6452   7.2092808234e+01  -9.9313230996e+00   0.09824175   0.09698694  28.19 0.0006058365    1.748    0.428
         4 -10.3532    204.5030    236.4515   7.7750578136e+01  -4.4805087972e+00    0.2255303     0.193764   3.67 0.0001047286    1.084    0.078
         5  -7.3584    198.8650    234.8074   7.8588363446e+01  -3.4033500564e+00    0.1632137    0.1377981  35.26 0.0002835838    1.314    0.239
         6  -9.3208    171.8374    236.3957   8.4316861695e+01   4.2433964554e-01    0.3122484    0.2226255  41.33  0.001790721    1.368    0.269
         7  -9.2150    173.2299    231.4973   8.3259293803e+01   1.0440840887e+00    0.2669151    0.2236212   0.23 0.0002283905    1.168    0.144
         8  -8.5421    174.0615    226.9881   8.2360411068e+01   1.6968430568e+00     0.209667    0.1786809  -6.02 0.0002907871    1.160    0.138
         9  -7.4435    242.5021    229.4540   6.9457649256e+01  -8.6492919310e+00    0.1235534   0.09398503  -3.22 3.543985e-05    1.045    0.043
        10  -8.0388     62.8283    228.8327   1.0661563275e+02   1.8193774080e+01    0.1746647    0.1225163  65.42 0.0003194677    1.289    0.224
        11  -7.2888    184.2112    228.1259   8.0441780765e+01  -9.3063495428e-02    0.1610942    0.1543145  55.75 0.0003848574    1.352    0.260
        12  -7.5519     93.9878    227.4795   9.9799259519e+01   1.4182464086e+01    0.2005777    0.1626643 -72.82 0.0006741366    1.310    0.237
        13  -7.7830    201.8801    224.7041   7.6292156651e+01  -2.2331833918e+00    0.2022208    0.1589229 -16.66 0.0003428894    1.207    0.172
        14 -10.2060    141.0550    220.2270   8.8406836057e+01   8.2995570500e+00    0.2747495    0.2376652 -53.12  0.000466378    1.283    0.221
        15  -8.6495     93.0835    214.1242   9.8363558316e+01   1.7152034562e+01    0.2032137    0.1906326  56.60  0.001266526    1.075    0.069
        16  -7.3327     52.5473    212.2342   1.0724139386e+02   2.3079867832e+01    0.1666259    0.1094244 -61.40 0.0009304389    1.570    0.363
        17  -7.1204     65.7023    211.6610   1.0426654692e+02   2.1541276353e+01    0.1238494   0.09941506 -36.40 0.0002588744    1.660    0.397
        18  -8.9666    164.1214    206.3782   8.1014458047e+01   7.1573862765e+00    0.2319697    0.2189855 -20.55 0.0001674652    1.100    0.091
        19  -8.1430    149.4000    203.2178   8.3762184654e+01   1.0319083837e+01    0.2434853     0.182974 -60.71 0.0009765136    1.546    0.353
        20  -9.3515     25.0677    199.2999   1.1211324895e+02   2.9051649156e+01    0.2107234    0.1978649  85.76 0.0003541561    1.230    0.187
        21  -7.0535    193.3130    198.3274   7.3281852717e+01   3.7249397770e+00    0.1449494    0.1015795  -4.52 0.0003332232    1.668    0.400
        22  -7.4417     39.5074    195.4921   1.0854922442e+02   2.8418068086e+01    0.1278749    0.1097852  86.10 6.128112e-05    1.041    0.039
        23  -8.2346     91.7877    190.8866   9.5486068223e+01   2.2616382058e+01    0.2330638    0.1834814 -77.45 0.0005875873    1.299    0.230
        24  -7.4917     72.7082    190.9685   1.0017192974e+02   2.5370583121e+01    0.1926001     0.159335 -74.72 0.0005134057    1.159    0.137
        25  -7.2658    188.4573    188.5504   7.2421774790e+01   6.4056046235e+00    0.1416798    0.1300901  -1.48 8.609094e-05    1.015    0.014
        26  -7.9099     96.9859    187.3407   9.3665379487e+01   2.2645805393e+01    0.1971884    0.1724212  43.60 0.0004717582    1.125    0.111
        27  -6.8403    185.7292    184.6956   7.2243882600e+01   7.6386711645e+00    0.1432683    0.1066613  -7.75 0.0002564343    1.536    0.349
        28  -8.9393     27.7441    183.8499   1.1016900608e+02   3.2382636733e+01    0.2096628    0.1771733  84.79 0.0002902918    1.027    0.026
        29  -7.1354    133.2947    178.6817   8.3152907892e+01   1.8494221298e+01     0.149415    0.1173453  76.69 0.0002775832    1.608    0.378
        30  -7.6798    124.1278    174.2295   8.4595218773e+01   2.1168430619e+01      0.21571    0.2003251  -7.68 0.0003925992    1.168    0.144
        31  -9.7816    172.1682    153.7754   6.8745518886e+01   1.6573244240e+01    0.3112161    0.2401337 -42.68  0.000381971    1.264    0.209
        32  -8.3033    177.6700    150.9247   6.6883467876e+01   1.6077434857e+01    0.2527906    0.2073668   1.13 0.0005651056    1.396    0.284
        33  -8.9667    115.5562    149.2614   8.1851397010e+01   2.8677211633e+01    0.2711876    0.2550234   8.15 0.0002272832    1.133    0.118
        34  -6.8909    176.9934    143.7408   6.5406456511e+01   1.7727812303e+01    0.1883546     0.132701  42.45 0.0004194851    1.468    0.319
        35  -8.1029     78.9320    139.0073   9.0102185751e+01   3.7338450912e+01    0.2191881    0.2013681 -61.68 0.0002958922    1.021    0.021
        36  -7.1459    103.3315    134.6774   8.2077683520e+01   3.4429106625e+01    0.1584018    0.1210381  77.86 0.0007049885    1.700    0.412
        37  -7.3279    163.9381    133.4738   6.5955928273e+01   2.2638046561e+01    0.2102204     0.137841  70.46 0.0005864768    2.366    0.577
        38  -7.1919     43.6388    130.3147   9.9124256052e+01   4.4009791494e+01    0.1432485   0.09899252  68.47 0.0007042148    1.756    0.431
        39  -7.8450    230.2404    125.6060   5.1086666338e+01   1.0671283080e+01    0.1783632    0.1311114  34.71 0.0003772524    1.609    0.378
        40  -7.8024    121.9700    124.0588   7.4311827094e+01   3.3460406215e+01    0.2235043    0.2199517 -36.78 -0.001877172    1.010    0.010
        41  -8.6405     65.0918    116.0695   8.9601677198e+01   4.4994382700e+01    0.2767805    0.2343669 -78.01 0.0004688035    1.275    0.216
        42  -9.0230    179.5294    107.4024   5.6102349653e+01   2.4638885572e+01    0.3799068    0.2653786 -29.78 0.0009554999    1.546    0.353
        43  -8.5888     99.7914    106.4517   7.6253573499e+01   4.1769689387e+01    0.3877885    0.2511681   3.66 0.0006819018    2.540    0.606
        44 -10.4498     83.9297     98.9077   7.9255598683e+01   4.6247108216e+01    0.2531805    0.2416305 -42.24            0    1.066    0.062
        45  -7.9993     95.0748     98.9144   7.5685377177e+01   4.4326716213e+01    0.2215912     0.212131 -18.25 0.0003839162    1.014    0.014
        46  -7.3543    155.9936     94.7705   5.7913730479e+01   3.2440469458e+01    0.1996693    0.1931491  65.46  0.001074221    1.044    0.042
        47  -7.6389    143.9968     88.7357   5.9077437991e+01   3.6344565635e+01    0.2191093    0.1947484  51.01  0.000446613    1.126    0.112
        48  -6.8765     49.3751     88.7471   8.8577621034e+01   5.3409504064e+01    0.1296065     0.104203  60.95  0.000338738    1.646    0.392
        49  -7.1537    209.6494     83.3288   4.4729457024e+01   2.2343578190e+01    0.1506752    0.1020919 -70.95 -0.0001024443    1.766    0.434
        50  -7.3928    133.0027     79.2599   5.9079791263e+01   4.0625141892e+01    0.2076152    0.1849082  43.36 -0.000430966    1.105    0.095
        51  -6.8637    131.2840     67.3093   5.5913428815e+01   4.3150234355e+01    0.1462587    0.1135956  13.19 0.0002097869    1.569    0.363
        52  -6.7608     83.7073     67.3434   6.9935456212e+01   5.2879959873e+01     0.134046    0.1153786 -83.57 0.0007028556    1.658    0.397
        53  -7.9920    117.8168     55.9001   5.5773894699e+01   4.8040354177e+01    0.2160214    0.1831848  15.17  0.000485265    1.239    0.193
        54  -7.8230    156.2224     53.2808   4.6173289468e+01   3.9556011158e+01    0.1883699    0.1590253 -71.87  0.001024138    1.277    0.217
        55  -8.2900    148.8734     51.5273   4.7129240347e+01   4.1560708427e+01    0.2212756    0.1935236 -31.61 0.0004032101    1.222    0.182
        56  -9.0691    117.9921     43.4756   5.1612101013e+01   4.9853283833e+01    0.3111528    0.2041657 -27.23 7.851713e-05    1.654    0.396
        57  -8.4716    222.4906     43.3970   3.3785889492e+01   2.5614288433e+01     0.209839    0.1833682 -85.06 0.0002496566    1.082    0.076
        58  -6.9256    240.2679     40.4071   3.1305730701e+01   2.2283461075e+01    0.1107592   0.09687287   6.97  0.000696935    1.754    0.430
        59  -7.7642    234.9033     38.7937   3.1491352831e+01   2.3599608549e+01    0.1656101    0.1491919 -85.30 0.0002780454    1.167    0.143
        60  -7.3513    112.5085     28.1077   4.7709341155e+01   5.3042963543e+01    0.1796895    0.1317138 -26.57 0.0004649241    1.490    0.329
        61  -7.2125    185.5116     26.9300   3.4308928373e+01   3.6069272130e+01    0.1705651    0.1278295 -34.55 0.0003316068    1.456    0.313
        62  -7.6291     87.5314     27.0459   5.4150751900e+01   5.8435579092e+01    0.1697936    0.1068924 -52.68 0.0008086095    2.458    0.593
        63  -7.4279    207.1727     23.8452   3.1040124387e+01   3.1467380426e+01    0.1543127    0.1437135  61.83 0.0003515047    1.283    0.221
        64  -7.4418    117.5290     24.4785   4.5269059057e+01   5.2332430104e+01    0.1323966     0.118211  48.48 0.0008094427    1.026    0.025
        65  -6.8327    108.7061     18.3297   4.5163471780e+01   5.4954020784e+01    0.1230414   0.09977971 -72.02 0.0007023169    1.631    0.387
        66  -9.1882    183.7858    242.0000   8.2749723308e+01  -2.3082069316e+00    0.3301641     0.264076  66.47  0.001929111    1.970    0.492
        67  -7.0495    132.6607     13.6965   3.8617578912e+01   4.9962303593e+01     0.137366    0.0851549  38.79 0.0007039227    1.674    0.402
