#   1 NUMBER                 Running object number                                     
#   2 MAG_AUTO               Kron-like elliptical aperture magnitude                    [mag]
#   3 X_IMAGE                Object position along x                                    [pixel]
#   4 Y_IMAGE                Object position along y                                    [pixel]
#   5 X_WORLD                Barycenter position along world x axis                     [deg]
#   6 Y_WORLD                Barycenter position along world y axis                     [deg]
#   7 A_WORLD                Profile RMS along major axis (world units)                 [deg]
#   8 B_WORLD                Profile RMS along minor axis (world units)                 [deg]
#   9 THETA_WORLD            Position angle (CCW/world-x)                               [deg]
#  10 FWHM_WORLD             FWHM assuming a gaussian core                              [deg]
#  11 ELONGATION             A_IMAGE/B_IMAGE                                           
#  12 ELLIPTICITY            1 - B_IMAGE/A_IMAGE                                       
         1 -15.6245     85.3230     65.8298   1.0930038241e+02   5.1896704580e+01     4.083746     2.135018 -13.01   0.01018463    6.732    0.851
         2 -15.4403    119.3163     54.6304   9.5579390439e+01   4.7419613522e+01     1.631274    0.9615184  29.03  0.002418718    2.029    0.507
         3 -15.3677    122.5998     36.7704   8.8363845247e+01   4.9436199680e+01     1.522852    0.7439162  38.83  0.004239037    2.132    0.531
         4 -15.7464      7.0669     69.9901   1.3680644371e+02   5.9520242536e+01     1.446157    0.6920536 -64.87  0.004286782    1.596    0.374
         5 -15.2112     58.0114     73.0122   1.2031131760e+02   5.4379317568e+01     1.369241     1.076612 -54.80  0.003448429    1.189    0.159
         6 -13.9904     67.2051     47.9636   1.0931269542e+02   5.8098282616e+01     1.023788    0.4539068 -42.12  0.004591078    2.010    0.502
         7 -12.2247    195.0255     23.5358   7.0485918753e+01   3.3148859671e+01    0.5401966    0.2842651 -21.00  0.001830065    2.084    0.520
         8 -13.1611    186.4810     13.9942   6.8827443890e+01   3.6334926955e+01    0.6090325    0.4716454   5.82  0.002083512    1.518    0.341
         9 -14.2515    188.6228     25.7389   7.2013493114e+01   3.4524049176e+01     2.271807    0.8274263 -53.03  0.006584007    4.778    0.791
        10 -14.0180      8.1322      3.5127   1.1646108690e+02   7.2135562228e+01    0.8788556    0.7136537  41.45  0.005165084    2.044    0.511
        11 -15.3315     41.9678      7.1064   1.0204689211e+02   6.8086395840e+01     1.755875    0.9784906 -18.47  0.006940677    1.676    0.403
        12 -14.5743     25.6842     32.3251   1.1983044115e+02   6.5814458852e+01    0.9924412    0.7110369 -78.09  0.005640712    2.509    0.601
        13 -15.3167      8.1514     29.4456   1.2648399408e+02   6.7656480265e+01    0.8596014    0.7718583  29.56  0.006731651    1.525    0.344
        14 -14.4694     24.8472     13.9285   1.1292884625e+02   6.9044661328e+01    0.6212199     0.437688  19.28  0.004243949    1.536    0.349
        15 -15.2699     13.7374     20.5757   1.2084941833e+02   6.8885456183e+01     1.093078    0.5336326 -33.14  0.005247309    1.711    0.416
        16 -15.1385    166.0265     30.3986   7.7024452663e+01   3.9730999470e+01     1.551106     0.857056  65.60  0.004792613    1.836    0.455
        17 -14.8903    145.3105     30.7792   8.1070280240e+01   4.4861329349e+01      1.14935    0.6892017  59.97  0.004041488    1.652    0.395
        18 -13.7618    215.1221     20.9424   6.7295073361e+01   2.8421925341e+01    0.6684142    0.4486656 -22.71  0.002378684    1.579    0.367
        19 -13.1063    218.9185     15.2313   6.5375919331e+01   2.8111484692e+01    0.4764076    0.3819914 -49.68  0.001653624    1.204    0.170
        20 -13.2675    222.9064      5.9294   6.2594045119e+01   2.8096631622e+01    0.9008487    0.3870797 -22.47  0.003902921    2.524    0.604
        21 -15.8972     99.7233     12.7926   8.4866277718e+01   5.7411430412e+01     1.498763    0.8061373  48.19    0.0033359    1.719    0.418
        22 -12.5710    213.3358      9.6401   6.4486901924e+01   3.0049025760e+01     0.524331    0.3043142  69.70  0.002615017    1.631    0.387
        23 -11.1752    162.0246      9.0212   7.0731754342e+01   4.3039561103e+01    0.2362861    0.1601453 -63.27  0.001149668    1.815    0.449
        24 -11.9166    126.0316      8.9998   7.7120207502e+01   5.1903334323e+01    0.2213883    0.1897702  29.87   0.00129885    1.057    0.054
        25 -10.8664    153.8132      8.1325   7.1722654151e+01   4.5192256280e+01    0.1941895    0.1462222  38.27 0.0003179832    1.286    0.223
        26 -11.9079    244.9260     16.0526   6.3084097670e+01   2.1909210213e+01    0.4651646    0.2165321 -24.04  0.002125559    2.261    0.558
        27 -12.1277    121.0382      4.1238   7.6273595237e+01   5.3520324990e+01    0.3031714    0.1852143  71.08  0.001470041    1.869    0.465
        28 -11.5284     67.7805      3.5856   9.0380445675e+01   6.4554815587e+01    0.2595773    0.1680404   9.41  0.001474149    1.493    0.330
        29 -11.9997     26.5351      3.9722   1.0746100341e+02   7.0368315612e+01    0.2199528    0.1367243   4.28  0.001215009    1.619    0.382
        30 -12.3879     81.1540      1.8671   8.5285149461e+01   6.2276562548e+01    0.5287449    0.1495598  48.38  0.002079148    2.997    0.666
        31 -11.5236     59.2514      2.0251   9.2636316915e+01   6.6161473590e+01    0.2494676    0.1795328 -23.88  0.001570269    1.348    0.258
        32 -11.0560     62.4771      1.5064   9.1211589555e+01   6.5685300368e+01    0.2064077    0.1112192  43.51 0.0007665495    1.831    0.454
        33 -11.6225    232.5862      1.6690   6.0695202325e+01   2.6221958536e+01    0.2398059    0.1587792  76.51 0.0007907182    1.443    0.307
        34 -11.1840     32.9923      1.4458   1.0316315477e+02   6.9971773756e+01    0.1561379    0.1021021  24.93  0.000357311    1.533    0.348
        35 -11.8563    122.2798    181.5573   1.2554473769e+02   2.1257292528e+01    0.3986288    0.2377509  78.43  0.001683297    2.938    0.660
        36 -13.5879     57.4566    246.7689   1.4453726276e+02   1.8874302570e+01    0.7717946    0.4098024  31.37  0.004687313    2.534    0.605
        37 -14.1404     27.6012    246.1283   1.4911526018e+02   2.2304653099e+01    0.4996611    0.3385467  70.51  0.003955974    1.052    0.050
        38 -11.9176      2.8899    249.8956   1.5287783825e+02   2.4127977034e+01    0.2640717    0.1238465  46.45  0.001996635    1.713    0.416
        39 -14.3893      8.9990    245.7446   1.5184353815e+02   2.4212470630e+01        0.718    0.3210677  59.63  0.003024498    1.605    0.377
        40 -11.6268    109.1821    183.6002   1.2860623114e+02   2.3006503715e+01     0.181345    0.1175954  31.89 0.0009521861    1.727    0.421
        41 -13.9500     86.1657    180.4838   1.3301980290e+02   2.7112956706e+01    0.7374926    0.3116056  54.15  0.003237692    2.562    0.610
        42 -12.1108    194.6363    177.5221   1.1002075947e+02   8.7448687700e+00    0.2517046    0.2171873  -3.80  0.001105826    1.158    0.137
        43 -13.8890    124.0497    166.7616   1.2273931210e+02   2.3863130480e+01     0.695047    0.4239028 -64.29  0.003354492    1.912    0.477
        44 -11.3965    177.4767    167.5018   1.1146783890e+02   1.3716077363e+01    0.1401603     0.128279  25.68 0.0002933998    1.002    0.002
        45 -11.6600     27.6081    158.8041   1.4304441911e+02   3.8617953143e+01    0.2645667    0.1680798 -77.04  0.001665898    1.302    0.232
        46 -12.9241     24.3647    156.6106   1.4353160821e+02   3.9380325543e+01    0.3730325    0.3150246 -35.57  0.002619857    1.653    0.395
        47 -12.6270     77.5975    157.2668   1.3171456161e+02   3.3173732065e+01    0.3789958    0.2749662  33.38  0.001273389    1.558    0.358
        48 -13.6569     74.0043    153.3760   1.3197527250e+02   3.4507363798e+01    0.6505901    0.4694656  32.43  0.003000796    1.590    0.371
        49 -12.9548    122.4283    155.4048   1.2107263967e+02   2.6460711290e+01    0.4878944     0.336457 -44.49  0.002314325    1.544    0.353
        50 -13.0817    111.2726    155.3315   1.2362368033e+02   2.8407751003e+01    0.5401112    0.3367549  80.57  0.002310575    2.589    0.614
        51 -11.9516     55.7459    156.0189   1.3653283682e+02   3.6243755690e+01    0.2949005    0.2374556  -7.81  0.001449484    1.925    0.480
        52 -12.4215     85.9857    153.0922   1.2913388823e+02   3.2880626310e+01    0.4787592    0.3004574 -47.84  0.002492068    1.712    0.416
        53 -12.7765    211.1521    155.2963   1.0229072165e+02   9.1101028198e+00    0.3477886    0.1693585  40.07  0.001492433    1.983    0.496
        54 -13.9323     22.4587    181.0695   1.4597471477e+02   3.4529953069e+01    0.5439668     0.397413  53.69  0.003049096    1.322    0.243
        55 -12.3010    103.5561    149.7537   1.2443433084e+02   3.0874979430e+01    0.3392284    0.2903971 -34.07   0.00160471    1.361    0.265
        56 -12.6303    245.1285    148.3158   9.4726749790e+01   3.6211781551e+00    0.3617105    0.2343541 -31.81  0.001906321    1.470    0.320
        57 -12.6079      6.4577    147.5844   1.4658285587e+02   4.2759721121e+01    0.3745991    0.2372015  75.72  0.002523672    1.407    0.289
        58 -11.2626     38.2481    145.7777   1.3929048119e+02   4.0385037317e+01    0.1593657    0.1251106 -55.36 0.0006922568    1.351    0.260
        59 -11.5120     44.7514    145.1147   1.3769308439e+02   3.9856319807e+01    0.1846858    0.1674848  65.75 0.0005666012    1.185    0.156
        60 -11.8713    148.9330    140.6741   1.1201916367e+02   2.4438194062e+01    0.2880374    0.2216758 -53.96  0.001161495    1.390    0.281
        61 -12.0149     89.0733    140.5130   1.2627771747e+02   3.5170022297e+01    0.3761758    0.2429218 -21.37  0.001627944    2.853    0.650
        62 -12.9040     42.9046    139.5668   1.3742124334e+02   4.1273259198e+01    0.3444677    0.2508648 -44.97  0.001164323    1.583    0.368
        63 -13.3627     46.1432    134.8586   1.3599806173e+02   4.1976620003e+01    0.6279676    0.4183131 -71.68  0.003737007    1.295    0.228
        64 -12.6272     62.8258    135.0175   1.3187142629e+02   4.0014917497e+01    0.4732169    0.3283076 -89.02  0.002635777    1.539    0.350
        65 -11.4104     56.8176    137.8230   1.3379312250e+02   4.0116023060e+01    0.1922024    0.1627723 -55.21 0.0009880068    1.219    0.180
        66 -12.7468    246.1088    135.1821   9.1650436277e+01   5.3447813517e+00    0.3866991    0.2941649 -86.61  0.001889852    2.450    0.592
        67 -12.5486    230.4977    135.0013   9.4238650274e+01   8.4425822342e+00    0.2228842    0.1309905 -30.78  0.001042753    1.619    0.382
        68 -13.6454    133.3565    130.0690   1.1329836373e+02   2.9701095767e+01    0.8876657    0.5096471 -50.25  0.003896676    1.776    0.437
        69 -12.2476    110.8411    131.7666   1.1918379281e+02   3.3528191305e+01    0.4584742    0.3332029   7.58  0.002159565    2.060    0.514
        70 -12.3973    222.6525    128.3195   9.4064806201e+01   1.1102947156e+01    0.2227648    0.1794811 -66.68  0.001131175    1.736    0.424
        71 -13.0007    109.8741     96.1277   1.1095703786e+02   4.1382072996e+01    0.4201082    0.3196084  87.12 0.0003234999    1.916    0.478
        72 -13.5762    111.9875    101.0772   1.1169385327e+02   3.9942695055e+01    0.4841916    0.4126277 -79.37  0.002070583    1.389    0.280
        73 -13.4984     84.7420    115.5427   1.2253401029e+02   4.1384367591e+01      1.08222    0.5043378  27.15  0.004238651    3.033    0.670
        74 -14.2815     89.9666    109.3943   1.1974950660e+02   4.1944706574e+01     1.183751     0.805845  15.81  0.005654023    2.048    0.512
        75 -14.8456    104.4771    123.2126   1.1896964903e+02   3.6498919665e+01     2.027046     0.821044  36.84  0.007672474    2.721    0.632
        76 -15.4143    106.0540    108.9579   1.1527372778e+02   3.9335462258e+01     1.831142     1.377445 -60.04  0.009365908    1.373    0.271
        77 -13.9878     28.2776    123.4138   1.3892524615e+02   4.6259123436e+01    0.9221702    0.4871887 -57.72  0.005185322    1.618    0.382
        78 -14.0923     32.5758    111.8194   1.3614641323e+02   4.8469775700e+01    0.7129049    0.3302963 -67.39  0.003610926    1.796    0.443
        79 -14.6099      2.6002     96.7605   1.4230865458e+02   5.3978632975e+01     1.413318    0.4710553 -75.14  0.006467396    2.569    0.611
        80 -15.1432     18.2621    110.8255   1.3986861821e+02   4.9864542531e+01    0.9563058    0.8481165 -61.36  0.005582379    1.180    0.152
        81 -15.9503     25.6492     94.6250   1.3533274188e+02   5.2894352063e+01      1.84846     1.295546 -14.22   0.01134286    1.921    0.479
        82 -11.6587     51.6842    116.9799   1.3179578539e+02   4.5389074864e+01    0.3704552    0.1830572 -84.77  0.001451077    3.292    0.696
        83 -12.4552     45.6245    109.9835   1.3224780044e+02   4.7620621515e+01    0.4922684    0.2914615 -42.28  0.002623597    1.797    0.444
        84 -12.6276    176.4160    111.3292   9.8862608276e+01   2.4218126886e+01    0.3771672    0.3378295  21.82  0.001981669    1.122    0.108
        85 -15.0875     47.3949     96.3610   1.2917407116e+02   5.0494925866e+01     2.184774     1.244941  48.31   0.01129316    2.154    0.536
        86 -12.1563     61.7305    108.9824   1.2754474487e+02   4.6016265575e+01    0.5862759    0.2897781 -70.87   0.00252574    2.379    0.580
        87 -13.1451     62.5251     99.7944   1.2541258008e+02   4.7980473425e+01     0.732956    0.4592026 -79.57  0.003527286    2.088    0.521
        88 -12.0593    235.8247    107.9857   8.6950599841e+01   1.1520284407e+01    0.2430717    0.1532292 -53.04  0.001093246    2.008    0.502
        89 -12.5470    249.4285    106.7091   8.4531479638e+01   8.8869045996e+00    0.2813768    0.1175384 -35.33  0.001147269    2.135    0.532
        90 -13.2167    137.1685     96.2345   1.0384635561e+02   3.5866636645e+01    0.4882283    0.3764669 -52.41  0.001675516    1.379    0.275
        91 -13.2698    135.2224    103.2052   1.0622812270e+02   3.4879092695e+01     0.980275    0.3578325  49.10   0.00288096    2.946    0.661
        92 -13.4423    123.0762    102.6838   1.0918270545e+02   3.7465954898e+01    0.5106916    0.3888197  40.26  0.002550132    1.353    0.261
        93 -12.5157    128.2337     95.9215   1.0602249771e+02   3.7810434315e+01    0.3370011    0.2208323  61.32  0.001456848    1.946    0.486
        94 -11.3306     76.0201     95.6978   1.2050142214e+02   4.7078242829e+01    0.1759708    0.1715531 -26.24 0.0001904745    1.097    0.088
        95 -13.1989      4.0430    119.8544   1.4458593195e+02   4.8864222132e+01    0.4801725    0.4302174 -61.45  0.002435469    1.268    0.211
        96 -15.2386    160.8279     80.4094   9.3706861557e+01   3.3480252258e+01      1.85668     1.190858  19.09  0.001427192    2.234    0.552
        97 -15.0964    171.0706     76.8061   9.0450584882e+01   3.1647520089e+01     1.391149     1.191929 -86.02  0.006989146    1.418    0.295
        98 -12.1114    109.7531     88.9727   1.0902082368e+02   4.2893510743e+01    0.2433229    0.2149018  39.16 0.0006043188    1.187    0.157
        99 -11.9774     89.6093     87.5026   1.1438081577e+02   4.6763162743e+01    0.4009036    0.2476663  49.42  0.001889603    1.897    0.473
       100 -14.7709    134.9719     79.5749   9.9567016108e+01   3.9567841576e+01     1.492587    0.9513977  21.05  0.005217679    2.177    0.541
       101 -14.5229    101.0361     49.9397   9.9070874523e+01   5.1957768594e+01    0.9309327    0.7162414  57.58  0.002833147    1.597    0.374
       102 -14.7592     95.9587    236.3455   1.3730944418e+02   1.5571941402e+01      1.32416     0.581068  60.69  0.006652671    2.569    0.611
       103 -14.1275    131.2953     66.7956   9.6509162317e+01   4.2709631341e+01      1.36704    0.9914802  45.66  0.006641199    1.389    0.280
       104 -13.6712    170.2038    242.5008   1.2501349834e+02   3.4573650035e+00    0.5879929    0.3727814  23.68  0.003560953    1.723    0.420
       105 -14.0928    111.9795     41.1596   9.2754382113e+01   5.1127422625e+01    0.8473125    0.5304458   0.82  0.001807105    2.162    0.538
       106 -12.6500    147.0161    238.4932   1.2857940131e+02   7.6446432670e+00    0.2443526    0.2077724  88.51 0.0009878639    1.452    0.311
       107 -13.5092     39.2818     68.1321   1.2536447274e+02   5.7473743556e+01     0.832987    0.4133756  22.02  0.004183585    2.509    0.601
       108 -13.7286    188.4530     84.4911   8.9173264394e+01   2.6147226526e+01    0.7635637    0.3631209  45.63  0.001786469    2.139    0.533
       109 -12.5214    180.7376    121.2737   1.0046780843e+02   2.1415691452e+01    0.4031596    0.2676744  46.88  0.001534671    1.502    0.334
       110 -13.4026    238.5425     81.1699   7.9913760880e+01   1.4964371090e+01    0.7315266     0.470554 -76.59  0.003135826    2.562    0.610
       111 -10.8773     98.4284     84.1933   1.1087639592e+02   4.5953556439e+01    0.1953484    0.1317668 -56.22 0.0004196842    1.599    0.375
       112 -12.6173    144.9118    231.6619   1.2811306919e+02   8.9726326690e+00    0.3130174    0.1743617 -43.40  0.001783374    2.297    0.565
       113 -12.1995    113.8575     80.5157   1.0542584738e+02   4.3806601860e+01    0.3874599     0.351094 -45.56  0.001515698    1.120    0.107
       114 -11.9784    219.4227     75.0341   8.1205703166e+01   2.0241862898e+01    0.2658105      0.24476  39.50 0.0004689839    1.126    0.112
       115 -13.9544    199.9491     69.9524   8.3013902515e+01   2.5690099887e+01    0.8222006    0.4369642  57.09   0.00221671    1.915    0.478
       116 -13.0655    210.7486     77.6461   8.3300168937e+01   2.1896622601e+01    0.6731641    0.4533623 -72.54  0.002884085    2.206    0.547
       117 -11.8800     91.0838     80.0655   1.1185480605e+02   4.8074044931e+01     0.377115    0.2792785  -7.24  0.001883747    1.699    0.411
       118 -12.5442     41.8756     77.3022   1.2674130445e+02   5.5258231107e+01    0.3381009    0.2396075 -51.54 0.0008382326    1.161    0.138
       119 -12.5597    217.1649     79.5014   8.2744380133e+01   2.0094264848e+01    0.4357558    0.3108686  32.88  0.001838234    1.577    0.366
       120 -12.9722     16.0841    197.6110   1.4827685491e+02   3.1917531479e+01    0.5139076    0.1661427 -60.03  0.002593196    3.286    0.696
       121 -12.3179    158.2028     64.2387   8.9376392051e+01   3.6861844870e+01    0.5281686    0.2110939 -43.03  0.001819887    2.680    0.627
       122 -11.7522    100.5789     64.5081   1.0420767644e+02   4.9451364766e+01    0.3450454    0.2512231 -14.53  0.001444582    1.538    0.350
       123 -13.8073     79.2472     60.3164   1.0946167630e+02   5.3949922582e+01     0.668413     0.471161  -7.70  0.003410139    1.716    0.417
       124 -14.2496    177.7195     57.4241   8.3352230230e+01   3.3105673686e+01    0.8757782    0.6320445 -52.89  0.002539062    1.561    0.359
       125 -12.1808     38.9374     60.5851   1.2347807394e+02   5.9080805388e+01    0.2733998    0.2240193  75.43  0.001703902    1.740    0.425
       126 -13.2588     25.6475     59.3170   1.2795701316e+02   6.0523940570e+01    0.4541644    0.2348616 -38.08  0.002269686    1.781    0.438
       127 -12.8369     63.7569     58.2267   1.1398263499e+02   5.6645498228e+01     0.320403     0.234241  31.30   0.00173463    1.519    0.342
       128 -12.0350    247.8194     53.9561   7.1949689506e+01   1.6692631948e+01    0.5286567    0.1736553 -41.77  0.001969987    2.745    0.636
       129 -11.6557    250.0458     48.9563   7.0477460042e+01   1.6850000203e+01     0.218631    0.1961794  43.05 0.0004859484    1.249    0.200
       130 -12.9939     75.9040     37.5443   1.0241362998e+02   5.8542310645e+01    0.3451703    0.2429736  32.81 0.0009052245    1.463    0.316
       131 -12.5061     70.5060     36.2817   1.0378747259e+02   5.9619889366e+01    0.2889706    0.2170594   6.14 0.0008533111    1.352    0.260
       132 -13.7362     10.6378    210.6036   1.4995041340e+02   3.0022728975e+01    0.6212425     0.431949  46.63    0.0049462    1.464    0.317
       133 -12.2098      5.7640     50.8923   1.3331771590e+02   6.3583247147e+01    0.2795737    0.1644177 -44.79  0.001278664    1.340    0.254
       134 -11.8812     86.3201     49.4786   1.0343802191e+02   5.4757658270e+01     0.244791    0.2004639 -21.54 0.0005757455    1.108    0.097
       135 -12.6871     24.5939    217.5897   1.4803096215e+02   2.7431634660e+01     0.489063    0.2853477  69.74  0.003503599    1.357    0.263
       136 -14.2079     25.6297    227.7543   1.4844568107e+02   2.5552112798e+01    0.5744537    0.2787399 -61.53  0.003722668    2.411    0.585
       137 -13.8380     20.3887    224.4279   1.4910251301e+02   2.6651361748e+01    0.3668601    0.2971533  62.97  0.001809451    1.261    0.207
       138 -14.2281    217.7581     41.9301   7.2597280767e+01   2.5272236533e+01     1.303316    0.6462852  68.83  0.005040433    2.163    0.538
       139 -13.2118    205.1673     40.3298   7.3870476696e+01   2.8579977971e+01    0.6175479    0.3739909 -82.55  0.002224979    2.338    0.572
       140 -13.5311    169.1561     43.3669   8.0601495536e+01   3.7270628198e+01    0.7144257    0.3329955  61.49  0.002780868    2.175    0.540
       141 -13.3779    153.0594     46.8456   8.4895568566e+01   4.0795576473e+01     1.172198    0.2372525  51.31  0.001490005    4.127    0.758
       142 -13.4633    159.2175     43.5759   8.2568728835e+01   3.9734531719e+01    0.6743684    0.3224874  53.29  0.002417751    1.968    0.492
       143 -13.9285      9.0228     42.8489   1.3003506670e+02   6.5018146762e+01    0.7882718    0.5819395  64.76  0.005134108    2.128    0.530
       144 -13.2704     34.4778     33.0024   1.1638067089e+02   6.4859537247e+01    0.3873499    0.2909175  41.05  0.001990092    1.816    0.449
       145 -13.8033     57.4359    202.4828   1.4112291079e+02   2.6583632460e+01    0.9171726    0.2833095 -71.70  0.003997773    3.451    0.710
       146 -13.3267     53.0540    214.3122   1.4291799410e+02   2.4915521115e+01    0.4728587    0.2323114  65.11  0.002685408    1.947    0.486
       147 -13.7888     68.6254    221.1540   1.4072568283e+02   2.1784870766e+01    0.6091473    0.2527141 -64.78  0.003343445    2.486    0.598
       148 -15.1657     63.0950    214.9753   1.4118087461e+02   2.3580417844e+01     1.144856    0.7641918  84.04  0.007785234    1.385    0.278
       149 -14.2224     98.7942    216.9000   1.3483547602e+02   1.8424614179e+01    0.4846529    0.3854658 -69.04  0.003370482    1.382    0.277
       150 -12.0773     25.8080     42.8981   1.2328076019e+02   6.3810639449e+01     0.189165    0.1280236 -35.71 0.0004493104    1.216    0.178
       151 -12.2332    242.3689     35.8128   6.8109742226e+01   2.0220709323e+01    0.5057438    0.1919649  66.43  0.002041756    2.726    0.633
       152 -12.3633    247.1487     37.8784   6.8107791549e+01   1.8886694837e+01    0.5572227    0.2250772 -42.35  0.002365028    2.221    0.550
       153 -10.9352    163.3384    225.3283   1.2392923225e+02   6.9316231644e+00    0.1217846   0.08679099  15.16  0.000705181    1.732    0.423
       154 -12.8283    105.4446     35.1189   9.2287602795e+01   5.3389030612e+01    0.5492367    0.2983709 -16.17  0.002339302    2.198    0.545
       155 -12.0857     45.4612     36.4963   1.1323210148e+02   6.3032216386e+01      0.20824    0.1689539 -15.02 0.0007171944    1.105    0.095
       156 -12.8327     47.3583     32.1741   1.1083477027e+02   6.3558753366e+01    0.4165482     0.233934 -16.16  0.001779483    2.189    0.543
       157 -13.1458     85.1143    215.4574   1.3721617837e+02   2.0611587662e+01    0.2792733    0.2028721  61.81   0.00149312    1.155    0.134
       158 -13.4226    139.6794     21.7449   7.9034480516e+01   4.7307481310e+01    0.6721151    0.4347943  69.53  0.001893131    1.714    0.417
       159 -12.8152    152.1612     31.3471   7.9896326291e+01   4.3099270407e+01    0.4599778    0.2599568 -17.27  0.001324107    1.990    0.498
       160 -12.0267    185.5844    213.7966   1.1811870124e+02   4.8693620960e+00    0.1566175    0.1211641 -53.74 0.0009553167    1.724    0.420
       161 -11.6435     51.3172     36.4668   1.1093776506e+02   6.2321439950e+01    0.3292372    0.1225567  32.31  0.001417999    3.023    0.669
       162 -11.9859    211.3893     33.2725   7.1077753663e+01   2.7914487467e+01    0.2581863    0.2148895 -74.81 0.0004277674    1.250    0.200
       163 -11.8014    222.5930     21.4844   6.6612798428e+01   2.6543937542e+01    0.3357009    0.2377726 -59.04 0.0007104937    1.429    0.300
       164 -12.6596    215.9214     28.8506   6.9316812567e+01   2.7326151227e+01    0.4229483    0.2768371 -55.76  0.001411475    1.610    0.379
       165 -13.9400     94.4949    218.7679   1.3582858070e+02   1.8716901021e+01    0.3585978    0.2629097  63.19  0.001819815    1.175    0.149
       166 -11.1131    136.5232    211.0340   1.2697443008e+02   1.3581551254e+01    0.1672974    0.1237125 -55.40  0.001025596    1.571    0.364
       167 -12.0228     80.4827    208.4900   1.3737333314e+02   2.2503477411e+01    0.2750229    0.1391355  68.35  0.001380359    2.379    0.580
       168 -12.0277     97.3158     30.3303   9.2749690824e+01   5.5721854562e+01    0.2767251    0.2112229 -17.72 0.0009059321    1.239    0.193
       169 -12.4079     97.6848     27.3231   9.1437262376e+01   5.6061050270e+01    0.2693351    0.2545312  15.69  0.001311101    1.156    0.135
       170 -10.9133     89.2862     30.3356   9.5178786303e+01   5.7278816943e+01    0.1410666   0.09618311   5.83 0.0002595153    1.627    0.385
       171 -13.1803     56.1937     27.7414   1.0559684363e+02   6.3128994256e+01    0.4286789    0.2983699  31.99   0.00178152    1.542    0.351
       172 -10.7092    149.5177    206.5628   1.2383394469e+02   1.2152795183e+01    0.1269728    0.1085372  41.19 0.0001808443    1.031    0.030
       173 -11.5517     70.7618     16.9840   9.5590968676e+01   6.2435617249e+01    0.2045291    0.1664932  20.68 0.0003960507    1.153    0.133
       174 -11.1441     60.4960     15.9505   9.8825654102e+01   6.4239359398e+01    0.1901141     0.109037 -29.95  0.001025893    1.572    0.364
       175 -12.6721     45.3936    197.8120   1.4296880692e+02   2.8878559201e+01    0.3482056    0.2229621 -89.53  0.002312737    1.384    0.278
       176 -10.7008    202.2971     11.3507   6.6141919961e+01   3.2610844832e+01    0.1404325   0.09789427  33.73 0.0005015972    1.685    0.407
       177 -12.7919     41.8514    201.1198   1.4389205903e+02   2.8641573451e+01    0.2814756    0.1658426  73.93  0.001506135    1.522    0.343
       178 -13.2378     39.3331    195.0033   1.4387038881e+02   3.0087194405e+01     0.392707     0.290381  76.76  0.001975181    1.078    0.073
       179 -12.5925    164.3076    194.8645   1.1910512653e+02   1.1508199909e+01    0.5679506    0.3126303 -61.05  0.002524978    2.874    0.652
       180 -12.1911    248.4305    195.2782   1.0370260417e+02  -3.2351295147e+00     0.234236     0.110203 -24.96  0.001157197    2.165    0.538
       181 -13.4977     30.0437    169.9099   1.4355882242e+02   3.6065673932e+01    0.6798649    0.4370974 -36.33  0.003601257    2.605    0.616
       182 -14.7282     13.7948    157.6606   1.4585996659e+02   4.0073667949e+01     1.701503    0.8924729 -38.34  0.008773906    3.421    0.708
       183 -15.1865      7.8624    184.1332   1.4891575636e+02   3.5229896327e+01     1.128076     0.761402  84.45  0.008466262    1.120    0.107
       184 -14.5895     15.3968    175.3908   1.4691204849e+02   3.6307434376e+01    0.9994703    0.3935693  57.73  0.005345821    2.451    0.592
       185 -12.6071    201.3229    191.6870   1.1141013131e+02   5.3314099979e+00    0.3383444    0.2740558   8.70  0.002049625    1.199    0.166
       186 -10.8776    107.6157    193.1720   1.3025794277e+02   2.1413552298e+01    0.1679595     0.113388 -48.77 0.0009488515    1.721    0.419
       187 -12.7816     48.7590    181.0338   1.4080268351e+02   3.1808280667e+01    0.5077642    0.2598471 -63.65  0.002895079    1.838    0.456
