#   1 NUMBER                 Running object number                                     
#   2 MAG_AUTO               Kron-like elliptical aperture magnitude                    [mag]
#   3 X_IMAGE                Object position along x                                    [pixel]
#   4 Y_IMAGE                Object position along y                                    [pixel]
#   5 X_WORLD                Barycenter position along world x axis                     [deg]
#   6 Y_WORLD                Barycenter position along world y axis                     [deg]
#   7 A_WORLD                Profile RMS along major axis (world units)                 [deg]
#   8 B_WORLD                Profile RMS along minor axis (world units)                 [deg]
#   9 THETA_WORLD            Position angle (CCW/world-x)                               [deg]
#  10 FWHM_WORLD             FWHM assuming a gaussian core                              [deg]
#  11 ELONGATION             A_IMAGE/B_IMAGE                                           
#  12 ELLIPTICITY            1 - B_IMAGE/A_IMAGE                                       
         1 -14.5839     41.9148    201.4514   1.3103210521e+02   2.8878962486e+01     7.812699     1.477353  52.34  0.004521469    4.911    0.796
         2 -14.9471      8.5554    152.2607   1.3416037854e+02   4.2008037838e+01     7.099466     1.171763 -79.87   0.01935392    7.957    0.874
         3 -12.8280    199.4040     33.4475   5.9842156309e+01   3.0964810739e+01     1.199836    0.9487513  38.33  0.006308497    1.387    0.279
         4 -13.4646    215.1987     16.3260   5.3165904365e+01   2.8952013507e+01     1.392379    0.9898888  29.14  0.007166271    1.806    0.446
         5 -12.1880      2.5956     16.2083   1.1407587982e+02   7.1234031810e+01    0.9908109    0.1733253 -57.49  0.003693604    4.280    0.766
         6 -11.0787     19.3224     26.6625   1.0948014989e+02   6.8206578665e+01    0.3645126    0.2079913  40.23  0.002096545    2.456    0.593
         7  -9.7037     56.1560    241.1115   1.3124289480e+02   2.0209298313e+01    0.1457517    0.1189524  65.56 0.0003129268    1.195    0.163
         8 -11.1448    139.2430    249.0060   1.1767766208e+02   7.5335932641e+00    0.3097422    0.1759558  56.11  0.001877018    1.687    0.407
         9 -12.1748     93.6315    248.5399   1.2548869359e+02   1.4206480054e+01     0.462716    0.3638161 -67.38  0.003584712    1.588    0.370
        10 -11.3990     21.7736    245.4903   1.3697955320e+02   2.3311636589e+01    0.4999143    0.2030154  53.84  0.001134058    1.715    0.417
        11 -11.5049     19.0069    234.1442   1.3690905408e+02   2.5450980887e+01    0.3257491    0.1943021  71.74  0.001794391    1.237    0.191
        12 -12.2754      4.3693    227.2504   1.3893995391e+02   2.8012007718e+01    0.7422734    0.4033569 -83.10  0.005566251    1.616    0.381
        13 -11.4042     38.6351    247.0237   1.3442498976e+02   2.1274171266e+01    0.3932158    0.2878825  35.67   0.00310316    1.719    0.418
        14 -11.7277     30.9907    247.4856   1.3564584423e+02   2.2030949682e+01    0.4167213    0.3645258  53.77  0.003742517    1.505    0.335
        15 -12.5815     12.1639    238.6967   1.3817522050e+02   2.5368036111e+01    0.7090582    0.3552679  84.82  0.003454645    1.660    0.398
        16 -10.1678     17.1518    249.9905   1.3786868607e+02   2.3062169172e+01    0.2489565    0.1300565  46.74   0.00121173    1.517    0.341
        17 -11.9678      5.8168    248.7005   1.3950357375e+02   2.4364355836e+01    0.8736354    0.4460149  61.09  0.006809453    1.323    0.244
        18 -10.8863     47.5524    235.9829   1.3235244921e+02   2.2069079674e+01    0.3921532      0.14733  67.43  0.001973346    2.935    0.659
        19 -10.0642    247.1694    249.5633   9.9500944324e+01  -8.6730728682e+00    0.2688262   0.06895454  34.12   0.00115388    3.284    0.696
        20 -12.9829     10.0019    207.3665   1.3714966135e+02   3.1003556496e+01    0.6971532    0.5154785  43.52  0.003079105    1.485    0.327
        21  -9.4797    228.1230    204.5765   9.5479494181e+01  -9.4647458886e-01    0.2418779    0.1912217 -53.82  0.001385803    2.030    0.507
        22  -9.4618    192.5663    193.9915   1.0011478571e+02   6.6464475777e+00    0.4667111    0.2306873 -60.78  0.001308403    7.962    0.874
        23 -11.2634     57.2957    193.4869   1.2740099576e+02   2.8619422023e+01     0.285508    0.2263813 -50.23 0.0006293823    1.702    0.413
        24  -8.1512    181.7229    192.6606   1.0197268216e+02   8.8118063838e+00    0.1304639   0.09610993   8.54  0.000700213    1.617    0.382
        25 -11.4532     63.7459    185.8575   1.2536133699e+02   2.9328085830e+01    0.2436081    0.2143627 -65.69 0.0004796069    1.350    0.259
        26 -10.5091     74.4224    173.9789   1.2177089464e+02   3.0349252799e+01    0.2240174    0.1982485 -84.18 0.0004408987    1.139    0.122
        27 -12.9225     60.9429    171.3483   1.2442390713e+02   3.2662603927e+01    0.4653045    0.2608116 -47.87  0.001840998    2.321    0.569
        28 -11.4570     82.4644    165.2055   1.1884423008e+02   3.1063774522e+01    0.5592508    0.4926147  62.79  0.003616089    1.081    0.075
        29 -12.4460     28.9161    225.7317   1.3487590165e+02   2.5871160960e+01    0.2639033    0.2263099  65.26 0.0007655662    1.328    0.247
        30 -11.6982     84.1535    148.8806   1.1605656981e+02   3.4348174822e+01    0.2702115    0.2336203 -56.30 0.0005102672    1.232    0.188
        31 -12.0990     67.6591    144.0561   1.1938269496e+02   3.7723650768e+01    0.7070549    0.4394937  68.06  0.003227675    1.804    0.446
        32  -8.6008     99.1411    145.9049   1.1189469276e+02   3.2667560073e+01    0.1779212    0.1603645 -32.91 0.0004038233    1.324    0.245
        33  -9.5824     95.8354    150.0218   1.1340218783e+02   3.2303408249e+01    0.2320247    0.1907743  48.94 0.0006541596    1.187    0.157
        34 -13.6633     35.0869    218.1916   1.3339021408e+02   2.6541868432e+01    0.7581174    0.5625662  68.43  0.002526585    1.032    0.031
        35  -9.0450    108.4366    135.8122   1.0770979349e+02   3.3302462991e+01    0.2592194    0.1888651  -7.15  0.001181046    2.277    0.561
        36 -10.0631     95.3142    132.7502   1.1046197745e+02   3.6196287767e+01    0.2416165    0.2190904 -26.91 0.0003061293    1.305    0.234
        37 -10.8202     56.5327    128.4741   1.1990052696e+02   4.2632053111e+01    0.3162998    0.1544981 -73.62  0.001452971    2.093    0.522
        38 -10.1538    110.7732    225.9776   1.2032746190e+02   1.5320230373e+01    0.2200812    0.1431537  47.13  0.001179029    1.230    0.187
        39  -8.7620    105.8790    122.8718   1.0570855254e+02   3.6601598313e+01    0.1798463    0.1575528  82.33            0    1.198    0.165
        40  -9.4763    167.6162    112.7105   8.8123470120e+01   2.5998385121e+01    0.2858352    0.2439572  82.73 0.0008128794    1.409    0.290
        41  -9.0098    203.7482    111.4158   8.0390932076e+01   1.7967837738e+01    0.2165595    0.1335795  39.14 0.0009483942    1.682    0.406
        42 -10.5386    241.4964    101.9999   7.1663383878e+01   1.1148664172e+01    0.2229631    0.1287519 -31.16 0.0008494515    1.604    0.377
        43 -10.5570    242.5041     93.5096   6.9471561196e+01   1.2193098634e+01    0.2550782     0.117528  44.07  0.001044646    2.389    0.581
        44  -9.9389    189.6037    249.2423   1.0899312096e+02  -2.1909200225e-01    0.1377898     0.102031 -12.96 0.0007041047    1.695    0.410
        45 -11.7269      9.0390     60.8079   1.2298835341e+02   6.1969388234e+01    0.2727329    0.1938808 -73.00  0.001820858    1.272    0.214
        46 -10.4035    207.8661    246.5004   1.0551895463e+02  -2.6848454527e+00    0.1675492     0.142608  41.74 0.0008063723    1.358    0.263
        47  -9.7026    163.6774    247.3412   1.1323296603e+02   4.0121542721e+00    0.1127612   0.07725222  61.31 0.0007050661    1.725    0.420
        48 -10.8693    107.5582    244.3502   1.2272804860e+02   1.2891154566e+01    0.2011459     0.135781  68.91  0.001365059    1.466    0.318
