#   1 NUMBER                 Running object number                                     
#   2 MAG_AUTO               Kron-like elliptical aperture magnitude                    [mag]
#   3 X_IMAGE                Object position along x                                    [pixel]
#   4 Y_IMAGE                Object position along y                                    [pixel]
#   5 X_WORLD                Barycenter position along world x axis                     [deg]
#   6 Y_WORLD                Barycenter position along world y axis                     [deg]
#   7 A_WORLD                Profile RMS along major axis (world units)                 [deg]
#   8 B_WORLD                Profile RMS along minor axis (world units)                 [deg]
#   9 THETA_WORLD            Position angle (CCW/world-x)                               [deg]
#  10 FWHM_WORLD             FWHM assuming a gaussian core                              [deg]
#  11 ELONGATION             A_IMAGE/B_IMAGE                                           
#  12 ELLIPTICITY            1 - B_IMAGE/A_IMAGE                                       
         1 -15.0644      6.3957     71.1982   7.7707055709e+01   6.2195805588e+01     1.267564    0.7552552 -61.35   0.00601407    1.390    0.280
         2 -12.5813    187.6658     11.5902   2.6495139512e+00   3.6241222672e+01    0.7147598    0.3705253 -34.79  0.003582866    1.833    0.454
         3 -13.7331    187.6586     23.9283   5.9598341156e+00   3.4901048727e+01     1.434129    0.6974426 -58.69  0.006364344    2.178    0.541
         4 -13.2070      7.2420      2.8315   5.4245228297e+01   7.6689947374e+01    0.6202667    0.4303823  12.87  0.004069162    1.357    0.263
         5 -16.0551     11.2434     23.2121   6.1653342123e+01   7.2644458555e+01     2.244237     1.074652 -30.21   0.01104597    2.099    0.524
         6 -14.1139     26.2315     13.4862   4.6717738295e+01   7.2804253585e+01    0.7605731    0.4120191  13.22  0.003690551    2.280    0.561
         7 -14.6440    122.3615     36.7620   2.0341006678e+01   4.9706804819e+01     1.398589    0.7151287  49.35  0.005923158    1.864    0.464
         8 -14.5245    166.5427     29.1056   9.9725807522e+00   3.9476876021e+01     1.043907    0.7941333  73.69  0.003937932    1.240    0.193
         9 -14.7919    147.5904     29.6421   1.2981169419e+01   4.4216069923e+01     1.347613    0.7606368  68.66  0.005015526    1.684    0.406
        10 -12.8839    140.6501     21.4872   1.1406912831e+01   4.6952235274e+01    0.7392292    0.3347924  67.28  0.001646488    2.029    0.507
        11 -13.0176    120.3893     25.9357   1.6772502291e+01   5.1609543095e+01    0.6553785    0.4866727  35.81  0.003388421    1.453    0.312
        12 -15.3572     99.1690     11.7073   1.5815278350e+01   5.8479502079e+01     1.575583    0.8980554  56.92  0.004435198    1.529    0.346
        13 -12.4620     85.5318     13.8377   2.0364759850e+01   6.1515603580e+01    0.4256962    0.3503404 -36.23  0.001815302    1.352    0.261
        14 -11.8073     71.1031     16.1540   2.6165063476e+01   6.4481040701e+01    0.3652751    0.2179765 -15.07  0.001767601    1.960    0.490
        15 -12.0215     74.7583     10.3683   2.2009207015e+01   6.4347040379e+01    0.3044154    0.2189579  10.17  0.001099531    1.541    0.351
        16 -12.7518    214.7269      9.9248   6.5187852351e-02   3.0195617762e+01    0.3579297    0.3158737 -70.05  0.001588928    1.108    0.098
        17 -12.1559     46.7442     13.0597   3.4831716552e+01   6.9680378131e+01    0.2952502    0.2546575  42.42  0.001753533    1.281    0.219
        18 -14.0729     41.7793      4.6326   3.2366443267e+01   7.1648573740e+01    0.7502627    0.5386352   7.92  0.003613729    1.375    0.273
        19 -11.8077    123.3964     10.6882   1.0467653570e+01   5.2500356906e+01    0.2926826    0.2076081 -79.14  0.001097546    1.563    0.360
        20 -11.5182    153.1104      8.3062   5.3221338553e+00   4.5122651124e+01    0.2096543    0.1926414   2.80 0.0006826799    1.317    0.241
        21 -12.2750     60.3381     15.3924   2.9938376998e+01   6.6806511034e+01    0.5059593    0.2880094  29.08  0.002424561    1.899    0.473
        22 -12.1825    120.3259      3.3073   8.2007418854e+00   5.3949729168e+01    0.4846372    0.2502119 -83.30  0.001998762    2.588    0.614
        23 -11.2463     67.6996      2.7958   2.0412923671e+01   6.6673658159e+01    0.3010281    0.1612618  35.87   0.00146375    1.817    0.450
        24 -11.8390     80.1674      1.6723   1.6026959088e+01   6.3958793569e+01    0.6388315   0.05780787  56.90  0.001822641    4.753    0.790
        25 -11.4084     61.1983      1.4743   2.1974236360e+01   6.8198585269e+01     0.355444      0.11339  56.21  0.001384586    2.821    0.646
        26 -11.7051    201.0311    191.4048   4.3147087046e+01   5.4072137428e+00    0.2791839       0.2039  13.30  0.001543147    1.274    0.215
        27 -13.0609    107.9887    245.8440   7.0100742595e+01   1.0148701132e+01    0.6080892    0.4803646  69.72  0.004098093    1.503    0.335
        28 -14.2579     97.3081    239.3291   7.1687376846e+01   1.2678486339e+01    0.8079706    0.6666546 -75.05  0.005539257    1.481    0.325
        29 -14.4170     91.1468    231.6185   7.2248603255e+01   1.4877662092e+01    0.5876544    0.5258771 -85.28  0.004096887    1.299    0.230
        30 -13.1637     57.3168    246.6401   8.0628025080e+01   1.6398111897e+01    0.5613992    0.1743377  31.76  0.002523115    2.640    0.621
        31 -11.7585     41.0155    248.0079   8.3993057341e+01   1.7991127489e+01    0.4346524    0.1411411 -82.34  0.001927658    3.988    0.749
        32 -13.6215     28.5259    246.2441   8.6374804573e+01   1.9629424408e+01    0.4497331    0.2999362  71.07  0.002703117    1.334    0.250
        33 -12.1375      2.8513    249.6389   9.1403354495e+01   2.1489402154e+01    0.3301244    0.1816834  41.30  0.001688164    1.379    0.275
        34 -13.9669      9.3967    245.5847   9.0050834349e+01   2.1618606339e+01     0.840576    0.3394193  49.56  0.003677584    1.724    0.420
        35 -11.8625     97.9707    188.0000   6.5501339566e+01   2.2627876493e+01     0.237627   0.07249711  33.84 0.0008070863    2.975    0.664
        36 -12.1827     48.8119    181.2646   7.7311731148e+01   3.0871817717e+01    0.3875057    0.2716258 -53.94  0.002139793    1.610    0.379
        37 -13.2981    197.6203    179.8502   4.1679183590e+01   7.7727412067e+00    0.5744895    0.3814302 -66.28   0.00252045    3.311    0.698
        38 -11.4269    121.9943    180.6083   5.8411458415e+01   2.0358525148e+01    0.4111026    0.2306201  73.11  0.001250096    5.056    0.802
        39 -13.2868     85.2886    179.8733   6.7610053981e+01   2.6338291364e+01    0.4691498    0.2999725  83.23  0.002171979    2.060    0.515
        40 -13.3129    124.1201    166.2151   5.5384179798e+01   2.3068028282e+01    0.6489639    0.4493746 -73.70  0.003002191    1.944    0.485
        41 -12.4927     22.3245    165.9533   8.2989312253e+01   3.7285842985e+01    0.2746502    0.1836587 -82.74 0.0008521456    1.367    0.269
        42 -11.3714      1.8837    159.2996   8.8052605769e+01   4.0528832019e+01    0.2750441    0.1497651 -82.22   0.00147894    1.598    0.374
        43 -12.1145     77.3014    156.9064   6.6430926831e+01   3.2933718420e+01    0.4350871    0.3452753  31.47  0.001288208    1.275    0.216
        44 -13.3887     73.5807    153.3386   6.6946736420e+01   3.4352999857e+01    0.6953773    0.5208026  23.13   0.00252073    1.466    0.318
        45 -12.8006    208.7320    154.1401   3.4566285624e+01   1.0158382108e+01    0.5868854     0.358668  33.80  0.003020891    1.711    0.415
        46 -11.8770     85.9097    152.6579   6.3273415524e+01   3.2648739200e+01    0.5572441    0.2440793 -44.71  0.002041732    2.733    0.634
        47 -12.7630      7.7060    148.5437   8.5765083649e+01   4.2723776799e+01    0.5468089    0.2951353  67.78  0.002785612    1.770    0.435
        48 -11.8255    103.3504    149.8185   5.7829712432e+01   3.0431863801e+01    0.3680735     0.263463 -32.98  0.001616627    1.682    0.406
        49 -12.1210    111.3588    155.6348   5.6742023883e+01   2.7678766419e+01    0.4732771     0.295461  89.30  0.001770114    2.951    0.661
        50 -10.5153     38.4611    145.5376   7.6356810658e+01   4.0750454850e+01    0.1355115    0.1244437 -86.37 0.0001497985    1.055    0.052
        51 -12.6758    246.4103    133.7231   2.4373067618e+01   7.1466958665e+00    0.3494321     0.291189 -45.07  0.002306599    1.303    0.233
        52 -14.3246    233.6856    129.1890   2.5271345478e+01   9.8959913877e+00    0.9212303    0.5277497 -38.85  0.004860248    1.532    0.347
        53 -12.5848     43.9929    132.7217   7.2931218828e+01   4.3414221699e+01    0.2213172     0.188775 -42.67 0.0006861366    1.283    0.220
        54 -11.6421    138.0388    131.9877   4.4768670846e+01   2.7904182174e+01    0.2521861    0.1922041  -2.35  0.001144623    1.732    0.423
        55 -14.3229    104.4194    121.3253   5.1487548331e+01   3.7003096505e+01     1.460992     1.144284  49.70  0.007094529    1.292    0.226
        56 -14.8782    106.1437    105.2930   4.6965918351e+01   4.0412844399e+01     1.455202     1.207263  50.54  0.007216799    1.222    0.182
        57 -12.1720      4.3363    119.3629   8.4508794907e+01   5.0234461961e+01    0.5046467    0.2496507   7.26  0.002388371    2.589    0.614
        58 -12.9676     28.5984    121.8476   7.6550854300e+01   4.7789040879e+01    0.4998386    0.2910478 -55.39  0.002450214    1.618    0.382
        59 -12.2176     78.8598    110.8498   5.7114247267e+01   4.4132824724e+01    0.4037777    0.3033102  88.36  0.001712043    1.669    0.401
        60 -12.8839     84.4963    114.9341   5.6197913837e+01   4.2171142463e+01    0.9330677    0.4629172  24.80  0.003346533    2.679    0.627
        61 -11.9058     88.1030    108.9583   5.3592626092e+01   4.2994798227e+01    0.5285206     0.238193 -59.45  0.001877289    2.490    0.598
        62 -11.9270     42.7250     90.3214   6.5726351838e+01   5.4412196327e+01     0.342937    0.2457278 -63.38 0.0006157478    1.315    0.240
        63 -12.8185     36.6886     92.8335   6.8705859308e+01   5.4445238030e+01    0.4815924    0.3138266   9.40  0.001718318    1.843    0.457
        64 -13.1268     20.6223     86.1936   7.4057090556e+01   5.7573408390e+01    0.6811931    0.4750702  10.26  0.003714623    1.639    0.390
        65 -14.3585     18.5571    111.2147   7.8684007226e+01   5.1362105931e+01    0.8534287    0.6296718 -41.45  0.003428534    1.436    0.303
        66 -14.4972     10.5296    102.7955   8.0578137503e+01   5.4065912921e+01     0.928559    0.6830161  25.30  0.005407986    1.524    0.344
        67 -13.7773      2.2543     96.9209   8.3033185894e+01   5.6011406998e+01    0.8689912    0.3131212 -76.87  0.003609425    2.389    0.581
        68 -14.5878     23.2549     95.0393   7.4517191678e+01   5.5131376956e+01      1.44624    0.6671877  15.29  0.006252781    2.564    0.610
        69 -12.0515    121.9698    112.0349   4.4146393495e+01   3.5624058829e+01    0.2398162     0.233179  10.77  0.000561768    1.055    0.052
        70 -11.7967    177.0152    110.3234   3.0686113418e+01   2.4034437393e+01    0.2842185    0.2142278  -9.81  0.001359809    1.648    0.393
        71 -11.4847     62.4466    110.5331   6.2708150662e+01   4.6755854769e+01    0.2625426    0.2291346  48.02   0.00141365    1.177    0.151
        72 -12.0088     32.7660    110.5311   7.3424390532e+01   5.0315503355e+01    0.3402902    0.2150978  44.18  0.001691527    1.665    0.399
        73 -11.1966     46.0484    109.9969   6.8485848418e+01   4.9030077321e+01    0.2380336    0.1600165 -35.30  0.001133074    1.703    0.413
        74 -12.5947    136.1318    102.8770   3.7959205029e+01   3.4538133480e+01    0.5607094    0.2976025  49.95  0.002046075    1.921    0.479
        75 -12.5947    181.1119    120.4745   3.2338118800e+01   2.1290126144e+01    0.2396239    0.2036672 -58.97  0.001021998    1.300    0.231
        76 -10.6252     64.6761    101.6797   5.9922003576e+01   4.8654868785e+01    0.1552568    0.1462501  86.07 0.0003063432    1.095    0.087
        77 -11.9906     61.5514     97.7022   6.0125149784e+01   5.0105126771e+01     0.473894    0.3289832  83.27  0.001960004    1.988    0.497
        78 -11.1056     48.6702    100.6773   6.5656675822e+01   5.1093319517e+01    0.2787346    0.2450402 -58.67  0.001249788    1.067    0.063
        79 -12.5746     52.5134     97.5496   6.3506645622e+01   5.1393849905e+01    0.9547369    0.3992292  18.25  0.003193254    3.587    0.721
        80 -12.2617    163.3624     97.7696   3.0259253882e+01   2.9401734181e+01    0.3652247    0.2774059  62.33 0.0006172833    1.429    0.300
        81 -13.2461    137.3135     94.9661   3.5480907489e+01   3.5900830485e+01    0.5122259    0.3867504  62.22  0.001386208    1.445    0.308
        82 -12.2008     49.0919     93.1420   6.3827483647e+01   5.2937394832e+01    0.3929498    0.2701746  69.19  0.001831466    1.903    0.474
        83 -12.7245    178.6630     85.3683   2.3964570919e+01   2.8143196814e+01    0.5372446    0.2648112 -57.21  0.001927244    2.870    0.652
        84 -13.7647    188.6040     83.9527   2.1862743039e+01   2.6130577697e+01    0.7035982    0.3642413  45.14  0.002483224    2.179    0.541
        85 -12.7233     29.4838     89.2479   7.0926394512e+01   5.6057443572e+01    0.5529705    0.3372591  73.74  0.001757522    2.218    0.549
        86 -12.4298    158.9132     64.7068   2.1868900340e+01   3.6312601860e+01     0.808792    0.3060342 -49.70  0.002628477    3.231    0.690
        87 -13.7870    164.0193     71.4961   2.2866887100e+01   3.3947733078e+01     1.192272    0.5024971  46.25  0.004343667    2.609    0.617
        88 -14.1950    160.5912     80.8473   2.6200299549e+01   3.3149964854e+01     1.320318    0.7483904  24.50  0.003182123    3.575    0.720
        89 -14.9636    169.4072     76.7338   2.3326539933e+01   3.1775871306e+01     1.554787    0.6613556  54.63  0.005246263    2.361    0.576
        90 -13.4405    237.1948     80.0600   1.4124527553e+01   1.6636259020e+01    0.4325413    0.2631705  79.57  0.002219797    2.284    0.562
        91 -13.7855     53.9714     67.1281   5.4701860171e+01   5.8490630186e+01     1.099035      1.00865  33.40  0.006379531    1.152    0.132
        92 -13.1975     61.7910     58.6516   4.8458320738e+01   5.9107443017e+01    0.9140174    0.4224887 -29.53   0.00307328    3.489    0.713
        93 -13.4242     66.2282     48.8893   4.2893856093e+01   6.0285111733e+01    0.6881447    0.6026628 -48.37  0.003580969    1.237    0.192
        94 -13.2341     87.4571     65.1746   4.0868311331e+01   5.2976310687e+01    0.5746297    0.4326227 -12.35  0.001086881    1.654    0.395
        95 -13.6940     91.2354     57.2830   3.6742891954e+01   5.3716596750e+01    0.5676754    0.5007792 -71.61  0.003020658    1.334    0.250
        96 -13.8154     61.1437     75.8450   5.4391729480e+01   5.5420483057e+01    0.7677307    0.4714465 -41.47  0.002169145    1.622    0.383
        97 -14.1900    214.0786     78.9316   1.6767214953e+01   2.1403883144e+01     1.006787    0.5782696  85.88  0.004283254    2.841    0.648
        98 -12.0144    114.1595     79.5393   3.7133920926e+01   4.4302725234e+01    0.4533341    0.3332697 -45.97  0.002125807    1.381    0.276
        99 -12.8277    135.3117     79.1477   3.1367746204e+01   3.9478766500e+01     0.791902    0.3742649  53.35  0.002983168    2.136    0.532
       100 -11.6095     41.7193     75.9185   6.2630794112e+01   5.8062554763e+01    0.3130842    0.2118405 -67.99 0.0009282403    1.548    0.354
       101 -14.1405    171.2466    242.3841   5.6919038304e+01   2.0907307741e+00    0.8060217    0.4569857  23.90  0.004697538    1.496    0.332
       102 -14.1805      4.9708     63.3695   7.6974367283e+01   6.4157112743e+01    0.6330307    0.5580633 -10.10  0.003774933    1.235    0.190
       103 -11.5432     27.3972     76.1733   6.9062499347e+01   5.9494182261e+01    0.3251064    0.2076249  74.04  0.001519001    2.200    0.545
       104 -14.2049    199.4705     69.8429   1.6558038321e+01   2.5943930091e+01    0.7985534    0.4661742  49.86    0.0028369    1.892    0.471
       105 -13.1274    134.2301     65.8373   2.7493807379e+01   4.2173741524e+01    0.7171798    0.5878174  36.98  0.002847927    1.300    0.231
       106 -12.3599     38.5901     67.9877   6.1859037948e+01   6.0308498788e+01    0.6300516    0.2295676  29.19  0.002434409    2.806    0.644
       107 -11.8095    100.0327     65.0717   3.6648422219e+01   5.0321747041e+01    0.2365877    0.2310047  36.93  0.000993514    1.015    0.015
       108 -12.8912     78.8591     59.9036   4.2099309444e+01   5.5751995976e+01    0.6443843    0.4698716 -53.70   0.00315694    1.513    0.339
       109 -14.0176    177.7698     56.9937   1.6378374599e+01   3.2927533291e+01    0.8780832    0.5797861 -52.07  0.002928777    1.503    0.335
       110 -12.1966     36.1645     54.1193   5.8746036945e+01   6.3741977239e+01    0.2809162    0.2050341 -18.76  0.001269475    1.444    0.308
       111 -11.8930     34.6124     60.4766   6.1537453515e+01   6.2494019364e+01    0.4040661    0.1666777 -50.19  0.001695403    2.112    0.527
       112 -12.0280     38.5398     59.6577   5.9381498811e+01   6.2228117982e+01    0.3205847    0.2085255  63.11  0.001451746    2.453    0.592
       113 -11.9007     24.8039     59.2764   6.6053176345e+01   6.3754744117e+01    0.3911614    0.2410976 -50.51  0.001940156    1.412    0.292
       114 -14.6586    119.6480     54.2441   2.7237955651e+01   4.7708741433e+01    0.9470704    0.6616749  42.33  0.001962899    1.453    0.312
       115 -12.9109    135.9420     51.3220   2.2375261245e+01   4.4156342490e+01    0.6190042    0.4622803 -30.36  0.002184333    1.424    0.298
       116 -13.7891    103.3466     50.2953   3.0318142943e+01   5.2247930085e+01    0.9228376    0.5093942 -45.81  0.001634837    1.969    0.492
       117 -13.5199     97.9705     49.9756   3.1829982067e+01   5.3536777507e+01    0.7427027    0.4036501 -44.76  0.002467418    1.972    0.493
       118 -13.8203     74.0999     73.7433   4.8635459117e+01   5.3729937861e+01     1.470037     0.764227  16.51  0.004571835    4.089    0.755
       119 -11.2309     17.6509     55.1336   6.8604404444e+01   6.5307009220e+01    0.3265082    0.1513587 -66.40  0.001473535    2.110    0.526
       120 -10.6253     23.5501     49.9841   6.3958415161e+01   6.5977597467e+01    0.1916058    0.1159259 -55.19 0.0004786107    1.490    0.329
       121 -12.8860     55.1703     81.2214   5.8374836457e+01   5.5042673187e+01    0.6305356    0.4257804 -36.71  0.002568347    1.543    0.352
       122 -13.3700    157.1521     43.8912   1.5896354610e+01   3.9913038299e+01    0.9076074    0.5034277  40.46  0.003798802    2.249    0.555
       123 -11.2864     38.8620     46.1016   5.4520643596e+01   6.5123104258e+01    0.1927207     0.187398 -67.95 0.0008521045    1.238    0.192
       124 -12.5900    147.3051    238.6636   6.1179892859e+01   5.9091977151e+00     0.184312    0.1572297 -69.99 0.0009775636    1.681    0.405
       125 -14.5084    212.7020     41.2138   7.7699147156e+00   2.7014509666e+01     2.054867    0.6713494  77.70  0.006615855    4.836    0.793
       126 -12.8054     24.2336    216.7405   8.5801070262e+01   2.5749425485e+01    0.7351828    0.2536865  48.84  0.003535845    2.221    0.550
       127 -13.3912      6.1408     42.9612   7.1699534857e+01   6.8825286864e+01    0.9004977    0.3895576  14.99  0.004315131    2.496    0.599
       128 -14.1091     26.5598    225.9813   8.5786365783e+01   2.3659567894e+01    0.7101273    0.3910914 -54.96  0.004037121    2.390    0.582
       129 -13.9598     20.8801    224.1253   8.6891674972e+01   2.4592890737e+01    0.4811167     0.435995 -79.07  0.002049111    1.356    0.262
       130 -12.1932    144.9870    232.2212   6.0821319807e+01   7.2445540922e+00    0.1970867    0.1699207 -80.54  0.001295026    1.669    0.401
       131 -12.4699    110.0268     42.0002   2.5324302374e+01   5.1990888540e+01    0.4109409    0.2085786  57.39 0.0009018091    1.909    0.476
       132 -13.4878    113.8462     37.7411   2.2731876883e+01   5.1685704200e+01    0.4666712    0.3635731  39.10  0.001466469    1.302    0.232
       133 -13.3170    237.9408    230.1360   4.3129185353e+01  -4.7346139845e+00    0.2878886    0.2388376  32.99  0.002156603    1.729    0.422
       134 -13.3470    131.3824     33.3739   1.7200433100e+01   4.7882772788e+01     0.762313    0.5094282 -41.96  0.003252645    1.554    0.357
       135 -12.2673     40.2829     40.2433   5.1471851478e+01   6.6118251072e+01     0.522303    0.2531177  32.53  0.002389206    2.090    0.521
       136 -12.7783     32.9685     40.1734   5.5344762623e+01   6.7072410493e+01    0.3163122    0.2640899 -17.49 0.0005516768    1.095    0.087
       137 -12.5922     76.0081     37.0171   3.4073581985e+01   6.0472692326e+01    0.4583492    0.2911832  37.75   0.00139501    1.536    0.349
       138 -11.7890     70.8615     36.1300   3.5661263230e+01   6.1663889613e+01    0.2738482    0.2328911  63.47 0.0009139852    1.406    0.289
       139 -12.6898    242.5199     36.1896   3.9265526326e+00   2.1425347997e+01    0.4859481    0.2532939  83.54   0.00249093    2.207    0.547
       140 -12.0432    104.5175     36.5774   2.4725438865e+01   5.4121568869e+01    0.2897848    0.1438078 -32.20  0.001199998    2.129    0.530
       141 -13.4139     45.4573     33.1647   4.5734167070e+01   6.6699272746e+01    0.9967551    0.4595874  32.51   0.00439901    2.212    0.548
       142 -13.1404     57.5578    201.7142   7.7065838987e+01   2.5223316642e+01     1.097614    0.3805773 -70.59   0.00449104    3.098    0.677
       143 -14.0538     65.9989    223.1447   7.7006496144e+01   1.9751027307e+01    0.8171135    0.6389707  45.74  0.005325446    1.052    0.050
       144 -13.7004     59.3844    212.7968   7.7619976575e+01   2.2656262270e+01    0.6023968    0.4091402  -8.15  0.001934906    2.554    0.608
       145 -12.6767    216.1367     28.3956   4.3422567792e+00   2.7837464538e+01    0.2661164    0.1627028 -43.02  0.001359522    1.414    0.293
       146 -13.2793     94.2494    218.3405   7.0169222548e+01   1.6949461421e+01    0.3325787    0.2427269  38.14  0.001478872    1.152    0.132
       147 -13.4768     57.8711     26.7461   3.6762187329e+01   6.5663787984e+01     1.057048    0.3381723  40.96  0.003223551    3.044    0.671
       148 -12.2937     30.7142     25.2093   5.0076623081e+01   7.0220007987e+01    0.3600102    0.2133846   5.98  0.001766743    2.096    0.523
       149 -12.3042     36.2625     22.5378   4.5534478717e+01   6.9926014541e+01    0.3730941    0.2347545  -5.61 0.0008921762    1.975    0.494
       150 -14.0631     64.3942    214.1535   7.6584838611e+01   2.1755661748e+01    0.5281835    0.3022447  44.12  0.002885194    1.442    0.307
       151 -12.0929     85.5172    215.6861   7.1874827410e+01   1.8674440096e+01    0.2802244    0.1564559  52.21  0.001430355    1.707    0.414
       152 -11.2363     51.5040     20.5031   3.6551765019e+01   6.7772065088e+01    0.3201593    0.1250401  48.97   0.00126766    2.831    0.647
       153 -12.5050     46.1404     20.1882   3.9016849980e+01   6.8752700028e+01    0.3940376    0.2205547  21.86  0.001820385    2.137    0.532
       154 -11.0855    136.5187    210.9957   5.9714442787e+01   1.2099502664e+01    0.1796561    0.1323778 -50.53 0.0009126732    1.581    0.368
       155 -11.2265     46.3215    209.6719   8.0382571992e+01   2.4857453945e+01    0.1368403   0.07436164  58.59 0.0004301969    1.689    0.408
       156 -13.0788    218.5695     15.4981   1.0957710618e+00   2.8765399622e+01    0.2981135    0.2028729  81.43  0.001548667    1.434    0.303
       157 -12.8985     72.3505    206.5364   7.3997599359e+01   2.2310146762e+01     0.283691    0.2114807  35.38  0.001674008    1.223    0.182
       158 -13.3880     15.8970    198.0681   8.6678898757e+01   3.0494585795e+01    0.8530024      0.20806 -61.33  0.003241945    4.199    0.762
       159 -11.7719     41.2161    205.3991   8.1247732568e+01   2.6340108557e+01       0.1876    0.0897681  42.40 0.0009492621    1.706    0.414
       160 -13.1045     39.0783    194.8484   8.0955540050e+01   2.8880063109e+01     0.626647    0.3204809  53.13   0.00289385    1.734    0.423
       161 -10.9728    175.9501     13.7700   4.3884651715e+00   3.8857736209e+01    0.1814419    0.1501331 -82.78 0.0002021305    1.073    0.068
       162 -12.8133    164.3217    194.5281   5.1066618219e+01   1.0655125453e+01    0.5063589    0.2821775 -60.30  0.002176738    2.981    0.665
       163 -13.5975     30.0426    169.2563   8.1176246679e+01   3.5755926946e+01    0.8945088     0.660518 -21.42  0.004952901    1.929    0.481
       164 -13.7539     22.3493    180.9275   8.4079644394e+01   3.3747944290e+01    0.7948849    0.4258567 -57.79  0.003549149    2.039    0.510
       165 -15.1313      8.5508    183.2321   8.7639871673e+01   3.4437131771e+01     1.125318     1.030863  56.95  0.008051063    1.193    0.162
       166 -15.2657     15.4532    174.9704   8.5437981524e+01   3.5756550869e+01     2.002831     0.638525  46.02   0.00858332    2.597    0.615
