#   1 NUMBER                 Running object number                                     
#   2 MAG_AUTO               Kron-like elliptical aperture magnitude                    [mag]
#   3 X_IMAGE                Object position along x                                    [pixel]
#   4 Y_IMAGE                Object position along y                                    [pixel]
#   5 X_WORLD                Barycenter position along world x axis                     [deg]
#   6 Y_WORLD                Barycenter position along world y axis                     [deg]
#   7 A_WORLD                Profile RMS along major axis (world units)                 [deg]
#   8 B_WORLD                Profile RMS along minor axis (world units)                 [deg]
#   9 THETA_WORLD            Position angle (CCW/world-x)                               [deg]
#  10 FWHM_WORLD             FWHM assuming a gaussian core                              [deg]
#  11 ELONGATION             A_IMAGE/B_IMAGE                                           
#  12 ELLIPTICITY            1 - B_IMAGE/A_IMAGE                                       
         1 -12.1164     39.8685     32.3523   7.7634906369e+01   6.6977373480e+01    0.3480633    0.2685995 -24.02 0.0003824744    1.214    0.177
         2 -11.1320     14.1750     21.5041   8.7437690094e+01   7.1980316145e+01    0.5732988    0.2699197  33.45  0.002916201    2.303    0.566
         3  -7.4562     20.3050     18.1058   8.1880519091e+01   7.1888151530e+01    0.4096962    0.1683539 -37.34  0.001623174    2.296    0.564
         4 -11.7843     12.4335     15.7350   8.5801773754e+01   7.3130136088e+01    0.4096159    0.2901788   8.62  0.002640284    1.262    0.208
         5 -11.4250     75.6044     21.8538   5.7818051259e+01   6.1966735517e+01     0.459614    0.3511384  84.12  0.001959777    1.915    0.478
         6 -11.0623      1.9140     21.1001   9.5508067261e+01   7.3067831567e+01    0.3266972    0.2287827 -31.08  0.002129935    1.145    0.126
         7 -11.8427    234.8930     15.0675   3.1456199764e+01   2.6548754273e+01    0.2364233    0.1663011 -61.60 0.0003331271    1.128    0.114
         8 -12.0757     83.4924     15.1578   5.2452872424e+01   6.0999199024e+01    0.4531288    0.2599938  24.00 0.0006307824    2.153    0.535
         9 -11.4591     34.6592     12.5496   7.0574782262e+01   7.0741553899e+01    0.2938925    0.2750981   8.51  0.000766669    1.320    0.242
        10 -12.0017     31.1430      7.4577   6.9646486447e+01   7.1943822453e+01    0.6756164      0.26233  36.35  0.003145965    2.332    0.571
        11 -10.0105     40.5450      7.5481   6.4800050171e+01   7.0400871390e+01    0.1910828    0.1501686   9.55 3.762976e-05    1.113    0.101
        12 -10.1743     37.6811      6.3483   6.5545778374e+01   7.1026090788e+01    0.1950488    0.1763335  89.63 0.0008806791    1.874    0.466
        13 -11.4438    208.0601     13.3116   3.2971040776e+01   3.2148375217e+01    0.1834528    0.1550162 -33.26 0.0005884087    1.357    0.263
        14 -10.7443    172.0228     11.9203   3.5855872709e+01   4.0303504428e+01    0.1859253    0.1576735 -80.32 0.0003245162    1.027    0.026
        15 -10.4320    134.6049     11.1953   4.0303714189e+01   4.9298431619e+01    0.2174555    0.1400818  63.69 0.0006650427    1.351    0.260
        16 -12.0009    126.8472     10.3951   4.1244498368e+01   5.1250993398e+01     0.601368    0.3250129  80.44  0.001177686    1.929    0.482
        17 -10.5515    118.4938      9.5114   4.2344816657e+01   5.3349066972e+01    0.2750785    0.2235726  47.80 0.0009617283    1.185    0.156
        18 -10.1604    115.2843      7.6840   4.2262642428e+01   5.4281927217e+01    0.2221554    0.1735335  86.15 0.0005341358    1.286    0.223
        19  -9.7506     64.2681     11.0321   5.6701447575e+01   6.5537759979e+01    0.1798932    0.1508371  29.15  0.001062937    1.023    0.022
        20  -7.9662      3.7238     10.5827   8.9354222588e+01   7.4784162099e+01    0.1689379    0.1346576 -34.17 0.0002535847    1.257    0.205
        21 -10.1866      2.2773      6.8596   8.8492610150e+01   7.5515623396e+01    0.2410443    0.1668666  -9.65 0.0009516025    1.191    0.160
        22 -10.9493     57.3659      7.3800   5.7424911462e+01   6.7301895000e+01    0.4758876    0.2807354  -6.27  0.001951975    2.013    0.503
        23 -10.8617     57.9218      2.0297   5.4445988369e+01   6.7703652414e+01    0.4754902    0.2223598  29.04  0.001390552    2.418    0.586
        24 -10.0416     45.6143      9.8909   6.3684058866e+01   6.9242140838e+01    0.1975062    0.1912831  14.07 0.0005194293    1.332    0.249
        25 -10.7730     22.6430      9.1304   7.5602283786e+01   7.2944166890e+01     0.335786    0.1943574   8.78  0.001807686    1.893    0.472
        26 -10.6965     14.5885      8.8369   8.0669997511e+01   7.3984759361e+01    0.3033241    0.1552232  18.10  0.001048621    1.931    0.482
        27 -11.5369    218.0779      7.4479   3.0973970951e+01   3.0670622116e+01    0.2132123    0.1585164 -66.99 0.0009686405    1.083    0.077
        28 -10.1900    208.7579      7.6083   3.1648240288e+01   3.2582947647e+01    0.1644552   0.09493015 -86.30 0.0009476347    1.613    0.380
        29  -9.0918     97.7199      7.3261   4.5606529838e+01   5.8485312855e+01    0.1243865   0.09580836 -68.22 0.0002633699    1.595    0.373
        30 -11.0697    150.7184      5.5829   3.6444830294e+01   4.5921876115e+01    0.2657276    0.1814523 -63.19 0.0006438156    1.484    0.326
        31 -10.0123     70.7135      6.1772   5.2204596240e+01   6.4664959600e+01    0.2231644    0.1696441  45.62  0.001359417    1.113    0.102
        32 -10.2842    104.3652      3.7434   4.2830361941e+01   5.7218093453e+01    0.2139051    0.1990818 -35.63  0.001075342    1.240    0.193
        33  -9.7426     74.9523      3.8250   4.9826358741e+01   6.3955474231e+01    0.2074187    0.1392304  37.62  0.000769493    1.331    0.249
        34 -10.8901     20.8265      2.0909   7.2567151511e+01   7.4127743658e+01    0.3007588    0.1581963  28.92  0.001653596    1.698    0.411
        35  -9.4070    176.5244      2.5186   3.2986893521e+01   4.0150962959e+01     0.122254    0.1029997 -84.79 0.0008097961    1.022    0.021
        36 -10.2808    162.5403      2.5048   3.4293080810e+01   4.3390762869e+01    0.1251847    0.1052132 -85.95 7.625425e-05    1.020    0.019
        37 -10.3756     87.1287      1.5796   4.5643081517e+01   6.1409903274e+01    0.1873688    0.1309157  54.40  0.001090708    1.193    0.162
        38 -11.0208     80.2029      1.6011   4.7371609120e+01   6.2976123003e+01    0.2760779    0.1390915  58.01  0.001386072    1.655    0.396
        39  -9.6287     27.9970      1.9173   6.8139581260e+01   7.3100598867e+01    0.1555264     0.147899 -46.71  0.000881288    1.652    0.394
        40  -9.2613      1.0000      1.9218   8.6725349582e+01   7.6404073832e+01    0.1701913   0.05717824 -46.65 0.0007883271    2.846    0.649
        41  -9.5476     10.8920      1.1681   7.8726065020e+01   7.5511180831e+01    0.1417546   0.07418607  28.69 0.0003639203    1.765    0.434
        42 -10.4236      3.8765    167.6544   1.1965366683e+02   3.8095713049e+01    0.2276746    0.1221231   4.47  0.001097458    2.559    0.609
        43 -10.9795     28.4621    250.5029   1.1885876541e+02   1.7707764329e+01    0.3590596   0.09170099  29.21  0.001498476    3.295    0.697
        44 -11.9705     18.0709    248.8089   1.2085682757e+02   1.9044537531e+01    0.3191519    0.2405731 -23.57  0.001884771    2.125    0.529
        45 -11.2120      1.8364    247.2918   1.2397700302e+02   2.0806873491e+01      0.71008    0.1481516 -84.23  0.002653122    5.280    0.811
        46 -12.0167      4.0605    232.8076   1.2299050818e+02   2.3450764381e+01    0.3743155    0.2099731  54.93  0.002333926    1.421    0.296
        47 -12.6258     10.4220    245.2164   1.2221857554e+02   2.0443164078e+01    0.4926624    0.3146811  57.26  0.003334283    1.231    0.188
        48 -12.7104      5.9798    240.9671   1.2292904955e+02   2.1664665212e+01    0.5196125     0.338388  34.92  0.003504155    1.406    0.289
        49  -9.9508     14.3331    164.3104   1.1654775753e+02   3.8145761202e+01     0.132333   0.09016142 -43.67 0.0004146114    1.675    0.403
        50  -9.2638     21.6984    160.6646   1.1413963827e+02   3.8455454828e+01    0.1369321   0.09152753 -44.77 0.0003130297    1.660    0.398
        51 -10.2911      4.2608    158.8569   1.1893635004e+02   4.0237732439e+01    0.1917158    0.1512981  72.58  0.001058312    1.155    0.134
        52 -11.4094      5.9581    153.4638   1.1804656655e+02   4.1470074497e+01    0.6139089    0.2083835  13.41   0.00235017    3.767    0.735
        53  -9.6281     27.3190    147.0647   1.1102931196e+02   4.1435385741e+01    0.1950548    0.1577217 -77.70 0.0004794172    1.129    0.114
        54  -9.6789     23.6446    146.7093   1.1212441271e+02   4.1847250459e+01    0.1401287   0.09421083 -38.44 0.0007027912    1.682    0.405
        55  -9.6689    236.4926    138.9959   5.7061665978e+01   8.8232497968e+00    0.1743272   0.09761597 -18.41 0.0008057851    2.299    0.565
        56  -9.4103     24.5185    138.9777   1.1095235768e+02   4.3768710585e+01    0.2052939   0.08264332 -49.82 0.0008089081    2.432    0.589
        57 -10.1074    212.5109    133.9575   5.9805086883e+01   1.3617639164e+01     0.215452    0.1923139  78.02  0.000561816    1.455    0.313
        58  -9.5668     95.9706    134.0106   8.7132501498e+01   3.5726950797e+01    0.1858861    0.1803835 -43.10 0.0005622093    1.022    0.022
        59  -9.9494      4.3079    134.3571   1.1691959519e+02   4.6412234224e+01    0.1412468    0.0816777 -47.92  0.000704183    1.728    0.421
        60  -9.8054      2.3261    132.3040   1.1736258711e+02   4.7049842881e+01    0.1358808   0.08384706 -46.11 0.0003842732    1.644    0.392
        61  -9.0012     61.6695    130.6865   9.7398353245e+01   4.1870709430e+01    0.1553356    0.1095438 -28.06 0.0006644386    1.676    0.403
        62 -10.8239     12.2415    129.4691   1.1385254441e+02   4.7161406390e+01    0.2608258    0.1699602 -73.86  0.001383957    1.346    0.257
        63 -10.4901     28.4651    128.1828   1.0823071256e+02   4.6228621780e+01    0.2161799    0.1945719  17.32  0.000316802    1.229    0.187
        64 -11.0782     10.1734    121.3877   1.1363173063e+02   4.9375065646e+01    0.3893215    0.2247496  87.66  0.001885642    1.809    0.447
        65 -10.7522     24.2180    122.0531   1.0882657625e+02   4.8183129033e+01    0.2278937    0.1986419  34.24 0.0002409041    1.251    0.201
        66 -10.6899     17.9349    121.9525   1.1100969926e+02   4.8699112742e+01    0.1982756    0.1909327 -33.86 0.0003479506    1.130    0.115
        67 -10.6566     69.0314    117.0288   9.2081518325e+01   4.4309156065e+01    0.2239648    0.2115645 -37.43            0    1.030    0.029
        68 -10.3805      1.9356    114.0324   1.1567878318e+02   5.1723392986e+01    0.2277985    0.1596261 -71.42 0.0002899304    1.212    0.175
        69 -10.5359      2.1825    109.1334   1.1503934030e+02   5.2954633954e+01    0.2220701    0.1850402 -75.81 0.0008005312    1.064    0.060
        70 -10.4917     45.1868    110.8283   9.9305141543e+01   4.9026713094e+01    0.2278328     0.224009 -86.55  0.000488671    1.077    0.072
        71 -10.6601     64.7834    109.6276   9.1886148045e+01   4.6784133297e+01      0.26304    0.2415833 -62.59 0.0003998189    1.099    0.090
        72 -11.0664     56.4306    108.1995   9.4590569631e+01   4.8302433313e+01    0.4145643    0.2363093   3.67  0.001599311    2.662    0.624
        73 -10.1045     55.1848    104.8642   9.4294730389e+01   4.9302037901e+01    0.2084878    0.1842681 -51.39 0.0002238366    1.072    0.067
        74  -9.5778     22.3123    109.3156   1.0759475736e+02   5.1622158190e+01    0.1467162   0.08992282 -39.66 0.0003392432    1.639    0.390
        75 -10.6102     13.3459    109.0265   1.1090766832e+02   5.2341479175e+01    0.1972566    0.1553948 -68.12 0.0004795639    1.115    0.103
        76 -10.3081      1.4136    104.2820   1.1474981463e+02   5.4218851974e+01    0.2586373   0.09900279 -67.58  0.001010542    2.068    0.516
        77 -10.3929     14.9954    104.4147   1.0960899072e+02   5.3408236413e+01    0.2862129    0.1447486  39.33  0.001314473    2.208    0.547
        78  -9.6129    246.6858    101.6854   4.8117465388e+01   1.2988354845e+01    0.1172948   0.09039034  -7.79 0.0003426936    1.641    0.391
        79  -9.5963     91.8564     99.8766   8.0034181912e+01   4.4615092672e+01    0.1924448    0.1765639  79.69 0.0009965723    1.252    0.201
        80  -9.1141     84.0350    100.2206   8.2747675115e+01   4.5956242753e+01    0.1917228    0.1243275  34.46  0.000347986    1.565    0.361
        81  -9.8502     20.3349     99.3076   1.0669110760e+02   5.4322744472e+01    0.1473488   0.08808415 -37.48 0.0006590119    1.673    0.402
        82 -12.2860      7.0790     91.8521   1.1081763625e+02   5.7050852531e+01    0.5632761    0.3575464 -33.47 0.0005908593    1.571    0.363
        83 -12.0758    125.3286     93.3733   6.8204546235e+01   3.9188103220e+01    0.3034236    0.2746377  71.85 0.0001499541    1.208    0.172
        84 -12.0326     20.4530     92.9324   1.0549127307e+02   5.5914502217e+01    0.3961441    0.2596839 -38.85 0.0005157397    1.453    0.312
        85 -10.5639     66.5960     91.9376   8.6741231532e+01   5.0799083584e+01    0.2508751    0.2059133  38.92 0.0006809751    1.277    0.217
        86 -11.1794     57.8420     91.7408   9.0042303390e+01   5.2145634861e+01    0.3036498    0.2279738 -21.53 0.0007506138    1.455    0.313
        87 -10.0887     29.0307     91.9750   1.0175219396e+02   5.5437655141e+01    0.2491927     0.187615  16.95 0.0006576781    1.433    0.302
        88 -10.3616     43.0488     88.7956   9.5220381783e+01   5.4763533860e+01    0.2531862    0.2163723 -80.73 0.0002602011    1.343    0.255
        89  -9.8693     23.9717     88.2859   1.0310201020e+02   5.6787734791e+01    0.2426657    0.1860735  83.98 0.0008382594    1.578    0.366
        90 -10.9190     65.6040     87.7381   8.5946317891e+01   5.1931085436e+01    0.3661819    0.2122018  20.41  0.001483441    2.044    0.511
        91 -11.6232     11.6637     86.7422   1.0804557703e+02   5.8052747256e+01    0.5065361    0.2534434  83.88  0.002000414    3.155    0.683
        92 -10.8431      6.9842     85.1195   1.0976575083e+02   5.8720409753e+01    0.2902848    0.1987382 -55.58 0.0009103024    1.221    0.181
        93  -9.2983     88.9862     87.7353   7.7511506786e+01   4.7869565006e+01    0.1808328     0.130295  37.14 0.0002612336    1.386    0.279
        94  -9.5330    124.2083     86.5883   6.6542064848e+01   4.0791563539e+01    0.2196437    0.1411077  37.38 0.0009516401    1.650    0.394
        95  -9.9634     55.1094     85.6130   8.9468481640e+01   5.3976657918e+01    0.2277239    0.1892807 -62.86 0.0004878675    1.290    0.225
        96  -9.6422     76.6983     82.9917   8.0398745682e+01   5.1157607541e+01    0.2051241    0.1830636 -36.19 0.0004260992    1.097    0.088
        97  -9.6655     69.5270     83.4350   8.3200795693e+01   5.2280967711e+01    0.1467819    0.1382709 -11.66 -9.195788e-06    1.007    0.007
        98  -9.8946     88.7721     80.0607   7.5236894711e+01   4.9549291646e+01    0.3782675    0.2528329  82.95  0.001380593    3.213    0.689
        99  -9.3368    250.3327     80.7120   4.3461660272e+01   1.5434804991e+01    0.1217763   0.07796215 -61.36 0.0005469119    1.625    0.384
       100  -9.6533     80.5414     79.5212   7.7938150295e+01   5.1217601312e+01    0.2355116    0.1436979 -57.90  1.24598e-05    1.971    0.493
       101  -9.3459    141.7058     79.7149   6.0206692123e+01   3.8136265766e+01    0.1450596    0.1168615  14.69  0.000200233    1.542    0.351
       102 -10.5925     48.0073     79.0411   9.0557846982e+01   5.6458477382e+01    0.2551125    0.1997683   9.57 0.0003119498    1.331    0.249
       103 -11.9011     54.9243     75.1744   8.6512882645e+01   5.6385891039e+01    0.3896459    0.2870448  -9.47  0.001958804    1.528    0.346
       104  -9.5066     31.2073     79.1520   9.7879468920e+01   5.8347196870e+01    0.1700335    0.1569257  46.39 0.0006831053    1.263    0.208
       105 -10.3901     22.4998     77.2702   1.0132788887e+02   5.9579310056e+01    0.3213476    0.1921941 -83.24 0.0009812779    2.249    0.555
       106 -10.9550      7.1260     76.4911   1.0815800586e+02   6.0809395446e+01    0.4016574    0.2006138  53.47  0.001729475    2.987    0.665
       107 -10.2369    176.9185     76.9716   5.2446717014e+01   3.0580510834e+01    0.2217156    0.2081793 -64.01  0.001302675    1.008    0.008
       108  -8.7256    159.0021     77.0000   5.5757394493e+01   3.4636455751e+01    0.2419831   0.08189235  55.00 -4.132282e-06    2.986    0.665
       109  -9.7915     69.9768     75.4929   8.0583201906e+01   5.3946316347e+01    0.2168874    0.1871804 -39.41 0.0003722653    1.142    0.124
       110 -10.9665     15.5107     75.7126   1.0416518026e+02   6.0479856503e+01      0.35732    0.2351808  -8.62  0.001911951    1.655    0.396
       111 -10.3317     42.6475     74.6310   9.1608482263e+01   5.8143838913e+01    0.3992043    0.1669796  27.75  0.001456695    2.459    0.593
       112 -10.0904     37.0077     74.3149   9.4020684515e+01   5.8873072651e+01    0.3615579    0.2268461 -72.09  0.001587909    2.025    0.506
       113 -10.4403     33.1281     73.1448   9.5450725043e+01   5.9560245202e+01    0.6860387    0.3301568  -0.35  0.002534054    3.364    0.703
       114 -12.7109    105.8701     70.8785   6.6842405427e+01   4.7840211272e+01    0.3158537     0.295535  85.09 0.0005535675    1.200    0.166
       115  -9.8446     93.5817     72.1769   7.1099052897e+01   5.0185521840e+01    0.3533101    0.1730514  57.22  0.001239358    2.919    0.657
       116  -9.0064    100.3021     70.6522   6.8457134181e+01   4.9078622431e+01    0.1487374    0.1199813 -82.89 0.0007039308    1.690    0.408
       117 -10.7268     80.5919     68.4768   7.4321169741e+01   5.3478933388e+01    0.4765215    0.3783005  59.54  0.002420699    1.521    0.343
       118 -10.4065     45.4857     69.4656   8.8815550891e+01   5.8946067331e+01    0.2631066    0.2309211 -37.77  0.001286663    1.084    0.078
       119 -10.0777     10.2348     70.2483   1.0544442984e+02   6.2117234637e+01    0.1634815    0.1488203  76.53 0.0005365135    1.321    0.243
       120  -9.9196      4.4749     67.4418   1.0761562101e+02   6.3094231877e+01    0.2512466     0.179634  83.71  0.001233206    1.753    0.429
       121  -9.7997      1.4242     66.4929   1.0890302836e+02   6.3460511416e+01    0.1277438    0.1061673 -50.35 4.164455e-05    1.023    0.023
       122 -10.1811     51.3999     66.3341   8.5218284145e+01   5.8817883038e+01    0.2865341      0.18587 -23.86  0.000681738    1.724    0.420
       123  -8.9518    167.7562     65.6799   5.1029522032e+01   3.4467971909e+01    0.1313935    0.1104816   8.18 0.0001438765    1.522    0.343
       124 -11.6688     97.1198     63.9024   6.7188314799e+01   5.1007309636e+01    0.3704984    0.2416836  34.53 0.0003588372    1.585    0.369
       125  -8.9807     38.6907     65.7182   9.0735640650e+01   6.0616249782e+01    0.1415093   0.09554991 -21.49  0.000337358    1.564    0.361
       126 -10.5160     62.5972     62.0656   7.9024368510e+01   5.7966829995e+01    0.3021904    0.2379831 -47.58  0.001618467    1.339    0.253
       127 -10.8993     15.2842     63.8357   1.0148278572e+02   6.3271725913e+01    0.3830375    0.3057021 -43.70  0.001455451    1.068    0.064
       128 -10.3184     39.0745     60.8973   8.9022942397e+01   6.1614291716e+01    0.3043861    0.1658188 -21.39  0.001280676    2.414    0.586
       129 -12.7859     20.9096     57.7072   9.6969509724e+01   6.4201740534e+01    0.4089857    0.3059288 -10.15 0.0007868551    1.309    0.236
       130 -10.2672     10.5394     58.9877   1.0264684456e+02   6.4694422395e+01    0.2724694    0.2019017 -42.54 0.0008586536    1.128    0.113
       131 -10.3565      6.1699     56.6983   1.0434112519e+02   6.5471297405e+01    0.3701414    0.1820744  -8.91  0.001231077    2.319    0.569
       132  -9.7879     85.3675     58.8578   6.9284680501e+01   5.4360764479e+01     0.224636    0.1853964  -3.49 0.0003329794    1.309    0.236
       133 -11.5736     87.3450     53.9725   6.6842447746e+01   5.4813661886e+01    0.5707335    0.3753375  16.31  0.002548677    2.029    0.507
       134  -9.5369    109.3744     58.0421   6.1560846821e+01   4.9331986780e+01    0.1905331    0.1868264 -13.16  0.001093649    1.058    0.055
       135  -9.5873     48.5822     58.1447   8.3687880179e+01   6.0926377820e+01    0.1977694    0.1171605 -35.57 0.0005612939    1.663    0.399
       136 -10.0472     71.7643     56.5678   7.3397902736e+01   5.7415269837e+01     0.236272    0.1795553 -37.06 0.0005917392    1.329    0.248
       137  -9.9883     32.6310     56.0840   9.0550348241e+01   6.3390390729e+01    0.2678928    0.1605168 -27.46 0.0009090719    1.722    0.419
       138  -9.9513     99.6349     56.2465   6.3756238882e+01   5.1802743494e+01    0.1968795    0.1370826 -24.77  0.000535029    1.603    0.376
       139 -10.2746     96.4936     55.9795   6.4621333869e+01   5.2531883687e+01     0.226403    0.1881263  42.36 0.0004448741    1.145    0.126
       140 -10.8541    114.4472     53.2469   5.8567937297e+01   4.8946405520e+01    0.2987409    0.2607536 -15.02 0.0009869562    1.246    0.198
       141 -11.8468     66.8051     52.7409   7.3910440946e+01   5.9020725931e+01    0.4451283    0.2210475  35.02   0.00145025    2.007    0.502
       142  -9.8079    149.3369     52.0783   5.0484091662e+01   4.0852355281e+01    0.2445052     0.180815  51.83 0.0007305331    1.337    0.252
       143 -11.2863    105.9905     50.5263   5.9897239668e+01   5.1311654254e+01    0.2810737    0.2088044 -28.05  0.001435108    1.446    0.308
       144  -9.1341     78.4924     52.4382   6.9351264367e+01   5.6870665099e+01    0.1426758    0.1301346  16.41 0.0001725891    1.012    0.012
       145  -9.0986     44.2953     52.4101   8.3606690864e+01   6.2679748072e+01    0.1493857   0.09386633 -18.89 0.0006981661    1.838    0.456
       146  -9.4337     35.3424     52.3071   8.7909723460e+01   6.3859440214e+01    0.2011229    0.1173552 -35.09 0.0006649479    1.633    0.388
       147  -9.4676     32.5035     51.0060   8.8875470039e+01   6.4458799908e+01     0.183555    0.1198183 -45.40 -0.0002701454    1.423    0.297
       148  -9.8360     37.9142     49.0088   8.5436486049e+01   6.4201908488e+01    0.3597151    0.2005189  11.90  0.001648519    2.145    0.534
       149  -9.8784    121.6888     50.7225   5.5912622713e+01   4.7642704079e+01    0.2133597     0.146773 -33.46 0.0005490289    1.537    0.349
       150 -10.3664    119.4660     48.4974   5.5701453285e+01   4.8498738793e+01    0.2557557    0.1773024 -45.08 0.0007804133    1.549    0.354
       151  -9.7950      4.6558     50.5759   1.0358935216e+02   6.6914094151e+01    0.2848965   0.09960221 -49.57 0.0007618761    2.140    0.533
       152  -9.3937     76.4358     49.5002   6.8982927697e+01   5.7780293979e+01    0.1391475    0.1307583  15.87 0.0002218892    1.054    0.051
       153  -9.9209     52.6976     48.2969   7.8173432931e+01   6.2219745248e+01    0.3039393    0.1632939  27.93  0.001386353    1.916    0.478
       154 -10.5953     10.1082     48.0183   9.9857395426e+01   6.7134857154e+01    0.3175382    0.2007286  14.95  0.001478688    1.645    0.392
       155  -9.3827    154.7800     47.4173   4.8136829952e+01   4.0214249776e+01    0.1864757    0.1233636  53.88 0.0004380311    1.481    0.325
       156 -10.1670    136.6243     46.9041   5.1377488504e+01   4.4639760647e+01    0.2718446    0.2005651  73.71 0.0009902299    1.402    0.287
       157  -9.7419     79.0848     45.8219   6.6603852401e+01   5.7863562409e+01    0.1964516    0.1871753  70.98 0.0003303004    1.251    0.201
       158 -11.1120     18.4987     44.4422   9.4029915329e+01   6.7228802051e+01    0.4269007    0.2463887  23.60  0.002284863    1.775    0.437
       159  -9.4352    152.3967     44.5938   4.7720371161e+01   4.1170776709e+01    0.1354008     0.125378 -89.06 6.634683e-05    1.020    0.019
       160 -10.2111     25.8177     43.7854   8.9771172035e+01   6.6649858478e+01    0.2165474    0.1870007 -53.86 0.0008733213    1.346    0.257
       161 -10.2101      3.1186     42.9686   1.0234950167e+02   6.8638870831e+01    0.2723775    0.1573236 -37.83  0.001531253    1.432    0.302
       162  -9.8805     69.1644     41.9147   6.8717820338e+01   6.0444318654e+01    0.1893641    0.1848537  26.50   0.00116342    1.184    0.156
       163 -10.2376     59.5882     41.8049   7.2551655831e+01   6.2216365874e+01    0.2464135     0.181296  44.28 0.0006683273    1.432    0.302
       164  -9.9272     36.1166     41.3679   8.3389594406e+01   6.5899749588e+01    0.2266205    0.1610671 -27.68 0.0006737888    1.309    0.236
       165 -10.1379    139.3071     40.6278   4.8878212550e+01   4.4851612690e+01    0.2326621    0.1930605  89.20 0.0005223235    1.242    0.195
       166 -10.7930    128.1976     38.8611   5.0514896723e+01   4.7763650743e+01    0.3238336    0.2004261 -45.52 0.0009905886    1.743    0.426
       167 -10.2034    170.5772     40.2948   4.3662283465e+01   3.7425655466e+01    0.3227836    0.1696093  80.15  0.001419886    2.218    0.549
       168  -9.8888     99.4727     40.1174   5.7939803913e+01   5.4341076849e+01    0.1952215    0.1397989 -26.92  0.001000029    1.513    0.339
       169  -9.5576     50.6645     39.1596   7.5381792454e+01   6.4167564265e+01    0.2612167    0.1201282 -48.59  0.001092974    2.625    0.619
       170  -9.1882     36.5191     45.4730   8.4798798686e+01   6.5069590275e+01    0.1361707    0.1132957 -12.77  5.70043e-05    1.060    0.057
       171  -9.1427    204.7069     39.7040   3.9343671133e+01   2.9830280397e+01     0.113345   0.09775735  31.04 0.0001933535    1.560    0.359
       172  -9.5726    151.9717     39.0342   4.6150070705e+01   4.2006721325e+01     0.165599    0.1511826  82.54  0.000532251    1.013    0.013
       173 -11.8150    121.1170     37.0479   5.1423486960e+01   4.9699967137e+01    0.4556293    0.3787271 -43.97  0.001623378    1.291    0.226
       174 -10.7396     22.0954     38.2271   8.9731323189e+01   6.8123704846e+01    0.2109089    0.1682957 -38.80 0.0007537357    1.191    0.160
       175  -9.1949    239.4438     37.4594   3.5670883319e+01   2.3121627262e+01    0.1165201   0.09369472 -57.94 0.0004400688    1.023    0.023
       176  -9.8004    229.7513    247.9415   7.7617229157e+01  -6.3644852129e+00    0.1505023    0.1125567  -8.04 0.0004254669    1.115    0.103
       177  -9.6490    133.4307     34.8251   4.8148535090e+01   4.7018203723e+01    0.1687666    0.1325321   0.75 0.0003753646    1.612    0.380
       178 -10.3774     92.2037     33.4341   5.7466090883e+01   5.6893170800e+01    0.4632222    0.2726399  24.57  0.002038029    2.243    0.554
       179  -9.7887     88.9206     30.3656   5.7215935356e+01   5.8024737605e+01    0.3155361     0.168307  67.52   0.00129945    2.545    0.607
       180 -10.6304     27.4401     34.3578   8.5152955896e+01   6.8265600156e+01    0.3217656    0.1881249 -18.02  0.001169973    1.900    0.474
       181  -9.7814      7.2579     34.2261   9.7045088547e+01   7.0180912339e+01    0.1483136    0.1439064  22.62  0.001048909    1.355    0.262
       182  -9.1386    241.7036     33.2671   3.4647216931e+01   2.3201735059e+01    0.1171033    0.0686034 -62.08 0.0002719984    1.515    0.340
       183 -10.1614     55.2185     33.1412   7.0726028039e+01   6.4382796705e+01    0.1957783    0.1566975   4.14 0.0003433803    1.192    0.161
       184 -11.0376     48.7543     33.0042   7.3591582984e+01   6.5496093758e+01    0.4415915    0.1917921  39.43  0.001947779    2.210    0.547
       185 -10.0855     17.6039     32.4311   9.0050166855e+01   6.9671765235e+01     0.313594    0.1560477   6.88  0.001171973    2.348    0.574
       186 -10.2493     73.0353     31.9612   6.3106691101e+01   6.1185152103e+01    0.2070121    0.1803953  25.57 0.0003845207    1.020    0.020
       187 -10.3956     69.5617     27.9052   6.2611650940e+01   6.2443470613e+01    0.3738132    0.2263117 -52.44   0.00173215    2.478    0.596
       188  -9.1039    162.6694     31.6781   4.2392093822e+01   4.0359676698e+01    0.1341436   0.09778523  36.73 0.0007049364    1.696    0.410
       189 -10.1384    144.0524     31.0229   4.5047963463e+01   4.4909231159e+01    0.2012035    0.1837999 -84.50 0.0003152364    1.059    0.056
       190 -11.4292     10.2151     29.7395   9.3514305483e+01   7.0833057095e+01    0.3802207    0.2062094  35.47  0.002009101    2.236    0.553
       191  -9.8311    126.9098     30.4800   4.7985402387e+01   4.9126395813e+01    0.2049813    0.1256246  63.61 0.0004021771    1.503    0.335
       192  -8.9826    151.2637     29.6771   4.3487242625e+01   4.3326180026e+01    0.1357241   0.09401242 -64.86 0.0006956375    1.559    0.358
       193  -9.4880    147.4018     28.8141   4.3829792998e+01   4.4358517567e+01    0.1630609    0.1324928 -11.23 0.0004004283    1.502    0.334
       194  -9.6366    135.5140     29.4862   4.6040292186e+01   4.7160179267e+01    0.1359113    0.1235878  67.57 0.0001450085    1.024    0.023
       195  -9.3884    140.2967     27.2845   4.4513310512e+01   4.6254846266e+01    0.2561288    0.1526598 -56.07  0.001226477    1.919    0.479
       196  -9.9969    114.0521     26.4981   4.9278135148e+01   5.2684191204e+01    0.1976838    0.1769855 -26.62 0.0005243403    1.233    0.189
       197 -10.5412     46.9838     26.7544   7.1556975134e+01   6.6757338216e+01    0.2205627    0.1733927 -47.51  0.001290368    1.631    0.387
       198  -9.8386     34.9542     28.9106   7.8632376007e+01   6.8250562506e+01    0.1911001    0.1574029  -5.71            0    1.039    0.037
       199  -9.1551     52.6559     26.2432   6.8711256395e+01   6.5864897491e+01    0.1178325     0.101936  61.01 0.0002786501    1.566    0.362
       200  -9.7501      2.7681     26.5881   9.7109581530e+01   7.1975949586e+01    0.2156618    0.1066714   7.28   0.00112962    2.060    0.514
       201  -9.5935    220.3489     25.7043   3.4730905369e+01   2.8245115153e+01    0.1288621   0.07221918 -64.32 0.0007033217    1.678    0.404
       202  -9.4505    102.6927     25.6726   5.1617515790e+01   5.5462669397e+01    0.1421935   0.09550156  29.93 0.0003166506    1.655    0.396
       203 -10.3501    225.0916    247.3708   7.8338433827e+01  -5.7901572345e+00    0.2052363    0.1414926 -26.51  0.001431864    1.399    0.285
       204  -9.5002    170.6138    247.1729   8.8556721216e+01   7.3542759180e-01    0.1595446    0.1019438 -26.12  0.000938937    1.653    0.395
       205  -9.5299    116.1225    246.7961   9.9919537756e+01   7.9704023905e+00    0.1626918    0.1336031   3.03 0.0009479476    1.285    0.222
       206  -9.5737      7.5666     13.9849   8.8288436801e+01   7.3883545305e+01     0.161617   0.08870625 -34.05 0.0003312618    1.576    0.365
       207 -10.3305    230.1098     21.8218   3.3161706642e+01   2.6737483555e+01    0.2876772    0.1528284 -87.80  0.001550971    1.956    0.489
       208 -10.8207      6.2209    250.0112   1.2322937636e+02   1.9907365389e+01    0.2382272    0.1901865  67.54  0.001821846    1.102    0.093
       209  -9.5121     77.0000     16.9621   5.5194925456e+01   6.2229199457e+01    0.1920347    0.1649612  21.39 0.0006358186    1.111    0.100
       210  -9.2200    202.3353    240.3059   8.1379955990e+01  -2.2274238130e+00    0.1251211   0.07543524  -1.77 0.0003909735    1.670    0.401
       211  -9.5428      6.3094     20.6652   9.2293985883e+01   7.2826101998e+01    0.2368145    0.1468298 -14.58  0.001386357    1.482    0.325
       212  -9.4968     97.2309     21.9847   5.1559163374e+01   5.7150098159e+01    0.1749669    0.1589666  38.20            0    1.050    0.047
       213 -10.8547     54.7768     21.9630   6.5751364290e+01   6.6078883680e+01    0.2436446    0.1653248  38.60 0.0005238135    1.333    0.250
       214  -9.4114    181.0293     21.4904   3.7396481681e+01   3.7232803956e+01    0.1821813   0.08446556  49.59  0.000810104    2.551    0.608
       215  -9.3018    173.3370     21.2818   3.8192675786e+01   3.9030599199e+01    0.1255797   0.09160422  44.88 0.0002825593    1.621    0.383
       216  -9.4542    165.1256     20.8754   3.9055649867e+01   4.1000070720e+01    0.1676664    0.1473454  47.18 0.0005114811    1.296    0.229
       217  -9.8793    132.0476     20.9285   4.3871879028e+01   4.8955321258e+01    0.2005484    0.1804698  64.47 0.0005096193    1.043    0.041
       218  -9.5817    100.8207     21.2301   5.0367739495e+01   5.6400183620e+01    0.1943369    0.1420487  34.72  0.001061271    1.376    0.273
       219  -9.3529     92.5471     21.4589   5.2577778540e+01   5.8282630082e+01    0.1367755    0.1164894  39.21 5.253262e-05    1.067    0.063
       220  -9.5261     84.5025     20.9705   5.4645901044e+01   6.0143480598e+01    0.1765477    0.1071053  12.88 0.0006335271    2.262    0.558
       221 -10.1450     45.4108     20.9461   6.9496530859e+01   6.7860806118e+01     0.203278    0.1613489  37.06 0.0005784238    1.274    0.215
       222 -10.1390     30.1815     21.1323   7.7527533904e+01   7.0156385447e+01    0.2598109    0.1508807  21.94  0.001395529    1.661    0.398
       223  -9.5543    120.7481     19.4143   4.5400629102e+01   5.1850522185e+01    0.1904698    0.1079183  54.18 0.0002755103    1.559    0.359
       224  -9.7068     60.8282     18.7634   6.1730678398e+01   6.5345812064e+01    0.3069669    0.1138685  39.16  0.001230831    2.591    0.614
       225 -10.7753     38.2080     18.9046   7.2053299691e+01   6.9314016180e+01    0.3018791    0.1675232  41.91  0.001198047    1.833    0.455
       226  -9.7945     35.9586    240.2906   1.1672441741e+02   1.8915543967e+01    0.1698461    0.1297483  44.61  0.000525024    1.103    0.093
       227  -9.4951    226.3566    163.8712   6.3599970883e+01   6.3459283778e+00    0.1871874    0.1013506 -28.94 0.0007597918    1.702    0.412
       228  -9.7405     89.5000     13.4420   5.0082847433e+01   5.9819868519e+01    0.1921476    0.1592818  49.35 0.0007062574    1.046    0.044
       229  -9.7718     26.9367     16.7359   7.7154287407e+01   7.1267562605e+01    0.1737892    0.1314766  16.88  0.000548101    1.167    0.143
       230 -11.1326    202.4733     16.1357   3.4062586176e+01   3.3042839075e+01    0.2127768    0.1546627  87.54  0.000540331    1.252    0.202
       231  -9.5865    168.8382     14.8269   3.6972401749e+01   4.0756253914e+01    0.1740202      0.12865 -71.29 0.0002511718    1.277    0.217
       232 -10.5500     33.2792    246.9739   1.1768297311e+02   1.7891034370e+01     0.329052    0.1093174  45.37  0.001475557    2.260    0.558
       233  -9.8136     90.9817    237.0875   1.0437888132e+02   1.3052038025e+01    0.1835667    0.1443847 -18.53  0.001099352    1.616    0.381
       234 -11.2611     25.2704    236.0624   1.1873678515e+02   2.0842092689e+01    0.2248262    0.1511463  31.61 0.0006929661    1.412    0.292
       235  -9.6230    249.2845    233.6102   7.2128753675e+01  -6.6244320831e+00    0.1398549   0.08431598  11.76 0.0006278749    1.461    0.316
       236 -11.5904     10.0422    231.5212   1.2170189483e+02   2.3188423303e+01    0.3111552    0.1140041  45.78  0.001120403    2.073    0.518
       237  -9.6782     72.8706     13.1068   5.4764589095e+01   6.3525865866e+01    0.2233372    0.1325712  28.53  0.001124347    1.780    0.438
       238 -11.8891      9.4019    227.8063   1.2166651690e+02   2.4005675485e+01    0.2800773    0.2456334  10.39  0.001912349    1.475    0.322
       239  -9.9429     57.0163    229.9937   1.1136335899e+02   1.8668278256e+01    0.1505362    0.1287133  53.18  0.000407094    1.019    0.019
       240  -9.4894     47.7759    229.8249   1.1342766626e+02   1.9755200052e+01    0.1715808    0.1154575  55.80 0.0003529456    1.317    0.241
       241 -11.7379      2.0304    225.5219   1.2311424711e+02   2.5109243039e+01    0.5516059   0.09844682  40.24  0.002326053    3.164    0.684
       242  -9.8349    209.5005    229.5297   7.8358402673e+01  -1.5689247786e+00    0.1218964   0.09439938  -0.48 2.380312e-06    1.003    0.003
       243  -8.8330    205.3164    229.6985   7.9163579649e+01  -1.0749416293e+00    0.1033772   0.09436446  36.28 0.0002210518    1.618    0.382
       244 -10.9548    140.4100    228.3081   9.2233650204e+01   7.9188826730e+00    0.2640587    0.2309166 -89.87  0.001590293    1.613    0.380
       245  -9.9835    223.1830    226.8405   7.5450249258e+01  -2.8401838335e+00    0.1665961    0.1098708  -6.33 0.0003746736    1.320    0.242
       246  -9.1869    167.3161    221.6844   8.5439893851e+01   5.2614937592e+00    0.1195492     0.100409  54.85 0.0007037068    1.648    0.393
       247  -8.9717    114.3247    221.3568   9.7172758151e+01   1.2933349441e+01     0.136922   0.09827124 -11.45 0.0007045143    1.772    0.436
       248 -10.8921      2.6968    220.2589   1.2275312860e+02   2.6152254047e+01    0.2613383    0.1417218  85.75  0.001517349    1.687    0.407
       249  -9.5548    233.1670    218.8577   7.2401341748e+01  -2.9063431569e+00    0.1644621    0.1088884  -7.72 0.0004122646    1.294    0.227
       250  -9.3355     99.4333     14.4280   4.8037928308e+01   5.7429145153e+01     0.132114     0.114919  51.70 9.056826e-05    1.006    0.006
       251 -10.5561      8.4747    218.0815   1.2140632451e+02   2.6126627984e+01    0.2348312    0.1902959  25.62  0.001248751    1.391    0.281
       252  -9.4380    137.6339    215.6921   9.1008901434e+01   1.0644493233e+01     0.141204   0.09751505  -3.44 0.0007037406    1.751    0.429
       253  -8.8946     85.6993    215.2881   1.0318206399e+02   1.8148021349e+01     0.135483     0.091581  57.24 0.0002412411    1.560    0.359
       254  -9.6530     15.5010    213.4418   1.1960328655e+02   2.6509541358e+01    0.1216873   0.09901417  63.31 6.380636e-05    1.016    0.016
       255  -9.6356    205.5737    212.2841   7.6238960398e+01   1.5134419635e+00    0.1673182    0.1030963 -25.39 0.0008661781    1.508    0.337
       256  -8.9987    249.3304    211.3205   6.8469628991e+01  -3.7284398799e+00    0.1213885   0.07047501  -7.62 0.0007048697    1.693    0.409
       257  -9.7558    145.7305     17.0427   4.0508594689e+01   4.6039568440e+01    0.1691156    0.1599784 -64.56 0.0003631158    1.126    0.112
       258  -9.6339     20.5720    209.8195   1.1822862309e+02   2.6841951502e+01    0.1671563   0.09936339  78.38 0.0003877075    1.611    0.379
       259  -9.7816    124.0067    205.9677   9.2705281921e+01   1.4596645516e+01    0.1940504    0.1720607  18.18            0    1.042    0.041
       260  -9.4650    193.5078    202.4810   7.6864576381e+01   4.7626696101e+00    0.1309294    0.1104239  -2.69 0.0002697807    1.021    0.021
       261 -11.1170      3.9641    201.2316   1.2158384434e+02   3.0193095048e+01    0.2850442    0.1225738 -61.14  0.001394963    2.394    0.582
       262  -9.3444     24.4727    195.9761   1.1635553166e+02   2.9619690827e+01     0.188199    0.1151531 -82.05  0.001018529    1.558    0.358
       263  -9.6844     13.9546    192.5383   1.1870586646e+02   3.1361769665e+01    0.1728721    0.1115532  34.83 0.0005720175    1.498    0.333
       264  -9.8418      1.3109    191.5604   1.2171093234e+02   3.2598451504e+01    0.2210267   0.09673084 -89.13  0.000790212    2.124    0.529
       265  -9.9125      5.8827    192.0992   1.2064257688e+02   3.2123607272e+01    0.1972692    0.1420712  66.08  0.001223285    1.201    0.167
       266  -9.2972     22.3239    179.7373   1.1564620181e+02   3.3676182135e+01    0.1353002   0.08296566  57.51 0.0002935564    1.559    0.358
