#   1 NUMBER                 Running object number                                     
#   2 MAG_AUTO               Kron-like elliptical aperture magnitude                    [mag]
#   3 X_IMAGE                Object position along x                                    [pixel]
#   4 Y_IMAGE                Object position along y                                    [pixel]
#   5 X_WORLD                Barycenter position along world x axis                     [deg]
#   6 Y_WORLD                Barycenter position along world y axis                     [deg]
#   7 A_WORLD                Profile RMS along major axis (world units)                 [deg]
#   8 B_WORLD                Profile RMS along minor axis (world units)                 [deg]
#   9 THETA_WORLD            Position angle (CCW/world-x)                               [deg]
#  10 FWHM_WORLD             FWHM assuming a gaussian core                              [deg]
#  11 ELONGATION             A_IMAGE/B_IMAGE                                           
#  12 ELLIPTICITY            1 - B_IMAGE/A_IMAGE                                       
         1 -13.3751      2.3519      4.5183   1.1909306208e+02   7.2802211545e+01     1.592356     1.353076 -30.82    0.0129578    1.300    0.230
         2 -13.8348    202.2669      9.9203   6.6330721674e+01   3.2619896869e+01     1.757821     1.140786  42.36  0.008830125    1.711    0.415
         3 -13.2781    189.3497     28.2428   7.3253056971e+01   3.3954642702e+01     1.264857     1.136494  60.00  0.005701633    1.086    0.079
         4 -10.8331    125.8340    249.5757   1.3407814686e+02   9.5370787567e+00    0.3345363   0.08419194  42.78  0.001417184    3.086    0.676
         5 -11.0926    140.1019    250.0531   1.3174993249e+02   7.3171512690e+00     0.449887    0.1246604  42.43   0.00197783    2.816    0.645
         6 -10.3220     98.6933    249.1884   1.3851920476e+02   1.3523357927e+01    0.2837339    0.1529469  62.18  0.001767909    1.719    0.418
         7 -10.4895    102.3741    247.7313   1.3778483008e+02   1.3223794880e+01    0.2196993    0.1575967  65.94 0.0005779145    1.201    0.167
         8  -9.4846     67.2605    250.2892   1.4364292187e+02   1.7535094635e+01    0.1475926   0.08770429  66.47  0.001043591    1.370    0.270
         9  -9.6541     37.2335    249.6194   1.4820569460e+02   2.1196233566e+01    0.1813402   0.09681789  57.20 0.0008920433    1.356    0.262
        10 -10.5800     29.9976    249.7573   1.4928876143e+02   2.1964781456e+01    0.2963249    0.1268187  53.32   0.00201584    1.682    0.405
        11 -11.0328     34.7776    244.6207   1.4830038626e+02   2.2263302976e+01    0.3495402    0.2877757 -76.08  0.003044612    1.566    0.361
        12  -8.9959     15.8167    250.4140   1.5138254645e+02   2.3335056948e+01    0.1157139   0.07943334  41.46 0.0009497911    1.711    0.416
        13 -13.7555      6.2649    182.8358   1.4939523827e+02   3.6156235116e+01     2.118258    0.7304564 -80.54   0.01028227    2.411    0.585
        14 -15.2426     28.6009    178.1790   1.4485151481e+02   3.4997917891e+01     9.723729      3.85273  72.03   0.04338104    3.294    0.696
        15 -11.0723    233.1401    236.3720   1.1433068771e+02  -5.5706753130e+00    0.3557349    0.2119683 -52.63  0.001798741    3.895    0.743
        16 -10.1083    194.4167    239.1853   1.2119342774e+02   1.6292258547e-01    0.1356781    0.1120792 -53.46 0.0009501562    1.723    0.419
        17  -9.7853    183.3380    238.3212   1.2295890825e+02   2.0463387606e+00     0.179099    0.1213789  16.39 0.0007932455    1.739    0.425
        18 -11.3627    148.4765    229.3403   1.2784668654e+02   8.9413369727e+00    0.4560492    0.1514018  42.01  0.002013696    2.481    0.597
        19  -9.1889     33.7984    228.8919   1.4754143540e+02   2.4979725623e+01    0.1448024    0.1143182  75.10 0.0006013572    1.167    0.143
        20 -13.3176      2.8726    231.6669   1.5246610309e+02   2.7621130230e+01     1.860354    0.5178026 -81.23   0.01009112    3.163    0.684
        21 -12.6072     43.1735    233.3767   1.4631923867e+02   2.3171400815e+01    0.2752231    0.2466408  65.00 0.0007944325    1.434    0.302
        22 -13.7541     49.1564    224.3645   1.4472431860e+02   2.4018352446e+01    0.8908799    0.5241087 -88.26  0.005840574    1.561    0.359
        23 -10.9257    173.7007    222.2157   1.2236202827e+02   5.7863504568e+00    0.3711708    0.2913432  76.73  0.002317474    1.767    0.434
        24 -10.1875     81.4715    248.2075   1.4122945387e+02   1.6020941833e+01    0.2180681    0.1426662  80.11 0.0008645744    1.478    0.324
        25 -10.0163     46.5597    248.5522   1.4673403267e+02   2.0307340358e+01    0.2551749     0.119687  70.39  0.001001746    1.939    0.484
        26 -10.0376    152.3184    248.0795   1.2947763639e+02   5.7017496159e+00    0.1512563    0.1264487  48.63 0.0004467304    1.093    0.085
        27  -8.7015    152.4803    212.9081   1.2488685746e+02   1.0782421241e+01    0.1523381    0.1247005 -52.87 0.0003971059    1.446    0.309
        28 -12.4723     26.5603    203.2282   1.4710844358e+02   3.0340615604e+01    0.4959835    0.1864481  55.67  0.002745118    2.274    0.560
        29  -9.9146    192.6877    194.5868   1.1442552658e+02   6.4715257783e+00    0.6677031    0.3380516 -61.39  0.001978894    7.112    0.859
        30 -11.3541     67.6576    198.6784   1.3922647485e+02   2.6411588772e+01    0.3122705    0.2006224 -52.08  0.001469673    1.960    0.490
        31 -11.5552     72.9105    190.9234   1.3739565288e+02   2.7213058995e+01    0.2437305    0.2076779 -62.84 0.0006872579    1.367    0.268
        32  -8.7997    104.7490    180.7141   1.2963778722e+02   2.4528534413e+01    0.1692542     0.129529  74.41 0.0003999203    1.303    0.232
        33 -13.1984     69.3984    176.0506   1.3639457218e+02   3.0668969938e+01    0.4554493    0.2638688 -46.39  0.001842804    2.282    0.562
        34 -10.7693     81.9342    178.2503   1.3405676153e+02   2.8486203984e+01    0.2162388    0.1890355 -87.71 0.0003069285    1.091    0.083
        35  -8.7451    171.5254    173.4908   1.1463210052e+02   1.3863566291e+01    0.1372478     0.126009  36.73 5.537097e-05    1.010    0.010
        36 -11.9013     89.2148    168.4666   1.3117177017e+02   2.9427659096e+01    0.7358754    0.5230774  55.00  0.004282691    1.330    0.248
        37  -8.6078    250.6891    171.6976   9.9801791857e+01  -7.8504870503e-01    0.1333985   0.08686268  10.30 0.0002611412    1.608    0.378
        38 -10.5374    192.2061    155.9094   1.0696882550e+02   1.2756715689e+01    0.4298008    0.3132339 -75.32  0.001669835    2.305    0.566
        39 -10.6756    197.7639    244.8965   1.2143067282e+02  -1.0397006387e+00    0.1789676    0.1643109 -77.85    0.0013554    1.646    0.392
        40 -11.9248     89.4885    151.8585   1.2854776264e+02   3.2906824708e+01    0.2605291    0.2386844 -40.85 0.0006130959    1.298    0.230
        41 -12.8428     66.0490    142.9358   1.3264573339e+02   3.8195878396e+01     1.233125    0.6584968  82.01  0.003026795    2.981    0.665
        42  -9.8186    100.6066    152.4187   1.2607399131e+02   3.1024461347e+01    0.2717723    0.2370972  83.26 0.0008254708    1.098    0.089
        43  -8.4800    184.7187    148.3009   1.0680038411e+02   1.5624077486e+01     0.136402    0.1160008 -83.75 0.0002959543    1.548    0.354
        44  -9.0275    103.1823    148.1379   1.2471821144e+02   3.1514672274e+01    0.1997756    0.1803164 -36.83 0.0006012709    1.285    0.222
        45  -9.3301    181.7545    144.5900   1.0657477385e+02   1.6908809240e+01    0.2529326    0.2085499  79.45 0.0005110333    1.573    0.364
        46  -8.3526    192.0172    143.9713   1.0438185989e+02   1.4845896271e+01    0.1692972    0.1594553  -1.36 0.0003791892    1.035    0.034
        47  -9.4735    110.8842    137.3064   1.2081678780e+02   3.2519532100e+01    0.3375163    0.2018492 -31.44  0.001420649    2.457    0.593
        48  -8.7097    173.9251    137.4097   1.0655744815e+02   1.9889914992e+01    0.1992534    0.1300342  71.69 0.0005358124    2.379    0.580
        49 -10.5961     98.5554    134.9084   1.2333402598e+02   3.5154357161e+01    0.2976635    0.2290849 -38.10 0.0009542856    1.479    0.324
        50  -9.7095    167.2874    131.2769   1.0653119678e+02   2.2476193122e+01    0.2701516    0.2391269  85.93 0.0006728779    1.329    0.248
        51 -10.0967     82.8927    243.5511   1.4062184681e+02   1.6556790008e+01    0.2987706    0.1404975  66.00  0.001660607    2.282    0.562
        52  -9.8670     71.0371    124.8215   1.2835218494e+02   4.1570983417e+01    0.2162013    0.1980933  70.75 0.0004060585    1.133    0.117
        53 -11.1912     53.7456    119.8761   1.3199085129e+02   4.4881977090e+01    0.3536566    0.2031499 -68.60  0.001846401    1.574    0.365
        54 -13.2425      9.5090    206.7827   1.5022804603e+02   3.1349645169e+01    0.6579872    0.5171791  50.63  0.002902465    1.432    0.302
        55  -9.5694    154.5843    120.0654   1.0660761484e+02   2.7415159096e+01    0.3634008    0.2553387  86.12  0.001505999    2.296    0.564
        56 -10.5976    168.0477    113.2383   1.0190432695e+02   2.5738123609e+01    0.3583681    0.3005688 -79.13 0.0008870465    1.479    0.324
        57  -8.5505    146.4898    113.5558   1.0682292128e+02   3.0468179569e+01    0.1506529    0.1446073 -83.78 0.0003177933    1.099    0.090
        58  -9.0052     74.4859    243.0219   1.4195021219e+02   1.7751823138e+01    0.1397712   0.09305109 -83.00 0.0006455591    1.531    0.347
        59  -9.3760    203.5140    111.2376   9.4280632562e+01   1.7960418699e+01    0.2851163    0.1838913  18.31 0.0009959361    2.157    0.536
        60  -9.2059    107.9373    124.0757   1.1874618596e+02   3.5909861238e+01    0.1986682    0.1905656 -70.78            0    1.017    0.017
        61 -10.2438     44.3570    109.3203   1.3268368520e+02   4.8305798504e+01    0.2630971    0.1647386  74.83  0.001359491    2.090    0.522
        62  -8.4001    184.5124     77.4487   8.8687386447e+01   2.8196595858e+01    0.1524455    0.1467389   8.86 0.0001361556    1.040    0.039
        63  -9.6821    155.4953     76.0151   9.4201343064e+01   3.5538853554e+01    0.2384648    0.1493728 -35.20  0.000753413    1.573    0.364
        64  -9.6501     18.6603     66.9287   1.3218023280e+02   5.9908702034e+01      0.17519    0.1684983  47.08 0.0003655178    1.322    0.244
        65 -11.3949      3.4849     61.7422   1.3636317053e+02   6.1966578133e+01    0.3386777    0.2570224 -84.03  0.001068527    1.410    0.291
        66  -8.3661     25.4329     59.4219   1.2796420481e+02   6.0950200199e+01    0.1429915    0.1107249  37.10 0.0001086756    1.631    0.387
        67  -8.9096     21.3699     57.7471   1.2900969018e+02   6.1620934563e+01    0.1679724    0.1496506 -42.36 0.0006039754    1.147    0.128
        68 -10.5512     17.0850     56.5035   1.3026787161e+02   6.2196599844e+01    0.3039568    0.1781897  38.76  0.001362067    2.223    0.550
        69 -11.2807      5.5741     52.9949   1.3369766785e+02   6.3657584018e+01     0.241314    0.2244257  23.00 0.0007134331    1.408    0.290
        70 -11.1665      1.4916     51.5514   1.3489918897e+02   6.4175122343e+01    0.5482404    0.1006974 -59.80 0.0005564297    3.146    0.682
        71 -10.5921    248.4333    248.7944   1.1379531003e+02  -9.0259605942e+00    0.3363411    0.1473495  28.95  0.001910784    1.922    0.480
        72  -9.6203    161.8361    249.0109   1.2798878243e+02   4.0974459908e+00    0.1659981    0.1215136  78.91 0.0006351914    1.990    0.497
