#   1 NUMBER                 Running object number                                     
#   2 MAG_AUTO               Kron-like elliptical aperture magnitude                    [mag]
#   3 X_IMAGE                Object position along x                                    [pixel]
#   4 Y_IMAGE                Object position along y                                    [pixel]
#   5 X_WORLD                Barycenter position along world x axis                     [deg]
#   6 Y_WORLD                Barycenter position along world y axis                     [deg]
#   7 A_WORLD                Profile RMS along major axis (world units)                 [deg]
#   8 B_WORLD                Profile RMS along minor axis (world units)                 [deg]
#   9 THETA_WORLD            Position angle (CCW/world-x)                               [deg]
#  10 FWHM_WORLD             FWHM assuming a gaussian core                              [deg]
#  11 ELONGATION             A_IMAGE/B_IMAGE                                           
#  12 ELLIPTICITY            1 - B_IMAGE/A_IMAGE                                       
         1 -15.0196     13.3724    153.2359   1.4228631642e+02   4.1933089451e+01     11.29434     4.743694  80.07   0.04581843    3.491    0.714
         2 -13.2649    196.2193     29.6117   6.7618519895e+01   3.2931409549e+01     1.327538      1.16854  56.67  0.007122694    1.234    0.189
         3 -13.3660    212.5875     10.4610   6.1128079114e+01   3.1230757698e+01     1.061872    0.8791587  43.39  0.006663762    1.557    0.358
         4 -12.2171      2.5735     12.2660   1.1609221176e+02   7.0991221431e+01     1.137771    0.2654643 -35.35  0.004930754    3.744    0.733
         5 -10.0975      2.0042      3.4810   1.1270398157e+02   7.2236196660e+01    0.3124864    0.1774258 -24.68  0.002260069    1.329    0.248
         6 -10.2819    105.9795    246.3202   1.3333335516e+02   9.6218700737e+00    0.1839402    0.1383586  56.48 0.0008899714    1.079    0.073
         7 -10.6728    139.5213    250.0005   1.2742979587e+02   3.3910206174e+00    0.3192738    0.1306386  46.88  0.001105521    2.022    0.505
         8 -10.7699    125.1815    249.9261   1.3013626028e+02   5.8200618032e+00    0.3444727    0.1365602  41.94   0.00155399    2.145    0.534
         9  -9.1956     66.3654    250.1022   1.4090300293e+02   1.4907419760e+01    0.1864978    0.1372239  51.89 0.0004474238    1.280    0.219
        10 -10.4053     46.5203    248.9962   1.4422877034e+02   1.7786199261e+01    0.3011992    0.1643706  78.05  0.001326738    1.619    0.382
        11 -11.3435     29.1845    249.3381   1.4712255328e+02   1.9861357989e+01     0.360369    0.2584203  52.07  0.001650216    1.397    0.284
        12 -10.9299     36.3317    243.6642   1.4556417691e+02   2.0079437496e+01    0.2660897    0.2099393 -57.14  0.001490413    1.868    0.465
        13 -10.2243      2.0000    240.0723   1.5092350446e+02   2.4583483940e+01    0.3946021   0.09975986 -80.66  0.001775714    3.495    0.714
        14 -11.1890     14.0819    249.6736   1.4954585965e+02   2.1515257346e+01    0.4418815    0.1918526  39.02    0.0026095    2.451    0.592
        15 -10.2786      2.6414    249.3733   1.5129022349e+02   2.2781374551e+01    0.2651374    0.1679805  76.36  0.001242796    1.064    0.060
        16  -9.8368      2.6829    245.6986   1.5110247943e+02   2.3457536075e+01    0.1616576    0.1188531 -82.78  0.000646777    1.384    0.278
        17 -10.3167     18.9471    242.1332   1.4833837873e+02   2.2399754678e+01    0.1859429    0.1201793  86.39 0.0003847624    1.181    0.153
        18 -11.7917     10.8554    239.1594   1.4947102628e+02   2.3845554244e+01    0.4042322    0.1937265  74.97  0.001914926    1.689    0.408
        19 -10.0152    186.0024    239.0416   1.1691216533e+02  -2.8512270022e+00    0.1985761    0.1533915  69.91 0.0007018763    1.742    0.426
        20 -10.2216    120.7645    239.1660   1.2966316252e+02   8.5023256215e+00    0.2292762    0.1209883  71.23 0.0009600058    2.873    0.652
        21 -10.4792     50.6062    235.7454   1.4248671717e+02   1.9820292884e+01    0.2362017    0.1812112  87.94 0.0004284138    1.148    0.129
        22 -11.7876    245.5150    245.9791   1.0704464314e+02  -1.3370984230e+01    0.4239668    0.2583438  32.39  0.002598432    1.433    0.302
        23 -12.4925      9.3708    207.2269   1.4773315373e+02   3.0404444711e+01    0.6634988    0.5754407  33.78  0.003341432    1.689    0.408
        24  -9.7953      6.7969    215.0804   1.4870670733e+02   2.9031620312e+01    0.1798483    0.1312163  66.17 0.0005184441    1.206    0.171
        25  -8.7054    152.5330    212.9669   1.1944857557e+02   7.8229595454e+00    0.1830861    0.1391491 -54.83 0.0003515432    1.452    0.311
        26  -9.3330     34.7404    202.5166   1.4258831658e+02   2.8717820360e+01    0.1970279    0.1507492 -89.38 0.0005252273    1.070    0.066
        27 -11.4582     59.8651    197.7886   1.3701229489e+02   2.6616021387e+01    0.2895646    0.2275178 -59.98 0.0005494934    1.426    0.299
        28  -9.7564    193.0923    195.2523   1.0783850981e+02   3.4073349312e+00    0.6517436    0.3074899 -63.58  0.001547608    8.121    0.877
        29 -11.6820      2.2785    183.6775   1.4736975587e+02   3.6074493846e+01    0.8726175    0.1688238 -75.52  0.003168814    4.142    0.759
        30 -11.7421     66.2467    189.5529   1.3466391104e+02   2.7600236865e+01    0.2820288    0.2362092 -64.96 0.0004106032    1.279    0.218
        31 -10.9695    229.2838    229.4266   1.0711817364e+02  -8.6700616266e+00    0.5149687    0.3033132 -59.43  0.002206527    3.814    0.738
        32 -10.6887     76.5733    176.8714   1.3061819185e+02   2.9047085305e+01    0.2507472    0.2167564 -77.55 0.0004058951    1.093    0.085
        33 -13.0768     63.2896    174.8030   1.3339746333e+02   3.1432251676e+01    0.5175145    0.2812378 -46.52    0.0019686    2.280    0.561
        34  -9.7476     96.5197    173.1924   1.2535556344e+02   2.6740673623e+01    0.2582808     0.216391  70.60 0.0004986345    1.130    0.115
        35 -11.6735     84.1392    167.7299   1.2741875329e+02   3.0051499478e+01    0.6439852    0.5649524 -68.78  0.003746468    1.120    0.107
        36 -12.6267     32.7774    231.3974   1.4529670585e+02   2.2911462338e+01    0.2955276    0.2433503 -73.82  0.000754878    1.457    0.314
        37  -9.7670     97.2425    151.9122   1.2136738446e+02   3.1687471074e+01    0.2942052    0.2431048 -51.45 0.0008319188    1.229    0.186
        38 -11.9235     85.6273    151.0508   1.2416785787e+02   3.3815220680e+01    0.3063791    0.2519608 -46.25 0.0006894639    1.309    0.236
        39  -8.7375    100.1579    147.8287   1.1982250625e+02   3.2160869022e+01    0.1925461    0.1715067 -32.26 0.0002371182    1.312    0.238
        40 -12.1348     67.4515    143.6135   1.2753287061e+02   3.8306433212e+01    0.6992453    0.4581257  69.09   0.00264096    1.834    0.455
        41  -8.3557    192.2859    143.7513   9.7076473695e+01   1.3807149445e+01    0.1457913    0.1200745 -89.26 0.0002466794    1.468    0.319
        42  -9.6070    109.1940    137.1604   1.1523854073e+02   3.3069307706e+01    0.4047785    0.2846846 -16.99  0.001581445    2.302    0.566
        43 -10.2459     96.2155    134.3304   1.1806356151e+02   3.6072672881e+01    0.2654809    0.2247183 -39.98 0.0005159487    1.260    0.206
        44 -10.5587     30.6826    131.1848   1.3520205753e+02   4.5505585566e+01    0.2339943    0.1922211  63.75 0.0004652182    1.336    0.251
        45  -9.8430     78.1633    130.6347   1.2219096919e+02   3.9871324079e+01    0.2453066    0.1970851  85.59 0.0006364049    1.368    0.269
        46 -10.1943      5.0205    228.7283   1.4982645906e+02   2.6470429582e+01    0.1544276    0.1080486  74.94 0.0005124559    1.062    0.058
        47 -12.0729     22.2275    126.6467   1.3677680405e+02   4.7303401856e+01    0.4023108    0.2773908  53.38  0.001347544    1.675    0.403
        48  -8.7539    106.4812    123.8502   1.1292709610e+02   3.6700446217e+01    0.2064116    0.1429394 -52.14 0.0003018127    1.378    0.274
        49 -10.6590    153.4359    228.7201   1.2173911016e+02   4.6927356611e+00    0.3816798    0.1089836  37.97  0.001231559    3.705    0.730
        50 -10.3007    167.8694    112.9177   9.4812071428e+01   2.5875878302e+01    0.3463405    0.2794489 -80.33 0.0005983394    1.441    0.306
        51  -9.2234    203.4602    111.5221   8.7150185155e+01   1.7728163815e+01    0.1513586     0.146598 -53.57 0.0001342895    1.050    0.048
        52 -11.3780    242.9363     93.3531   7.6333167660e+01   1.2109111922e+01    0.2969866    0.2616648  83.85  0.001725483    1.172    0.147
        53 -13.6257     38.2136    224.0274   1.4376388749e+02   2.3752457406e+01    0.7378843    0.5343812  73.60  0.002381876    1.059    0.056
        54  -8.5231     67.4813     82.6183   1.1391452044e+02   5.2206112446e+01    0.1298102    0.1210068 -35.11 0.0001544262    1.068    0.063
        55  -9.3651    158.2623     77.0161   8.7206556818e+01   3.5189056398e+01    0.2162321    0.2012549 -46.99 0.0007243513    1.097    0.089
        56  -8.6134     46.0047     68.9976   1.1732659962e+02   5.7625352881e+01    0.1447659    0.1261516 -22.80 0.0003181837    1.071    0.066
        57 -10.0355     79.7075    218.9948   1.3535462109e+02   1.9149982023e+01    0.1886793    0.1483899  84.24  0.001166825    1.105    0.095
        58  -8.9504     31.9983     62.2722   1.2045112141e+02   6.0339406248e+01     0.160315    0.1394016 -16.95 0.0004712385    1.138    0.122
        59 -11.7378     11.8424     54.0761   1.2577202648e+02   6.3461926899e+01    0.4045772    0.2020273  35.63  0.001825148    2.654    0.623
        60 -11.1198      3.4617     38.6598   1.2479004144e+02   6.6747528854e+01    0.2277127    0.1942216 -67.46  0.001767584    1.559    0.359
        61 -10.5194     97.0569    245.6618   1.3492966518e+02   1.1165137534e+01    0.3396754    0.1681147 -73.81   0.00126031    2.411    0.585
        62 -11.0068    100.4882    245.4962   1.3427159948e+02   1.0653315754e+01    0.5041384    0.2285564 -47.14  0.002244108    3.400    0.706
        63  -9.4151    198.6762    246.3488   1.1564693961e+02  -6.1117961588e+00    0.1195848   0.09552865  67.95 0.0007049154    1.748    0.428
