#   1 NUMBER                 Running object number                                     
#   2 MAG_AUTO               Kron-like elliptical aperture magnitude                    [mag]
#   3 X_IMAGE                Object position along x                                    [pixel]
#   4 Y_IMAGE                Object position along y                                    [pixel]
#   5 X_WORLD                Barycenter position along world x axis                     [deg]
#   6 Y_WORLD                Barycenter position along world y axis                     [deg]
#   7 A_WORLD                Profile RMS along major axis (world units)                 [deg]
#   8 B_WORLD                Profile RMS along minor axis (world units)                 [deg]
#   9 THETA_WORLD            Position angle (CCW/world-x)                               [deg]
#  10 FWHM_WORLD             FWHM assuming a gaussian core                              [deg]
#  11 ELONGATION             A_IMAGE/B_IMAGE                                           
#  12 ELLIPTICITY            1 - B_IMAGE/A_IMAGE                                       
         1 -11.5898    128.4944     54.2979   5.0607379410e+01   4.5818574716e+01     1.375285    0.9855075 -39.68  0.006102992    1.346    0.257
         2 -12.2261    151.8782     46.5887   4.2655599820e+01   4.1170393527e+01     1.751992     1.146239  22.78  0.006120856    2.020    0.505
         3 -12.4841     97.8958     44.4734   5.5140631620e+01   5.4609333559e+01     1.992136     1.171734 -56.42  0.008099614    2.265    0.558
         4  -9.9658     60.1468     15.6894   5.4661093007e+01   6.6901923443e+01     1.825834     0.997695  33.78  0.008649968    2.047    0.512
         5 -10.8170     82.8290     32.4145   5.4719586675e+01   5.9864110622e+01      1.41145    0.6232346 -23.05  0.002509967    3.179    0.685
         6 -11.9265     58.1444     49.3967   7.1210983916e+01   6.1006941719e+01     1.351385     1.141076 -81.56  0.007407545    1.471    0.320
         7 -12.8874     61.8464     34.0484   6.3301691523e+01   6.3492067370e+01     2.280958     1.517304 -21.64   0.01139344    1.646    0.392
         8 -11.2801      4.6274     31.4498   9.0289925638e+01   7.0530702825e+01      1.60894    0.7848835  67.32   0.00595755    5.285    0.811
         9 -10.8753     50.1816     33.5698   6.8052549638e+01   6.5422246864e+01     1.090548    0.5926626 -27.30  0.004855605    2.205    0.546
        10 -12.4018    195.9844     55.1208   3.7958540727e+01   2.8590654249e+01     1.251189     0.634807  -7.62  0.004269253    3.099    0.677
        11 -13.2213    242.8350     13.8051   2.1243085093e+01   2.2194155219e+01     2.553177     1.182236 -35.06   0.01209783    1.741    0.426
        12  -9.6327     40.3614     24.7633   6.8496303751e+01   6.8499356686e+01    0.5536708    0.4191636 -81.94  0.002910306    2.304    0.566
        13 -10.7786     44.6123     18.9627   6.3413967080e+01   6.8946512948e+01    0.7202084    0.4936571  20.27  0.002814162    1.669    0.401
        14  -9.8030     37.9940     15.5409   6.4827672896e+01   7.0495674755e+01    0.3607918    0.1953829 -43.43  0.001174525    1.654    0.396
        15  -9.9193    107.4100     25.4297   4.4171857056e+01   5.5438892599e+01    0.8019354      0.46632  27.15 0.0006854084    2.198    0.545
        16  -8.7541     92.7045     15.0302   4.3175680239e+01   6.0250422857e+01     0.405242    0.2277812  45.76  0.001850172    1.753    0.430
        17  -9.9160     86.9148     22.4770   4.8622363182e+01   6.0549191674e+01    0.7410554      0.42305  68.98  0.002544066    2.618    0.618
        18 -10.2671    132.0216     21.1979   3.6793182276e+01   4.9788839414e+01    0.5710771    0.3328288 -66.52  0.002215479    2.539    0.606
        19  99.0000      4.5563     19.8130   8.6308807291e+01   7.3055450669e+01    0.4761461    0.1882448 -31.46  0.002129733    2.981    0.665
        20  -8.7591     30.1706     19.0107   7.0870226942e+01   7.0881484535e+01    0.3523238    0.1613608 -57.46  0.001474959    2.877    0.652
        21  -6.0308     30.6577     12.1906   6.6854068855e+01   7.2058662412e+01    0.2575133    0.1377368   8.44  0.001085959    3.341    0.701
        22  -8.1312     98.7317      8.7228   3.8403589881e+01   5.9559940495e+01    0.1421037   0.09934118  24.98 0.0002941145    1.484    0.326
        23  -8.3342     92.2766      3.9526   3.7563827418e+01   6.1580686546e+01    0.1884974    0.1590529  -1.30 0.0002012806    1.120    0.108
        24  -9.2635     35.9887    144.2147   9.8139369764e+01   4.1461551266e+01     0.166897    0.1366683  73.24  0.001111597    1.072    0.067
        25  -9.6279    215.1891    249.5765   7.5879128127e+01  -1.3632141870e+00    0.1743971    0.1144349  19.57  0.000948442    1.218    0.179
        26 -10.1207    205.0768    250.4850   7.7552422077e+01  -1.1170961949e-01    0.3588348   0.07763337  41.74  0.001525759    3.696    0.729
        27 -10.2658    198.7669    245.7823   7.7949590701e+01   1.1953142810e+00    0.4382016    0.2377474 -28.91  0.002937132    2.298    0.565
        28 -10.5083    164.9409    248.6192   8.3731337143e+01   5.5470657477e+00    0.2604382    0.1784704  19.30  0.001883645    1.523    0.343
        29  -8.6506     37.8209    140.1575   9.7255542804e+01   4.2186617715e+01    0.1590585    0.1333819 -65.04 0.0004272639    1.295    0.228
        30  -8.8327     48.9477    139.0314   9.4274907002e+01   4.1203497613e+01    0.1895349    0.1543476  85.34            0    1.037    0.036
        31  -8.9394     15.3585    136.1878   1.0259681874e+02   4.5213309186e+01     0.231648    0.1420262  85.51 0.0009118423    1.346    0.257
        32  -9.0338     43.6080    132.9204   9.4914643523e+01   4.3219457202e+01    0.3590388    0.1721376 -77.32  0.001435559    1.954    0.488
        33  -9.4940     30.6371    133.1776   9.8370828532e+01   4.4517323301e+01    0.3396944    0.1852296 -87.40  0.001111755    1.665    0.399
        34  -9.0284     24.6596    134.2708   1.0004158646e+02   4.4833870230e+01    0.1991145    0.1440691  70.83 0.0003294018    1.206    0.171
        35  -9.8055      8.8006    131.7047   1.0392203386e+02   4.6752886890e+01    0.2754468    0.1931299 -80.10 0.0005805142    1.186    0.156
        36  -8.2868     61.6969    132.7099   9.0078677956e+01   4.1076711098e+01    0.1225646   0.09948535 -39.10 0.0002010518    1.568    0.362
        37  -9.4294     82.7759    129.3720   8.3932427078e+01   3.8838996564e+01    0.2761857    0.2331932 -82.89 0.0006185829    1.111    0.100
        38  -8.1167     73.6518    130.2782   8.6512605200e+01   3.9992911803e+01    0.1410072   0.09424705  69.81  0.000392145    1.638    0.390
        39  -8.3758     21.9842    130.4863   1.0038048945e+02   4.5945265089e+01    0.1436331    0.1219727   7.15 0.0006138686    1.673    0.402
        40 -10.3634      3.7732    124.8372   1.0472528754e+02   4.8683719600e+01    0.2804425    0.2209116  84.71  0.000919306    1.046    0.044
        41  -8.9164     10.3184    125.0435   1.0299774114e+02   4.8160266590e+01    0.2384885    0.1811682  56.74  0.001370482    1.296    0.228
        42 -10.6358     43.2939    122.5273   9.3641551500e+01   4.5686610072e+01    0.3209837    0.2078521 -81.06 0.0002556587    1.378    0.274
        43 -10.4192     46.1720    116.0343   9.1876928771e+01   4.6904890727e+01    0.3704214    0.2654768  31.33  0.001456592    1.633    0.388
        44 -10.8584     46.4535    109.7225   9.0793442204e+01   4.8384391601e+01    0.5766322    0.3072689 -83.64  0.002654323    2.045    0.511
        45 -10.7319     41.1458    109.8500   9.2412099559e+01   4.8944987776e+01    0.4568604    0.2738819 -49.96  0.001111799    1.745    0.427
        46  -8.2169    102.3242    122.6641   7.7468577801e+01   3.7118610068e+01    0.1497665    0.1082987  81.50 0.0007051111    1.715    0.417
        47  -9.3617     77.5254    121.0812   8.3828374138e+01   4.1548752561e+01    0.5184946    0.2595152  50.31   0.00227792    2.122    0.529
        48  -8.7475     70.1891    120.3728   8.5738220324e+01   4.2790331981e+01    0.3392185     0.142736 -48.75   0.00107876    2.559    0.609
        49 -10.5162     12.0098    114.3334   1.0156800197e+02   5.0525411663e+01    0.9286451    0.2595215 -59.37   0.00386785    3.005    0.667
        50  -9.3470      3.8605     98.5744   1.0245098319e+02   5.4805606927e+01    0.4414314    0.1825416 -48.72  0.002105032    2.662    0.624
        51 -11.3678      4.1258    113.9959   1.0378257808e+02   5.1161900998e+01    0.7306162    0.3232327 -74.00  0.002443912    1.759    0.432
        52  -9.7104      4.3743    104.2861   1.0284892649e+02   5.3422367695e+01     0.315796    0.2353577   6.30  0.002069307    1.893    0.472
        53  -9.5099    108.0130    119.9941   7.5409239328e+01   3.6686423405e+01    0.2073317    0.1975841 -84.07  0.001190859    1.007    0.007
        54  -8.5083     89.0050    120.0247   8.0473381017e+01   3.9984986055e+01    0.2219639    0.1601442  77.41 0.0004855887    1.619    0.382
        55  -9.5268     34.4116    122.2796   9.6098838741e+01   4.6684782452e+01    0.2450977    0.1002117 -67.71  0.001126416    2.038    0.509
        56  -9.5475     32.7041    112.6763   9.5342537684e+01   4.9136106451e+01    0.4348851    0.1768955  31.53  0.002000264    2.683    0.627
        57  -8.9373     21.8540    112.6227   9.8531714457e+01   5.0142214528e+01    0.3058748    0.1062569  30.41  0.001366795    3.058    0.673
        58  -8.7704     27.2315    113.6657   9.7081644070e+01   4.9418442620e+01     0.226379    0.1546284 -64.63            0    1.313    0.238
        59  -9.4542     25.0178    109.9784   9.7274401919e+01   5.0497643403e+01    0.3302198    0.2203713  87.41  0.001107505    1.336    0.252
        60  -8.5467     82.1401    110.7597   8.0456854364e+01   4.3237663172e+01    0.1865763    0.1784678 -86.66 0.0004813229    1.075    0.070
        61  -8.4887    105.6669    110.6728   7.3894192283e+01   3.9185915430e+01    0.1468201    0.1171551 -12.85 0.0006917057    1.716    0.417
        62 -10.5520     80.3952    100.1169   7.8576878299e+01   4.6005058438e+01    0.3952516    0.3104396  11.80  0.000441388    1.738    0.424
        63 -11.0899     64.9677    102.9913   8.3902821698e+01   4.7646971833e+01    0.9342977    0.4898632 -67.67   0.00417748    1.874    0.466
        64  -8.7596     77.6037    107.3988   8.1049066141e+01   4.4737978237e+01    0.2955666    0.1992552 -55.56  0.001490688    1.378    0.275
        65  -9.7407     70.2328    103.5007   8.2406613779e+01   4.6771316008e+01    0.4705455    0.2182243 -59.08 0.0006514929    1.954    0.488
        66  -9.3829     13.0084    105.5984   1.0037344118e+02   5.2516948422e+01    0.2311042    0.1934693  22.38  0.001059322    1.545    0.353
        67  -9.1959    125.3714    105.2635   6.7389822399e+01   3.6484418914e+01    0.2144414    0.1376323 -54.62 0.0006856677    1.623    0.384
        68 -10.1298    114.3527    104.7737   7.0118492916e+01   3.8819804437e+01    0.3385429    0.2434699  14.54 0.0008410772    2.059    0.514
        69  -9.6048     36.3625    104.8046   9.3089595119e+01   5.0662533013e+01    0.2454946    0.2254494 -55.86 0.0008042112    1.237    0.191
        70  -9.4339     52.7706     90.3035   8.5093156055e+01   5.2311548565e+01    0.3387888    0.1818555 -63.55  0.001595209    1.639    0.390
        71  -9.4665     40.0903     80.9938   8.7438288303e+01   5.6036446755e+01    0.3500315    0.1883271 -68.41 0.0002972576    1.655    0.396
        72 -10.2120     50.4792    103.4435   8.8469102442e+01   4.9423300527e+01    0.4136821    0.2440713  57.80  0.002031027    1.927    0.481
        73 -11.6387     46.3507     95.9395   8.8370042852e+01   5.1723367283e+01    0.9150836    0.5679096 -84.28  0.003908402    1.706    0.414
        74  -8.7942     50.2513     71.0217   8.1269176157e+01   5.7226095629e+01    0.8652173    0.4343497  59.84  0.003259897    3.550    0.718
        75 -10.3432     45.0247     85.4716   8.6674515939e+01   5.4406849253e+01     0.374932    0.2738798  22.96   0.00090297    1.703    0.413
        76 -10.0887     48.7714     85.4868   8.5382347927e+01   5.3962583388e+01    0.4291801    0.2487297 -65.10  0.001540047    1.517    0.341
        77 -11.2273     51.3583     80.8184   8.3390184841e+01   5.4764334262e+01    0.8491387    0.5681822  10.97  0.001239008    2.178    0.541
        78  -8.7894    145.1583    103.1646   6.2026430591e+01   3.2673084090e+01    0.2064601    0.1815142 -78.30 0.0004119886    1.296    0.228
        79 -10.5787    111.9907    100.1313   6.9543395249e+01   4.0299581063e+01    0.5275152    0.3591397 -16.75  0.002190495    2.343    0.573
        80  -8.5890     29.3694    103.2736   9.5036281223e+01   5.1713222484e+01    0.2035484    0.1264112 -47.69  0.001099115    1.745    0.427
        81  -9.0408     96.5085    102.2041   7.4370809203e+01   4.2769681734e+01    0.2552928    0.2041415  45.50 0.0004759192    1.311    0.237
        82  -9.4468     97.7976     98.0621   7.2953071140e+01   4.3473254330e+01    0.2734548    0.2357476 -51.25  0.000671816    1.108    0.098
        83  -8.4753     14.9932    100.2067   9.9138357488e+01   5.3656633695e+01    0.2314923    0.1303052 -71.66 0.0007585886    1.412    0.292
        84  -9.4568     22.5638     96.9162   9.6285574378e+01   5.3848527113e+01    0.2211946    0.1748427  44.19 0.0005143546    1.428    0.299
        85  -9.5868     10.8300     97.4300   1.0012616146e+02   5.4621646400e+01    0.2205548    0.2078359 -60.12 0.0005944056    1.282    0.220
        86  -9.0307     15.6684     94.9603   9.8259423181e+01   5.4865683989e+01    0.2651204    0.1817011  20.07  0.001078372    1.880    0.468
        87 -11.6472    114.3366     95.0835   6.7543905067e+01   4.0924067394e+01     1.272981    0.5920304  57.78  0.004394721    3.003    0.667
        88 -11.3037    107.0964     86.3838   6.7068191389e+01   4.4270206517e+01    0.4779246    0.4199439  81.14 0.0004675523    1.268    0.212
        89 -10.4263    116.6490     88.4158   6.5020201046e+01   4.1870415121e+01    0.3720594    0.3280323 -67.27  0.001356127    1.181    0.154
        90  -8.8272     89.7136    107.9110   7.7664192849e+01   4.2651851218e+01    0.2180038    0.1938556  32.10  0.000195806    1.272    0.214
        91  -9.3822     33.9895     99.0497   9.2923729418e+01   5.2291754863e+01    0.1959428    0.1622992 -80.92 0.0003197382    1.021    0.021
        92  -9.1901    105.5162     97.7901   7.0699722981e+01   4.2080434548e+01    0.2878142    0.2030546  24.35 0.0008811897    1.853    0.460
        93  -8.5876     39.2672     95.9529   9.0684531093e+01   5.2503247665e+01    0.1841476    0.1398284 -68.50 0.0003066784    1.113    0.101
        94  -8.8386     29.1360     95.8016   9.3975988089e+01   5.3541039954e+01    0.3128967      0.16078 -55.38 0.0009680615    1.744    0.427
        95  -8.3637     32.5017     94.9723   9.2735182125e+01   5.3424803886e+01    0.2059682    0.1106388 -72.47  0.001025228    1.592    0.372
        96  -9.7935     74.7740    101.1992   8.0523305601e+01   4.6634839736e+01    0.3382454    0.2160604 -44.19  0.001627483    1.646    0.392
        97  -8.7466     64.8850     94.0941   8.1983976267e+01   4.9782567001e+01    0.2122845    0.1732171 -83.97 0.0003569255    1.225    0.184
        98  -9.4358    134.6397     93.1611   6.1760296900e+01   3.6997930115e+01    0.2566395    0.1837112  42.40 0.0006386613    1.457    0.314
        99 -10.0245     97.8672     91.0712   7.1064024039e+01   4.5032632541e+01    0.4619512    0.3531385  69.51  0.001478361    1.562    0.360
       100  -9.6442     98.0168     85.3099   6.9387068162e+01   4.6286407036e+01    0.4960144    0.2531485 -37.19  0.001234167    2.221    0.550
       101  -9.6484     55.7244     86.4582   8.3228043803e+01   5.2856738570e+01    0.6816809    0.1382961  38.86  0.002102787    4.768    0.790
       102 -10.2929     72.3213     88.9790   7.8359732753e+01   4.9892593005e+01    0.5390844    0.3594427  71.56  0.001045789    2.040    0.510
       103  -9.2202     66.0312     89.3070   8.0480548259e+01   5.0756604371e+01     0.350884    0.1795946 -52.41  0.001057564    1.746    0.427
       104 -10.5283     61.9278     83.9035   8.0503146259e+01   5.2623963433e+01    0.3912742    0.3325249 -43.76  0.001201347    1.194    0.162
       105 -10.3783     68.0178     82.6960   7.8138774619e+01   5.2022519082e+01    0.4547479    0.2898997 -51.46 0.0003411245    1.408    0.290
       106 -10.0594     64.7563     81.0025   7.8789742313e+01   5.2902943620e+01     0.542141    0.2075476 -56.28 0.0003279689    2.327    0.570
       107  -9.3745     16.6272     88.7217   9.7078467678e+01   5.6297277891e+01    0.3719369    0.1422086 -77.56 0.0007964221    2.330    0.571
       108  -9.1149     14.3351     85.3296   9.7374136779e+01   5.7282836200e+01    0.5633979    0.2162665 -39.50  0.002215004    3.820    0.738
       109  -8.0456     23.3074     88.6443   9.4783592272e+01   5.5786755404e+01    0.1338924   0.08432853  74.75 0.0007041972    1.723    0.420
       110  -9.4238      6.9174     87.8351   1.0026023561e+02   5.7176211548e+01    0.1916587    0.1742671  45.41 0.0004557367    1.342    0.255
       111  -8.6920    174.0004     86.9854   5.1282257345e+01   2.9009922942e+01    0.2232435    0.2121453   1.58  0.001197644    1.051    0.048
       112  -8.8315    176.6997     85.3174   5.0276542925e+01   2.8650587404e+01    0.2554954    0.2086203  30.78 0.0006751121    1.312    0.238
       113  -9.9061    139.6601     84.6347   5.8028229996e+01   3.7550419599e+01    0.5846454    0.2669434 -30.38  0.002004116    2.632    0.620
       114  -9.9829    164.6733     84.8409   5.2529304673e+01   3.1611051673e+01     0.505172    0.3258296  58.18  0.002212612    1.677    0.404
       115  -9.3409     29.1181     82.9577   9.1762129218e+01   5.6655430069e+01    0.3901661    0.2218142 -80.37  0.001970637    1.698    0.411
       116  -7.8502      2.5990     85.6980   1.0147312199e+02   5.7943991321e+01    0.1265153   0.07180183 -47.86  0.000298365    1.832    0.454
       117  -8.7122     88.2088     84.0602   7.1999779410e+01   4.8380367245e+01    0.2677469    0.1901415  34.95 0.0007239595    1.591    0.371
       118  -8.9088    145.2901     83.0866   5.6234707878e+01   3.6536891813e+01    0.2211741    0.1968025 -41.42 0.0003487472    1.091    0.084
       119 -10.3672     88.1069     72.1906   6.8428280227e+01   5.1037036014e+01    0.9520053    0.3876405 -50.38  0.003501866    2.350    0.575
       120  -9.3525     84.6307     65.0010   6.7175963516e+01   5.3231823768e+01    0.4379536    0.3079833 -31.33  0.001581727    1.508    0.337
       121 -10.3441     82.0149     80.3239   7.2876954590e+01   5.0313354632e+01     0.575591    0.2804216 -48.56  0.002386155    1.875    0.467
       122  -9.3240     81.8168     73.6783   7.0940699685e+01   5.1842744520e+01    0.5116802    0.3218016 -40.64  0.001724605    1.555    0.357
       123 -11.4899     81.5858     55.7393   6.4892466731e+01   5.5735384848e+01     0.690869    0.4329476 -37.46            0    1.515    0.340
       124  -8.9171     75.1936     56.1758   6.7290557247e+01   5.6797962460e+01    0.3071105    0.2593555 -63.93 0.0008180709    1.278    0.218
       125 -10.3686    116.4697     80.7723   6.2763128688e+01   4.3509073290e+01    0.6984882     0.397692  55.68   0.00214562    2.002    0.500
       126 -11.2136    114.5853     73.5844   6.0986315010e+01   4.5390267214e+01    0.8308153    0.7449723 -37.92   0.00438528    1.067    0.063
       127  -9.8492    155.1171    249.3293   8.5418358589e+01   6.8207061768e+00    0.1736392    0.1051318  30.86 0.0009494001    1.413    0.292
       128 -11.6417    128.2946     39.4983   4.5012724736e+01   4.8270413636e+01     1.684445    0.7964659  66.50  0.006071039    2.627    0.619
       129 -11.8719    106.6664     65.7192   6.0573783504e+01   4.8684659900e+01     2.011291     1.343576  -2.38  0.007923773    2.546    0.607
       130 -11.1112    119.4418     60.1929   5.5062031783e+01   4.6907586932e+01    0.8955604    0.5900978 -34.12  0.003772638    1.470    0.320
       131 -11.7298    139.0636     55.0860   4.8404014769e+01   4.3083307161e+01     1.023313    0.7702027 -60.03   0.00316506    1.537    0.349
       132  -9.6466    127.9526     80.2420   5.9568257531e+01   4.1087135790e+01    0.4068283    0.2590044 -25.95  0.000317555    1.848    0.459
       133 -10.6448    126.5698     74.7932   5.8186711089e+01   4.2477456158e+01     0.586307    0.3526495  43.79  0.002487098    1.758    0.431
       134 -12.2188    139.2862     73.0804   5.4491480954e+01   3.9837284731e+01     1.121333    0.7693661  37.03  0.002448987    1.622    0.384
       135 -11.5256    149.9412     68.1097   5.0444122715e+01   3.8149972897e+01    0.8941787    0.7592202 -15.24  0.004459847    1.230    0.187
       136 -12.9408    163.0770     56.5470   4.3928402198e+01   3.6757022214e+01     1.286063    0.9771758  42.75  0.006134779    1.385    0.278
       137  -9.5476    133.7909    247.6061   8.8777616994e+01   9.9584202018e+00    0.1568707   0.07308444  46.13 0.0007618919    1.658    0.397
       138 -10.9717    171.6392     77.4393   4.8921683708e+01   3.1205028747e+01    0.5676692    0.5239925  10.22  0.001855915    1.122    0.108
       139 -10.6285    173.4494     66.1552   4.5100928609e+01   3.2607668904e+01    0.6236884    0.3520371  75.04  0.002341259    2.524    0.604
       140 -10.8261    174.2639     71.6418   4.6654790799e+01   3.1519957387e+01    0.5326377    0.3600874  42.58  0.002400514    1.576    0.365
       141 -10.1344    168.4868     68.0090   4.6616688344e+01   3.3551768195e+01    0.5175008    0.3662525  81.59  0.002268354    1.845    0.458
       142 -10.2845      6.6935     79.4588   9.9245114766e+01   5.9196892604e+01    0.6378964    0.4059344 -22.20  0.002970797    2.176    0.540
       143 -11.0623     32.6957     72.9656   8.8385301272e+01   5.8726976361e+01     1.153797    0.7395228 -17.67   0.00583733    2.312    0.568
       144  -9.8999      2.6735     38.5826   9.3313640518e+01   6.9035273356e+01    0.4614089     0.195761 -76.68  0.001793927    2.354    0.575
       145 -10.2781     18.2954     66.6834   9.2659091107e+01   6.1477162283e+01    0.5416068    0.2353176 -67.95  0.002007674    1.843    0.457
       146 -10.6036     10.3137     67.9327   9.6077393978e+01   6.1733193428e+01     0.458948    0.3493932 -33.73   0.00119854    1.509    0.337
       147  -9.9573     10.3583     32.1260   8.7381065700e+01   7.0020836454e+01     0.444085    0.2301054 -61.83  0.001626229    1.550    0.355
       148 -10.8139     60.2586     64.3516   7.5562513518e+01   5.7406633703e+01    0.8007907    0.6369048 -79.29  0.002680819    1.448    0.309
       149 -11.2112     87.6400     46.9228   5.9405346292e+01   5.6303440000e+01    0.7577797    0.4523869  37.99  0.001098446    1.865    0.464
       150 -11.8637    178.1296    241.2831   8.0715666087e+01   4.5310950526e+00    0.6086788    0.3892961  46.94  0.004223578    1.486    0.327
       151  -8.6310    221.2481    239.7207   7.3640356434e+01  -1.2565020854e+00    0.1927783    0.1266138  18.24  0.001421719    1.224    0.183
       152 -10.6475     82.9314     40.6884   5.8381181365e+01   5.8398355958e+01     0.791765    0.3577706  39.17  0.003094522    2.542    0.607
       153 -10.4597    192.0793    233.4180   7.7426989872e+01   3.4221285831e+00    0.2617435    0.1711987  27.51  0.001420133    1.225    0.183
       154 -11.5735     39.7633     61.5976   8.2718744397e+01   6.0679556951e+01    0.7409941    0.4822988  21.32  0.002394184    1.925    0.480
       155 -11.1427     42.3030     54.0212   7.9367990570e+01   6.2125194852e+01    0.8592419    0.5028399 -17.82  0.003729035    2.834    0.647
       156 -10.1852    188.1457    249.3876   8.0077951005e+01   2.2768200469e+00    0.2476922    0.1517707  31.83   0.00145176    1.211    0.174
       157  -9.8323    212.9639    216.3522   7.1584818216e+01   2.2621411376e+00    0.1957673    0.1288036  10.19 0.0006434742    1.487    0.327
       158  -9.1142     15.7540     74.9120   9.5199126652e+01   5.9691159739e+01    0.3987107    0.2213183  83.27  0.001996961    2.052    0.513
       159  -9.8843    163.1364     74.5735   4.9730811150e+01   3.3777163196e+01    0.5650023    0.2386159  60.16  0.001925549    2.754    0.637
       160 -10.3154    182.0872     71.0790   4.5060781379e+01   2.9674733080e+01    0.3360365    0.2556933  -1.06  0.001576172    1.528    0.346
       161  -8.9256    219.6805    210.0034   6.9511970604e+01   1.9647078954e+00    0.1548539    0.1250947   5.78 0.0005389661    1.128    0.114
       162 -10.8157    206.9803     67.5272   3.9993558918e+01   2.4145568013e+01    0.3386156    0.1952585  62.16 0.0005423743    1.918    0.479
       163 -11.6604     27.9505     64.2050   8.8204906169e+01   6.1263613189e+01     1.061707    0.4618697 -48.28  0.004840925    2.043    0.511
       164 -10.8611    211.2894     66.5416   3.9090187725e+01   2.3260934921e+01    0.4970525    0.2425225 -60.79  0.001613954    3.777    0.735
       165  -8.7023    123.0795     67.6205   5.6704779224e+01   4.4666975055e+01    0.2717106    0.2024381 -49.60 0.0005813385    1.356    0.263
       166  -8.5422    202.6840    208.6628   7.2106051635e+01   4.6743697043e+00    0.1206935    0.0762418  12.74 0.0007047946    1.698    0.411
       167 -10.2752     93.8938     66.7854   6.4799873439e+01   5.1088824422e+01    0.5130315    0.2889705 -45.23  0.001751381    1.651    0.394
       168 -10.1333     97.0573     61.8091   6.2072992964e+01   5.1480366510e+01    0.3791955    0.2695946 -12.34 0.0009667456    1.895    0.472
       169  -8.0985      1.4614     62.5458   9.8731163304e+01   6.3518095255e+01    0.1229791   0.09471777 -72.93 6.902001e-05    1.015    0.015
       170 -10.7674    202.3274     60.3500   3.8591465320e+01   2.6288443374e+01    0.3021715    0.2399068 -77.06  0.001515319    1.499    0.333
       171 -10.1615    229.8368    204.3713   6.6977074256e+01   1.0743851246e+00    0.2544425    0.1211871 -33.64  0.001427049    2.326    0.570
       172 -10.6372     20.2555     56.5667   8.9565748375e+01   6.3721827982e+01    0.4082219    0.2958094  26.18  0.002078516    1.688    0.408
       173 -10.4393    204.4624     56.5098   3.7155458179e+01   2.6299426018e+01    0.2540992    0.2331152 -83.29 0.0008233272    1.191    0.160
       174 -10.9216    209.4362     55.7589   3.6253183393e+01   2.5189295650e+01    0.3484149    0.2449988  -3.59  0.001277318    1.642    0.391
       175 -10.7025    164.7323     39.8498   3.7931803122e+01   3.8771618717e+01    0.4499911    0.3235914  -6.07 0.0002420313    1.583    0.368
       176  -9.9034      3.5127     56.0841   9.6742336563e+01   6.4938030349e+01    0.4186506    0.3100024  35.47  0.002171145    1.671    0.401
       177  -9.7317      3.2392     51.7046   9.6012369829e+01   6.5979145955e+01    0.3689286    0.2241683 -42.44  0.002196037    1.596    0.373
       178  -7.8951     92.2960     58.6209   6.2413092099e+01   5.3085407770e+01    0.1534327    0.1150815 -71.73 0.0007022409    1.754    0.430
       179 -11.0491    217.0452     56.4122   3.5441606824e+01   2.3277594571e+01    0.3796941    0.2349194  77.55  0.001719369    2.026    0.506
       180 -10.1736    180.4810     55.8966   4.0626076704e+01   3.2399257180e+01    0.3141325    0.2362878 -63.91  0.001474277    1.536    0.349
       181  -9.8044    175.0446     55.3482   4.1369741510e+01   3.3870817665e+01    0.2872217    0.2468062   2.86 0.0006397183    1.257    0.205
       182  -9.1949    194.3597     76.9134   4.4674443174e+01   2.5773811886e+01    0.2159624    0.1867341 -27.97 0.0005534675    1.081    0.075
       183 -12.2123    182.0182     48.8005   3.8109602652e+01   3.3022901996e+01    0.6552993    0.4974576 -51.30  0.003187631    1.353    0.261
       184 -11.4978    193.3876     44.4839   3.5060507395e+01   3.0691022876e+01    0.4280096    0.2663196  53.70   0.00132436    1.670    0.401
       185  -8.0650     21.5300     49.0585   8.7006822645e+01   6.5361951736e+01    0.1913366    0.1067021 -64.97 0.0004716013    1.520    0.342
       186  -9.1902     41.6814     43.3966   7.5926982339e+01   6.4547125118e+01    0.5313128     0.267527 -64.60  0.002253126    2.484    0.597
       187  -8.4784    110.8893     45.0897   5.1634043206e+01   5.1583836274e+01    0.2107345     0.187801 -47.50  0.001106378    1.152    0.132
       188  -9.1793     23.5098     43.8576   8.4516032910e+01   6.6374609105e+01      0.22114    0.2097695 -44.33 0.0007817284    1.172    0.147
       189 -10.8980     11.6165     46.3476   9.0902076399e+01   6.6728592944e+01    0.9961953    0.5292106  66.92   0.00287685    3.178    0.685
       190  -8.2910    173.0174     41.0728   3.6990775654e+01   3.6426703810e+01    0.2329671    0.1721402  26.79 0.0004267877    1.578    0.366
       191 -11.6277     30.5041     37.8416   7.9051220421e+01   6.7023663318e+01    0.2971816    0.2380943 -32.98 0.0005895876    1.176    0.150
       192  -8.9228     25.4057     38.2468   8.1702515559e+01   6.7446332656e+01    0.2109219    0.1490601 -70.06 0.0006923476    1.488    0.328
       193 -10.1164    111.8426     34.4330   4.6969532825e+01   5.3075659445e+01    0.6690999    0.3992104 -29.33  0.002306455    1.615    0.381
       194  -9.7292      6.9780    175.8128   1.0696795228e+02   3.7451231215e+01    0.2885086   0.08044182 -64.19  0.001319232    3.581    0.721
       195 -10.6874    211.7668     61.7460   3.7659739077e+01   2.3813726677e+01    0.3241315    0.1825565 -36.55  0.001435968    1.598    0.374
       196  -9.7279    181.9817     36.5052   3.4118399531e+01   3.4673411001e+01    0.2261185    0.1496965  68.08 0.0008318253    1.582    0.368
       197 -10.4568    138.1432     35.1243   4.1151511855e+01   4.6394909337e+01    0.5429413    0.2956601  60.97  0.001153962    1.878    0.467
       198  -8.7583     97.8468     32.2225   4.9881396044e+01   5.6668417302e+01     0.330053    0.2099407 -10.60  0.001434671    1.916    0.478
       199  -8.7695    123.8610     31.8967   4.2961059646e+01   5.0494421661e+01    0.2647642    0.1955348  43.44 0.0008687295    1.375    0.273
       200 -10.4031    168.2884     49.2185   4.0522977871e+01   3.6518847222e+01    0.4884276    0.4121143 -65.17   0.00245848    1.289    0.224
       201  -9.7388    131.9511     30.4841   4.0604307933e+01   4.8630333402e+01    0.6143804    0.2364921  59.51  0.002169722    2.557    0.609
       202  -9.5851    125.7953     27.4701   4.0688076962e+01   5.0608862557e+01    0.3316194     0.268826 -73.00  0.001037663    1.475    0.322
       203  -9.1421    154.0696     29.8648   3.6162763626e+01   4.2907065503e+01    0.3053619    0.2204897 -48.38 0.0006678693    1.435    0.303
       204  -8.0444     38.2660     30.7196   7.2324320100e+01   6.7612223710e+01    0.1164771   0.09879568 -72.40 0.0002521047    1.485    0.327
       205  -7.7489     17.6872     30.3663   8.2791008434e+01   6.9845672216e+01    0.1200479   0.09232504  87.46 0.0007038444    1.765    0.433
       206  -9.6743     72.1308     76.2415   7.4951927487e+01   5.2883282161e+01    0.2987154    0.2660778  41.27 0.0009378341    1.248    0.199
       207  -7.7397    115.3142     28.2682   4.3445220215e+01   5.3126919561e+01    0.1516293    0.1092839  25.59 0.0002504067    1.550    0.355
       208  -7.4610    101.2750    176.2690   8.6788530851e+01   2.6049976560e+01    0.1096808   0.09892754   0.31  0.000687704    1.481    0.325
       209  -9.1110    249.5276    168.5297   5.7490602904e+01   2.0308850248e+00    0.1224289   0.09557763   4.51 0.0002215513    1.010    0.010
       210  -9.9701      7.8845    166.8018   1.0633170103e+02   3.9207045800e+01    0.2501308    0.1450442  37.87  0.001634469    1.728    0.421
       211  -8.1941     28.8214     27.0584   7.5471008881e+01   6.9461234484e+01    0.1647849   0.08227523 -51.34 -0.0006383859    1.686    0.407
       212  -9.0612     37.1849    159.8388   9.9325393105e+01   3.7896890851e+01    0.1478783    0.1338204 -75.06   0.00053216    1.308    0.236
       213  -9.5261    103.6725     23.6886   4.4355560737e+01   5.6567557058e+01    0.3136998    0.2458218  30.83 0.0008130937    1.306    0.235
       214  -9.0875     24.1789     26.1707   7.7559830026e+01   7.0129038939e+01    0.2879785    0.1608288   8.91  0.001434223    2.522    0.604
       215  -8.9564     94.9135     24.2077   4.7038177726e+01   5.8526321996e+01    0.1947268    0.1883694 -46.24 0.0002561889    1.152    0.132
       216 -10.8960      5.5962    158.4382   1.0638777849e+02   4.1141385809e+01    0.3491873    0.3067258  67.57  0.002748594    1.263    0.208
       217  -8.0309     30.3499    157.6879   1.0072075783e+02   3.9068051947e+01    0.1300325   0.06872768  64.61 0.0007045761    1.720    0.419
       218  -8.2141     92.4220     19.2114   4.5342810395e+01   5.9778257594e+01    0.2287879    0.1930674  26.38 0.0006544441    1.170    0.145
       219  -9.1047    148.6854     24.1320   3.4925453701e+01   4.5042197024e+01    0.2780111    0.2474186 -46.75  0.001474916    1.138    0.121
       220  -8.1975     22.2851    153.4788   1.0226366864e+02   4.0761043831e+01     0.189218    0.1140055   3.26 0.0009526662    3.360    0.702
       221  -8.6547      3.3837    152.1656   1.0654584808e+02   4.2650285412e+01    0.1633903   0.07989034  82.82 0.0004547915    1.675    0.403
       222  -8.1831     19.3652    149.8044   1.0267385989e+02   4.1830785715e+01    0.1520828   0.08896408 -71.28 0.0001406388    1.536    0.349
       223  -8.6533    117.0324     16.2959   3.7761149960e+01   5.4213186676e+01    0.2028074    0.1813019  44.65 0.0003153695    1.101    0.091
       224  -9.3699    236.4433    146.7836   5.5102978272e+01   6.8162456005e+00     0.183355    0.1095466 -13.97 0.0009454983    1.668    0.400
       225  -9.6293      1.8345    144.5695   1.0648285346e+02   4.4410542351e+01    0.3114855    0.1483616  86.56  0.001761149    1.709    0.415
