#   1 NUMBER                 Running object number                                     
#   2 MAG_AUTO               Kron-like elliptical aperture magnitude                    [mag]
#   3 X_IMAGE                Object position along x                                    [pixel]
#   4 Y_IMAGE                Object position along y                                    [pixel]
#   5 X_WORLD                Barycenter position along world x axis                     [deg]
#   6 Y_WORLD                Barycenter position along world y axis                     [deg]
#   7 A_WORLD                Profile RMS along major axis (world units)                 [deg]
#   8 B_WORLD                Profile RMS along minor axis (world units)                 [deg]
#   9 THETA_WORLD            Position angle (CCW/world-x)                               [deg]
#  10 FWHM_WORLD             FWHM assuming a gaussian core                              [deg]
#  11 ELONGATION             A_IMAGE/B_IMAGE                                           
#  12 ELLIPTICITY            1 - B_IMAGE/A_IMAGE                                       
         1 -14.2575     25.0675     49.0364   1.0617134374e+02   6.4647021086e+01     1.300398     1.043994  -9.21  0.008488579    1.427    0.299
         2 -14.6082     79.1029     70.4662   9.1858324555e+01   5.3151041488e+01     2.336721     1.411999 -15.85  0.008899229    3.045    0.672
         3 -13.9389     38.5133     33.6075   9.4609162915e+01   6.6554214717e+01     2.157524    0.5731424  35.25  0.008056626    4.215    0.763
         4 -11.8258     32.4097      3.8180   8.2702892838e+01   7.2441260430e+01     0.543671    0.3440134  21.42  0.002690198    1.654    0.396
         5 -12.2833     30.1584     16.8707   9.1143609778e+01   7.0606798864e+01    0.6662248    0.3781376 -26.70  0.003645334    1.677    0.404
         6 -11.9243     28.3225     10.9173   8.9016790692e+01   7.1828336793e+01    0.4695034    0.3599446  -9.51  0.002587447    1.187    0.158
         7 -15.0398      7.9400     21.0943   1.0526208484e+02   7.1751132304e+01     1.974957    0.7451479 -49.04   0.01013078    1.871    0.465
         8 -15.5501     58.3469     70.7121   9.9235540030e+01   5.6196326468e+01     3.084244     1.482027  46.46   0.01323612    2.613    0.617
         9 -15.2376     70.8679     56.8590   9.0182528496e+01   5.7407792814e+01     2.198278      1.73254  73.49   0.01042094    1.823    0.452
        10 -13.1299    122.0202     10.6597   5.5489725193e+01   5.3855604086e+01     1.895958     0.843663  72.58  0.002847106    2.783    0.641
        11 -11.8568     73.2807      1.4840   6.3763710418e+01   6.5878838132e+01    0.2836207    0.1452199  53.99 0.0005768712    1.996    0.499
        12 -12.8791     83.4621     22.6098   7.1271045775e+01   6.1235889611e+01    0.5871225    0.5327371  44.90 0.0006307399    1.236    0.191
        13 -12.4133     75.7792     13.4311   6.9328719206e+01   6.4006096448e+01    0.4153449    0.3399886 -26.55 0.0007720598    1.217    0.178
        14 -13.7955     86.0878     11.9813   6.5218856996e+01   6.2077262695e+01     2.189291    0.5224462  47.10  0.007227513    3.701    0.730
        15 -13.6422     87.3052      3.2986   6.0441774068e+01   6.2753155253e+01       2.3266    0.4317008  57.22   0.00705843    4.586    0.782
        16 -11.7121     64.4597     18.0552   7.5920801755e+01   6.5475130644e+01    0.4275338    0.2864485  27.78  0.001323792    1.543    0.352
        17 -10.9888    175.4601     13.8352   4.7948062931e+01   3.9536472155e+01    0.3806734    0.2344242   6.73    0.0016422    2.191    0.544
        18 -12.5229    185.8807     11.7846   4.6017694120e+01   3.6986254996e+01     0.548198    0.3802002  63.79  0.002238096    1.397    0.284
        19 -10.5312    150.5510      8.6364   4.9610618330e+01   4.6679844251e+01    0.2750921    0.2172007  57.00  0.000805685    1.197    0.165
        20 -12.2898    192.9986      6.3264   4.3559163683e+01   3.5661136013e+01    0.4891558    0.3552852 -35.94  0.001488725    1.340    0.254
        21 -11.9613    138.2772      4.6576   5.0026242632e+01   5.0267845830e+01    0.7262137     0.343978  52.62  0.002452863    1.905    0.475
        22 -10.1473     49.1537      4.2147   7.4702695126e+01   6.9951843894e+01    0.1908595     0.147826   3.77  0.000808654    1.137    0.120
        23 -13.0346    204.2294    125.0924   7.5788716238e+01   1.5371325325e+01    0.9195644    0.7980313 -39.99  0.005021527    1.189    0.159
        24 -12.0816     34.6073    135.5842   1.1885893269e+02   4.3393911982e+01    0.3935179    0.2230108  23.78  0.002085645    2.321    0.569
        25 -11.7679     82.4889    134.1651   1.0608624678e+02   3.7720551876e+01    0.2882988    0.2338446 -68.77  0.001626284    1.144    0.126
        26 -11.0939    223.6653    133.4537   7.4289996988e+01   9.9804775926e+00    0.3939747    0.3555951  53.56  0.002301948    1.312    0.238
        27 -13.2838    219.2047    122.2999   7.2424569075e+01   1.2657438678e+01    0.9624153    0.8553566 -67.92  0.005363918    1.424    0.298
        28 -10.0447     21.6213    133.8267   1.2200087426e+02   4.5008309775e+01    0.1825551   0.09366852 -87.92 0.0009501934    1.720    0.419
        29 -10.3197     64.7133    129.5277   1.1004270626e+02   4.1347708445e+01    0.2968355    0.1899886  83.15  0.001464369    1.773    0.436
        30 -11.0946    122.1940    127.2508   9.4394203769e+01   3.2406056225e+01    0.3746413    0.3425192  54.54  0.001733693    1.094    0.086
        31  -9.9576    101.6710    114.3034   9.6849588523e+01   3.9196575682e+01    0.1513441    0.1130588  81.82 0.0005237755    1.650    0.394
        32 -10.2897    120.1449    104.1675   8.9298417142e+01   3.7954387679e+01    0.2146528    0.1828047 -84.93 0.0008509991    1.326    0.246
        33 -11.1661    187.5771    197.5831   9.3854988363e+01   6.8609076401e+00    0.2249094    0.1606721  43.13  0.001322886    1.291    0.225
        34 -14.7747     96.3894     71.3957   8.6518513640e+01   4.9853112587e+01     1.565274     1.151682  20.25  0.001820822    1.696    0.410
        35 -14.4588     37.3677     85.2718   1.1029212000e+02   5.5175725887e+01     1.920791     1.027567 -51.61  0.009705299    1.619    0.382
        36 -10.7453     34.0454    177.4915   1.2292961427e+02   3.4101668507e+01    0.2387704     0.175064   7.62  0.001457059    2.380    0.580
        37 -13.4625     42.2610     47.7650   9.8292812209e+01   6.3234890801e+01    0.6517362    0.5319445  14.97  0.001133315    1.406    0.289
        38 -13.3646     42.5817     42.3732   9.6210694118e+01   6.4323736516e+01    0.8656231    0.4486245  18.10  0.003770646    2.633    0.620
        39 -10.9917    135.1656     98.4533   8.3820856143e+01   3.5997967044e+01    0.5210358    0.3243391  28.65  0.002079067    2.135    0.532
        40 -11.5344    141.6471     96.8423   8.1746661159e+01   3.4885337944e+01    0.5699412     0.303331 -31.30  0.002125604    2.206    0.547
        41 -12.0979    203.5872    171.9538   8.6190231189e+01   7.8629544160e+00    0.4151714    0.3088519 -10.96  0.002320616    1.422    0.297
        42 -11.2510    114.2494     97.2112   8.9022958353e+01   4.0695021833e+01    0.3345772    0.2747561 -52.85 0.0008688633    1.172    0.147
        43 -12.5863     81.9275     94.9757   9.7918471382e+01   4.7092829615e+01    0.5722805    0.3709499  39.63  0.002761029    1.686    0.407
        44 -10.4180    188.3575     94.2737   7.0798834547e+01   2.4356749405e+01    0.4057571    0.2641807 -54.59   0.00172734    1.804    0.446
        45 -12.6678     69.0165     89.8733   1.0072239231e+02   5.0263973840e+01    0.4586865    0.3712607  23.72  0.002536335    1.473    0.321
        46 -11.8889      8.1043     65.2962   1.1706361758e+02   6.2115065406e+01    0.3510011    0.2471672 -63.33  0.001582033    1.082    0.076
        47  -9.8744    250.0113     86.4832   5.8889943872e+01   1.1644206657e+01    0.1919255    0.1398848  56.46  0.001029065    1.580    0.367
        48 -11.9434    128.3588     81.6796   8.0620638993e+01   4.1010575400e+01    0.4240331    0.3262048 -40.79  0.002020269    1.253    0.202
        49 -13.0402      6.2835     82.4009   1.2048138832e+02   5.8223577914e+01     0.956802    0.3719801 -55.29  0.004748365    2.043    0.510
        50 -13.5955    121.3488     81.0034   8.2292212404e+01   4.2701108731e+01    0.9451016    0.6564011  26.74   0.00414395    1.801    0.445
        51 -13.4950    117.9952     66.5610   7.8484842270e+01   4.6354817021e+01    0.8175295     0.453051 -35.81  0.003350533    1.774    0.436
        52 -12.7659    115.4181     76.4924   8.2511608388e+01   4.4917684634e+01    0.5797685    0.3827822 -20.27   0.00241529    1.997    0.499
        53 -12.5311    120.0116     73.0280   8.0100916751e+01   4.4626592326e+01    0.4129899    0.3211956 -21.29  0.001123824    1.414    0.293
        54 -12.0888    144.3388     74.0075   7.4166029201e+01   3.8790708393e+01    0.3416265    0.3079983  12.50    0.0010189    1.198    0.165
        55 -12.9608      2.5592     70.6771   1.2006818656e+02   6.1156885924e+01     1.077419     0.276388 -73.75  0.004162729    3.163    0.684
        56 -10.9605    153.2386     72.6878   7.1677992587e+01   3.6861636772e+01    0.4472788    0.2184888  45.79  0.001354203    2.135    0.532
        57  -9.4987    182.5871     72.2057   6.5509127019e+01   2.9587813404e+01    0.1985594    0.1483038 -19.46 0.0002937416    1.424    0.298
        58 -10.1259    162.0876     71.9115   6.9495754813e+01   3.4799417327e+01    0.2271063    0.2211441  -1.52 0.0003184917    1.039    0.038
        59 -10.9641    146.7498     65.6374   7.0859148757e+01   3.9740228741e+01    0.3710611    0.2803197 -13.88  0.001192462    1.517    0.341
        60 -11.6660    128.2453     67.4633   7.6026473717e+01   4.3850374098e+01    0.2957011     0.149997  46.67 0.0009104023    2.030    0.507
        61 -10.5346    214.3356     61.5229   5.7192012580e+01   2.3350985703e+01    0.3714525    0.2408022 -12.99  0.001645363    1.812    0.448
        62 -10.5835    169.2054     63.1042   6.5244292836e+01   3.4505180679e+01    0.4316282    0.2068656  56.64  0.001619792    2.116    0.527
        63 -12.4789    124.5939     57.4939   7.3503986742e+01   4.6550054139e+01    0.3986297    0.3321041  42.78 0.0006577012    1.230    0.187
        64 -12.4437     59.1337     57.3535   9.4756213083e+01   5.9053716371e+01    0.3469177    0.2741385  46.15  0.001181001    1.512    0.338
        65 -11.1958    174.6220     56.4759   6.2097718365e+01   3.4176306679e+01    0.2639893    0.2544118 -44.27 0.0009165299    1.015    0.015
        66 -10.2709    137.7622     55.4068   6.9455518549e+01   4.3748679589e+01    0.3515573    0.2146367  33.22  0.001172426    1.989    0.497
        67 -11.5233    133.0130     53.7002   6.9994643261e+01   4.5203120110e+01    0.4007938    0.2805979  50.60 0.0008270802    1.447    0.309
        68 -11.0974    197.7444    167.9818   8.6502937463e+01   9.5680050236e+00    0.2437259    0.1747796  54.60  0.001122589    1.622    0.384
        69 -10.5674    185.4858    167.0218   8.8684574060e+01   1.2047610391e+01    0.1974991    0.1347703 -38.56 0.0005434023    1.551    0.355
        70 -12.7239    215.3743    162.4496   8.2114071300e+01   7.1260387486e+00    0.6070125      0.35915   7.69  0.002647209    2.467    0.595
        71 -13.5052      3.2118     46.5797   1.1526974472e+02   6.6611527144e+01    0.8904309     0.645368  83.93  0.003360662    1.620    0.383
        72 -11.2406    239.8770    156.8822   7.6726460759e+01   3.4838742753e+00    0.5423486    0.1920685 -38.50  0.002161019    2.888    0.654
        73 -12.4215     22.7430     22.2800   9.7630275256e+01   7.0370645003e+01    0.5503934    0.3269023  -6.65  0.002208773    2.103    0.525
        74 -12.0928     92.9928     53.0784   8.1129085383e+01   5.4216030487e+01     0.275779     0.247856  68.20  0.001037931    1.335    0.251
        75 -11.2854    145.3714     50.5701   6.5993849608e+01   4.2646629585e+01    0.3186766    0.3038419 -35.33 0.0006602703    1.041    0.039
        76  -9.8098    121.9920     52.5339   7.2381283475e+01   4.8037145043e+01    0.2157019    0.1505619  50.60 -1.163381e-05    1.471    0.320
        77 -11.8326    100.8709     49.6622   7.7326914292e+01   5.3248499972e+01    0.3376321    0.2614457  29.62  0.001218474    1.384    0.277
        78 -10.5081    137.2673     48.2698   6.7006564453e+01   4.5053743403e+01    0.2856979    0.2415476 -65.33  0.000842204    1.351    0.260
        79 -10.9531    119.3070     49.0408   7.1787906982e+01   4.9265544791e+01    0.2179266    0.1915925 -28.80 0.0004412092    1.098    0.090
        80 -10.3258    155.0533     52.2192   6.4496873015e+01   3.9909843897e+01     0.217847    0.1887818 -77.10 0.0005817242    1.295    0.228
        81 -10.0660    176.4073     45.7872   5.8336095074e+01   3.5316271612e+01    0.2115828     0.147703 -13.41 0.0005377547    1.627    0.385
        82 -11.0777    157.0499     43.8378   6.1200434878e+01   4.0674833303e+01    0.3043037    0.2549875  37.51   0.00049637    1.242    0.195
        83 -10.3166    181.8618     43.4777   5.6693514275e+01   3.4212899217e+01    0.2480467    0.2171351  49.43 0.0005575755    1.179    0.152
        84 -10.4402    140.9451     44.0112   6.4613122090e+01   4.4796887914e+01    0.3089692    0.2183896  69.63 0.0004945814    1.592    0.372
        85 -10.6097    122.3496     43.5815   6.8897279788e+01   4.9449980890e+01    0.2712196    0.2383498  21.72 0.0006084181    1.164    0.141
        86 -12.3363    233.5476    153.9959   7.7168551602e+01   5.0232477894e+00      0.47479    0.3066359  35.33   0.00247624    1.515    0.340
        87 -11.9854    217.1073     38.7700   5.0410006096e+01   2.5806548339e+01     0.490467    0.3023767  58.05  0.001163207    1.694    0.410
        88  -9.5295    197.0337     41.0501   5.3664659893e+01   3.0592176987e+01    0.1767964    0.1692687 -55.98 0.0005204478    1.009    0.009
        89 -12.6034    199.5042    154.1950   8.3322820915e+01   1.1458385943e+01    0.5029281    0.4414975  20.88  0.002929947    1.059    0.056
        90  -9.8476    204.9841     36.9517   5.1376265369e+01   2.9089593735e+01    0.2436152    0.1609714 -61.65  0.001121628    1.650    0.394
        91 -10.1129    159.9642     36.3181   5.8029528512e+01   4.0974170041e+01     0.205954     0.183065  61.08  0.000212474    1.122    0.109
        92 -12.0385     82.4168     33.7875   7.6772299941e+01   5.9720681819e+01    0.4434611    0.3189315  11.45  0.001256149    1.613    0.380
        93 -12.6475     79.4882     30.9937   7.6545824407e+01   6.0737568615e+01    0.5459415    0.4506012 -15.46  0.002267884    1.114    0.103
        94 -10.7096    176.6158     33.2630   5.4206905725e+01   3.6969524855e+01    0.2671815    0.2383139  44.96 0.0006091724    1.161    0.139
        95  -9.7084     97.1534     33.8357   7.1986112034e+01   5.6712627398e+01     0.200965    0.1614088  10.99 0.0005207609    1.304    0.233
        96 -10.9921    190.5153    154.1313   8.5050610110e+01   1.3245214880e+01    0.4219171    0.3177534  82.82  0.002002595    2.204    0.546
        97 -11.6183     19.0812    153.6694   1.2435427966e+02   4.0719736714e+01    0.2379363    0.1446094 -74.30  0.001468374    1.396    0.284
        98 -12.8008    247.7263    144.2907   7.2764538921e+01   3.8311954718e+00     1.188282     0.606099 -29.92  0.005763849    1.770    0.435
        99 -10.1735    138.8126    152.1917   9.5648355650e+01   2.3855929516e+01    0.1938148    0.1730924  -1.47 0.0007656626    1.322    0.243
       100 -11.6355     58.2994    144.3851   1.1391495474e+02   3.8676066188e+01    0.5205132    0.3208092  72.59  0.002699373    1.718    0.418
       101 -12.9286     49.0868    141.9813   1.1592839800e+02   4.0342681299e+01    0.7240093    0.5730577  38.09  0.004513275    1.438    0.305
       102 -11.3241    241.9114     22.8260   4.3623364148e+01   2.1799081368e+01    0.3374625    0.2503584 -62.08 0.0009496012    1.272    0.214
       103 -10.5557    149.5219     21.4828   5.4551563710e+01   4.5597701343e+01     0.357495    0.1774752  49.81  0.001455136    1.943    0.485
       104 -10.3554    153.9790     21.2871   5.3712732272e+01   4.4443142374e+01     0.207358    0.1879173  57.74 0.0003824152    1.074    0.069
       105 -10.2859    139.4083     21.0306   5.6238774317e+01   4.8293963651e+01    0.2701688    0.2119639  71.91 0.0007294624    1.325    0.245
       106 -10.3648    208.8362     18.6556   4.5589412715e+01   3.0300390655e+01    0.2717521    0.1920853 -37.46 0.0008374107    1.321    0.243
       107 -10.0661     90.3946    145.7934   1.0606418004e+02   3.3808852790e+01     0.194066    0.1207627 -52.24 0.0009468584    1.647    0.393
       108 -12.0387    213.8380    142.0571   7.7990009124e+01   1.0586113541e+01    0.8777028    0.3936153  52.38  0.003500502    2.576    0.612
       109 -11.7988     76.1425    141.2592   1.0892349272e+02   3.7003697187e+01    0.4300486    0.2377031  89.77   0.00181026    2.495    0.599
       110 -11.9721     76.3976    136.8196   1.0813672385e+02   3.8002890828e+01     0.388589    0.2267796 -64.92  0.001899846    1.596    0.374
       111 -11.5102    193.2036    136.8145   8.0678480430e+01   1.5689700564e+01    0.6512322    0.4610375  36.17  0.003222935    1.414    0.293
       112 -12.2905    199.0440    129.3361   7.7788172103e+01   1.5753638273e+01    0.8614147    0.3183518 -37.20  0.003080607    2.626    0.619
