#   1 NUMBER                 Running object number                                     
#   2 MAG_AUTO               Kron-like elliptical aperture magnitude                    [mag]
#   3 X_IMAGE                Object position along x                                    [pixel]
#   4 Y_IMAGE                Object position along y                                    [pixel]
#   5 X_WORLD                Barycenter position along world x axis                     [deg]
#   6 Y_WORLD                Barycenter position along world y axis                     [deg]
#   7 A_WORLD                Profile RMS along major axis (world units)                 [deg]
#   8 B_WORLD                Profile RMS along minor axis (world units)                 [deg]
#   9 THETA_WORLD            Position angle (CCW/world-x)                               [deg]
#  10 FWHM_WORLD             FWHM assuming a gaussian core                              [deg]
#  11 ELONGATION             A_IMAGE/B_IMAGE                                           
#  12 ELLIPTICITY            1 - B_IMAGE/A_IMAGE                                       
         1 -14.8331    105.7202    104.6917   3.6971772420e+01   4.0640572138e+01     1.652907     1.543588 -67.62  0.008545032    1.072    0.068
         2 -13.5022     61.8941     58.9016   3.8639864297e+01   6.0087781021e+01     1.782901    0.8539569 -28.32  0.005265635    4.325    0.769
         3 -14.9298      6.8387     71.1224   7.1076260060e+01   6.3582338260e+01     1.299043    0.8706182 -69.37  0.005509422    1.324    0.244
         4 -13.6793     33.3039     24.2615   3.8289423664e+01   7.2048108889e+01     2.784551     1.088983  22.82  0.007809592    5.744    0.826
         5 -14.0109     41.4542      5.2864   2.0769085404e+01   7.3514440224e+01     1.076019    0.6910703  12.45  0.004284906    1.935    0.483
         6 -13.2105      6.0394     43.1839   6.5939838772e+01   7.0734641372e+01     1.076089    0.7566983 -20.53  0.006031259    1.426    0.299
         7 -13.1440      8.6086      2.5994   4.4782355500e+01   7.9251143109e+01    0.8261546    0.5739846  45.45  0.003410688    1.901    0.474
         8 -14.0022     26.7573     13.1571   3.6061981799e+01   7.5023253157e+01    0.8051051    0.5518518  -7.17  0.003504971    1.698    0.411
         9 -15.7573     12.3070     21.3980   5.2942658444e+01   7.5254036663e+01     2.013102     1.051867 -30.06  0.008820147    2.034    0.508
        10 -13.5120    218.5794     29.6590   3.5585071907e+02   2.7739045235e+01     1.080123    0.4196915 -64.98  0.004455762    3.113    0.679
        11 -14.6174    189.5763     20.9638   3.5594299697e+02   3.5064703924e+01     1.620105    0.7077634 -42.31  0.007636169    1.883    0.469
        12 -14.0858    122.4244     36.8046   1.0081833585e+01   4.9892927439e+01     1.059283    0.5261366  44.54  0.002586711    2.336    0.572
        13 -13.3367     57.4137     26.9842   2.6150524838e+01   6.7141681901e+01      1.16087    0.3853032  44.47  0.004107138    2.870    0.652
        14 -13.1417    242.9920     35.0918   3.5538491025e+02   2.2371230855e+01    0.5308883    0.5003075 -83.59  0.002813298    1.326    0.246
        15 -12.6059    229.9253      2.7245   3.4906886620e+02   2.8372568445e+01    0.7157966    0.2392246  72.93  0.003451154    3.078    0.675
        16 -14.3299    166.9923     29.8647   7.1040031875e-01   3.9404207713e+01     1.037441    0.7869601  84.33  0.003642957    1.258    0.205
        17 -14.3299    147.9705     29.7269   3.1477807384e+00   4.4210885551e+01     1.374882     0.665714  71.59  0.004418774    2.005    0.501
        18 -15.1862     98.8832     12.4031   5.0494494404e+00   5.9047092804e+01     1.725444    0.8209616  62.78  0.004746311    1.831    0.454
        19 -11.8442     48.3990     19.8640   2.6612730648e+01   7.0100040422e+01    0.7089693    0.2769429  49.27  0.002789312    2.516    0.603
        20 -11.8995     60.6245     15.6440   1.8316502183e+01   6.8101082513e+01    0.4807253    0.3532887  30.57  0.002570087    1.392    0.282
        21 -11.5922     71.1105     16.3203   1.4678129110e+01   6.5585710905e+01    0.3541653    0.2549172 -10.98  0.001678045    1.631    0.387
        22 -11.3766     74.3345     10.5245   1.0441418346e+01   6.5474598855e+01    0.3690508    0.2178324 -10.89  0.001707143    2.132    0.531
        23 -11.5971    175.9422     13.7817   3.5511486933e+02   3.9062197989e+01    0.2297247    0.1635973 -48.71 0.0002173412    1.237    0.192
        24 -11.8375     47.1312     12.8466   2.2902571712e+01   7.1377030693e+01    0.4836378    0.2786824  42.43  0.002388139    1.601    0.375
        25 -10.5232    142.9842     12.1608   3.5791580581e+02   4.7492431239e+01    0.2416127    0.1314479 -71.48  0.001073865    1.959    0.489
        26 -11.3293    152.8895      8.5357   3.5564326437e+02   4.5308387907e+01    0.2658559    0.2033258  33.24  0.001462984    1.714    0.417
        27 -13.2366    223.7995     20.9773   3.5348162224e+02   2.7673788013e+01    0.3926546    0.3648965  89.76  0.001832135    1.309    0.236
        28 -14.6097    216.8920     12.9948   3.5204507852e+02   2.9953085021e+01     1.137941    0.8032442 -47.42  0.007173479    1.138    0.122
        29 -11.9321    119.9104      3.1098   3.5750793959e+02   5.4381907941e+01    0.5233297    0.2534073 -81.89  0.002149487    2.367    0.578
        30 -10.8372     67.5609      2.9933   8.2578846248e+00   6.7877380517e+01     0.286111    0.1549721  48.36  0.001368948    1.646    0.392
        31 -11.5881     80.8824      1.7268   3.8820652584e+00   6.4677957536e+01    0.6831337   0.08756901  62.19  0.001973965    4.306    0.768
        32 -11.4242     61.2015      1.4731   9.4246570005e+00   6.9541750078e+01    0.4775313     0.120052  62.98  0.001566584    3.596    0.722
        33 -12.3083    200.9158    191.1638   3.3323302018e+01   6.4287253132e+00    0.3314124    0.2337435  10.57  0.001316348    1.329    0.248
        34 -14.4031     95.2363    234.0208   6.1595201734e+01   1.3500903225e+01     1.330361    0.7390141  55.53  0.006922403    2.099    0.524
        35 -13.3244     28.2564    246.5467   7.7331697295e+01   1.8711366842e+01    0.5734302    0.4399925  29.05  0.003268574    1.257    0.205
        36 -12.0907      2.8715    249.4357   8.2723461917e+01   2.0496722824e+01    0.3241209    0.1981728  43.70  0.001650063    1.154    0.133
        37 -14.0305      9.4158    245.5419   8.1282595834e+01   2.0643416370e+01    0.9185151    0.3511753  45.83  0.003790228    1.754    0.430
        38 -10.1068    107.6582    192.6775   5.3757170889e+01   1.9851052139e+01    0.1409699    0.1038703  -9.25 0.0005603612    1.726    0.421
        39 -12.4323     98.2399    186.9934   5.5363333344e+01   2.2459005413e+01     0.437924    0.2598372   6.35  0.001797023    2.600    0.615
        40 -12.2995     48.4525    181.7820   6.8308238098e+01   3.0336102236e+01    0.4725638    0.3049471 -45.99  0.002350169    1.908    0.476
        41 -11.3963    109.5089    183.4898   5.1947997803e+01   2.1520660180e+01    0.2623093     0.132495  21.39  0.001040311    2.363    0.577
        42 -12.7978    198.0883    180.6636   3.1989361503e+01   8.4314898521e+00    0.3901208    0.3463358  87.08   0.00244791    1.932    0.482
        43 -11.2051    122.9091    181.7493   4.8307827988e+01   1.9799353525e+01    0.3394307    0.2101076  65.61  0.001411918    2.677    0.626
        44 -13.7689     68.1863    220.5620   6.6645020374e+01   1.9392934669e+01    0.8186427    0.5252427 -47.30  0.004546359    1.977    0.494
        45 -13.2469    124.2873    166.3076   4.5325116978e+01   2.2853073003e+01    0.6570337    0.4477912 -69.59  0.003063765    1.925    0.480
        46 -12.4917    238.1633    159.5274   2.1573452183e+01   6.0632528505e+00    0.5334805    0.1036019  39.30  0.001818858    6.141    0.837
        47 -13.7615     40.6217    195.8620   7.1603903808e+01   2.7902139331e+01    0.8803208    0.4078766  47.63  0.003934812    1.826    0.452
        48 -12.5961    112.0562    156.0353   4.6655762016e+01   2.7241511975e+01    0.6104853    0.4000995  73.27  0.002500826    2.384    0.580
        49 -12.2070     85.3191    153.4679   5.3846284958e+01   3.2303822007e+01    0.6298114    0.4232017 -33.64  0.002802331    1.896    0.472
        50 -12.6374     77.2937    156.9690   5.6822908671e+01   3.2661947654e+01     0.609353    0.4551834  20.85  0.001759595    1.444    0.307
        51 -13.4580     74.0083    153.4756   5.7283294954e+01   3.4032281189e+01    0.8116022    0.5626828  30.16  0.001840764    1.422    0.297
        52 -12.0358     55.4449    155.6612   6.3376931310e+01   3.6031266025e+01    0.5317345    0.3241045 -24.15  0.002153796    2.619    0.618
        53 -12.6070    206.2416    155.0028   2.5715510928e+01   1.1307951222e+01    0.4060377    0.3379669   8.29  0.002590514    1.185    0.156
        54 -12.3067      9.5468    149.2939   7.7456550872e+01   4.2331980308e+01    0.6258989    0.4062709  -0.31  0.003166437    1.973    0.493
        55 -11.7189    103.6315    149.5866   4.7789353908e+01   3.0214496577e+01    0.3935564    0.3063671 -24.10  0.001438269    1.564    0.361
        56 -11.7924     59.8285    148.8642   6.1062593687e+01   3.7227949675e+01    0.2243599    0.2080785 -32.08   0.00123156    1.233    0.189
        57 -11.5093     38.0902    145.6908   6.7792292295e+01   4.0712646621e+01     0.259473    0.2305531 -65.37 0.0006978504    1.175    0.149
        58 -11.0491    101.5380    160.9963   5.0442814388e+01   2.7859921172e+01     0.254087    0.1884794  34.64  0.001089406    1.275    0.215
        59 -11.2876    150.3796    141.5858   3.4024660292e+01   2.3414202370e+01     0.294073    0.1254981  53.47 0.0009617202    3.430    0.708
        60 -12.6517     42.7889    138.6780   6.5351261094e+01   4.2072242706e+01    0.4262032    0.3161643  -1.77  0.002073443    1.715    0.417
        61 -12.3907    246.5060    133.9507   1.5579352137e+01   8.5244407062e+00    0.3106723    0.2718076 -74.78  0.002201263    1.686    0.407
        62 -10.3920     10.8620    133.8981   7.6000781564e+01   4.6324206363e+01     0.191787    0.1398719  57.52 0.0003762549    1.273    0.214
        63 -12.2549    138.5697    131.6777   3.4633784120e+01   2.7780670744e+01    0.4735815    0.3341134   7.99  0.002048099    2.039    0.510
        64 -12.2021    110.4837    131.8436   4.2179066816e+01   3.3217989743e+01    0.5940478    0.3936141  21.12  0.002502367    1.891    0.471
        65  -9.9384     64.6256    132.2592   5.6831534359e+01   4.0948939014e+01    0.1637283    0.1065621  57.88 0.0004316371    1.657    0.396
        66 -12.4729    222.6857    127.7005   1.7573644982e+01   1.3022252595e+01    0.3638186    0.2525064 -51.15  0.002101679    1.584    0.369
        67 -11.4369    235.4940    248.4789   3.6366810910e+01  -4.7494916027e+00    0.1037229   0.07003403  -0.76 0.0002177803    1.017    0.016
        68 -12.6721     28.4722    121.9918   6.8402496692e+01   4.8132117557e+01    0.5730742    0.3853831 -56.43  0.002402977    1.471    0.320
        69 -11.0325     59.0121    124.6232   5.7444961333e+01   4.3802783629e+01    0.2838312    0.2058034  89.79 0.0005687458    1.509    0.337
        70 -12.7013    180.9131    120.3965   2.2845251773e+01   2.1653876670e+01    0.3128918    0.2896879  -0.32  0.001047965    1.121    0.108
        71 -11.4782     78.9988    119.0225   4.9258846561e+01   4.2163674538e+01    0.4097518    0.2652034 -54.89  0.001786574    1.536    0.349
        72 -12.0923     79.1519    111.1433   4.7406535258e+01   4.4178088129e+01    0.4182121    0.3336546  58.35  0.001830114    1.309    0.236
        73 -12.9391     84.9762    115.0838   4.6321207091e+01   4.2127581629e+01    0.8367808       0.4225  29.28  0.002354852    2.266    0.559
        74 -11.7926     88.6204    109.8393   4.3821324462e+01   4.2783863640e+01    0.4460319    0.2804044 -63.54   0.00150711    1.726    0.421
        75 -13.0590      5.1102    117.8879   7.6917112701e+01   5.1022386867e+01    0.9708869    0.5089307 -68.63  0.004463277    1.708    0.415
        76 -14.2183     18.1730    110.8879   7.1105906779e+01   5.2071536342e+01    0.9798627    0.7966056 -54.83  0.003480112    1.232    0.188
        77 -13.0936     20.7764     86.2244   6.6448522653e+01   5.8627471642e+01    0.8695863    0.5680994   2.67  0.001560572    1.790    0.441
        78 -13.8519     10.7594    103.0219   7.3306080605e+01   5.4746720791e+01    0.8637086    0.6827556  35.61  0.003998995    1.326    0.246
        79 -13.5989      2.3988     96.9395   7.6316384978e+01   5.6857769424e+01    0.9332018    0.4314517 -78.26  0.003249243    1.897    0.473
        80 -12.4038     36.7561     92.6984   6.0231210593e+01   5.5330006824e+01    0.5372916    0.3268901  27.65  0.001761084    1.696    0.410
        81 -14.3599     23.4041     95.1406   6.6707270518e+01   5.5981926564e+01     1.617603    0.8255234   8.93  0.006690142    2.386    0.581
        82 -11.5994    229.5743    118.2423   1.4642456136e+01   1.3352027092e+01    0.2537586   0.09796423 -39.28  0.001141708    2.114    0.527
        83 -10.9508     73.7093    120.0609   5.1319690336e+01   4.2777367893e+01    0.5075399    0.2689886  22.61  0.001880818    2.358    0.576
        84 -11.4268    194.7911    113.3962   1.8779721758e+01   2.0227623885e+01    0.1801194    0.1278726  35.89 0.0006055614    1.632    0.387
        85 -12.5062    121.4687    111.8424   3.4276550499e+01   3.5679922865e+01     0.425261    0.3593055  79.95  0.001272646    1.355    0.262
        86 -11.8760     62.3711    109.2258   5.3135403885e+01   4.7448225574e+01    0.8149533    0.4353661 -70.32  0.003158763    2.076    0.518
        87 -10.9494     64.6717    101.7052   5.0521861394e+01   4.9081541056e+01    0.2776373    0.2117225 -16.08 0.0004541125    1.701    0.412
        88 -12.0057     61.2205     97.9530   5.0977667679e+01   5.0615669385e+01    0.5714597    0.3932566  60.54   0.00192326    1.684    0.406
        89 -11.0514     46.1144    110.0854   5.9665931487e+01   4.9479033474e+01    0.3265308    0.1917949 -34.26  0.001316891    2.191    0.543
        90 -11.4275    222.5130    109.0092   1.3631886050e+01   1.5925028125e+01    0.2285869    0.1752999  27.46  0.001286395    1.615    0.381
        91 -11.0099     42.9361    107.0580   6.0386308108e+01   5.0697597618e+01    0.2254017    0.2149784 -86.84 0.0004687937    1.010    0.010
        92 -12.4228     29.8915     89.4635   6.2726349337e+01   5.6932144687e+01    0.5863245    0.3499191  80.00   0.00198261    2.091    0.522
        93 -13.1776    135.1506    102.7388   2.8278754200e+01   3.4713776441e+01    0.9239661    0.3913706  50.11  0.002450831    2.455    0.593
        94 -13.3973    120.2738    102.3190   3.2076950299e+01   3.8077416408e+01    0.7708351     0.373785  43.94  0.002885929    2.085    0.520
        95 -11.9486     49.1177     93.3112   5.4909963736e+01   5.3623903210e+01    0.7783781    0.5203217 -39.44  0.002929417    1.640    0.390
        96 -11.2548     48.5993    101.2026   5.6889744368e+01   5.1574887485e+01    0.4725395    0.3442467  67.43  0.001858253    1.547    0.353
        97 -12.1238     52.2445     97.9020   5.4645134961e+01   5.1964496019e+01    0.7273921    0.3724841  15.89  0.002647194    2.675    0.626
        98 -10.1289     75.4432    100.5329   4.6125077601e+01   4.7562355304e+01    0.1566587    0.1501854  83.98 0.0001939127    1.030    0.029
        99 -12.4880    163.3113     97.6354   2.0631592247e+01   2.9501258591e+01    0.4673773    0.3287745  48.35  0.000983967    1.508    0.337
       100 -12.9192    137.2429     95.1623   2.5682789382e+01   3.5822156715e+01    0.4920457    0.4015727  74.85  0.001243339    1.373    0.271
       101 -11.5582     90.8051     96.5094   3.9551861608e+01   4.5652674171e+01    0.3658174    0.2979714   5.53  0.001693507    1.566    0.362
       102 -10.4299     74.4326     95.5241   4.5181855287e+01   4.9018196702e+01     0.287916    0.1567709  22.88 0.0007768505    2.490    0.598
       103 -11.5542     42.9209     90.3641   5.6954531096e+01   5.5224352009e+01    0.4060207    0.2418337 -67.02  0.001122114    1.643    0.391
       104 -13.8656    107.4561    123.7975   4.1234357056e+01   3.5727154808e+01     1.705751    0.8280063  28.83  0.005888682    2.665    0.625
       105 -13.6270    188.2803     84.2232   1.2775781623e+01   2.6453728062e+01     1.095927    0.4269079  49.89  0.004279494    2.864    0.651
       106 -13.9962    197.4308     71.0096   8.1336702152e+00   2.6602308069e+01     1.684876    0.8203091  38.95  0.006560369    3.443    0.710
       107 -11.5870    152.3730     83.0692   1.8872938096e+01   3.4692804299e+01    0.2915344    0.2406702  34.01 0.0007213986    1.410    0.291
       108 -14.9092    165.3981     78.8311   1.5167498879e+01   3.2434069983e+01     2.120814    0.9713353  43.43  0.007976021    2.736    0.635
       109 -13.8765    164.9068     70.8727   1.3026578876e+01   3.3906212033e+01     1.084091    0.8094042  85.30  0.005289369    1.507    0.337
       110 -10.1108     78.6092     86.8511   4.1136477153e+01   5.0397404003e+01    0.2132317    0.1491825 -66.08 0.0004209935    1.592    0.372
       111 -12.3140    242.6846     83.7980   5.8244231648e+00   1.6162390811e+01     0.386025     0.221312  68.38  0.002181418    2.328    0.570
       112 -12.7203    237.2982     79.8513   5.5359483109e+00   1.7627702497e+01    0.3783139    0.2746231 -89.00  0.002208462    1.765    0.434
       113 -13.3609    102.2691    118.5298   4.1552339736e+01   3.8012142131e+01     1.394598    0.5004758  32.51  0.004044784    3.604    0.722
       114 -12.9988     39.7394     67.4870   5.2478248482e+01   6.1571373519e+01     2.707717    0.5479568  29.68  0.007480133    4.656    0.785
       115 -13.7754    170.8432    241.7290   4.6644268215e+01   2.8945136504e+00    0.8453333    0.5116891  17.88  0.005330562    1.368    0.269
       116 -13.0475     65.6323     49.8095   3.3298706792e+01   6.1290727711e+01    0.6983754     0.691572  18.13  0.004003124    1.028    0.027
       117 -13.1320     91.6736     58.1376   2.6598982792e+01   5.3972229438e+01    0.6244748    0.5419543 -62.88   0.00284972    1.220    0.181
       118 -13.8070     74.2088     73.5082   3.8623938936e+01   5.4424940747e+01     1.552566    0.8697898  19.59  0.005277401    3.117    0.679
       119 -13.0885     87.3699     65.3019   3.0759005148e+01   5.3493694867e+01    0.5821415    0.4771078   9.98  0.001142488    1.530    0.346
       120 -13.2943     55.5581     80.4218   4.8712073306e+01   5.6037311037e+01    0.6768561    0.5237637 -32.04    0.0017707    1.428    0.300
       121 -13.8487     61.2660     75.6723   4.4754118877e+01   5.6285157232e+01    0.9114904    0.6050633 -53.05  0.001700987    1.481    0.325
       122 -13.6237    214.9396     78.4644   7.7272628794e+00   2.1933872759e+01    0.8791471    0.6343288  80.95   0.00494573    1.689    0.408
       123 -11.6405    214.3676     71.5931   6.1826098282e+00   2.3052865255e+01    0.2668832    0.2320241 -67.86 0.0007241488    1.154    0.134
       124 -11.9464    114.3286     80.1441   2.7221168458e+01   4.4226152525e+01    0.4555215    0.3429109 -51.49 0.0009807254    1.338    0.253
       125 -12.8299    135.5090     79.2896   2.1474373083e+01   3.9389363982e+01    0.7776391    0.4042558  55.16   0.00258159    1.964    0.491
       126 -13.2818     32.0090    111.9825   6.5648516919e+01   5.0548037225e+01    0.7688911    0.3846509 -56.38  0.003228361    1.883    0.469
       127 -11.7599     27.8714    235.3474   7.6948173314e+01   2.0860856285e+01    0.2040491    0.1518649  72.24 0.0009578847    1.299    0.230
       128 -14.0910      5.3904     63.5247   7.0651969625e+01   6.5641637087e+01     0.818781    0.6177152  -2.59  0.004095725    1.444    0.308
       129 -11.8221     42.2043     77.6065   5.4127483152e+01   5.8675100908e+01    0.5257353    0.2850947 -71.30  0.001527809    2.073    0.518
       130 -11.4508     27.3765     76.2407   6.1182555235e+01   6.0716978676e+01    0.3436361    0.2511463  81.70  0.001166579    1.567    0.362
       131 -11.2213    240.8133     70.6001   3.1944714931e+00   1.8278484830e+01    0.1553054    0.1096532 -85.48 0.0009554268    1.748    0.428
       132 -12.8383     79.6272     59.0876   3.1293611307e+01   5.6477047343e+01     1.410976     1.061049 -13.77  0.006458387    1.767    0.434
       133 -12.6382    135.4048     65.8531   1.7312323088e+01   4.1909823926e+01    0.5719479    0.4842679  17.44  0.001603213    1.501    0.334
       134 -11.8817    100.3598     64.4746   2.6117949186e+01   5.0698286657e+01    0.4571522    0.3377739 -26.06  0.001841443    1.608    0.378
       135 -12.0960     36.2568     54.5550   5.0136035434e+01   6.5176523646e+01    0.3967347    0.3047926 -19.20   0.00184353    1.423    0.297
       136 -11.7437     34.6846     60.3525   5.2971304786e+01   6.3978094131e+01    0.4400064    0.2597008 -47.60  0.001483407    1.606    0.377
       137 -12.0127     39.1149     60.1257   5.0468905302e+01   6.3465251564e+01     0.431598    0.2843296  58.17  0.001955723    1.978    0.495
       138 -13.5675    177.9594     57.2836   7.1697464029e+00   3.3005230477e+01    0.8180299     0.559121 -52.80  0.002173875    1.352    0.260
       139 -11.9012     24.8243     59.4452   5.8316650815e+01   6.5290092798e+01    0.4857633     0.272185 -51.20  0.001961325    1.620    0.383
       140 -14.5454    119.9347     54.7283   1.7175878067e+01   4.7718643160e+01     1.097066    0.5898533  49.22  0.001688442    1.873    0.466
       141 -12.7830    136.2989     50.3634   1.2039260998e+01   4.4287268266e+01    0.5876152    0.5403288 -30.30 0.0008460554    1.193    0.162
       142 -12.0953    247.9912     54.2301   3.5909279662e+02   1.9153303300e+01    0.4808817    0.2225381 -39.78  0.002646093    1.593    0.372
       143 -11.3082    248.7276     48.9903   3.5793522584e+02   1.9675596527e+01    0.2409899    0.1677221  61.99  0.001597972    1.813    0.449
       144 -13.4431    103.2737     50.3902   1.9997118209e+01   5.2625797504e+01    0.7976182    0.5138131 -49.63 0.0008215741    1.643    0.391
       145 -13.2117     97.9985     49.9775   2.1400387243e+01   5.3989320758e+01     0.639343    0.4721979 -42.06  0.001903126    1.391    0.281
       146 -10.6478     47.3756     56.3462   4.4738884466e+01   6.3156567380e+01    0.2985324    0.1590789  52.33  0.001164223    2.478    0.596
       147 -11.0935     17.6128     54.9872   6.1415171130e+01   6.7048396440e+01     0.336746       0.2208 -79.68  0.001669459    1.676    0.403
       148 -11.2304    231.5865     55.2364   6.6862258640e-01   2.1988122575e+01    0.2097883    0.1691851  87.20  0.001296926    1.385    0.278
       149 -10.3700     23.5178     49.9925   5.6215359712e+01   6.7740101708e+01    0.2024416    0.1284591 -59.31 0.0004522984    1.490    0.329
       150 -12.5666    154.5378     46.5293   7.5283037138e+00   4.0259256305e+01    0.5203968    0.2845989  65.11  0.002308507    1.808    0.447
       151 -13.1996    158.6219     43.1066   5.8384329014e+00   3.9730834843e+01    0.6795409    0.4737662  57.58  0.002197638    1.490    0.329
       152 -12.4191    147.9949    238.8465   5.0784543148e+01   6.0676146211e+00    0.3781288    0.2894788  59.26  0.001833856    1.990    0.498
       153 -12.0477    144.9074    232.3992   5.0605438651e+01   7.4439708724e+00    0.3163553    0.1766211 -44.96  0.001790104    2.070    0.517
       154 -12.4215     25.2385    216.9070   7.6720992115e+01   2.4843218849e+01    0.7568362    0.2998349  44.07  0.003719752    1.871    0.466
       155 -13.9312     27.0131    225.5404   7.6706098803e+01   2.2887474691e+01     1.095544    0.3844118 -54.36  0.004557595    4.075    0.755
       156 -13.8908     20.7486    224.5932   7.8109005863e+01   2.3679767308e+01     0.602719    0.5039815  64.50  0.002351424    1.141    0.124
       157 -12.9098      3.1185     34.4427   6.5714175981e+01   7.2976086817e+01    0.3531769    0.3283151  71.06  0.001165714    1.262    0.207
       158 -14.0945     57.1857    203.7214   6.7926064603e+01   2.4252156334e+01       2.3968    0.7350844 -76.24  0.008325697    4.294    0.767
       159 -11.0587    249.2934    225.0029   3.0889815124e+01  -3.4895250615e+00    0.1516307    0.1039024  -9.62  0.001179714    1.043    0.042
       160 -14.5270    212.6292     40.7352   3.5897411956e+02   2.7615059083e+01     1.928094    0.6674792  78.06  0.007407559    3.827    0.739
       161 -12.4715    236.3721    229.0875   3.3455645330e+01  -2.6896217415e+00    0.2462424    0.1419936  33.94  0.001659384    2.028    0.507
       162 -13.9270     64.1012    214.8614   6.7148576243e+01   2.1047648434e+01    0.7214687    0.5090831 -59.20  0.004223454    1.663    0.399
       163 -12.9045    113.6159     38.0228   1.2493732359e+01   5.1997540498e+01     0.501426    0.3430107  79.06  0.001560793    1.576    0.365
       164 -12.5620     94.4333    218.0685   6.0135672250e+01   1.6573275314e+01    0.3626674    0.2062101  30.80  0.001386881    1.471    0.320
       165 -12.6709     46.1182     33.6102   3.5473279408e+01   6.8160567732e+01    0.9084572    0.5079212  34.21  0.004151635    1.799    0.444
       166 -12.1573     40.6472     40.2721   4.1822490055e+01   6.7742442472e+01    0.6437528    0.3427187  40.82  0.002874298    1.924    0.480
       167 -12.8142     32.8375     40.3324   4.6609079086e+01   6.8866863234e+01    0.5866567    0.3646278 -37.40  0.001956939    1.621    0.383
       168 -13.2112     74.7748     36.9879   2.3779351142e+01   6.1707749237e+01    0.7301611    0.3427081  55.09  0.001758939    2.164    0.538
       169 -10.6134      5.6015    219.2451   8.1406069680e+01   2.6128967022e+01    0.1497407    0.1022703 -77.46 0.0007101722    1.622    0.384
       170 -10.8564    104.5068     36.9837   1.4330612237e+01   5.4486228673e+01    0.2241512    0.1478077 -33.78  0.001036077    1.599    0.375
       171 -12.7613     57.2197    246.7542   7.1076662601e+01   1.5675292880e+01    0.5272499    0.2626462  26.13  0.002881992    1.721    0.419
       172 -12.5609    140.2368     21.2575   1.3946526880e+00   4.7226477278e+01     0.636774    0.3358273  71.55  0.001205629    1.766    0.434
       173 -12.3807      4.8114    211.4669   8.1367498609e+01   2.7832621535e+01    0.4512093     0.227001 -74.79  0.002452946    2.112    0.526
       174 -10.8703    136.5205    210.9562   4.9529358029e+01   1.2143827419e+01    0.1773459     0.128407 -47.66  0.001022921    1.582    0.368
       175 -12.1686    120.6612     26.4551   6.5144278685e+00   5.1734626731e+01    0.5340087    0.3194745  69.86  0.002054616    1.576    0.366
       176 -10.5377     98.6102     27.1505   1.1704008832e+01   5.7379592006e+01    0.2527603    0.1539979  57.77 0.0006165746    1.505    0.336
       177 -10.9602     40.0061    210.8799   7.2794179931e+01   2.4628249234e+01    0.3279147    0.1561047  29.07  0.001606699    1.809    0.447
       178 -10.0483     86.4957     22.5275   1.2917009959e+01   6.1047548104e+01    0.1440457    0.1318444  53.88 -8.56683e-05    1.030    0.029
       179 -11.8866     46.3248    208.2663   7.1040070838e+01   2.4506655755e+01    0.5111049    0.2113474  79.89  0.001972195    3.530    0.717
       180 -10.9398    150.6823    206.6526   4.5804121052e+01   1.0904774094e+01    0.2593393     0.173709  -2.31  0.001388705    1.731    0.422
       181 -13.1082     59.5373    212.6703   6.8087990219e+01   2.2049104094e+01     0.604773    0.3294749 -34.46  0.002658056    3.128    0.680
       182 -13.3560     16.1905    197.2757   7.8045536179e+01   2.9989551349e+01    0.9558919    0.3346443 -52.99  0.003660941    4.019    0.751
       183 -11.5214     41.2751    248.0582   7.4606831727e+01   1.7133143811e+01    0.4395497     0.188822 -90.00  0.002225346    2.983    0.665
       184 -14.5701     30.1496    168.7755   7.2471185010e+01   3.5527908712e+01     2.065811     1.055131 -40.58  0.006730917    2.810    0.644
       185 -13.9943     22.3572    180.9986   7.5549737126e+01   3.3252640011e+01    0.9976891    0.5312998 -54.89  0.004348933    2.192    0.544
       186 -15.1334      8.0787    183.1553   7.9562446854e+01   3.3966000194e+01     1.367661     1.096566  82.77   0.00863064    1.166    0.143
       187 -15.1126     15.4956    175.1130   7.7135386940e+01   3.5298735354e+01     2.496327    0.9315752  58.89   0.01017755    2.517    0.603
       188 -11.7924    135.1796     39.7626   8.6386021943e+00   4.6165353459e+01     0.542192    0.3041426  81.68  0.001565191    2.096    0.523
       189 -10.4011    212.6486    199.6766   3.2707395067e+01   3.6824397807e+00    0.1255947   0.07573897  -3.56  0.000704813    1.753    0.430
       190 -11.4167    180.5184    197.9897   3.8299125762e+01   8.1561204272e+00    0.1813474   0.09350335 -20.51 0.0008102091    2.558    0.609
       191 -12.9031    164.6878    195.9254   4.1149005588e+01   1.0739898665e+01     0.432755    0.3008714  68.94  0.001995909    3.149    0.682
       192 -12.7890    131.6594     33.1625   6.9596725746e+00   4.7989932381e+01    0.5146503    0.4282115  21.00  0.001510944    1.527    0.345
       193 -11.1024     80.9510    192.7934   6.0633092064e+01   2.3637222759e+01    0.3334396    0.1518689  36.83  0.001449234    1.850    0.459
       194 -12.4392    110.1190     41.9306   1.4864551370e+01   5.2302392161e+01    0.5372079    0.2485165  58.20 0.0009685869    2.038    0.509
