#   1 NUMBER                 Running object number                                     
#   2 MAG_AUTO               Kron-like elliptical aperture magnitude                    [mag]
#   3 X_IMAGE                Object position along x                                    [pixel]
#   4 Y_IMAGE                Object position along y                                    [pixel]
#   5 X_WORLD                Barycenter position along world x axis                     [deg]
#   6 Y_WORLD                Barycenter position along world y axis                     [deg]
#   7 A_WORLD                Profile RMS along major axis (world units)                 [deg]
#   8 B_WORLD                Profile RMS along minor axis (world units)                 [deg]
#   9 THETA_WORLD            Position angle (CCW/world-x)                               [deg]
#  10 FWHM_WORLD             FWHM assuming a gaussian core                              [deg]
#  11 ELONGATION             A_IMAGE/B_IMAGE                                           
#  12 ELLIPTICITY            1 - B_IMAGE/A_IMAGE                                       
         1 -15.8367    245.9654    118.9582   8.3845542336e+01   6.8541961495e+00     2.647933     1.576931 -28.39  0.006602152    1.792    0.442
         2 -14.4108      3.7125     47.6199   1.2879809207e+02   6.4713209595e+01     1.132218    0.3351128 -57.07  0.004807609    2.603    0.616
         3 -12.9877    226.9394     61.6555   7.3250325677e+01   2.0810643805e+01     0.799185    0.7299957 -58.57  0.002781764    1.084    0.077
         4 -13.6191    176.2579     32.0256   7.3085908937e+01   3.7486173400e+01     1.032009    0.7587727  14.82  0.005137768    1.871    0.465
         5 -12.1507    249.1320      3.0688   5.7922167713e+01   2.3483604912e+01    0.4323902    0.2871765 -59.19  0.002686623    1.289    0.224
         6 -10.8616    195.5017      1.5136   6.2473335045e+01   3.6084229264e+01    0.2813176    0.1100142  71.33  0.001218681    2.193    0.544
         7 -15.6414    221.6298    186.3992   1.0287930737e+02  -2.2295475628e-01     2.712396     1.066056 -37.71   0.01062646    2.590    0.614
         8 -12.1355    146.5696    245.7213   1.2758414270e+02   3.4841298651e+00    0.3709798    0.3096091 -33.10  0.001214604    1.591    0.372
         9 -15.3202    168.1341    245.4329   1.2350541656e+02  -1.9174231415e-01     2.421876    0.8164635  46.92  0.009521652    2.583    0.613
        10 -13.7210    152.9292    226.6674   1.2368538587e+02   5.6333943986e+00     1.603648    0.8919307  47.33   0.00631165    1.563    0.360
        11 -13.7111    149.8907    210.9843   1.2186316951e+02   9.0889727946e+00     1.266412    0.7919561 -76.27  0.005715794    2.413    0.586
        12 -14.8840      4.7622     12.6785   1.1699705629e+02   7.0416177213e+01     1.713275    0.9846103 -22.86  0.008868022    1.385    0.278
        13 -14.8080    114.2835    181.1633   1.2460848441e+02   2.1894835838e+01     2.734507     1.367441 -72.64   0.01024647    2.896    0.655
        14  99.0000     19.8692    156.7817   1.4258316836e+02   4.0358928838e+01     4.203169     1.696462 -84.68   0.01850236    2.701    0.630
        15 -16.9628     83.1715    177.4968   1.3104204049e+02   2.7912873524e+01     9.171038     4.215478 -76.12   0.03538119    2.872    0.652
        16 -11.4680    134.4623    231.2936   1.2795953716e+02   8.0827113303e+00    0.7204217    0.4456529  59.13  0.002995365    1.566    0.361
        17 -11.4112    127.3640    224.6174   1.2843860061e+02   1.0559605376e+01    0.4517943     0.271543  38.64  0.001424802    1.639    0.390
        18 -10.4232    211.6383    228.9171   1.1271210304e+02  -5.2260638911e+00    0.5330099    0.2551512  34.26  0.002523206    1.949    0.487
        19 -11.8661    227.4922    225.8598   1.0924638538e+02  -7.4590825921e+00     0.694983    0.3701399 -34.38  0.002995319    2.003    0.501
        20 -12.9039    220.8460    225.3275   1.1037626486e+02  -6.2683501000e+00    0.6747849    0.4383858  32.57  0.002604969    1.367    0.268
        21  99.0000    186.8162    220.5742   1.1604128298e+02   4.9458190605e-01    0.8185329    0.4986894 -48.07  0.003048213    1.907    0.476
        22 -12.5072    176.7637    213.7322   1.1686610306e+02   3.5327685618e+00     0.514069    0.3692886 -56.25   0.00192335    1.655    0.396
        23 -10.7274    208.0570    220.4125   1.1191314578e+02  -3.3107212364e+00    0.4541267    0.2759442  16.73  0.002161745    2.146    0.534
        24  -9.6124    213.2957    220.6889   1.1096968349e+02  -4.2755391651e+00    0.2034475     0.154246  35.30  0.001195532    1.178    0.151
        25 -12.5190     12.6011    218.0619   1.4914075169e+02   2.7990146465e+01    0.3986223    0.1850596  68.98  0.001667777    1.866    0.464
        26 -16.3958     14.6880    104.0627   1.3687694632e+02   5.2585129220e+01     3.799155     2.215278  80.66   0.02019346    2.379    0.580
        27 -14.1104     14.8055    205.7459   1.4791924315e+02   3.0253178696e+01     0.550314    0.5019133  55.09  0.002886953    1.511    0.338
        28 -13.5433     20.7206    203.9035   1.4672181663e+02   3.0031489739e+01    0.5964364     0.250638  61.08  0.003096281    2.255    0.557
        29  -9.8663    164.9516    204.6053   1.1769313256e+02   7.4486449417e+00    0.2129265     0.191414 -30.26 0.0007969905    1.262    0.208
        30 -18.3319     65.6276    245.9976   1.4223314993e+02   1.6201730083e+01     5.480529     1.099816  41.00   0.02025038    4.396    0.773
        31 -11.2962    161.0457    198.7344   1.1747495747e+02   9.3328071931e+00    0.5847971    0.4079952  -3.48   0.00255779    2.529    0.605
        32 -11.8733     15.7961    186.4389   1.4624226416e+02   3.4210142911e+01    0.2999306     0.197346  70.60  0.001186486    1.318    0.241
        33 -15.9754     56.5699    220.1211   1.4154336540e+02   2.2448852578e+01      1.28282    0.8033755 -79.93  0.005276982    1.427    0.299
        34 -11.5014     13.5535    175.7882   1.4577017299e+02   3.6720088784e+01    0.2272033    0.1712985  72.79 0.0008957092    1.198    0.165
        35  -9.9450    206.5448    234.8522   1.1466096081e+02  -5.2269637386e+00    0.2659039    0.1406565  28.75  0.001291382    1.949    0.487
        36 -18.9447     41.5951    104.7017   1.2921142078e+02   5.0159658102e+01     18.13337    0.3563057 -60.15   0.02229805   27.748    0.964
        37 -13.3625    117.6280    146.4924   1.1728820171e+02   2.9216120974e+01    0.7784974    0.5088459 -47.52  0.002138773    1.533    0.348
        38 -14.3308    179.3578    137.9937   1.0086339649e+02   1.7970684593e+01     2.037168     1.597275  -7.54  0.009356083    1.674    0.403
        39 -10.9644    102.2448    140.5526   1.1991827657e+02   3.3415646892e+01    0.2445621    0.2269852 -49.63 0.0004496403    1.126    0.112
        40 -11.5416    133.8492    144.1532   1.1280088524e+02   2.6551533180e+01    0.9112048    0.2172877 -53.52  0.002193376    5.329    0.812
        41 -10.4530      6.2710    250.7166   1.5198772267e+02   2.2490488821e+01    0.1044376   0.05146938  70.27 0.0006903714    1.498    0.333
        42 -14.5758    160.2993    128.8823   1.0292586133e+02   2.4228732023e+01    0.9531481    0.7719749  -8.36  0.004439409    1.594    0.373
        43 -12.9137    135.3710    122.5935   1.0736403484e+02   3.1096229107e+01    0.8319002    0.1866565 -47.15  0.002143062    4.408    0.773
        44 -12.4430     94.4653    124.8130   1.1857090086e+02   3.8429650207e+01     1.063914    0.4591753  48.99  0.004010055    2.695    0.629
        45 -11.9758    125.7307    127.5166   1.1099372200e+02   3.1991446753e+01    0.4093808    0.2457197  74.27  0.001420201    3.088    0.676
        46 -11.5027    118.5626    130.2247   1.1346192173e+02   3.2796619003e+01    0.3005879      0.23295 -21.95 0.0008912332    1.661    0.398
        47 -13.1040    190.7010    118.8804   9.3811443466e+01   1.9258723503e+01    0.4643555    0.3583797  41.52  0.002205056    1.363    0.267
        48 -10.5011    112.8074    119.4101   1.1239540005e+02   3.6373970235e+01    0.2049775    0.1460127  29.57 0.0006656452    1.644    0.392
        49 -13.9444    190.3076    109.2368   9.1459836985e+01   2.1259250659e+01    0.8854953    0.7328415  13.69  0.004260744    1.513    0.339
        50 -13.6991    198.6669     97.4029   8.6802318025e+01   2.1512535222e+01     1.491917     1.151729  26.71  0.006085242    1.633    0.388
        51 -12.3389    168.1819    113.3885   9.7227128281e+01   2.5681537372e+01     0.415288    0.3055307  87.63  0.001410757    1.844    0.458
        52 -10.6355    105.9950    130.7835   1.1684588794e+02   3.5029078970e+01    0.3170067    0.2840865 -70.88  0.001536588    1.076    0.071
        53 -11.8330    205.6189    110.1151   8.8703209618e+01   1.7458687704e+01    0.2966544    0.2285862  46.55 0.0008816157    1.358    0.263
        54 -10.7142    106.5171    126.9693   1.1584615039e+02   3.5817565810e+01    0.2791252    0.2293139 -19.87 0.0008316461    1.508    0.337
        55 -11.1278    103.3920     91.4242   1.0765876727e+02   4.4249652060e+01    0.3007745    0.2672289 -11.22 0.0009512658    1.187    0.157
        56 -11.7968     89.2292     78.3941   1.0804723839e+02   4.9395744387e+01    0.5140622    0.2576728  45.09  0.002236755    2.204    0.546
        57 -12.3765     14.6511     76.0296   1.3165280192e+02   5.8542795579e+01    0.4753813    0.3758112 -78.99  0.002061057    1.431    0.301
        58 -10.9817    220.9799     75.9532   7.7587656280e+01   1.9926707278e+01     0.352325    0.3199283 -61.34  0.001513611    1.031    0.030
        59 -11.0560      1.8589     74.4978   1.3553314440e+02   5.9608027135e+01    0.3403518    0.1275009 -63.04  0.001525045    2.019    0.505
        60 -10.3951    207.7337     72.7424   7.8878339187e+01   2.3659544888e+01    0.3229516    0.2545869  -8.65  0.001582932    1.693    0.409
        61 -12.6103      5.1396     64.7274   1.3241049385e+02   6.1385256810e+01    0.4336284    0.3456869 -37.29  0.001829062    1.146    0.128
        62 -10.8628    133.4508    239.1422   1.2919432752e+02   6.8561370588e+00    0.3176146    0.1822124  60.05  0.001633399    1.765    0.433
        63 -15.8825    247.3550    149.7331   9.0468613083e+01   1.1906965541e+00     2.732744    0.9758987 -36.57  0.008822308    2.626    0.619
        64 -12.0331    163.0627     46.9862   7.9703656174e+01   3.8771785533e+01    0.3409785    0.3127821  66.22  0.000965859    1.027    0.026
        65  99.0000    215.9212    241.8719   1.1408306810e+02  -7.7850113748e+00    0.7928916    0.4835767  -5.34  0.004055489    2.360    0.576
        66 -12.2316    180.1028     25.2234   7.0611358936e+01   3.7351286056e+01    0.4958485    0.3952889  41.59  0.001181166    1.369    0.270
        67 -11.6646    190.8938     52.2888   7.6274375236e+01   3.1061458458e+01    0.6425484    0.3765462  85.62  0.002644886    2.257    0.557
        68 -16.2317    239.0072    204.4611   1.0320754359e+02  -6.2501648620e+00     2.827327     1.512799 -38.18   0.01089825    1.909    0.476
