#   1 NUMBER                 Running object number                                     
#   2 MAG_AUTO               Kron-like elliptical aperture magnitude                    [mag]
#   3 X_IMAGE                Object position along x                                    [pixel]
#   4 Y_IMAGE                Object position along y                                    [pixel]
#   5 X_WORLD                Barycenter position along world x axis                     [deg]
#   6 Y_WORLD                Barycenter position along world y axis                     [deg]
#   7 A_WORLD                Profile RMS along major axis (world units)                 [deg]
#   8 B_WORLD                Profile RMS along minor axis (world units)                 [deg]
#   9 THETA_WORLD            Position angle (CCW/world-x)                               [deg]
#  10 FWHM_WORLD             FWHM assuming a gaussian core                              [deg]
#  11 ELONGATION             A_IMAGE/B_IMAGE                                           
#  12 ELLIPTICITY            1 - B_IMAGE/A_IMAGE                                       
         1 -14.3414     11.0322     70.6861   8.2188343825e+01   6.0652901788e+01     2.324943     1.376729 -17.70   0.01352005    1.972    0.493
         2 -14.3955    117.3969     62.6102   4.2132562255e+01   4.7211722656e+01     2.409214     1.463703  36.34  0.009583142    1.725    0.420
         3 -11.9337     51.5320     34.3305   5.4205915251e+01   6.3927018827e+01     1.274208     0.646029  16.35  0.005735674    2.662    0.624
         4 -14.0812     11.2004     36.1826   7.3125860936e+01   6.7639398201e+01     1.879011     1.431708 -57.43   0.01306404    1.395    0.283
         5 -12.6092     59.1727     29.3155   4.9005519121e+01   6.3597868459e+01     4.498138     2.725628 -63.53   0.01468753    6.731    0.851
         6  -7.9568     30.9825     19.8106   5.7242867661e+01   6.8724179916e+01    0.5925696    0.4507623 -32.19  0.002839392    1.272    0.214
         7 -12.1357     40.7814     20.5713   5.3003031764e+01   6.7453008739e+01    0.6061559    0.3697224  12.34  0.002078981    1.680    0.405
         8 -11.7214    222.6468     10.7942   8.6374633169e+00   2.8217850588e+01     0.862633    0.4956728 -69.59  0.004472021    1.708    0.415
         9 -12.6570    225.9951     22.4636   1.1028420396e+01   2.6093492280e+01    0.5816668    0.3998973  73.58   0.00184129    1.369    0.270
        10 -13.3053    221.9114     38.4670   1.5268307951e+01   2.5033054477e+01    0.9160262    0.5710039 -85.03  0.001898302    1.750    0.428
        11 -12.5253    219.5376     29.9288   1.3468870637e+01   2.6704451811e+01     1.080691    0.4972688  85.03  0.003593531    2.671    0.626
        12 -11.7974    182.4960     31.0232   1.8445663257e+01   3.5762717635e+01     1.016783    0.4261281  44.06  0.003722185    2.995    0.666
        13 -13.0781    199.3881     33.9074   1.6891828354e+01   3.1131172367e+01     1.482728    0.8252547 -34.74  0.006372374    1.825    0.452
        14 -11.5123    193.8951     19.4908   1.3781402939e+01   3.4241607089e+01    0.6286738    0.4389166  45.71  0.002399254    1.618    0.382
        15 -12.3611    188.8557     35.1443   1.8670758183e+01   3.3625034981e+01     1.066852    0.7010369  16.88  0.004702511    2.486    0.598
        16 -12.9867    173.6127     41.9130   2.2974173117e+01   3.6619110194e+01     1.160635    0.8096055  33.69  0.002315353    1.735    0.424
        17 -13.4990     39.6235     56.2833   6.7078791702e+01   6.1381226955e+01     1.105255    0.7098415 -45.07  0.003939113    1.325    0.246
        18 -11.9623    152.3223     33.8576   2.4331695338e+01   4.3110992836e+01    0.3060402    0.2421676 -26.21 0.0002748223    1.386    0.278
        19 -14.1846     69.1751     18.4267   4.0437824497e+01   6.3425697735e+01     2.069263     1.475559 -57.94  0.005616013    2.559    0.609
        20 -12.5118     72.6535      4.3141   3.2796372817e+01   6.4318270537e+01    0.9475783     0.479562  64.31  0.004155271    3.181    0.686
        21 -11.0652    246.2683     23.1607   9.3295704069e+00   2.1407577465e+01    0.3175086     0.225684 -56.81 0.0006222525    1.199    0.166
        22 -11.6462    241.4855     22.7922   9.6646584694e+00   2.2510905390e+01    0.3645907     0.275108  50.68  0.000718165    1.654    0.396
        23 -11.5230    130.3974     19.7429   2.3964351681e+01   5.0199008044e+01    0.3569078    0.3079563 -66.55 0.0008165966    1.360    0.265
        24 -11.3758    209.6611     21.2890   1.2432563077e+01   3.0137690442e+01     0.451707    0.2537972  48.74  0.002157843    2.061    0.515
        25 -10.3001    138.3284     18.2991   2.1888652947e+01   4.8407546937e+01    0.4736315    0.3053094  17.85  0.001914595    2.000    0.500
        26 -10.7839    159.9411     14.6569   1.7021302198e+01   4.3355481154e+01    0.2940077    0.2636758 -25.50  0.001051534    1.269    0.212
        27 -10.3286      2.9091     15.7052   6.9995599739e+01   7.1763534370e+01    0.3475862    0.1479542 -59.07  0.001718781    3.030    0.670
        28 -11.8370    151.4505     13.3804   1.7962204707e+01   4.5627635575e+01    0.5118264    0.3070103  78.90 0.0009297747    1.729    0.422
        29  99.0000    231.3621      1.4477   5.8238152118e+00   2.7201989317e+01     1.256696    0.2880845  77.57  0.004081321    4.698    0.787
        30 -13.0383    249.5870     10.3935   6.3642404425e+00   2.2187924663e+01     0.513626     0.295794 -28.71  0.002827485    1.976    0.494
        31 -13.7740    243.8422      8.8134   6.4614522441e+00   2.3617306363e+01    0.8865218    0.4341644 -86.56  0.003418897    2.093    0.522
        32 -11.8950    116.0472     10.3514   2.3623751106e+01   5.4546936904e+01    0.4035428    0.2603064  -4.07  0.001013886    1.825    0.452
        33 -10.7169    117.5827      2.7597   2.0462283110e+01   5.4844893024e+01    0.3202783    0.2199769 -39.44  0.001780896    1.723    0.419
        34 -10.9736     93.8222     11.9063   2.9745960655e+01   5.9350693355e+01    0.2749022    0.1805815  35.36  0.001094143    1.354    0.262
        35  -9.8436    173.4704     11.5491   1.4180875622e+01   4.0237220581e+01    0.2445766    0.1778587  82.01  0.001337675    1.268    0.211
        36 -11.2153    173.1979      6.4134   1.2755625406e+01   4.0803455828e+01    0.3388271    0.2021233 -13.07  0.001369258    2.203    0.546
        37 -10.7881    131.0469     11.4007   2.0914094400e+01   5.0874963332e+01    0.3606474    0.2563407  81.95  0.001209657    1.565    0.361
        38 -11.0090    123.9945     10.6921   2.2062015999e+01   5.2640430077e+01    0.3802249    0.2430621  20.52  0.001917862    1.839    0.456
        39 -11.0359    101.3962     10.4638   2.7140479286e+01   5.7857132891e+01    0.2455673    0.2201664  18.92  0.000241137    1.092    0.085
        40  -9.4883    100.6199      5.4426   2.5305512939e+01   5.8483254699e+01    0.4286699    0.2098222  43.47  0.001526882    1.747    0.428
        41 -10.0133     88.4663     11.2796   3.1005249624e+01   6.0529170164e+01    0.1578316    0.1183128 -32.35 0.0007271084    1.526    0.345
        42 -10.0437     45.4898     10.5148   4.6176954126e+01   6.8173253338e+01    0.1547519    0.1490677  -0.69 5.036385e-05    1.534    0.348
        43 -10.2863    145.6860      7.7938   1.7109119693e+01   4.7597278713e+01    0.4241838    0.3270394  -3.97  0.001749811    1.554    0.357
        44  -9.6750    110.4079      9.6762   2.4640387668e+01   5.5910212211e+01    0.1598309    0.1220547   5.15 0.0003364263    1.406    0.289
        45 -11.9379    194.0527      7.7720   1.0699960120e+01   3.5450399421e+01    0.3114372    0.2613193  88.56   0.00129489    1.020    0.020
        46  -9.8337     84.7080      7.8549   3.0631894359e+01   6.1629138120e+01    0.3274176    0.1723096 -16.03  0.001644667    2.057    0.514
        47 -11.9378     86.1531      1.7768   2.7558991771e+01   6.1878686633e+01    0.5221143    0.1594607  49.17  0.002175054    2.521    0.603
        48 -10.5059     27.5058      9.2649   5.4027503752e+01   7.0627711142e+01    0.1963497    0.1369507  14.22   0.00133442    1.306    0.234
        49  -9.6178    156.5450      7.9544   1.5478648542e+01   4.4860864643e+01    0.1635156    0.1016329  31.17 4.944599e-05    1.968    0.492
        50  -9.7980     48.1375      6.4541   4.3030836057e+01   6.8267216736e+01    0.2697782    0.2083084 -37.97  0.001764728    1.712    0.416
        51 -10.8298      3.0306      6.3001   6.5911728837e+01   7.3255212549e+01    0.2340237    0.1578103  -0.82  0.001293827    1.352    0.260
        52 -10.5380    211.3235      6.0370   8.5483840168e+00   3.1411343403e+01    0.2508301    0.1631135  74.01 0.0009162038    1.367    0.269
        53 -10.9123    183.8433      3.3505   1.0652432761e+01   3.8419028369e+01    0.2534122    0.2050525 -84.26  0.000570348    1.122    0.109
        54  -9.7068    111.8952      4.0821   2.2155324180e+01   5.6058206221e+01     0.194998    0.1630957  77.47  0.001182096    1.328    0.247
        55 -10.5971    217.9050      2.0806   7.0396028254e+00   3.0250895245e+01    0.2852986    0.1846371  70.51  0.001634546    1.414    0.293
        56  -9.9584    142.1907      1.9783   1.5777499390e+01   4.8964165786e+01    0.2460628    0.1706429  67.02  0.001313708    1.246    0.197
        57  -9.0881     93.9986      2.4752   2.5752183785e+01   6.0172327921e+01    0.1732219    0.1119388  55.16 -7.942157e-05    1.397    0.284
        58 -11.7010     49.0850      1.5530   4.0154400839e+01   6.8655008121e+01    0.4241331    0.1208413  42.77  0.001209809    3.141    0.682
        59  -9.1129    188.3913      1.2703   9.6108917810e+00   3.7481104337e+01    0.1367431   0.08445748  49.80 0.0006987646    1.720    0.419
        60  -9.5456      1.2489      1.2177   6.4566091019e+01   7.4136999401e+01   0.09915891   0.05799352 -18.94 0.0006595719    1.373    0.272
        61 -13.4042     79.2738     41.4778   4.6435604628e+01   5.8405800046e+01     1.144784     0.476519  36.10  0.004685134    2.499    0.600
        62 -11.6403     12.1240     97.3362   8.6617504518e+01   5.4624901772e+01    0.2979202    0.1848498 -52.04  0.001082518    1.353    0.261
        63 -11.0274     13.5097     93.5503   8.5559148539e+01   5.5405257467e+01    0.1808446    0.1455384 -38.18 7.981202e-05    1.269    0.212
        64  -9.5527    225.3230     97.6482   2.9275414035e+01   1.5075704040e+01    0.1547558    0.1074851 -66.25 0.0007047943    1.753    0.430
        65 -11.6084     73.1542     96.3235   6.6225027372e+01   4.8547572946e+01    0.3404022    0.2587872  58.97  0.001482005    1.621    0.383
        66 -12.6509     50.8486     86.2847   7.1235321923e+01   5.3773274371e+01    0.5547619    0.3028584  35.65  0.001051864    2.048    0.512
        67 -12.3685     56.7930     94.8692   7.1289802872e+01   5.1105949303e+01    0.4519515    0.2949821  84.34  0.000653201    2.547    0.607
        68 -11.6536     57.1584     89.3216   6.9806254609e+01   5.2328936398e+01    0.3479349    0.2208024 -60.89 0.0003881064    1.537    0.350
        69 -12.3104     86.6066     74.2578   5.5443288917e+01   5.1162557368e+01    0.6087182    0.5160092 -34.46  0.003361241    1.114    0.103
        70 -12.5632     73.7647     73.7336   5.9650354223e+01   5.3397825176e+01     1.253223    0.4935226  33.22  0.004798367    2.816    0.645
        71 -10.2451     65.9981     70.4666   6.1395562447e+01   5.5235375403e+01       0.3263    0.1912486  32.86  0.001588039    1.824    0.452
        72 -10.0774     67.9859     94.5036   6.7461533397e+01   4.9710977726e+01    0.2312705    0.1743471  38.72 0.0004411604    1.455    0.313
        73 -13.3248     63.2034     90.9127   6.8147845580e+01   5.1185767749e+01     0.657573    0.4783209 -63.21  0.002316555    1.404    0.288
        74 -11.8065     61.3109     83.8598   6.6942574801e+01   5.3018004387e+01    0.4709012     0.260653 -26.52  0.001227765    2.444    0.591
        75 -10.8609     70.9502     88.0196   6.4763124325e+01   5.0748760717e+01    0.3474651    0.2823921 -49.11  0.000998093    1.139    0.122
        76 -12.5411     66.9361     82.2534   6.4541656118e+01   5.2599546377e+01    0.5782692    0.4583799 -68.87  0.001647412    1.468    0.319
        77 -12.3736     48.9711     95.1232   7.3980516499e+01   5.1967481384e+01    0.4117524    0.2618518  40.02  0.000823851    1.799    0.444
        78  -9.8282     27.4919     96.4685   8.1453022053e+01   5.3723965717e+01    0.1291694    0.1049609 -55.99 0.0002875948    1.035    0.034
        79 -10.1167    232.9054     94.8536   2.7424231625e+01   1.3875299368e+01    0.2036757    0.1812708 -20.13 0.0004506833    1.195    0.163
        80 -10.4304    189.8141     94.8234   3.4838122906e+01   2.3892097467e+01    0.2169958    0.1794625 -68.14 0.0005604734    1.328    0.247
        81 -11.8104    206.3466     92.4772   3.1167338626e+01   2.0348120587e+01    0.4911726    0.2722279 -31.61  0.001988403    1.886    0.470
        82 -10.1663    211.3086     93.3118   3.0520436461e+01   1.9033056925e+01    0.1476473    0.1180339  12.67 0.0002976183    1.623    0.384
        83 -11.4753    185.3761     92.7820   3.5166435325e+01   2.5349366778e+01    0.2775551    0.2009138 -27.78 0.0007454591    1.498    0.332
        84 -11.4121     96.3489     90.7921   5.7290356552e+01   4.5925458853e+01    0.4906382    0.3995351  73.60  0.002450964    1.582    0.368
        85 -10.2888    172.5114     91.0734   3.7349392579e+01   2.8822818798e+01    0.2855948    0.2180711  75.32 0.0006331981    1.525    0.344
        86 -10.6949     79.7467     90.9444   6.2639317668e+01   4.8749055448e+01    0.2306006    0.2040654   4.62 0.0004031917    1.210    0.174
        87  -9.7926     85.9806     90.2577   6.0423145806e+01   4.7876065783e+01    0.1949995    0.1872309   1.96 0.0005472301    1.068    0.064
        88 -10.0787     22.6129     90.7230   8.2012637490e+01   5.5426352309e+01    0.1312108   0.07791823 -36.31 0.0004764699    1.726    0.421
        89 -11.2949     38.2395     87.5037   7.5946128283e+01   5.4831269969e+01    0.4085754    0.1853001 -54.34  0.001919243    1.788    0.441
        90 -13.0129    192.4171     67.6968   2.7045239974e+01   2.7971384739e+01    0.9631736    0.6772569  39.31  0.004509072    1.645    0.392
        91 -12.9750    224.3509     62.0730   2.0722053900e+01   2.1087934556e+01    0.8735616    0.5884324 -78.45  0.004250441    1.721    0.419
        92 -13.2436    192.7681     85.1725   3.1704214693e+01   2.4916935575e+01    0.9122066    0.6622733  81.90  0.004109089    1.671    0.402
        93 -13.5977    200.5883     77.7805   2.8346360286e+01   2.4278783590e+01     0.808617    0.5583345 -65.23  0.001182982    1.687    0.407
        94 -12.0350    192.6791     75.8423   2.9210310266e+01   2.6555028055e+01     0.416422    0.2809848  66.37  0.001350634    1.552    0.356
        95 -11.3174    221.5500     56.3689   1.9693500213e+01   2.2602120040e+01    0.4881046     0.326754 -44.20  0.001986549    1.393    0.282
        96 -12.7155    202.1440     70.0787   2.6054662468e+01   2.5172361615e+01     0.497759    0.4791515  14.52  0.002663446    1.181    0.153
        97 -12.3827    214.9631     59.1887   2.1295280333e+01   2.3754579226e+01    0.6498703    0.5669858  -0.39  0.002799351    1.452    0.311
        98 -11.6877    209.6657     58.5809   2.1897278485e+01   2.5130573515e+01     0.286411    0.2470831 -71.00 0.0003210955    1.106    0.096
        99 -11.0045    200.8045     64.8109   2.4877681155e+01   2.6346221803e+01    0.3119036    0.2418301 -67.61 0.0004683657    1.352    0.261
       100 -12.9943    203.9853     61.0417   2.3384611583e+01   2.6148564357e+01    0.8162653    0.5212997 -82.57   0.00259165    2.025    0.506
       101 -12.9750    146.0626     59.1152   3.3712544696e+01   4.1040317401e+01     2.089633     1.694818  82.50   0.01040521    1.425    0.298
       102 -12.1761    236.4088     85.8054   2.4764522750e+01   1.4603612596e+01    0.6198318    0.3334596  72.97  0.001260891    2.527    0.604
       103 -13.0958    220.1238     69.5249   2.3151593934e+01   2.0927719008e+01    0.8918822    0.4920266  78.63  0.003668673    2.389    0.581
       104 -13.2295    213.7266     83.9511   2.7753360345e+01   2.0077555186e+01     0.947451    0.3953967  43.64  0.003325119    3.024    0.669
       105 -12.9475    221.1912     78.5582   2.5237413150e+01   1.9225711016e+01     0.886583    0.5489414 -77.27  0.003643525    2.332    0.571
       106 -11.7318    250.0350     75.1132   2.0482199658e+01   1.3364517672e+01     0.634353    0.2539425 -30.11 0.0004741304    2.753    0.637
       107 -10.9350    250.2308     82.1761   2.2056791057e+01   1.2226875905e+01    0.5727626    0.3536404   3.85  0.002105027    4.064    0.754
       108 -10.5464    247.5316     80.5122   2.2025923565e+01   1.3054617203e+01    0.2728296    0.2364428 -42.28  0.001136645    1.073    0.068
       109 -11.8420    161.9929     84.5409   3.7798498987e+01   3.2640197503e+01    0.9281852    0.4119758  47.94  0.003346256    2.228    0.551
       110 -12.2637    168.8454     80.5912   3.5174558820e+01   3.1668788058e+01    0.4975931    0.3872614  71.94  0.001527613    1.402    0.287
       111 -11.3421    167.9845     76.4809   3.4173512500e+01   3.2619116091e+01    0.4507236    0.2552869  51.46 0.0008720612    1.723    0.420
       112 -11.8865    127.3459     58.7277   3.8147911128e+01   4.5608967959e+01    0.5534298     0.302954  34.28  0.002201372    2.158    0.537
       113 -11.2215     83.6076     82.7761   5.9040448807e+01   4.9901870535e+01    0.2592525    0.2371445  18.17 0.0003624373    1.128    0.114
       114 -10.9550     55.2531     81.9052   6.8550979362e+01   5.4224344926e+01    0.2218747    0.1917102  -0.16  0.000203785    1.242    0.195
       115 -12.1677     27.3928     81.2974   7.8421539554e+01   5.7188525601e+01    0.3956258     0.238711  20.96  0.002214756    1.954    0.488
       116 -11.7628    177.1584     84.9349   3.4674051696e+01   2.8813899192e+01    0.9173263    0.3614105  38.46  0.002604542    4.043    0.753
       117 -12.1200    185.0718     77.9090   3.1172152206e+01   2.8093342677e+01    0.5137382    0.2660008 -23.15   0.00184203    2.685    0.628
       118 -10.8140    232.2462     78.9682   2.3727301722e+01   1.6632216014e+01    0.3321149    0.2112208  57.81  0.001120797    1.669    0.401
       119 -11.4372    225.8202     76.0884   2.3947091320e+01   1.8555254960e+01    0.3234377    0.2221293 -51.30 0.0009876586    1.389    0.280
       120 -10.8200    155.1519     76.4675   3.6975783692e+01   3.5812972627e+01    0.3461268    0.2855172  65.89 0.0009297181    1.257    0.205
       121 -10.5903    151.0070     73.2093   3.6947919208e+01   3.7419211314e+01    0.3049636    0.2191665 -35.07 0.0006070955    1.432    0.302
       122 -10.5302    105.4705     74.1547   4.9414575002e+01   4.7606160152e+01    0.4683532    0.3209796  -9.15  0.002038795    2.008    0.502
       123 -11.4121    183.0218     69.1105   2.9109388423e+01   3.0099159941e+01    0.2821873    0.2515892  56.97 0.0004182762    1.116    0.104
       124 -12.3653    176.7533     70.6110   3.0718314989e+01   3.1429061900e+01     1.227776    0.6096575  68.34  0.004284057    2.522    0.603
       125 -10.4152    161.4667     66.5497   3.2622976024e+01   3.5968280953e+01    0.2689747    0.2483133 -13.23  0.000694942    1.174    0.148
       126 -11.2086    166.7099     64.3786   3.0894041012e+01   3.5005339567e+01    0.6908164    0.4559527  58.85  0.003137605    1.476    0.322
       127  -9.4748    241.4958     81.5482   2.3061730142e+01   1.4181546604e+01    0.1398264    0.1235324 -54.66 7.296855e-05    1.022    0.022
       128 -10.0155    243.0890     73.1163   2.0896822106e+01   1.5159051440e+01    0.2376041    0.1839584  40.98 0.0009657955    1.594    0.373
       129  -9.3554    177.7184    119.7203   4.3835347725e+01   2.1937537731e+01    0.1525188    0.1238964   7.31 0.0001688828    1.510    0.338
       130 -10.2539    240.8509     40.6327   1.3705041788e+01   2.0367798397e+01     0.491954    0.2762508 -20.15  0.002065642    2.527    0.604
       131 -11.3323    234.8403     36.8803   1.3472485390e+01   2.2227770126e+01     0.645758    0.2765287 -53.10  0.002756388    2.316    0.568
       132  -9.6166    163.7167    118.6783   4.6728490313e+01   2.5405253145e+01    0.1584388     0.126703   1.07 0.0001918776    1.592    0.372
       133 -12.9888    235.1435     47.3742   1.5871582664e+01   2.0733008503e+01    0.7770893    0.3927336 -58.01  0.001377109    2.094    0.522
       134 -12.0107    230.0284     50.8214   1.7280283852e+01   2.1421452034e+01    0.6864392     0.608647 -49.88  0.002235809    1.111    0.100
       135 -11.9379    242.2108     62.2388   1.8494298028e+01   1.7001295100e+01    0.6855577    0.3757922 -54.80  0.003226523    1.807    0.447
       136 -12.7134    233.7798     64.7346   2.0124551822e+01   1.8510960560e+01    0.4868673    0.4465453 -23.52 0.0009784928    1.245    0.197
       137 -11.5333    234.8828     57.0016   1.8158006351e+01   1.9414273941e+01    0.6053213     0.414752  20.40   0.00196343    2.566    0.610
       138 -10.3892    203.9537    116.1635   3.7574273611e+01   1.6575107471e+01    0.4113189    0.2221384  65.92  0.001507428    2.681    0.627
       139  -9.5477    178.3086    114.3600   4.2335973321e+01   2.2878544014e+01    0.1634311    0.1255123   4.19 0.0007040958    1.737    0.424
       140 -11.5899    182.8210     62.3090   2.7234397155e+01   3.1252997097e+01    0.5220011    0.3283902 -58.83  0.001792238    1.851    0.460
       141 -13.2898    190.3509     56.9814   2.4457960875e+01   3.0175670826e+01     1.570662     0.906001  83.77  0.006278259    2.332    0.571
       142 -11.6484    162.1738     56.1427   2.9339655279e+01   3.7469649684e+01    0.6758144    0.4194665 -35.13  0.003031977    1.667    0.400
       143  -9.6316    171.1357    113.9433   4.3807953270e+01   2.4650298364e+01    0.2165715    0.1865363  -7.15 0.0005828458    1.330    0.248
       144 -10.7392    164.2325     48.1084   2.6502205673e+01   3.8149076888e+01    0.6891245    0.2510393  56.36  0.002045768    2.474    0.596
       145 -11.1040    170.2514     32.9355   2.0888575168e+01   3.8654807065e+01    0.4125682    0.2898902  48.40  0.000957145    1.419    0.295
       146 -10.8004    201.2332     20.4992   1.3177860735e+01   3.2299861375e+01    0.2922741    0.2284141  75.78  0.001002603    1.159    0.137
       147 -12.2560    209.9796     46.3347   1.8711713031e+01   2.6838794576e+01     1.268761    0.6165062 -79.39  0.004142846    3.969    0.748
       148 -10.7532    133.9762    113.7030   5.2810959213e+01   3.3215280108e+01    0.2300485    0.2075245  44.88 0.0004284413    1.113    0.101
       149 -10.2458    143.0958    112.9587   5.0253984236e+01   3.1352871583e+01    0.2415293    0.2343624  79.04 0.0005716298    1.054    0.051
       150 -12.5677    190.6214     47.1690   2.1714489584e+01   3.1549652427e+01     1.081415     0.594634  77.58  0.004509997    2.099    0.524
       151 -11.4548    191.6126     39.4672   1.9456482486e+01   3.2359444118e+01    0.4233123    0.3184951 -41.31  0.001278629    1.347    0.258
       152 -10.1451    211.0432    112.0892   3.5248681786e+01   1.5723232206e+01    0.3266434    0.2117997  61.07  0.001003276    1.753    0.430
       153 -10.8484    138.9420    112.3166   5.1148891163e+01   3.2423812674e+01     0.231113    0.2088147  40.53 0.0008371503    1.114    0.103
       154 -12.5822    161.1587     38.6833   2.4196131627e+01   4.0240106524e+01    0.5797166    0.5317004  76.47  0.002008189    1.044    0.042
       155 -10.7228    248.6684     60.6959   1.7388800142e+01   1.5822633419e+01    0.1973896    0.1818611 -53.54  0.001094713    1.115    0.103
       156 -11.4574    247.9841     56.2707   1.6469981850e+01   1.6613632680e+01    0.4384075    0.3467146 -63.91  0.002605502    1.140    0.123
       157 -10.0397    108.6495     55.1856   4.2095478520e+01   5.0391246737e+01    0.4494141    0.2252961 -38.51  0.001531269    2.025    0.506
       158 -10.9209    101.1012     53.9914   4.3936405718e+01   5.2174015105e+01    0.5739542    0.3014895  45.48  0.002502332    1.869    0.465
       159 -10.9066     96.7824    110.4839   6.2447062079e+01   4.1397390247e+01    0.3811122    0.1874083 -36.55  0.001263972    2.527    0.604
       160 -10.7617    207.7986     52.7224   2.0653878837e+01   2.6458894179e+01    0.3460298    0.2365979 -63.11  0.001693124    1.534    0.348
       161  -9.8112    245.1387     50.1643   1.5406223355e+01   1.8104131988e+01    0.1818829    0.1329178 -66.71 0.0004360313    1.284    0.221
       162 -11.3946    248.6442     47.3455   1.4404516754e+01   1.7732061250e+01    0.3306718    0.2444637 -78.63  0.001921198    1.317    0.241
       163 -11.5672     99.0087     48.3026   4.2527647983e+01   5.3536321323e+01    0.3304549    0.2430804  -7.19  0.001680589    1.517    0.341
       164 -10.4863    142.5539     46.4130   3.0405857830e+01   4.3858751732e+01    0.3534504    0.2311499  34.11  0.001604934    1.709    0.415
       165 -10.3523    148.9358     40.5924   2.7157698821e+01   4.3082975007e+01     0.824511    0.4073702 -36.48  0.003455627    2.101    0.524
       166 -10.4334    195.8140    107.4612   3.6958318310e+01   2.0096481359e+01    0.3705029    0.2173906 -46.97  0.001545531    1.721    0.419
       167 -11.5302    149.2966     28.1726   2.3078295914e+01   4.4570339967e+01    0.2882978    0.2558435  73.19 0.0005760896    1.088    0.081
       168 -10.8195    146.5154     25.9678   2.2884694977e+01   4.5527217829e+01    0.3689498    0.2466712  14.56  0.001432456    2.002    0.500
       169 -10.4406    132.9508     39.6582   3.0314328826e+01   4.7162516655e+01    0.6036381    0.3615581  54.69  0.002791851    1.543    0.352
       170  -9.8733    135.5222     43.5771   3.1051587597e+01   4.5992288685e+01    0.3059211    0.2042311  29.37  0.001241992    1.728    0.421
       171  -9.8662    105.5444     43.7810   3.8908729216e+01   5.2867987723e+01    0.2889926     0.170892 -25.53   0.00104362    1.813    0.448
       172 -10.5149    215.6425     43.0145   1.7141062352e+01   2.5921437257e+01    0.3051641    0.2232378 -34.75   0.00115663    1.409    0.290
       173 -10.8254    246.7572     42.1335   1.3439483506e+01   1.8857189867e+01    0.3466904    0.2177504 -73.77  0.001438437    1.653    0.395
       174 -11.1411    150.5379     23.3732   2.1306406600e+01   4.4809247034e+01    0.3933133    0.2936599 -25.07  0.002107415    1.494    0.331
       175 -10.3353    100.1743     40.7630   3.9372329663e+01   5.4453652778e+01    0.3106023    0.1964779  47.46  0.001526393    1.527    0.345
       176 -10.0333    249.9806     38.5007   1.2323392042e+01   1.8641738535e+01    0.1902323    0.1566304 -61.59  0.000926832    1.024    0.024
       177  -9.9477    211.0298     38.7062   1.6637029332e+01   2.7625114051e+01    0.1998447     0.164707  80.85 0.0009127481    1.138    0.121
       178 -11.7664    127.2870     45.3164   3.3612920205e+01   4.7720409374e+01    0.7038937    0.4236632  68.73  0.003006482    2.081    0.519
       179 -10.8074    110.8126     34.7514   3.4085343726e+01   5.2994065997e+01    0.4637961    0.2843085   5.34  0.000835115    2.327    0.570
       180 -11.4540     92.4187     33.0418   3.8766551840e+01   5.7143459475e+01    0.3739554    0.2668063  -1.53   0.00138512    1.529    0.346
       181 -10.3086    132.0768     33.8868   2.8529655083e+01   4.8136894112e+01    0.2380354    0.1832306 -58.64  0.000455195    1.579    0.367
       182  -9.7103    247.4603     32.9372   1.1345597955e+01   1.9918553836e+01     0.176455    0.1090005 -43.92 0.0003289578    1.431    0.301
       183  -9.6815    122.5068     33.0782   3.0480201513e+01   5.0527877001e+01     0.198531    0.1382322 -31.06 0.0008670438    1.530    0.346
       184 -11.0801    162.4500     29.6691   2.1204216317e+01   4.1051892864e+01    0.4009048    0.2608451 -57.46 0.0006243348    1.780    0.438
       185 -10.3313    160.1826     25.5796   2.0332187459e+01   4.2112731124e+01    0.4207678    0.2405662  26.53  0.001739084    2.602    0.616
       186 -10.0164    163.3522     20.8929   1.8387955667e+01   4.1831955566e+01      0.22286    0.1787752  63.91 0.0003881772    1.116    0.104
       187 -10.4435    238.8550     30.5948   1.1639795623e+01   2.2130534138e+01    0.4354882    0.1987023  66.17  0.002046231    2.134    0.531
       188 -10.9526    138.3307     26.8619   2.4786302049e+01   4.7462580230e+01    0.5299379    0.3204829 -73.04  0.001723949    2.725    0.633
       189 -10.5678    184.0027    105.5154   3.8828621186e+01   2.3269366897e+01    0.5977571    0.2293356 -38.94  0.001820653    2.573    0.611
       190  -9.9844    104.3521     28.7968   3.3594581337e+01   5.5191374938e+01    0.2567396    0.1220313 -33.02  0.001123112    2.195    0.544
       191 -11.2888     86.4440     28.5694   3.8864607702e+01   5.8931638362e+01    0.2488119    0.2312965  30.37 0.0007240539    1.177    0.150
       192 -10.1033    210.4357    105.7347   3.3787179166e+01   1.7018843685e+01     0.276687    0.2087984  55.16 0.0008386086    1.391    0.281
       193 -10.2356    123.1742     27.8158   2.8429883864e+01   5.1021496987e+01    0.2347322    0.1984429 -74.59  0.001026023    1.469    0.319
       194 -10.4008    112.8780     27.0160   3.0649786447e+01   5.3508794592e+01    0.3937858    0.2527789 -54.19  0.001794697    2.187    0.543
       195 -10.0889    234.1012     25.0147   1.0834497956e+01   2.3907789366e+01    0.3378593    0.2584124   5.70  0.001864317    2.089    0.521
       196 -10.4706     15.2900    105.9592   8.6933773756e+01   5.2425002951e+01     0.180002    0.1283173 -67.38 0.0003726626    1.120    0.107
       197 -11.4502    156.0198    105.3246   4.5013521080e+01   2.9984403604e+01    0.2309109    0.2110605  51.66 0.0005938114    1.094    0.086
       198 -11.0906    176.1935     23.7113   1.7285058515e+01   3.8241336877e+01    0.2858723    0.2425894 -29.30  0.000973784    1.318    0.242
       199 -10.1047    180.1001     20.3304   1.5778246393e+01   3.7628710708e+01     0.236536    0.2090192   2.47 0.0007468141    1.397    0.284
       200  -9.4035    117.4933     24.9886   2.8748924266e+01   5.2686432540e+01    0.2588803    0.1180312 -37.18  0.001091378    2.396    0.583
       201 -10.6122    118.8611     20.6358   2.6816935622e+01   5.2855795868e+01     0.233755    0.2159869 -11.19 0.0004311924    1.170    0.145
       202 -11.3826     69.4586    103.2607   6.9134603158e+01   4.7475084775e+01    0.4220645    0.1017327 -50.30  0.001304589    3.508    0.715
       203  -9.4625    102.5500     23.4927   3.2025032638e+01   5.6226277407e+01    0.1363016    0.1194747  28.12 5.613018e-05    1.006    0.006
       204 -10.2313     98.0738     22.0211   3.2687337961e+01   5.7361342292e+01    0.2692765     0.208091   9.85  0.001103203    1.300    0.231
       205 -10.8117    144.8919    102.8284   4.7058842661e+01   3.3103390467e+01    0.4129168    0.3055757  18.88  0.001789164    1.747    0.428
       206 -10.7261    205.8037     19.0087   1.2285418993e+01   3.1344016750e+01     0.400326    0.1793201 -57.39 0.0003356135    2.514    0.602
       207 -11.5963    173.3375     53.3174   2.6363187125e+01   3.5056100583e+01    0.5266278    0.3783723  70.91  0.001774113    1.405    0.288
       208  -9.7292    103.2664    104.4099   5.8949235745e+01   4.1601401076e+01    0.2318185    0.1766504 -11.19 0.0006278709    1.707    0.414
       209 -10.8461    112.4726     17.1506   2.7018501021e+01   5.4705999523e+01    0.3508821     0.197379  44.32  0.001280842    1.574    0.365
       210 -10.1498    173.4675     16.5630   1.5618019180e+01   3.9722681636e+01    0.3291079    0.1771172 -70.36  0.001371482    2.490    0.598
       211 -11.5443    235.1602    102.5137   2.8891554849e+01   1.2096800756e+01    0.2625101     0.242563  60.00 0.0002357488    1.181    0.153
       212 -12.9214    117.8707     95.2470   5.2159546454e+01   4.0706403106e+01    0.7518576    0.5180544 -80.53  0.002985421    2.416    0.586
       213 -12.0773    198.7996     48.6478   2.0882637731e+01   2.9280107409e+01    0.7516003    0.4641738  21.67  0.002958483    2.997    0.666
       214 -10.6469    109.3253    102.9760   5.6781671825e+01   4.0753806847e+01    0.2254113    0.1875931 -46.79 0.0004755381    1.172    0.147
       215 -10.4998    102.8618     15.5024   2.8780128788e+01   5.7036219596e+01    0.2357996    0.1661835  12.42  0.001281098    1.522    0.343
       216  -9.8692    230.5251    102.4672   2.9604632116e+01   1.3103550758e+01    0.1442243    0.1323012 -45.18 9.391283e-06    1.013    0.013
       217 -10.1214    165.3115    101.9989   4.1942393688e+01   2.8447993144e+01    0.2283832    0.2065888 -39.67 0.0007089906    1.108    0.097
       218 -10.7033     96.1429    101.0990   6.0209720462e+01   4.3670211267e+01    0.2389586    0.2007547 -20.28 0.0006839487    1.307    0.235
       219  -9.3859    213.4286     12.6989   9.9457822720e+00   3.0197784108e+01    0.2086333    0.1246232 -67.27 0.0006609173    1.661    0.398
       220 -12.6508     85.7529     99.0166   6.2880343174e+01   4.5948126976e+01     0.644399     0.381955  31.26  0.002870539    1.875    0.467
       221 -10.7714    170.3299     97.7576   3.9663758110e+01   2.8073318357e+01    0.3692439    0.2964125 -46.26  0.001394267    1.249    0.199
       222 -12.1629    153.9900     95.9539   4.2904770824e+01   3.2372435854e+01    0.6947159    0.4151055  41.64  0.002089272    1.741    0.425
       223 -12.1301    106.4037     97.0941   5.6020045406e+01   4.2634037997e+01    0.4318861    0.3151118 -23.23  0.000818321    1.628    0.386
       224 -12.3684    107.9173     92.1491   5.4162033728e+01   4.3411284226e+01    0.5752942    0.2880009  36.25  0.002223319    2.184    0.542
       225 -11.6193    199.9143     96.3761   3.3328329109e+01   2.1178633451e+01    0.4547789    0.2939889 -63.42  0.001252761    1.978    0.494
       226 -11.3996    113.1515    246.7519   8.1250295942e+01   8.9146082767e+00    0.3310567    0.2536417 -27.39  0.001765713    2.106    0.525
       227 -11.5210     90.8050     50.9537   4.6103858076e+01   5.4727482652e+01    0.3672598    0.2475086  13.27 0.0004352964    1.806    0.446
       228 -13.2559      5.1171     54.2759   8.0878979418e+01   6.4431875509e+01     0.855425    0.5127858 -56.70  0.003126547    1.300    0.231
       229 -14.5605    125.3627     84.5891   4.6919798584e+01   4.1297794483e+01     2.395569     2.038236  39.43  0.007283525    1.174    0.148
       230 -10.7028     36.3431    248.4890   9.5409294346e+01   1.9175152189e+01    0.1830951   0.08778822 -78.96   0.00110395    2.005    0.501
       231 -13.1959    136.6754     81.6509   4.3019382823e+01   3.9293743092e+01      1.30998    0.6215548 -40.20  0.001278069    2.123    0.529
       232 -12.7248    147.9192     83.9185   4.0890471816e+01   3.6188851953e+01     1.524325    0.8563616 -29.77  0.001161766    2.052    0.513
       233  -9.9124    180.4939    243.4965   6.7790896629e+01  -1.4698675892e+00    0.1262452    0.1019521  33.22  9.15255e-06    1.037    0.036
       234 -12.3120     42.7115     28.3406   5.5519323130e+01   6.6033469512e+01     1.243802    0.3886662  32.89  0.005172029    3.325    0.699
       235 -14.2641     45.5735     72.0263   6.9400585566e+01   5.7497755768e+01     1.554859      1.14168  -6.52  0.008806014    1.532    0.347
       236 -10.0480     15.9971    238.4574   9.8301999056e+01   2.3267110105e+01    0.1654442    0.1101581  84.80   0.00054714    1.207    0.171
       237  -9.3177    223.0149    124.9893   3.6199429894e+01   1.0763552345e+01    0.1777065    0.1620007 -30.71 0.0009829645    1.024    0.024
       238 -11.1544    152.9853    124.1074   5.0669165181e+01   2.6703247112e+01    0.2438008    0.2238776 -46.85 0.0002641678    1.094    0.086
       239  -9.6836    141.1446    119.8247   5.2536981838e+01   3.0285874207e+01     0.212197    0.1878902   7.53 0.0003222083    1.284    0.221
       240 -12.2887     24.5877     43.2512   6.9287083418e+01   6.5321591970e+01    0.6636258    0.3795649  19.60  0.002921334    1.920    0.479
       241 -12.0995     26.2476     35.9343   6.5995961167e+01   6.6523138714e+01    0.3129365    0.2267697 -14.08 0.0006946753    1.248    0.199
       242 -12.8592     55.1616     71.8313   6.5768708502e+01   5.6411191248e+01    0.6024682    0.3520574 -46.26  0.002130222    1.500    0.333
       243 -13.7846     78.8153     59.0834   5.3074167954e+01   5.5458221217e+01     2.266899    0.7653456  39.58  0.008274782    3.050    0.672
       244 -13.2741     49.8648     53.9576   6.2180921175e+01   6.0669516652e+01     1.116836    0.6643597  51.25  0.004946493    2.707    0.631
       245 -12.6011     51.5873     45.1425   5.8368306413e+01   6.2081775176e+01     1.042145    0.5309023  20.35  0.001922744    2.356    0.575
       246 -11.8491     75.9378     52.0362   5.1588623561e+01   5.7219782441e+01    0.2655962    0.2368936 -33.56 0.0003161812    1.177    0.150
       247 -13.3877     81.7258     49.3061   4.8551101622e+01   5.6687501151e+01     1.042015    0.5424329  23.11  0.004203744    2.671    0.626
