#   1 NUMBER                 Running object number                                     
#   2 MAG_AUTO               Kron-like elliptical aperture magnitude                    [mag]
#   3 X_IMAGE                Object position along x                                    [pixel]
#   4 Y_IMAGE                Object position along y                                    [pixel]
#   5 X_WORLD                Barycenter position along world x axis                     [deg]
#   6 Y_WORLD                Barycenter position along world y axis                     [deg]
#   7 A_WORLD                Profile RMS along major axis (world units)                 [deg]
#   8 B_WORLD                Profile RMS along minor axis (world units)                 [deg]
#   9 THETA_WORLD            Position angle (CCW/world-x)                               [deg]
#  10 FWHM_WORLD             FWHM assuming a gaussian core                              [deg]
#  11 ELONGATION             A_IMAGE/B_IMAGE                                           
#  12 ELLIPTICITY            1 - B_IMAGE/A_IMAGE                                       
         1  -9.9276     97.7536     12.1343   6.0964551057e+01   5.9221254201e+01    0.3316578    0.2134164  -5.27  0.001529323    1.663    0.399
         2  -9.1141    229.5018      2.4650   3.8709159444e+01   2.6793539221e+01    0.1327975    0.1141383 -60.06 0.0004050484    1.006    0.006
         3  -9.3161     88.4393    249.3276   1.1753216808e+02   1.4022023320e+01    0.2226407     0.100588  44.85   0.00133856    1.646    0.393
         4 -12.0805    237.7158    240.9681   9.1372419766e+01  -6.3549383813e+00    0.5036052    0.3374474  35.73  0.002513433    1.380    0.275
         5 -11.3655    231.6642    237.0971   9.1757750946e+01  -5.1395611242e+00    0.3663257    0.2111572   9.47  0.002261637    1.826    0.452
         6 -11.2365    246.4915    248.1469   9.1061406656e+01  -8.1878061445e+00    0.4985671    0.3323492  32.92  0.002719801    1.341    0.255
         7 -11.5518    249.8695    240.9253   8.9471960387e+01  -7.9690594300e+00    0.5971281    0.3111928 -30.21  0.003900704    2.166    0.538
         8 -11.6930    209.2498    248.0098   9.6945986878e+01  -3.1167158050e+00    0.7542154    0.2627936  30.26  0.003471703    2.948    0.661
         9 -12.2545    166.2103    248.7420   1.0421705078e+02   3.0447964373e+00     1.423852    0.3741614  42.89  0.006202349    2.933    0.659
        10 -10.4168    160.5323    227.5026   1.0255498852e+02   6.7176673694e+00    0.3509428    0.2227803  33.15  0.001637009    1.383    0.277
        11 -11.1843    164.7634    226.3114   1.0163405411e+02   6.2196791666e+00    0.4178576    0.2981461  26.25  0.002016583    1.350    0.259
        12  -9.1487     18.5452    249.5178   1.2883665025e+02   2.2181870417e+01    0.1869557   0.04510893  47.06  0.001041437    2.453    0.592
        13 -11.1082    195.6242    248.4374   9.9242365830e+01  -1.2159797213e+00    0.4508714    0.2733552  22.41  0.002932062    1.554    0.356
        14 -11.3042    167.5991    242.6645   1.0324321897e+02   3.6010767985e+00    0.4387152     0.310169  44.82  0.002431873    1.204    0.170
        15  -8.8550     97.8720    242.8583   1.1539204571e+02   1.3740438082e+01    0.2271058    0.1168012  40.72  0.001325638    1.599    0.374
        16 -10.7684    107.7906    237.9359   1.1320977310e+02   1.3114876996e+01    0.4143231    0.2361929 -89.28  0.002322693    2.624    0.619
        17  -8.3405     79.3392    239.3256   1.1830889236e+02   1.6783412313e+01   0.09367985   0.08433402  13.41 0.0006633474    1.727    0.421
        18 -11.9798    173.7761    244.1622   1.0237012514e+02   2.4907489761e+00    0.9341918    0.6097541  64.23  0.005549118    2.372    0.578
        19 -11.1454    169.8249    232.2969   1.0152955762e+02   4.6121858808e+00    0.7594163    0.4036312 -45.99  0.004400673    2.380    0.580
        20 -11.7954    162.5860    234.2816   1.0306606275e+02   5.4619658054e+00    0.7401298    0.4912553  19.20  0.004541934    1.769    0.435
        21  -8.1784    154.2872    233.3197   1.0441795508e+02   6.8708089523e+00    0.1096888   0.08218742  14.96 0.0003181167    1.596    0.373
        22 -10.8371    236.5159    230.4319   8.9963804032e+01  -5.1360365942e+00    0.2724415    0.2152542 -34.90  0.001796217    1.763    0.433
        23  -9.4260    128.1434    232.1071   1.0896958546e+02   1.1032098002e+01    0.1751226    0.1422378  27.52  0.001224245    1.361    0.265
        24 -10.6532    246.0319    230.2823   8.8430449304e+01  -6.4380894420e+00    0.2052168    0.1157677  25.38 0.0004940914    1.424    0.298
        25 -11.1097     99.6207    219.0925   1.1283565278e+02   1.7370575802e+01    0.5646158    0.3058836  62.58  0.002761878    1.915    0.478
        26 -10.6946    107.4391    223.4323   1.1182479305e+02   1.5494955151e+01    0.5406168    0.3251169  20.18  0.002630758    2.962    0.662
        27  -8.8205    144.8135    229.1377   1.0560536601e+02   8.9330492949e+00    0.1596805    0.1245969  24.70 0.0008525528    1.362    0.266
        28  -9.1067    114.7551    228.5155   1.1101225664e+02   1.3588014243e+01    0.2091256    0.1316791 -46.00  0.001273019    2.150    0.535
        29 -10.1075    185.2907    226.9777   9.8071457908e+01   2.9068407892e+00    0.2614699    0.1830883  44.91  0.001013265    1.327    0.247
        30  -9.4410    181.6771    227.3423   9.8759623702e+01   3.4235172607e+00    0.2110246     0.165833  42.75  0.001182098    1.192    0.161
        31 -10.2594    128.4918    225.5050   1.0815672853e+02   1.1999343743e+01    0.3098318    0.2444448  -7.91  0.001724752    1.971    0.493
        32 -11.3054    125.7596    221.0261   1.0814051373e+02   1.3132261792e+01     0.396843     0.377861 -18.69 0.0007751528    1.360    0.265
        33  -9.3544    114.8797    221.3136   1.1020954537e+02   1.4741330369e+01     0.235146     0.185194  17.48 0.0007974321    1.719    0.418
        34  -8.7271    176.7453    227.3896   9.9638931611e+01   4.1888621289e+00    0.1672109   0.09130995  32.91  0.000350267    1.596    0.373
        35  -9.8771     85.7818    215.9175   1.1513105058e+02   1.9892537888e+01     0.310596    0.1558063  59.96  0.001671766    1.916    0.478
        36  -9.6410     88.5559    224.7152   1.1543676314e+02   1.7971159643e+01    0.3105812    0.1586187 -63.45  0.001809567    2.208    0.547
        37 -10.9198     90.7240    219.2369   1.1451983383e+02   1.8615408074e+01    0.4816724    0.2343065  69.82  0.002054899    2.782    0.641
        38  -9.6471    249.1636    223.7318   8.6892875434e+01  -6.2114990254e+00     0.165212    0.1234019  35.26  0.001061773    1.451    0.311
        39  -9.2836    157.7370    222.1356   1.0234911088e+02   7.9310286012e+00    0.1975077    0.1622428 -28.99 0.0008556329    1.499    0.333
        40  -9.3704     20.0984    222.7663   1.2746004903e+02   2.6539631008e+01    0.1599031    0.1373838  39.61  0.001321448    1.602    0.376
        41  -9.0059    134.2793    222.2255   1.0669510397e+02   1.1621106073e+01    0.4064423    0.1385297  47.73  0.001416753    2.585    0.613
        42  -9.9362    131.4960    218.4978   1.0675906508e+02   1.2649340033e+01     0.277319     0.176945  40.54   0.00136966    1.328    0.247
        43  -9.6257    131.2470    214.9628   1.0636590631e+02   1.3263652159e+01    0.2821666    0.2330187  82.88  0.001223084    1.368    0.269
        44  -8.3686     51.3214    222.2982   1.2199479466e+02   2.3192295948e+01   0.08844709   0.08681481 -49.25 0.0002561213    1.622    0.383
        45  -9.0976    148.8298    220.4357   1.0376546451e+02   9.6041134850e+00    0.1980598    0.1691072 -32.05 0.0006811548    1.452    0.311
        46  -9.7970    175.5827    217.6600   9.8459778295e+01   5.7055883565e+00    0.3618802     0.209157 -29.18     0.001979    2.259    0.557
        47  -8.8801     75.0980    219.7627   1.1747682161e+02   2.0656635042e+01    0.1622616    0.1200074  52.97 0.0005759014    1.128    0.113
        48  -9.2701    191.6218    218.0466   9.5634916213e+01   3.0744053318e+00    0.2067953    0.1124334 -47.70  0.001105986    2.484    0.597
        49  -8.8461    183.4770    219.7032   9.7335984666e+01   4.1545018272e+00    0.2152755   0.09055102  40.34 0.0008539979    1.964    0.491
        50  -9.3411    143.8127    216.2916   1.0415737001e+02   1.1047208039e+01    0.2399248     0.168484 -45.11  0.001485909    1.730    0.422
        51  -9.8578    112.2500    214.3990   1.0992819629e+02   1.6305999471e+01    0.2451326    0.2006794 -17.57   0.00150493    1.905    0.475
        52  -8.8510    185.9743    212.2822   9.5761793667e+01   4.7666144284e+00    0.2294523    0.1525539 -14.14  0.001302641    1.942    0.485
        53 -10.3071     78.9200    210.4827   1.1592325031e+02   2.1823419606e+01    0.3398186    0.2441588  49.03  0.001540642    1.208    0.172
        54  -9.4593    202.7114    209.2399   9.2278585362e+01   2.4531066388e+00    0.2469963    0.2072719   0.69  0.001262224    1.164    0.141
        55 -11.2607     98.9629    226.6171   1.1370896148e+02   1.6190036517e+01    0.4798914    0.3343976  41.25  0.002537893    1.302    0.232
        56  -8.3118    162.3700    208.2981   9.9529290982e+01   9.2554736710e+00    0.1271071   0.08962516  15.30 0.0007030144    1.736    0.424
        57  -8.6357    134.6928    208.5499   1.0487241737e+02   1.3776314924e+01    0.2688435    0.1041288  42.00  0.001205854    2.176    0.540
        58  -8.6703    213.0009    207.5273   9.0191987719e+01   1.0202096584e+00    0.1850803    0.1022771  37.84 0.0004314882    1.561    0.359
        59  -9.9610    248.6619    205.0654   8.3826492475e+01  -4.1587636076e+00    0.1839302    0.1388425  29.51  0.000415983    1.279    0.218
        60 -10.0889    123.9859    205.9824   1.0662554138e+02   1.5937526121e+01    0.1756921     0.148253  52.41            0    1.004    0.004
        61 -10.0270    250.2831    198.9019   8.2475745726e+01  -3.7049548683e+00    0.3318622    0.1463923 -23.93  0.001692318    2.278    0.561
        62  -8.7506     88.7898    199.4023   1.1285225579e+02   2.2521577163e+01    0.2135279    0.1369837 -89.24 0.0009871991    1.714    0.417
        63  -8.8502    164.8086    198.7706   9.7601232371e+01   1.0338310627e+01    0.2094138    0.1327013   5.56 0.0008572051    2.766    0.638
        64 -10.6922    173.1436    194.8705   9.5363408758e+01   9.5146298973e+00    0.4513979    0.2826969 -37.06  0.001755953    1.813    0.448
        65  -9.4016    126.6006    196.9772   1.0489829994e+02   1.7111583171e+01    0.2489162    0.1901641  30.62  0.001123324    1.394    0.283
        66  -8.3135    180.5781    193.5363   9.3718811129e+01   8.4259089201e+00    0.1273373    0.1125583  30.92 0.0001359994    1.043    0.041
        67  -8.8770    124.7336    192.1666   1.0460206920e+02   1.8298713217e+01    0.1940563    0.1566842  64.99 0.0005884927    1.203    0.169
        68  -8.3962    138.4421    189.2527   1.0135683658e+02   1.6514003420e+01    0.2729434    0.1817194  87.31   0.00130927    2.399    0.583
        69  -8.8575    140.5013    184.7606   1.0022807377e+02   1.6973809859e+01    0.3499002    0.2180459  21.08  0.001621569    2.311    0.567
        70  -9.1406    203.6396    188.3500   8.8510480792e+01   5.1805492866e+00    0.3397358    0.1957435  52.25  0.001680644    2.076    0.518
        71  -8.6506    135.4953    193.1805   1.0255117701e+02   1.6310021576e+01     0.256985    0.1300825  56.85  0.001142355    2.307    0.567
        72  -8.5287    156.2034    188.2066   9.7587317549e+01   1.3593295805e+01    0.1748097    0.1509448  77.67  0.001054014    1.368    0.269
        73  -8.1596    121.0000    187.8744   1.0476051993e+02   1.9722569573e+01    0.1876719   0.07399358 -55.37 0.0005081538    2.790    0.642
        74  -9.6943     95.5359    187.5656   1.1007031527e+02   2.3834713266e+01    0.4198377    0.1867303  58.24  0.001793833    2.605    0.616
        75  -8.9984    231.5091    186.6227   8.3298728004e+01   7.1121236136e-01    0.3373865    0.2220966  63.93  0.001607011    3.130    0.681
        76  -8.5638    198.4021    185.7881   8.9004353838e+01   6.4710648843e+00    0.2176707    0.1421304  -2.76  0.001094625    1.990    0.498
        77  -8.4479    197.5143    181.9709   8.8464570687e+01   7.2021322415e+00    0.2296925    0.1263797 -40.37 0.0008686301    1.982    0.495
        78  -8.1167    144.3141    186.7152   9.9755675914e+01   1.5951137238e+01    0.1304213   0.09704095  68.52 0.0002847054    1.580    0.367
        79  -8.2972    109.4502    185.9843   1.0692205350e+02   2.1973963632e+01     0.175394    0.1058257  88.27 0.0005300603    2.414    0.586
        80  -9.9693    211.1477    182.9453   8.6153302125e+01   4.6523741137e+00    0.4356495    0.2848218   5.98  0.002266449    1.806    0.446
        81 -10.0688     13.9302    182.6772   1.2650477174e+02   3.4826027552e+01    0.3148687    0.2406765  -6.54  0.002086257    2.506    0.601
        82  -9.6092    175.5201    179.7852   9.2279231975e+01   1.1537450949e+01    0.6165848    0.3628453 -14.96  0.002587693    2.941    0.660
        83  -8.5967    183.6831    180.9680   9.0903052581e+01   9.8539444983e+00    0.1821013    0.1660102  21.18 0.0005229518    1.033    0.032
        84  -8.4705    157.0212    181.2896   9.6255798519e+01   1.4653009252e+01    0.1879888    0.1546083  37.56 0.0003339045    1.111    0.100
        85 -10.0925    204.8654    176.3103   8.6029522171e+01   6.7382282271e+00    0.3474149    0.2605639 -28.60  0.001275822    1.363    0.267
        86  -8.3412    137.3502    178.6510   9.9896090836e+01   1.8666302896e+01    0.1418267    0.1002214  74.04 0.0007038182    1.823    0.452
        87  -8.3789    212.4307    176.7196   8.4733636380e+01   5.3254254555e+00     0.183247    0.1171021 -18.75 0.0009515007    1.685    0.406
        88  -8.9829     76.9976    176.2295   1.1266540726e+02   2.8882240732e+01    0.3319475     0.139955  59.67  0.001347789    2.893    0.654
        89  -9.4786    149.1364    175.1136   9.6811684160e+01   1.7205599400e+01    0.2856548    0.2361481 -43.13  0.001653757    1.322    0.244
        90  -9.1326    183.1001    174.0477   8.9722979204e+01   1.1089709788e+01     0.381314    0.2126433 -17.05   0.00152928    3.024    0.669
        91  -9.1870    105.3035    174.7550   1.0622265221e+02   2.4899093813e+01    0.3269382    0.1658736  72.18  0.001146434    3.928    0.745
        92  -8.4279     93.1925    174.4008   1.0885192204e+02   2.6884135499e+01    0.1882169    0.1060527  51.53 0.0007894833    1.654    0.395
        93  -8.8900     20.3179    173.6566   1.2463870318e+02   3.6109204710e+01    0.2563514    0.1170781  79.62  0.001346193    2.042    0.510
        94  -9.1985     15.4026    171.0997   1.2549241867e+02   3.7107930408e+01    0.2930223    0.1864929  20.56  0.001709119    2.303    0.566
        95  -8.4638    193.6339    173.0264   8.7494412772e+01   9.2989044255e+00     0.183637    0.1600331   3.73 0.0004707472    1.100    0.091
        96  -9.7706    207.8636    170.2401   8.4288411008e+01   7.1119630015e+00    0.4007693    0.2054768  33.39  0.001296795    1.967    0.492
        97  -9.9674    214.0569    168.1092   8.2737466361e+01   6.3030974024e+00    0.3468125    0.2235605   8.98  0.001323815    1.887    0.470
        98  -8.7844    176.6502    171.2298   9.0458716410e+01   1.2772031663e+01    0.1833242    0.1256629 -29.62 0.0006722649    1.616    0.381
        99  -8.4370    121.8382    169.9992   1.0182716995e+02   2.3091421474e+01    0.2237621    0.1503355  86.60 0.0008450406    2.059    0.514
       100  -8.4598     98.6453    166.2429   1.0645247259e+02   2.7758225072e+01    0.1382244   0.09160037  65.21 0.0004339099    1.587    0.370
       101  -8.9170    157.1908    164.1415   9.3098876269e+01   1.7744848052e+01    0.3687369    0.2261189  18.52  0.001533035    2.547    0.607
       102  -9.0409    149.3390    164.5295   9.4847990040e+01   1.9164571463e+01    0.3062205    0.2096633  69.88  0.001438197    1.980    0.495
       103  -8.5596    139.7195    165.1800   9.7054803288e+01   2.0839012445e+01    0.2359214     0.149099  78.18 0.0009575288    2.767    0.639
       104  -8.8209    185.8915    163.6139   8.7128096692e+01   1.2308575617e+01    0.2203661    0.1583536  25.56 0.0007388859    1.434    0.303
       105  -8.8025     79.2656    163.8406   1.1056771621e+02   3.1234044384e+01     0.233122    0.1191154  71.19 0.0008964982    2.778    0.640
       106  -8.4363      9.6906    161.7746   1.2609589376e+02   3.9607848889e+01    0.2394674     0.095309  77.28  0.001147086    2.459    0.593
       107  -8.6094     93.0306    160.8115   1.0692701890e+02   2.9824188363e+01    0.2362067    0.1341424  64.74  0.001065888    2.095    0.523
       108  -8.5575    205.4445    159.7607   8.2595507696e+01   9.1913612221e+00    0.1879122    0.1247525 -19.14 0.0009295375    1.629    0.386
       109  -8.2093    144.5168    159.5872   9.4959263461e+01   2.1041809115e+01    0.1398704    0.1307606  48.33 0.0001044944    1.015    0.015
       110  -8.6317    105.7606    158.1818   1.0352805542e+02   2.8328362468e+01    0.2418565    0.1373478  73.62 0.0009534205    2.798    0.643
       111  -7.9955    226.6765    156.2466   7.8056524851e+01   5.7548321465e+00    0.1161059    0.1084875  89.38 0.0002089828    1.532    0.347
       112  -9.6125    213.1232    155.2985   8.0245683472e+01   8.4314669510e+00     0.302007    0.2769454 -45.32  0.001150376    1.313    0.239
       113  -8.8450     50.0679    155.7031   1.1639314697e+02   3.6901894000e+01    0.3020215    0.1344545  64.35  0.001288316    2.723    0.633
       114  -8.2172    119.3484    155.6788   9.9923057229e+01   2.6507651827e+01    0.1486608    0.1049183  75.47 0.0007049015    1.740    0.425
       115  -8.4223     81.8001    154.7877   1.0868168089e+02   3.2878876073e+01    0.2272955    0.1328528  72.69  0.000567103    2.127    0.530
       116  -8.4967    134.1555    153.7691   9.6158171270e+01   2.4183068896e+01    0.2427406    0.1516499  78.44 0.0009433607    2.826    0.646
       117  -8.1361     68.6122    154.3096   1.1178782397e+02   3.4862438394e+01    0.1447104    0.0864603  68.59 0.0007015909    1.816    0.449
       118  -8.9241    190.1019    148.6897   8.3157390621e+01   1.4041413894e+01    0.4969446    0.1289472 -43.76   0.00147097    4.241    0.764
       119  -8.7332    230.0984    148.6671   7.5841545047e+01   6.2408380668e+00     0.228491    0.1709013 -35.44 0.0006896519    1.358    0.264
       120  -8.3375     28.3286    149.6560   1.2091570672e+02   4.0617322012e+01    0.1332144   0.07317847  69.62 0.0007050784    1.748    0.428
       121  -8.4987    199.6588    147.5193   8.1052513208e+01   1.2319834675e+01    0.2526805    0.1285165 -36.55  0.001087119    1.953    0.488
       122  -9.5807     57.0129    146.4675   1.1357257003e+02   3.8177350653e+01    0.5853758    0.2251231  61.14  0.001997716    4.152    0.759
       123  -8.9075     39.7179    147.8612   1.1799622669e+02   3.9863087329e+01    0.3475868    0.1251228  58.05  0.001345094    3.432    0.709
       124  -9.2853    149.4744    145.4190   9.0998502164e+01   2.2904115145e+01    0.4022615    0.2622768  84.78  0.001542497    2.943    0.660
       125  -9.3027    107.0954    144.9963   1.0088487217e+02   3.1003587248e+01    0.4578248    0.2441511  70.20  0.001587661    3.516    0.716
       126  -8.7225     13.4703    146.5442   1.2415002258e+02   4.2659424009e+01    0.1929473   0.08141272  45.23  0.001011783    2.236    0.553
       127  -8.5889     88.0278    143.9790   1.0543045930e+02   3.4389485825e+01    0.2275417    0.1538335  76.12 0.0007070601    1.707    0.414
       128  -8.4819    218.8166    143.6510   7.6681523441e+01   9.1549201578e+00    0.1847866    0.1303286  54.43 0.0009347483    1.679    0.404
       129  -8.2349    125.3178    143.6138   9.6211318322e+01   2.7998630850e+01    0.1544759    0.1112878  85.11 0.0007015696    1.837    0.456
       130 -10.2875    244.4375    138.9988   7.1367854510e+01   4.9992951981e+00    0.3177623    0.1584498  28.75  0.001357176    2.528    0.604
       131  -9.2301     23.6782    138.5356   1.2096770909e+02   4.3606353138e+01    0.3569906    0.1465577  66.12  0.001534525    2.928    0.658
       132  -8.9645     39.0145    136.1168   1.1680930233e+02   4.2672548041e+01    0.2145314    0.1253797  71.95 0.0009782403    1.781    0.439
       133 -10.6415    248.9208    132.3098   6.9175484732e+01   5.1307174331e+00    0.5215132    0.1292661 -35.16  0.001761988    3.448    0.710
       134  -8.5049    112.9546    133.7063   9.7205150736e+01   3.2489725489e+01     0.255695    0.1516942  89.66  0.000879488    3.400    0.706
       135  -9.6316     83.6176    132.2079   1.0448650262e+02   3.7813307765e+01    0.3710128    0.2386363  71.60  0.001119988    1.905    0.475
       136  -8.4706    226.4432    132.2185   7.2760328435e+01   9.4379522721e+00    0.1999878    0.1223961 -40.45 0.0009022244    1.644    0.392
       137  -8.7015    132.7357    132.1611   9.1995963656e+01   2.9031584321e+01    0.2545943    0.1646444  87.74 0.0009550393    2.801    0.643
       138  -9.4802     99.7170    128.5422   9.9533865607e+01   3.6032254332e+01    0.4596257    0.2719723  86.30  0.001514908    3.085    0.676
       139  -8.7794     73.4709    129.9440   1.0678057602e+02   3.9862253029e+01    0.1946426    0.1114521 -89.57 0.0008068735    2.381    0.580
       140  -8.5153     23.6584    130.6641   1.2015958443e+02   4.5443444759e+01    0.1242865   0.08076333 -49.29 0.0007050589    1.761    0.432
       141  -9.0387     13.0839    129.8340   1.2280591089e+02   4.6516741044e+01    0.2879142    0.1264945  66.37  0.001366357    2.479    0.597
       142  -9.8995     60.4083    125.2805   1.0953435914e+02   4.2756903352e+01    0.5207112    0.2535523  70.86  0.001868777    3.630    0.725
       143  -9.0635    118.2860    125.7602   9.4133688128e+01   3.3275165377e+01    0.4007717    0.2272934  68.77  0.001425713    3.041    0.671
       144 -10.1761     44.7035    123.7484   1.1362981493e+02   4.5002176474e+01    0.6269952    0.2932817  71.94  0.002339909    3.405    0.706
       145  -9.8479     29.1756    123.2121   1.1782631488e+02   4.6705692396e+01    0.6181251    0.2497292  72.93  0.002129481    4.411    0.773
       146  -9.1288    142.2889    120.1813   8.6882085376e+01   2.9623796311e+01    0.3529315    0.2333932 -76.25  0.001226225    2.406    0.584
       147  -9.1013     71.0329    120.0346   1.0564307677e+02   4.2578704155e+01    0.2271648    0.1555307  79.68 0.0005402024    1.712    0.416
       148 -10.2076    249.0278    118.4380   6.5976979148e+01   7.1003898452e+00    0.2747328    0.1762435 -11.77  0.001365805    1.640    0.390
       149  -8.1375    130.6669    118.3660   8.9272113599e+01   3.2448558254e+01     0.161326    0.1198512 -87.98 0.0007034071    1.823    0.451
       150  -9.1391      2.9090    116.9811   1.2429642566e+02   5.0229054470e+01    0.5160961    0.1661613  79.48  0.001695095    5.086    0.803
       151  -8.7614      2.3061    110.0150   1.2380936557e+02   5.1891611374e+01    0.3064318   0.06053143 -52.79  0.001035982    4.942    0.798
       152  -9.0242    109.8007    114.7096   9.3780760230e+01   3.7397893392e+01      0.29189    0.1915858 -77.97  0.001215713    2.119    0.528
       153  -9.7508     79.4604    113.3090   1.0189687790e+02   4.2944277325e+01    0.4725619    0.2818071 -85.33   0.00182719    2.432    0.589
       154  -9.6260     92.9803    112.9900   9.7990426421e+01   4.0825364583e+01    0.3803523    0.2528924  86.78  0.001355265    2.158    0.537
       155  -8.4347    122.4256    112.9225   9.0016425294e+01   3.5330834986e+01    0.2098965    0.1304305 -71.53 0.0006929634    2.348    0.574
       156 -10.7392     14.3022    109.7771   1.2036793752e+02   5.1140867734e+01    0.4676066    0.2496797 -84.32  0.001948914    1.607    0.378
       157  -9.9118     66.9887    111.0254   1.0504568045e+02   4.5314727350e+01    0.2943768    0.2002556  77.19  0.001440187    1.790    0.441
       158  -9.6302     59.4841    109.9845   1.0705784413e+02   4.6567102657e+01    0.2147209    0.1205731 -63.58 0.0006511894    1.559    0.358
       159 -11.3494    249.4402    104.3631   6.2585570147e+01   9.0610618651e+00    0.5972705    0.2441939 -32.91  0.002477024    2.079    0.519
       160  -9.6760     61.0928    106.3363   1.0585527614e+02   4.7240982727e+01    0.1882053    0.1754099  79.11  0.001078284    1.129    0.114
       161 -10.5752     45.9506    102.7633   1.0979426720e+02   4.9937388742e+01    0.7336378    0.3509852  68.09  0.002607681    3.999    0.750
       162 -10.6544     23.1338    102.9899   1.1685893084e+02   5.2076712882e+01    0.6466016    0.2979529  70.05  0.002684549    3.181    0.686
       163  -8.1253    150.2825    103.9613   8.0764249244e+01   3.1245926672e+01    0.2524831    0.1123428 -57.76 0.0006996441    3.994    0.750
       164  -9.0197      6.8551    103.1533   1.2177671611e+02   5.3220339105e+01    0.1922352    0.1335063  82.73 0.0009712604    1.301    0.231
       165  -8.3460    128.9707    102.4760   8.5592301890e+01   3.6264471212e+01    0.2190502     0.136383  71.10 0.0008099231    2.537    0.606
       166  -9.8560    109.3621     99.3546   8.9996427820e+01   4.0974498821e+01    0.6135929    0.3536925  71.60  0.002046489    3.528    0.717
       167 -10.2864     64.1593     96.5361   1.0279625262e+02   4.9191793479e+01    0.4900489    0.2911576  80.15  0.001967676    2.866    0.651
       168  -8.7609     94.8606     97.1423   9.3556954620e+01   4.4196803919e+01    0.2298442    0.1953282 -79.31 0.0006106141    1.260    0.206
       169  -9.4297     21.6558     92.2469   1.1568662345e+02   5.4772156954e+01    0.3700833   0.09662701 -49.53  0.001340528    3.616    0.723
       170  -9.0096    124.7712     91.4452   8.3573832067e+01   3.9538227681e+01    0.2928622    0.1996996 -76.61  0.001168321    2.240    0.554
       171  -8.5944     82.0193    100.0642   9.8123064734e+01   4.5694357456e+01    0.2332916    0.1700577  88.50 0.0007814434    1.731    0.422
       172 -10.1956     45.9034     91.7272   1.0762753651e+02   5.2608660226e+01    0.4393769    0.1967201  20.64  0.001795782    3.322    0.699
       173 -10.0941     34.9888     90.2209   1.1093662261e+02   5.4099488862e+01    0.4352641    0.2210755 -87.56  0.001508593    2.707    0.631
       174  -9.2371    111.0817    106.4732   9.1394449002e+01   3.9029481527e+01    0.3259996    0.1506454  36.59  0.001193545    2.541    0.606
       175  -9.4964     86.4845     86.8415   9.3284168217e+01   4.8033779475e+01    0.3553438    0.2527202  83.21  0.001036518    2.072    0.517
       176 -10.2606     48.8705     84.9863   1.0514100870e+02   5.3885383773e+01    0.4641325    0.2650031  71.76   0.00190294    3.049    0.672
       177  -9.3281    104.5531     83.4727   8.6830635251e+01   4.5450108069e+01    0.3211762    0.2247283 -85.71 0.0009642732    2.273    0.560
       178  -9.9771      8.7546     82.9932   1.1853450824e+02   5.7869080562e+01    0.3607179    0.2611297 -71.02 0.0009202211    1.058    0.055
       179  -9.7900     37.3448     80.7829   1.0817900808e+02   5.6125637825e+01    0.3364728    0.2422581  -6.37  0.001873321    1.906    0.475
       180  -9.4781     24.5907     81.1408   1.1273950647e+02   5.7189476492e+01    0.3283111    0.1943582  79.84  0.001384306    2.185    0.542
       181  -8.6590     74.8328     81.0199   9.5368584178e+01   5.1280157021e+01    0.2396344    0.1636635 -82.75  0.001070703    2.101    0.524
       182  -8.8639     86.8392     80.4434   9.1318733137e+01   4.9421900322e+01    0.3227734    0.1452585  29.99  0.001125843    3.232    0.691
       183  -8.8927     61.6287     77.1628   9.8748813215e+01   5.4109175894e+01    0.3424777    0.1621184 -66.26  0.001313257    2.626    0.619
       184 -10.0009     50.2565     76.9158   1.0267734055e+02   5.5626711631e+01    0.3474168    0.2286473   8.46   0.00173217    2.173    0.540
       185  -8.3567    127.9680     75.4889   7.7814907302e+01   4.2124405553e+01    0.2068751    0.1408153  80.81 0.0005525266    2.325    0.570
       186  -8.8110     10.0494     74.6889   1.1674392789e+02   5.9743559637e+01    0.1600352    0.1364769 -62.49 0.0003398095    1.123    0.110
       187  -9.4617     82.4742     72.9423   9.0425341025e+01   5.1842335870e+01    0.3687263    0.2562686 -84.91  0.001595392    2.340    0.573
       188  -9.7498     31.0128     68.7287   1.0770315079e+02   5.9558501349e+01    0.3901115    0.1502871 -38.95  0.001520198    3.164    0.684
       189  -8.6380     95.4262     71.7687   8.5898803433e+01   4.9746221555e+01    0.2883008    0.1364117 -49.49  0.001101024    2.061    0.515
       190  -9.7887     51.4943     69.8879   1.0032738189e+02   5.7102072612e+01    0.3873273    0.2055136 -72.44  0.001511479    2.624    0.619
       191  -8.2032     16.4891     70.5066   1.1359519103e+02   6.0303670160e+01     0.125584    0.1005378 -72.32 0.0008087019    1.098    0.089
       192  -8.2886      1.3106     69.3265   1.1904911097e+02   6.1471649023e+01    0.1268852   0.06638564 -49.42 0.0007040155    1.660    0.398
       193  -8.8821     43.7764     67.3759   1.0250215054e+02   5.8581812959e+01    0.1706481    0.1274331   4.97  0.000952361    1.704    0.413
       194  -9.2152     83.7949     64.3833   8.7170971280e+01   5.3451235571e+01    0.3775588    0.2175365  -2.45  0.001021247    6.037    0.834
       195  -8.7615     18.2029     62.0307   1.1111302375e+02   6.2145724902e+01    0.2172524   0.09527278 -45.94 0.0005471049    1.981    0.495
       196  -9.5300     73.3748     60.2063   8.9310548966e+01   5.6105241933e+01    0.3350132    0.2373365 -61.43  0.001128218    1.600    0.375
       197  -8.2224     24.6813     59.3380   1.0784350785e+02   6.2262254934e+01    0.1233573   0.09168287  82.30 0.0004406457    1.707    0.414
       198  -8.4846     39.0340     58.2270   1.0171863924e+02   6.1163659756e+01    0.2022696    0.1200756 -38.48  0.001040183    1.606    0.377
       199 -10.3116      6.9666     57.7359   1.1471206357e+02   6.3840830985e+01    0.2479731    0.1804975  74.15  0.001562489    1.667    0.400
       200  -8.7212     44.3709     56.1837   9.8941074486e+01   6.1023092202e+01    0.1939813    0.1134523 -63.11 0.0008306414    1.763    0.433
       201  -9.7780    100.4894     54.2672   7.8170394241e+01   5.2244942174e+01    0.2677558    0.2444761  -5.71 0.0002268537    1.091    0.083
       202  -8.8777     62.8387     55.0876   9.1362061790e+01   5.8819995790e+01    0.2095117    0.1797324 -63.16 0.0007521102    1.290    0.225
       203  -8.9115     54.4808     54.5089   9.4372069307e+01   6.0121751566e+01    0.2539521    0.1223006 -60.66   0.00102741    2.500    0.600
       204  -9.2102     26.2730     54.4581   1.0586941699e+02   6.3227388813e+01     0.203013    0.1274189  10.89  0.001123619    2.049    0.512
       205  -8.9488     92.7958     51.5019   7.9526543562e+01   5.4324734011e+01    0.3551298     0.184897 -54.12   0.00136075    2.519    0.603
       206  -8.8602     30.9671     51.9785   1.0316035018e+02   6.3354137743e+01    0.1936454    0.1474552  89.22 0.0006042126    1.750    0.429
       207  -8.9113     75.2304     50.0058   8.4911356349e+01   5.7866515022e+01    0.2555019    0.1858039  18.24  0.001298109    1.630    0.387
       208  -8.9311     46.2455     49.0210   9.5766396451e+01   6.2338141645e+01    0.2301161    0.1656147   1.46  0.001226981    1.713    0.416
       209  -8.6502     82.0617     47.3291   8.1463893952e+01   5.7161957195e+01    0.1897507    0.1831457  10.51 0.0004609776    1.123    0.109
       210  -9.5358     22.7861     46.6861   1.0510179739e+02   6.5232062496e+01    0.2924822    0.1983488  -8.22  0.001314922    1.810    0.447
       211  -8.3677     65.0098     46.3383   8.7269792585e+01   6.0264806929e+01    0.2196157    0.1110424  16.23 0.0005308354    4.515    0.779
       212  -9.2377     16.6662     45.3721   1.0745769688e+02   6.5989258625e+01    0.1765404    0.1372454  83.71 0.0008404266    1.677    0.404
       213  -9.6450      5.0214     42.2326   1.1193333109e+02   6.7404009701e+01    0.3351692    0.1750168 -83.10  0.001660651    2.464    0.594
       214  -8.2439     69.3059     41.6868   8.3766250645e+01   6.0458959139e+01    0.1305276    0.1094744 -71.34 0.0007024221    1.620    0.383
       215  -8.1718     36.6975     41.3176   9.7074939210e+01   6.5044444112e+01    0.1183678   0.09883165 -83.14 0.0004000596    1.622    0.384
       216  -9.0871     84.0083     39.7881   7.7713371114e+01   5.8157308694e+01    0.2136213    0.1777205   1.95 0.0004341469    1.234    0.189
       217  -8.8999    105.9186     36.8527   6.9673286978e+01   5.4067899166e+01    0.2237172    0.1894451  15.66 0.0003751644    1.206    0.171
       218  -8.5565    119.7467     33.9235   6.4808767751e+01   5.1293116293e+01    0.2515399    0.1585231 -54.84  0.001070068    2.043    0.511
       219  -8.0985    113.7254     41.6409   6.9457768555e+01   5.1536979310e+01    0.1541999    0.1127815   8.01 0.0007004807    1.655    0.396
       220  -9.2818    222.4619     32.8227   4.7440424688e+01   2.5116710409e+01    0.2741382    0.1907604 -60.16 0.0006376322    1.441    0.306
       221  -8.2802     60.6542     33.2928   8.3531316082e+01   6.3392540366e+01    0.1239734    0.1078636 -76.97 0.0005535443    1.664    0.399
       222  -8.2278     50.3603     33.6709   8.7984542958e+01   6.4852173043e+01    0.1241722    0.1049241 -80.79 0.0007041564    1.794    0.443
       223  -8.2799     13.3559     32.1377   1.0483904773e+02   6.9037345758e+01    0.1704081   0.09796081 -65.51 0.0007567099    1.729    0.422
       224  -8.7157    101.5019     29.9892   6.8021820964e+01   5.6086335851e+01    0.2023273    0.1114668 -50.54 0.0008085744    2.406    0.584
       225  -8.6002     91.9827     26.9932   6.9519213607e+01   5.8585099485e+01    0.2213802    0.1711707 -60.73  0.001125883    1.749    0.428
       226  -8.9877      2.4302     27.7076   1.0898829902e+02   7.0628973106e+01    0.1816186    0.1036011   9.78   0.00109524    2.160    0.537
       227  -8.9566     44.0821     25.6518   8.7147005729e+01   6.7161469070e+01    0.1698363      0.14357  -4.64 0.0003903319    1.146    0.127
       228  -9.1995    110.1811     24.6182   6.3344859493e+01   5.4844428011e+01    0.1990909    0.1729584  39.77 0.0005692009    1.124    0.110
       229  -8.9312     77.0240     25.2905   7.3649982099e+01   6.1848910371e+01    0.1896237    0.1701537   3.62 0.0005437997    1.052    0.049
       230  -8.7901     66.7090     23.3537   7.6502428152e+01   6.4035301304e+01     0.173053    0.1177608  39.07 0.0006050264    1.546    0.353
       231  -8.6065     63.4181     21.2347   7.6735436457e+01   6.4931905369e+01    0.1950568    0.1653121 -67.44 0.0007678901    1.767    0.434
       232  -9.0057     58.6400     22.1327   7.9103929557e+01   6.5592118215e+01    0.1895425    0.1772586  12.53 0.0003140057    1.217    0.178
       233  -9.4104     12.7279     21.3299   1.0106407680e+02   7.1249552516e+01    0.2219208    0.1579753 -31.71 0.0006861496    1.182    0.154
       234  -9.8539    188.7837     20.7187   4.7758956299e+01   3.5088961922e+01    0.3050084    0.2380058 -67.06  0.001129051    1.307    0.235
       235  -8.5021     84.5593     21.4765   6.9299152820e+01   6.0908611011e+01    0.1373159    0.1246333  -8.13 0.0001056339    1.059    0.056
       236  -8.0827     48.2989     21.6794   8.3315585757e+01   6.7256086781e+01    0.1172549    0.1004169 -59.83  0.000296428    1.621    0.383
       237  -8.2199     41.2295     20.9845   8.6222951580e+01   6.8350521265e+01    0.1673327   0.09041771 -39.81 0.0005112505    1.587    0.370
       238  -8.1828     73.3705     19.6740   7.2222553500e+01   6.3363938533e+01    0.1311342    0.1068022 -64.90 0.0007032713    1.815    0.449
       239  -8.3619      1.5042     19.4951   1.0663051762e+02   7.2342937889e+01    0.1191337   0.08509904 -43.78 0.0008102969    1.042    0.041
       240  -9.0968     28.8429     17.6222   9.0701211238e+01   7.0435407285e+01     0.280751    0.1747031   9.00 0.0009681973    1.901    0.474
       241  -9.2306    107.6619    248.9952   1.1424884958e+02   1.1467440483e+01    0.2001172    0.1308623  40.74 0.0006863447    1.293    0.226
       242  -9.0471     40.8877     13.9178   8.2733984993e+01   6.9554285881e+01    0.1902021    0.1395504 -10.42 -0.0009232552    1.254    0.203
       243  -8.7254     80.2014     12.3830   6.6233466629e+01   6.2977096153e+01    0.1759249    0.1303361  64.31 0.0005435856    1.703    0.413
