#   1 NUMBER                 Running object number                                     
#   2 MAG_AUTO               Kron-like elliptical aperture magnitude                    [mag]
#   3 X_IMAGE                Object position along x                                    [pixel]
#   4 Y_IMAGE                Object position along y                                    [pixel]
#   5 X_WORLD                Barycenter position along world x axis                     [deg]
#   6 Y_WORLD                Barycenter position along world y axis                     [deg]
#   7 A_WORLD                Profile RMS along major axis (world units)                 [deg]
#   8 B_WORLD                Profile RMS along minor axis (world units)                 [deg]
#   9 THETA_WORLD            Position angle (CCW/world-x)                               [deg]
#  10 FWHM_WORLD             FWHM assuming a gaussian core                              [deg]
#  11 ELONGATION             A_IMAGE/B_IMAGE                                           
#  12 ELLIPTICITY            1 - B_IMAGE/A_IMAGE                                       
         1 -15.3252    244.0995     16.2685   6.7266185949e+00   2.2487339856e+01     2.967902    0.8980364 -32.79   0.01238618    2.453    0.592
         2 -12.2571      1.7860     25.3342   7.6395718018e+01   7.2513176217e+01    0.6630995    0.2141583 -67.71  0.002697294    3.027    0.670
         3 -13.0226     25.2013      3.9488   4.9850335789e+01   7.4497037607e+01     0.573348    0.3487761   9.91  0.003135809    1.902    0.474
         4 -12.5563     10.1771      2.1490   5.9162136217e+01   7.6492224025e+01    0.9298424    0.2376624  26.00  0.003559795    4.631    0.784
         5 -12.2744     13.6615     12.4626   6.2803557974e+01   7.4308818434e+01    0.3602116    0.1928818 -43.45  0.001325784    1.494    0.331
         6 -12.5178     15.9239      6.7622   5.7916134210e+01   7.5123013791e+01    0.4845531    0.2582755 -26.84  0.002388749    1.815    0.449
         7 -13.6336     12.0546     23.2869   6.9087274989e+01   7.2296148916e+01    0.7747592    0.2787595 -41.64  0.003480774    2.310    0.567
         8 -12.0386     26.2279     16.2718   5.6777322838e+01   7.2297625405e+01    0.3216444     0.131484 -34.97  0.001409492    2.345    0.574
         9 -12.5814     19.8325     13.9903   5.9526620961e+01   7.3422341829e+01    0.3919517    0.1874457 -38.15   0.00199332    1.762    0.432
        10 -13.3639      6.6029     11.0005   6.7008082823e+01   7.5170445317e+01     0.911785    0.4408079 -37.34  0.004931508    1.713    0.416
        11 -11.3079     41.3045      2.6256   3.9676126415e+01   7.2276015045e+01    0.3389529    0.1780025  15.61   0.00147986    2.735    0.634
        12 -11.6885     57.4586    242.1684   8.7902425086e+01   1.8402224596e+01     0.411664    0.1590046  53.28  0.002151133    2.069    0.517
        13 -12.0063    248.9697    225.2834   5.1548609022e+01  -5.1870795727e+00    0.3444204    0.1864165 -14.16  0.001717494    1.738    0.425
        14 -12.7162    244.4387    232.6914   5.3408346111e+01  -5.3732639711e+00    0.5333413    0.1995956 -19.83  0.002583553    3.352    0.702
        15 -12.8464    234.2476    244.4609   5.6759818571e+01  -5.2866170291e+00    0.5993578    0.2829461 -19.35  0.003628296    2.302    0.566
        16 -11.8539    240.0236    239.4299   5.5115082501e+01  -5.4989272117e+00    0.2585897    0.1495219 -12.90  0.001236779    1.647    0.393
        17 -12.3347    242.6658    246.5068   5.5738588248e+01  -6.4933817509e+00    0.5401756    0.2688786  -5.56  0.003244288    2.286    0.563
        18 -11.7240    247.2562    239.2638   5.3966089994e+01  -6.3540343704e+00    0.3185982    0.1948636  -3.24  0.001410403    1.411    0.291
        19 -11.5966    249.9851    232.9344   5.2586401756e+01  -6.0710165476e+00    0.3474799    0.1944365 -16.26  0.001665116    1.642    0.391
        20 -11.3577    248.9908    250.0050   5.5271781796e+01  -7.5498599732e+00    0.4254816    0.1404141  30.61  0.002328087    2.448    0.591
        21 -11.1966    248.8683    245.1285   5.4585350023e+01  -7.0928820566e+00    0.2712922    0.1749366  -6.08  0.001917625    1.315    0.239
        22 -12.1489    225.7364    248.3758   5.8669507627e+01  -4.6264189774e+00    0.3109155    0.1980921  14.84  0.001748065    1.222    0.182
        23 -12.9628    212.4127    247.9947   6.0779231976e+01  -2.9129812809e+00    0.5194765    0.2501519  18.03  0.002917196    2.205    0.547
        24 -11.5859    168.7446    250.4183   6.8515807215e+01   2.5937237510e+00    0.2869385   0.08443014  35.47  0.001306931    2.689    0.628
        25 -13.0218    143.4440    247.3619   7.2656052050e+01   6.4482024101e+00    0.4604995    0.1860987  33.16   0.00238279    2.092    0.522
        26 -11.6327     65.4483    249.1392   8.6907963824e+01   1.6335794086e+01    0.3492168    0.1624783  47.37  0.001952281    1.562    0.360
        27 -11.3321     50.1450    250.1063   8.9657988519e+01   1.7941247059e+01    0.3841149    0.1123497  37.35  0.001971727    2.527    0.604
        28 -11.2194     44.7768    244.9766   9.0326644260e+01   1.9370795656e+01    0.3396251    0.1486765  59.93  0.001638303    1.909    0.476
        29 -11.8524     36.7929    248.6826   9.1900061357e+01   1.9625380899e+01    0.4112678    0.1603675  52.88  0.002492545    1.837    0.456
        30 -10.8912     27.3018    248.7109   9.3523997999e+01   2.0606326734e+01    0.2601585     0.108504  54.19  0.001291523    1.689    0.408
        31 -11.8892     20.3472    249.0523   9.4710321988e+01   2.1246480814e+01    0.3484455     0.152936  48.37  0.001969191    1.547    0.354
        32 -12.1222      2.2186    210.9148   9.6588837371e+01   2.9685588634e+01    0.6253965     0.179704  89.07  0.002909702    3.323    0.699
        33 -11.9359     12.0863    248.9364   9.6081916680e+01   2.2062989197e+01    0.3536133    0.1390245  48.24  0.001775923    1.674    0.403
        34 -12.4819     16.0379    240.2963   9.5128283148e+01   2.3123942685e+01    0.5497043    0.1823592  49.33  0.002517758    1.972    0.493
        35 -12.2483      6.6869    236.4103   9.6603717682e+01   2.4667000525e+01    0.5072933    0.2178113  55.15  0.003339088    1.601    0.375
        36 -12.0195      4.8194    228.2887   9.6677400653e+01   2.6257851560e+01    0.4243573     0.178499  62.35  0.001812192    1.753    0.430
        37 -11.7993      2.2686    220.9188   9.6902031641e+01   2.7814432040e+01    0.3376521    0.1621699  82.58  0.001564077    1.743    0.426
        38 -11.4085      3.6417    250.4061   9.7505820293e+01   2.2606798484e+01    0.2881497    0.1354921  31.19  0.001790498    2.200    0.545
        39 -12.5866      3.3275    243.0309   9.7361199761e+01   2.3849265371e+01    0.4683304    0.2014724  66.29  0.002274288    1.737    0.424
        40 -12.6854    225.9243    241.0536   5.7598423187e+01  -3.9116829615e+00    0.3008206    0.1800651  -9.07  0.002017164    1.682    0.405
        41  -9.9162     49.5062    243.4701   8.9406513518e+01   1.9094350711e+01    0.1095669   0.07655326  56.84 0.0001446359    1.045    0.043
        42 -11.8374     29.6455    240.7078   9.2782415506e+01   2.1697125409e+01     0.387574    0.1818015  62.28  0.001833265    1.691    0.409
        43 -12.3387    127.2436    247.8440   7.5636934339e+01   8.5984493601e+00    0.3001296    0.1231283  41.82  0.001625014    1.858    0.462
        44 -11.3583     73.0018    240.3656   8.4943737213e+01   1.6841585670e+01     0.291479     0.141518  54.59   0.00172722    1.733    0.423
        45 -10.8208     38.1494    240.4145   9.1267233530e+01   2.0852617047e+01    0.2729793    0.1188381  55.27  0.001459821    1.735    0.423
        46 -11.2665    202.9957    249.3436   6.2521248435e+01  -1.8427593572e+00    0.1943524    0.1240315   6.44  0.001321032    1.552    0.356
        47 -11.7275    107.2718    239.9738   7.8541342220e+01   1.2471978527e+01    0.3442715    0.1105097  44.86  0.001613975    2.447    0.591
        48 -10.4467     64.7921    239.9028   8.6421008796e+01   1.7914107609e+01    0.2292261   0.09197588  53.78  0.001238583    2.086    0.521
        49 -11.2968    220.3069    238.5446   5.8150325027e+01  -2.9315199231e+00    0.1823234    0.1088429  -3.88  0.001165293    1.752    0.429
        50 -11.0979     45.3532    237.4764   8.9819412260e+01   2.0566242684e+01     0.280425    0.1429683  61.20  0.001777435    1.620    0.383
        51 -11.9298     84.3732    244.3883   8.3158199707e+01   1.4774253693e+01    0.2816534    0.1365138  49.79  0.001684235    1.632    0.387
        52 -12.1763    231.4101    235.2016   5.5853062753e+01  -4.0026690679e+00     0.295565    0.1697804 -17.19  0.001948808    1.729    0.421
        53 -11.1492     81.9582    236.1976   8.2956754232e+01   1.6406713252e+01    0.2966044    0.1172358  52.30  0.001511055    2.243    0.554
        54 -11.1955     95.3921    235.5955   8.0370333844e+01   1.4756321460e+01    0.3085107    0.0845242  46.63  0.001311161    2.975    0.664
        55 -12.4588    236.8734    228.3880   5.3939450456e+01  -3.9877342399e+00     0.329038    0.1956298 -17.36  0.001952901    1.599    0.374
        56 -10.8782    207.0322    233.9701   5.9705266278e+01  -6.6854369725e-01    0.1892376    0.1122751   9.27  0.001142508    1.770    0.435
        57 -11.6744     14.3218    232.0883   9.5131523112e+01   2.4705842510e+01    0.3816223    0.1642543  61.26  0.001862566    1.750    0.428
        58 -11.3892     11.1741    225.7130   9.5460983319e+01   2.6137356720e+01    0.3492349    0.1389163  54.31  0.001610319    1.785    0.440
        59 -10.8222     59.4414    232.0309   8.6883272765e+01   1.9888472634e+01    0.2986029    0.1149964  51.67  0.001582024    2.075    0.518
        60 -11.1340     39.7899    230.9919   9.0481197971e+01   2.2303197101e+01    0.2969322    0.1523733  72.23  0.001834277    1.806    0.446
        61 -11.3969    217.7453    231.6207   5.7555468013e+01  -1.8423355897e+00    0.1984625     0.120045 -14.40  0.001270454    1.717    0.418
        62 -10.8577     48.7811    230.6644   8.8793143743e+01   2.1363073191e+01    0.2894106    0.1435989  70.64  0.001693286    1.986    0.497
        63 -12.0288     25.6197    228.7567   9.2969080733e+01   2.4186971999e+01    0.4825123    0.2213308  71.22  0.002900981    1.935    0.483
        64 -10.5196     32.3858    229.3691   9.1760074427e+01   2.3381030760e+01    0.2311657   0.09546193  59.94  0.001156232    1.986    0.497
        65 -10.1913    229.4689    227.0018   5.4919540854e+01  -2.8832405745e+00    0.1564351   0.09640277 -22.37  0.001034537    1.606    0.377
        66 -10.4351     32.8719    236.1134   9.1999867348e+01   2.2147362068e+01    0.2497072   0.08931395  59.61   0.00133385    2.345    0.574
        67 -11.4293     18.8849    221.9565   9.3907274266e+01   2.6087000274e+01    0.3210016    0.1579759  65.59  0.001535752    1.616    0.381
        68 -12.0724     12.0488    216.9686   9.4972677865e+01   2.7661541333e+01    0.4399979    0.2066275  57.66   0.00212167    1.581    0.367
        69 -10.7193     43.6936    221.3125   8.9188261716e+01   2.3618414805e+01    0.2643957    0.1278713  59.98  0.001539354    1.747    0.428
        70 -12.4400    248.6365    214.9453   4.9927002918e+01  -4.0704091311e+00    0.4724448    0.2032842 -21.21  0.002542634    2.351    0.575
        71 -10.3531    227.6089    219.1734   5.3992435670e+01  -1.7663061485e+00    0.1583046   0.09132259 -15.81 0.0009555732    1.744    0.427
        72 -11.2070     35.2257    217.2154   9.0580956927e+01   2.5303170778e+01    0.3122264    0.1553429  67.74  0.001838601    1.782    0.439
        73 -10.5494     24.3338    217.3327   9.2675917961e+01   2.6407213897e+01    0.2409445   0.09771542  61.43  0.001323061    2.046    0.511
        74 -10.9607     21.5810    211.0197   9.2900194040e+01   2.7878994854e+01    0.2941747    0.1614248  81.37  0.001865082    1.587    0.370
        75 -10.1956    233.3794    211.8198   5.1845195161e+01  -1.7092327156e+00    0.1634443   0.09091126 -16.35 0.0009531626    1.790    0.441
        76 -10.8890     28.8163    211.3579   9.1505715498e+01   2.7087345881e+01    0.2530794    0.1225265  67.28  0.001464075    1.795    0.443
        77 -12.4729     12.4524    205.3452   9.4418764669e+01   2.9848349213e+01    0.5296413    0.2263476  58.40  0.002941986    1.814    0.449
        78 -10.1913     36.2018    207.7850   8.9832585149e+01   2.7005020108e+01     0.209841   0.07378634  60.96 0.0009493317    2.779    0.640
        79 -10.3527    246.9612    205.5429   4.8606786639e+01  -2.8253081369e+00    0.1824224    0.1244833 -15.41  0.001095043    1.277    0.217
        80 -10.6246    250.4922    200.4651   4.7175169525e+01  -2.7251150314e+00    0.2240998   0.09693269 -28.83  0.001203191    2.138    0.532
        81 -10.2660    239.8391    206.7108   4.9938690591e+01  -2.0013734077e+00    0.1673405     0.118007  -7.77    0.0011345    1.199    0.166
        82 -10.1552     18.7154    201.3473   9.2992107686e+01   3.0051618884e+01    0.1922231   0.08756338  60.72 0.0009271739    1.781    0.438
        83 -10.3680    243.4960    199.9855   4.8192104628e+01  -1.7243890633e+00    0.1720013   0.09843343 -24.19   0.00103589    1.602    0.376
        84 -11.5971      5.1794    182.9160   9.4914349920e+01   3.5050953457e+01    0.2732845     0.136568  77.45  0.001260022    1.649    0.394
        85 -11.7002      1.8871    178.2316   9.5411330997e+01   3.6312758496e+01    0.4203166    0.1617202 -89.52   0.00211394    2.222    0.550
        86 -12.4543      4.4923    189.3219   9.5334875120e+01   3.3772380149e+01    0.8442878    0.2260106  68.90  0.003300878    3.984    0.749
        87 -11.6087     16.3541    196.2158   9.3215792573e+01   3.1307865132e+01    0.3125528    0.1259194  52.27  0.001705423    1.934    0.483
        88 -12.3436      3.5875    197.0335   9.5826958246e+01   3.2280449973e+01    0.4307813     0.191905  70.16  0.002046706    1.822    0.451
        89 -10.9396     11.4289    191.0989   9.3981294112e+01   3.2804987811e+01    0.2255114    0.1074818  79.62  0.001234315    1.809    0.447
        90 -11.4772     16.9813    189.7201   9.2751971401e+01   3.2585309282e+01    0.3035415    0.1356604  76.51  0.001604608    2.045    0.511
        91 -10.5384     24.2794    186.6148   9.1016301936e+01   3.2541217026e+01    0.2245171    0.1168592  82.56  0.001256051    1.733    0.423
        92 -12.2468     11.5961    184.2163   9.3609910700e+01   3.4227021356e+01    0.3400523    0.1683619  86.80  0.001943035    1.732    0.423
        93 -11.2224     17.0024    181.0251   9.2268807501e+01   3.4421100578e+01     0.260453    0.1189557  78.59   0.00100205    2.009    0.502
        94 -11.8844    239.1515    219.3595   5.2146609492e+01  -3.3193443721e+00    0.2515998    0.1398394 -15.58  0.001551253    1.743    0.426
        95 -10.6132     23.1853    179.9786   9.0840502914e+01   3.4066524098e+01    0.2122587   0.09782993  68.88  0.001080935    2.017    0.504
        96 -11.7631      8.9511    177.8518   9.3860750087e+01   3.5813194312e+01    0.2583956    0.1348469  88.41  0.001426565    1.604    0.377
        97 -11.3808     11.2710    172.5953   9.3067481866e+01   3.6757970058e+01    0.2239511    0.1141781  81.49  0.001210406    1.676    0.403
        98 -12.0471      6.5597    171.5596   9.4071320055e+01   3.7378345644e+01    0.3423472    0.1549273  85.84  0.001717227    1.893    0.472
        99 -10.8624      1.4998    170.4233   9.5147465352e+01   3.8028806292e+01    0.3397089    0.1241026 -78.08  0.001695952    2.278    0.561
       100 -11.7096      2.2779    165.5858   9.4742222994e+01   3.9033356476e+01    0.4000953    0.1605238  59.78  0.002050797    2.123    0.529
       101 -11.1304     17.4896    169.9910   9.1494567227e+01   3.6788239494e+01    0.1829123   0.09884887 -85.02  0.001028889    1.586    0.370
       102 -12.0203     10.9497    166.8283   9.2813977520e+01   3.8061290833e+01    0.2828114    0.1338249  67.12  0.001417169    1.858    0.462
       103 -10.5847     15.3144    164.6597   9.1661701078e+01   3.8175046127e+01    0.1322469   0.06818718  64.70 0.0007047454    1.702    0.412
       104 -11.9159      5.6332    161.4466   9.3750213306e+01   3.9698735540e+01     0.269174    0.1509728  70.17  0.001271771    1.481    0.325
       105 -12.3987     10.0894    155.8318   9.2352403610e+01   4.0623338127e+01    0.3145595    0.1524772 -86.73  0.001671062    1.734    0.423
       106 -12.3333      3.9440    153.6543   9.3719420903e+01   4.1598933610e+01    0.3342541    0.1400212 -77.60  0.001705164    1.956    0.489
       107 -12.3986      5.3831    147.1656   9.2975442145e+01   4.2993737259e+01    0.5192979    0.1275842  53.19  0.001981057    3.775    0.735
       108 -11.8297      8.6893    145.3294   9.2013043150e+01   4.3176489173e+01    0.2077499    0.1036271 -87.50 0.0006598235    1.672    0.402
       109 -12.4150      4.2216    136.9321   9.2610529129e+01   4.5489751807e+01    0.3598126    0.1434852 -85.75  0.001691236    2.108    0.526
       110 -10.2003     16.0000    141.9460   8.9851223775e+01   4.3401028269e+01    0.2105702   0.05972834 -77.05 0.0008052682    2.962    0.662
       111 -10.3357      8.6683    137.3242   9.1449445626e+01   4.5078312859e+01    0.1338531    0.0724084  64.99  0.000498873    1.705    0.413
       112 -10.6180    243.6808    139.5041   3.6304483681e+01   6.0734119027e+00     0.233704    0.1033804 -31.36  0.001067527    1.950    0.487
       113 -11.8443      2.5192    126.9498   9.2375594074e+01   4.7998267507e+01    0.3412513    0.1404179  88.51  0.001580832    2.156    0.536
       114 -11.2868    241.6080    125.2798   3.3470049788e+01   8.4567000966e+00    0.2704725    0.1062103 -35.38   0.00113941    2.184    0.542
       115 -10.6968    247.9857    129.5660   3.3492646255e+01   6.7358200394e+00    0.2565024    0.1583703 -40.29  0.001365594    1.614    0.381
       116 -11.5968    248.7478    118.8137   3.0979935360e+01   8.1149338600e+00    0.4036638    0.1362751 -34.11  0.001622329    2.436    0.589
       117 -10.8257    243.4640    113.9644   3.0614794920e+01   9.7541802771e+00    0.1926472   0.09374583 -47.48 0.0008014417    2.483    0.597
       118 -11.1739    247.9422    112.4901   2.9650004581e+01   9.1527560083e+00    0.2179986    0.1528167 -28.32 0.0008911833    1.188    0.158
       119 -11.2728    243.9714    109.2187   2.9441489317e+01   1.0344582332e+01    0.2015421    0.1270011 -43.58 0.0008106478    1.588    0.370
       120 -10.9443    248.3898    107.1371   2.8353528497e+01   9.8303853947e+00    0.2785526    0.1536462 -39.23  0.001046212    1.625    0.384
       121 -11.6836    247.3801    103.1490   2.7559155922e+01   1.0581712315e+01     0.328603    0.1608981 -43.42  0.001500458    2.007    0.502
       122 -11.4097    249.2425     98.0767   2.6125267790e+01   1.0952882817e+01     0.263833    0.1537893 -42.28  0.001337559    1.601    0.376
       123 -12.7341    243.2003     97.7979   2.6850083680e+01   1.2133249192e+01    0.3397874    0.3029556   7.09  0.002114575    1.191    0.160
       124 -11.6279    242.6763     93.1253   2.5798415606e+01   1.2904688537e+01    0.2795832    0.1499956 -45.97  0.001146666    1.886    0.470
       125 -10.5584      1.6906     94.5301   8.9791650136e+01   5.6013554738e+01    0.2373642   0.09276105 -77.38  0.001076631    2.015    0.504
       126 -10.8255    236.9845     90.0095   2.5791615359e+01   1.4476134788e+01     0.220834     0.150828 -54.39 0.0008044194    1.671    0.401
       127 -12.0988    243.3623     83.1192   2.3285048328e+01   1.4192756012e+01    0.2921809     0.149077 -39.49 0.0009202683    1.677    0.404
       128 -11.2839    246.4937     84.5190   2.3239872423e+01   1.3381111935e+01    0.1928052    0.1613248 -30.53 0.0008802742    1.012    0.012
       129 -12.4516    248.5349     74.3765   2.0546270954e+01   1.4381931151e+01    0.5008438    0.1652758 -38.51  0.001981958    2.409    0.585
       130 -12.1603    249.2807     87.6908   2.3660371584e+01   1.2400638928e+01    0.4651803    0.2018211 -25.41  0.001973469    2.166    0.538
       131 -10.3336      3.0000     80.9967   8.7719733239e+01   5.9304282655e+01    0.2173433   0.05820876 -74.91 0.0008013055    2.935    0.659
       132 -11.6874    243.2403     77.0598   2.1817036655e+01   1.5066031357e+01    0.2817588    0.1549226  -9.41  0.001167324    2.610    0.617
       133 -10.6701    239.4718     76.9535   2.2245970015e+01   1.5843481018e+01    0.2073728   0.08660748 -47.18 0.0008092776    2.512    0.602
       134 -13.1546    249.4326     65.3725   1.8262871545e+01   1.5416098818e+01    0.7488739    0.1466076 -35.81  0.002482644    3.417    0.707
       135 -11.9640      2.0193     59.7382   8.4864113615e+01   6.4560213293e+01    0.4677041    0.1355302 -78.63  0.001643873    3.638    0.725
       136 -10.7249     11.6033     57.1900   7.9927253076e+01   6.4665998643e+01     0.200409   0.08699165 -57.50 0.0009542458    1.730    0.422
       137 -12.3071      3.0376     49.7916   8.2413057772e+01   6.6891263841e+01    0.5682681    0.1959808 -62.48  0.002589937    2.044    0.511
       138 -12.2248      2.5266     40.2267   8.0410035854e+01   6.9146068061e+01    0.4959778    0.1693847 -64.28  0.002234715    2.164    0.538
       139 -11.6130      3.1180     33.5798   7.8233311684e+01   7.0627171235e+01     0.376868     0.116636 -57.76  0.001454886    2.192    0.544
       140 -11.5762      8.4504     43.8290   7.8192081039e+01   6.8004414641e+01    0.3204015   0.09183678 -63.26  0.001291629    2.570    0.611
       141 -10.8024     87.7429    250.4593   8.3017273087e+01   1.3405965838e+01     0.271277   0.08848138  34.80  0.001302086    2.609    0.617
       142 -11.6696     18.7813     30.4861   6.8003521000e+01   7.0240037204e+01    0.3400172    0.1602376 -36.87  0.001636536    1.979    0.495
       143 -10.9103    110.0979    248.8578   7.8846024869e+01   1.0754822061e+01     0.179556    0.1193575  51.79  0.001234915    1.288    0.224
       144 -12.3649    194.6123    245.9529   6.3483741122e+01  -3.6517363692e-01    0.3375397    0.1885454   2.01  0.001879342    2.511    0.602
       145 -11.0534     77.2002    246.7236   8.4637807944e+01   1.5299954086e+01    0.1863686   0.09918201  51.23  0.001183509    1.463    0.317
       146 -12.0676    158.1237    245.7340   6.9834851353e+01   4.6375025252e+00    0.2335498    0.1139084  33.59  0.001345774    1.628    0.386
       147 -11.9939     97.6591    244.9408   8.0768821375e+01   1.2980574986e+01    0.3685693     0.149901  49.19  0.001967407    2.060    0.515
       148 -10.8222    183.7934    250.3903   6.5906734423e+01   5.7138988217e-01    0.1636953   0.07944139  28.35 0.0009497216    1.721    0.419
       149 -11.1561     74.6147    250.2949   8.5353698610e+01   1.5055438577e+01    0.3131475   0.09201693  41.02  0.001573441    2.343    0.573
       150 -12.4527    116.0908    244.3944   7.7331590002e+01   1.0610721600e+01      0.29259    0.1525275  46.92  0.001753898    1.568    0.362
       151 -11.7403    178.2051    243.6114   6.6014391127e+01   2.1326723635e+00    0.2301133    0.1417144  15.49  0.001435146    1.689    0.408
       152 -12.1098     12.4009     37.2305   7.4089381786e+01   6.9258951840e+01    0.3519793    0.1469935 -54.73  0.001695983    1.795    0.443
