#   1 NUMBER                 Running object number                                     
#   2 MAG_AUTO               Kron-like elliptical aperture magnitude                    [mag]
#   3 X_IMAGE                Object position along x                                    [pixel]
#   4 Y_IMAGE                Object position along y                                    [pixel]
#   5 X_WORLD                Barycenter position along world x axis                     [deg]
#   6 Y_WORLD                Barycenter position along world y axis                     [deg]
#   7 A_WORLD                Profile RMS along major axis (world units)                 [deg]
#   8 B_WORLD                Profile RMS along minor axis (world units)                 [deg]
#   9 THETA_WORLD            Position angle (CCW/world-x)                               [deg]
#  10 FWHM_WORLD             FWHM assuming a gaussian core                              [deg]
#  11 ELONGATION             A_IMAGE/B_IMAGE                                           
#  12 ELLIPTICITY            1 - B_IMAGE/A_IMAGE                                       
         1 -14.8736     68.4963    144.2988   1.0676295394e+02   3.7400756485e+01      4.59196     1.898006  62.73  0.005347699    6.663    0.850
         2 -14.0488    222.3929     17.6194   3.9247811742e+01   2.7648296264e+01     1.062212    0.9393736  16.42  0.002614821    1.538    0.350
         3 -13.5327    197.9149     39.9135   4.7728108351e+01   3.0796102956e+01     1.301806    0.9962332   5.59  0.002346953    1.817    0.450
         4 -13.8598    207.1079     33.8709   4.4937568917e+01   2.9326185545e+01     1.201929     1.140872  62.79  0.006145859    1.176    0.150
         5 -10.4122      1.8618      3.7961   9.4551367564e+01   7.4131462694e+01    0.2679847   0.06663673 -50.34  0.001094707    3.979    0.749
         6 -11.0089     51.2535      3.4788   6.8705028541e+01   6.8402709410e+01    0.2307085    0.1861545  49.92  0.001205709    1.639    0.390
         7 -10.8879     46.7961      2.0008   6.9796878328e+01   6.9267132953e+01    0.2463079    0.1539403  45.72  0.001035624    1.797    0.444
         8 -10.8326    244.1597      1.6351   3.3920111575e+01   2.4509341917e+01    0.3818493    0.1406865  75.75  0.001757898    2.560    0.609
         9 -10.2426     99.5327    180.7697   1.0470634724e+02   2.4032415955e+01    0.2478598    0.1858716  42.91 0.0005827186    1.292    0.226
        10 -16.6742     39.1334    187.2339   1.1934147816e+02   3.0872526163e+01     10.84731     4.218609  70.82   0.04001006    3.885    0.743
        11 -12.0113     63.5020    179.2582   1.1299600910e+02   2.9716122960e+01    0.4076744    0.3182538 -27.56  0.001479797    1.921    0.480
        12 -11.8478     68.3473    173.9050   1.1117505450e+02   3.0306003606e+01    0.3196017    0.2488074 -48.02  0.000535073    1.503    0.335
        13 -14.1360      5.1110    186.5739   1.2642858265e+02   3.4347878847e+01     1.475091     0.675594 -84.33  0.001755692    1.774    0.436
        14 -15.9582     72.1506    247.7912   1.1796736439e+02   1.4498736891e+01     9.195456       2.6159  31.51   0.02722755    7.248    0.862
        15 -10.7922    138.2239    171.4860   9.3927371314e+01   1.9217990545e+01    0.4452364      0.26437  69.06  0.001665403    2.831    0.647
        16 -13.4885     65.2675    160.1046   1.1004746424e+02   3.3995529689e+01    0.5565866    0.4188321 -40.22  0.002114548    1.640    0.390
        17 -13.3919     57.8000    129.6384   1.0725815731e+02   4.2410970386e+01     2.382969     0.774689 -73.98  0.005465672    7.487    0.866
        18 -12.6967     84.5909    157.7910   1.0474687588e+02   3.1771743666e+01     1.146251    0.8639507 -75.15 0.0009466952    1.295    0.228
        19  -9.1784    174.6396    248.3033   9.8691691277e+01  -9.8650464260e-01    0.1195018   0.08534075  57.01 0.0003119298    1.724    0.420
        20 -12.4319     32.3739    155.2075   1.1769586189e+02   3.9000721697e+01    0.5723047    0.2502484 -84.87   0.00247765    2.431    0.589
        21 -10.2595    174.7964    148.8917   8.0757710712e+01   1.6608853014e+01    0.2865109    0.2183783 -62.37 0.0009845218    1.584    0.369
        22 -10.7458    134.1221    146.3874   8.9807879128e+01   2.5611957939e+01      1.01931    0.2173825 -53.70  0.002135088    7.115    0.859
        23 -11.7529     77.7164    164.1031   1.0749415656e+02   3.1293514870e+01     0.413086    0.3090709  67.89 0.0003810678    1.343    0.256
        24 -10.4749     98.9855    142.9983   9.8251828462e+01   3.2997524535e+01    0.3397943    0.2657163 -36.88 0.0008384629    1.448    0.310
        25  -9.7197    101.6572    139.6699   9.6854528348e+01   3.3336116919e+01    0.2924958    0.2316125 -23.48   0.00142358    1.603    0.376
        26 -12.2790     87.0393    141.7714   1.0125406883e+02   3.5272163018e+01    0.2897649    0.2535436 -47.03 0.0004260017    1.196    0.164
        27 -10.1133     81.7105    141.5543   1.0267219772e+02   3.6156223291e+01     0.296992     0.198661  68.58 0.0007550223    1.809    0.447
        28 -11.3519     72.2008    135.1803   1.0414202438e+02   3.9125470481e+01    0.4516238    0.1938764  42.72  0.001812026    2.426    0.588
        29  -9.0847     38.2768    133.3253   1.1338938353e+02   4.3698995713e+01    0.1324181   0.08776831 -46.77 0.0002438417    1.587    0.370
        30 -10.8748    108.1260    131.1331   9.3246693161e+01   3.4219261015e+01    0.6050623    0.3231921  43.17  0.002473773    1.912    0.477
        31 -11.2902     32.1962    129.1037   1.1449745014e+02   4.5318372975e+01    0.3688386    0.1486866 -70.57  0.001598034    2.136    0.532
        32 -14.7342      9.1855    207.3290   1.2684134666e+02   2.9615674854e+01      1.04602    0.8971198 -11.63  0.004588293    2.031    0.508
        33 -10.4760     97.2439    127.6475   9.5504980282e+01   3.7010621690e+01    0.2941658    0.2301208 -29.76  0.000511112    1.494    0.331
        34 -10.3078     66.8310    124.6178   1.0369465855e+02   4.2474081818e+01    0.2071972    0.1671424  84.57  0.001113778    1.333    0.250
        35  -9.8361    116.4502    126.1971   8.9824204987e+01   3.3806173660e+01     0.378614    0.2314365  74.38  0.001309413    3.068    0.674
        36  -9.2547    162.2903    167.3221   8.7545885049e+01   1.5391644022e+01    0.1491572    0.1163745  -2.68  0.000206377    1.607    0.378
        37 -10.1535    135.6208    123.7904   8.4140157200e+01   3.0444264168e+01    0.2305849    0.1468927 -56.56 0.0007060165    1.701    0.412
        38  -9.8757    106.9677    119.9482   9.0961282485e+01   3.7096424513e+01    0.2190631    0.2120495 -58.38  0.000319807    1.010    0.010
        39  -9.6009    168.1581    113.2082   7.3512228043e+01   2.5453416742e+01    0.3055662    0.2038352 -66.30  0.001217132    2.071    0.517
        40  -9.8943     39.5031    113.0636   1.0982207954e+02   4.8526263631e+01    0.2042657    0.1147889 -66.06 0.0004190058    1.522    0.343
        41 -13.2925     36.9580    207.2988   1.2147453104e+02   2.6769306021e+01    0.6760329     0.434756  37.83  0.001813726    1.636    0.389
        42  -9.7857    205.5749    110.2344   6.5085473699e+01   1.7419970421e+01    0.2634369    0.2127843  51.05 0.0005991025    1.310    0.236
        43 -11.1737     16.6544    109.8702   1.1633708758e+02   5.1234391581e+01    0.1986744    0.1665958 -35.22 0.0007820733    1.353    0.261
        44 -10.4081     29.1709    107.1559   1.1203518376e+02   5.0910598341e+01     0.178309    0.1406642  82.90 0.0004830641    1.349    0.259
        45  -9.7231    159.4835    162.9631   8.7281098287e+01   1.6857725991e+01    0.2190235    0.1486772 -46.81 0.0003842463    1.521    0.343
        46  -9.2915     18.2884     90.3263   1.1269002736e+02   5.5742055174e+01    0.1323919   0.07472515 -44.52 0.0002448489    1.612    0.380
        47 -10.2858     72.6948     83.3366   9.1989033991e+01   5.1437632874e+01    0.4605342    0.2689002  59.81   0.00183212    2.911    0.656
        48  -8.4697    109.6922     79.6884   7.8978626299e+01   4.5557343569e+01    0.1544111    0.1186096  -1.32 0.0003705155    1.621    0.383
        49 -10.7102     13.4759     60.0399   1.0816877398e+02   6.2865100450e+01    0.2146838     0.171788 -40.76 0.0006347832    1.080    0.074
        50 -13.6321     40.5366    234.4665   1.2272799279e+02   2.0927684110e+01    0.8298967     0.395985  73.66  0.004593823    2.037    0.509
        51 -16.4355     11.2545    241.4053   1.2817354093e+02   2.2809286379e+01     2.389387      1.95686  61.45   0.01980622    1.308    0.236
        52 -12.4731    184.3763    214.1919   9.1570799916e+01   2.6229123491e+00    0.4502522    0.3589702 -10.66  0.002676363    1.355    0.262
        53 -12.5252    214.4746     26.1459   4.2124986397e+01   2.8512058600e+01    0.4931207    0.4126944  52.29  0.001104143    1.362    0.266
        54 -10.9537    138.0503     44.0529   5.9570362969e+01   4.5318251551e+01    0.3132831    0.2470687  87.83 0.0003372113    1.540    0.351
        55 -10.9061    141.2530     38.7089   5.7057503230e+01   4.5276435761e+01    0.4354807    0.2992906 -85.17  0.001951937    2.035    0.509
        56  -9.7992    136.9796     35.4749   5.6866726776e+01   4.6764164470e+01    0.2872496    0.2038425  80.40  0.001370619    1.700    0.412
        57  -9.8431      2.2226     36.2276   1.0679756357e+02   6.8378545871e+01    0.1732431   0.08514186 -70.02 0.0006952703    2.453    0.592
        58  -9.9198    189.7101     15.0269   4.1997398950e+01   3.5856355000e+01    0.1875508    0.1694412 -60.00 0.0005656825    1.114    0.102
        59 -10.7699    106.9701    210.4714   1.0720391389e+02   1.6484262702e+01    0.2053486    0.1163213  41.32 0.0008025031    1.576    0.365
        60 -11.7758    192.7582    193.3230   8.6152350780e+01   4.6504414242e+00    0.7836375    0.4112869 -57.85   0.00300632    3.425    0.708
        61 -11.2568    110.6408    197.8966   1.0468659088e+02   1.8472160426e+01    0.2427755    0.1845779  33.43 0.0009630545    1.369    0.269
