#   1 NUMBER                 Running object number                                     
#   2 MAG_AUTO               Kron-like elliptical aperture magnitude                    [mag]
#   3 X_IMAGE                Object position along x                                    [pixel]
#   4 Y_IMAGE                Object position along y                                    [pixel]
#   5 X_WORLD                Barycenter position along world x axis                     [deg]
#   6 Y_WORLD                Barycenter position along world y axis                     [deg]
#   7 A_WORLD                Profile RMS along major axis (world units)                 [deg]
#   8 B_WORLD                Profile RMS along minor axis (world units)                 [deg]
#   9 THETA_WORLD            Position angle (CCW/world-x)                               [deg]
#  10 FWHM_WORLD             FWHM assuming a gaussian core                              [deg]
#  11 ELONGATION             A_IMAGE/B_IMAGE                                           
#  12 ELLIPTICITY            1 - B_IMAGE/A_IMAGE                                       
         1  -9.0901     63.5899     21.0889   1.0222718644e+02   6.3776300728e+01    0.3577885    0.1849562 -42.20  0.001625091    2.010    0.503
         2  -7.8811    112.8240     16.8366   8.5319945262e+01   5.4866727219e+01    0.1770993    0.1621505 -54.13 0.0004006194    1.320    0.243
         3  -7.8566     83.3791     11.2098   9.0962592480e+01   6.1644951300e+01    0.1804989    0.1097039 -33.01 0.0009411256    1.661    0.398
         4  -8.1793     47.7085     10.3577   1.0335995907e+02   6.7630797718e+01    0.2130869    0.1280376 -39.77 0.0007972584    1.695    0.410
         5  -8.3666     27.8151      9.8650   1.1189568766e+02   7.0106049673e+01    0.1450206    0.1212324 -33.64 0.0008220451    1.306    0.234
         6  -8.1442     90.8218      9.0547   8.7764265766e+01   6.0426599854e+01    0.2017877    0.1386027 -47.64 0.0005914404    1.940    0.485
         7  -7.6349    101.4390      8.4522   8.4614624979e+01   5.8278237840e+01     0.132531    0.1187853  14.62 7.022116e-05    1.043    0.042
         8  -8.3414     69.0017      7.9519   9.4101668820e+01   6.4638602850e+01    0.1563646    0.1246618  -7.37 0.0004506075    1.073    0.068
         9  -7.8276     12.5398      8.5416   1.1873015889e+02   7.1714455593e+01    0.1103143    0.0839659 -31.96 9.188565e-05    1.085    0.078
        10  -7.8400      5.5275      8.4814   1.2229049328e+02   7.2236919054e+01    0.1114242   0.07908069 -34.01 -6.303961e-06    1.011    0.011
        11  -8.6748     33.3547      4.9775   1.0689013733e+02   7.0210124068e+01    0.2784894     0.150696 -49.36  0.001437012    2.685    0.628
        12  -8.4740     79.1051      3.8126   8.8777283539e+01   6.3273789800e+01    0.2144956    0.1543062 -29.81  0.001063173    1.452    0.312
        13  -8.5447     55.6818     10.0470   1.0001682530e+02   6.6526209702e+01    0.1817744    0.1682806 -37.48  0.000777658    1.476    0.322
        14  -7.7075     15.6933      3.3152   1.1463497054e+02   7.2274520104e+01   0.09467171    0.0831189 -49.13  0.000305728    1.626    0.385
        15  -7.5898    115.4355      2.4841   7.8741343285e+01   5.5722182792e+01    0.1332403    0.1214949  26.74 0.0001921088    1.043    0.042
        16  -8.4958     62.3618      1.6307   9.3262261575e+01   6.6488767574e+01    0.1829963    0.1464687  49.86 0.0005959619    1.577    0.366
        17  -7.3576     52.6135      1.2654   9.6727574293e+01   6.8085325497e+01    0.1024635   0.09621027 -56.57 0.0006106182    1.697    0.411
        18  -7.3694     39.4329      1.4768   1.0231794816e+02   6.9925698413e+01      0.11716    0.0918334 -12.56 9.347223e-05    1.063    0.059
        19  -8.2365    169.0068    243.3009   1.2769148241e+02   3.8440826618e+00    0.1590603    0.1196887  45.00 0.0004143375    1.045    0.043
        20  -9.2379    243.1614    246.4992   1.1601750981e+02  -8.0146003068e+00     0.383909    0.2019936  -9.73  0.001956549    2.436    0.589
        21  -9.3563    241.2588    239.2469   1.1522643137e+02  -7.0411405601e+00    0.5065761    0.2446655  -4.83  0.002382547    3.613    0.723
        22  -9.7722    246.5621    229.1962   1.1280632603e+02  -6.8376157100e+00    0.4485838    0.2139911 -22.84  0.002220149    2.361    0.577
        23 -10.1843    248.7599    243.6796   1.1471923141e+02  -8.5634518210e+00    0.6521015    0.2118386 -29.54  0.002837124    3.544    0.718
        24  -9.0282    247.6702    235.0666   1.1356249169e+02  -7.5858039315e+00    0.2057001    0.1611085  40.34 0.0007011632    1.445    0.308
        25  -9.4171    233.3533    247.1059   1.1765288617e+02  -6.6310586481e+00    0.4390427    0.2571813 -17.49   0.00226761    2.016    0.504
        26  -9.1381    211.2196    247.0913   1.2120473779e+02  -3.2723216247e+00     0.299073    0.2168414 -63.04  0.001883091    2.726    0.633
        27  -8.0110    191.7429    249.9745   1.2476799275e+02  -5.6013290067e-01    0.1599573     0.103072  54.59 0.0005999961    1.656    0.396
        28  -8.4299     93.8922    249.1935   1.4072388042e+02   1.4376493921e+01    0.2155695     0.121608  78.01  0.001231965    1.994    0.498
        29  -7.3752     86.2884    250.6609   1.4204972237e+02   1.5193468181e+01    0.1095164   0.06047864  67.26 0.0003181916    1.640    0.390
        30  -9.5429    160.4218    240.7296   1.2882314659e+02   5.5538115080e+00    0.3273452    0.2176591 -86.72  0.001609584    2.719    0.632
        31  -7.8618    214.1284    242.1299   1.2003230483e+02  -3.1914552186e+00    0.1447677    0.1214635  45.18  0.001071567    1.344    0.256
        32  -9.1413    183.1684    240.2622   1.2491839104e+02   1.9514045171e+00    0.3521104    0.2196104  62.84  0.001809168    2.201    0.546
        33  -8.0681    153.4494    242.2596   1.3018613862e+02   6.4600498450e+00     0.131359    0.1065516 -85.08 0.0008776163    1.588    0.370
        34  -8.1274     88.2017    242.2090   1.4106668176e+02   1.6227511094e+01    0.1490403   0.09614235  71.00 0.0006774139    1.368    0.269
        35  -8.4096    146.5564    239.8395   1.3107114863e+02   7.8855881186e+00    0.2482603    0.1536417  80.17 0.0009766306    2.701    0.630
        36  -8.9103    194.0871    239.8194   1.2302554728e+02   2.4729279618e-01    0.1674687    0.1310248  49.34 0.0004873376    1.278    0.218
        37  -8.3589    209.1216    238.6156   1.2035248218e+02  -2.0159957841e+00    0.1608516    0.1532146 -24.34 0.0007765296    1.416    0.294
        38  -8.7173    135.5057    239.0562   1.3286152209e+02   9.7350937139e+00    0.1868761     0.125963  60.67 0.0008007112    1.362    0.266
        39  -8.1257    129.7890    239.2237   1.3385086816e+02   1.0598051386e+01    0.1897828    0.1007564  69.65 0.0009494692    2.751    0.637
        40  -9.4508    230.5782    236.8245   1.1657122534e+02  -5.1797698574e+00    0.2299018    0.1883802 -47.07  0.001058719    1.911    0.477
        41  -8.0693     25.7828    237.2082   1.5056052878e+02   2.4624912632e+01    0.1818006   0.05935307  65.44 0.0009574128    2.810    0.644
        42  -9.7171    215.0229    233.3737   1.1860432716e+02  -2.3658470457e+00    0.4501699    0.3323822  89.14  0.002376593    3.543    0.718
        43  -8.8817    203.1066    234.6898   1.2078969416e+02  -6.0069382851e-01    0.2445076    0.1797577 -62.81  0.001170921    2.365    0.577
        44  -9.6998    175.8471    233.4623   1.2525546870e+02   4.0097930790e+00    0.3994372    0.2449246 -65.44  0.002166014    2.916    0.657
        45  -7.9768    170.3645    236.1260   1.2654858721e+02   4.5571247344e+00     0.137154     0.109065 -68.92  0.000502057    1.748    0.428
        46  -7.7965    113.6689    236.3272   1.3628686929e+02   1.3485651012e+01    0.1177363   0.09235144  55.40 0.0008462846    1.059    0.056
        47  -9.2595    108.4141    234.4120   1.3699006450e+02   1.4565287817e+01    0.2835249    0.1728781  65.09  0.001062942    1.535    0.348
        48  -8.4526    194.6818    233.2921   1.2201195234e+02   9.3775158735e-01    0.2818572    0.1901487  68.81   0.00157051    2.487    0.598
        49  -8.3011     99.6341    234.4745   1.3848691775e+02   1.5838143427e+01    0.1833294    0.1128068  80.56  0.001146819    1.796    0.443
        50  -8.7311     78.8423    234.4249   1.4196520692e+02   1.8738403334e+01    0.2182751    0.1236996 -88.38 0.0009619147    1.899    0.473
        51  -8.1279    122.7439    234.3455   1.3453053521e+02   1.2412671085e+01    0.1792879    0.1053105  65.75 0.0007339017    1.804    0.446
        52  -8.5275     93.0648    232.8489   1.3944837538e+02   1.7036623052e+01    0.2479028    0.1653345  75.47  0.001690721    1.411    0.291
        53  -9.1572     68.5165    232.5695   1.4352380844e+02   2.0399369154e+01    0.4364048    0.1562976  63.71  0.001975033    3.388    0.705
        54  -7.1980     53.6983    234.7145   1.4608020995e+02   2.1888923142e+01   0.08354031   0.07829079  73.79 0.0002506759    1.557    0.358
        55  -8.3743      7.8213    234.2281   1.5309710329e+02   2.6917332288e+01    0.1183825   0.09170438  85.63 0.0007515615    1.337    0.252
        56  -8.0504    132.7783    233.1699   1.3267018850e+02   1.1028946523e+01    0.1919289    0.1029065  69.45 0.0009367227    2.765    0.638
        57  -9.1122    236.0414    230.6317   1.1472861227e+02  -5.3765576559e+00    0.2632996    0.1535478 -29.52 0.0005188221    1.967    0.492
        58  -9.2671    186.4455    230.6484   1.2304449456e+02   2.6249419664e+00    0.2840569    0.2170503 -81.08  0.001364326    2.228    0.551
        59  -8.0172    157.5095    231.9744   1.2823235655e+02   7.2244021333e+00    0.1449093    0.1186454 -53.26 0.0004952074    1.538    0.350
        60  -8.6542    140.2722    230.4558   1.3105093701e+02   1.0242323673e+01    0.2469259    0.1466072  63.98 0.0008640488    1.886    0.470
        61  -8.5353      1.7236    230.8029   1.5385462699e+02   2.8054647787e+01    0.1952956   0.06896275  75.63  0.001028699    2.431    0.589
        62  -9.8358    149.7150    226.2579   1.2887207347e+02   9.3294002116e+00    0.5275433    0.3107854 -85.69  0.002359449    3.894    0.743
        63  -9.2456    229.8604    228.9038   1.1546582387e+02  -4.2275968339e+00    0.1778671    0.1528119 -18.95 0.0007906235    1.399    0.285
        64  -8.6481    162.3397    227.9955   1.2687245623e+02   6.9888198610e+00    0.2374948     0.168818  73.29 0.0009477791    1.866    0.464
        65  -8.5957    128.0383    227.4271   1.3284302981e+02   1.2653795172e+01    0.2215363    0.1519942  72.79 0.0009075421    1.590    0.371
        66  -8.1776    120.0334    227.3916   1.3424669254e+02   1.3911953190e+01    0.2269943    0.1301692  84.61   0.00115969    2.726    0.633
        67  -9.1792      6.9674    226.9613   1.5291920872e+02   2.8208540203e+01    0.2603475   0.07964943  64.14  0.001430495    2.696    0.629
        68  -8.1318    223.6328    226.2053   1.1607123209e+02  -2.9375905715e+00    0.2747236    0.1455789  -4.55  0.001273389    3.295    0.696
        69  -9.1568    225.4023    221.6709   1.1505353136e+02  -2.7075780214e+00    0.1916507    0.1766291  20.81 0.0005712788    1.282    0.220
        70  -8.3527    206.1032    226.2257   1.1902796760e+02  -7.9515030525e-02    0.1824761    0.1538181 -88.47 0.0008108531    1.969    0.492
        71  -8.1405     49.6612    227.2838   1.4623409902e+02   2.3619938983e+01    0.1833614   0.08683702  67.41  0.001108635    1.863    0.463
        72  -9.1670    216.6516    224.2542   1.1693466374e+02  -1.5799815339e+00    0.3167934    0.1909612 -32.67  0.001284605    1.949    0.487
        73  -7.9416    199.8921    226.3563   1.2010955630e+02   9.3407015265e-01    0.1507929    0.1387378  33.81 0.0005375216    1.210    0.174
        74  -8.9774     94.4728    224.6734   1.3844124254e+02   1.8180845394e+01     0.351992    0.1711304  70.02  0.001760407    2.613    0.617
        75  -8.6704    180.4460    224.3120   1.2318444945e+02   4.4623446044e+00     0.209211    0.1538416  41.89 0.0003443125    1.099    0.090
        76  -8.6104    172.9671    223.1310   1.2433376250e+02   5.8894316275e+00    0.2307939    0.1696491 -63.80 0.0007982226    1.903    0.474
        77  -7.8350    113.8295    224.3525   1.3500761162e+02   1.5356157287e+01    0.1581886    0.1201684  68.20 0.0005381031    1.175    0.149
        78  -8.7847    104.7284    223.6363   1.3653909529e+02   1.6850654587e+01    0.2367249    0.1459398 -84.47  0.001423088    1.927    0.481
        79  -7.6892     59.7660    224.1475   1.4433930522e+02   2.2931651568e+01    0.1930064    0.0772595  67.10  0.000905698    2.814    0.645
        80  -7.5364     38.3302    224.6850   1.4790578705e+02   2.5370038260e+01    0.1126751   0.05494548  66.63 0.0003637886    1.679    0.404
        81  -9.4387    192.4767    221.2859   1.2063146727e+02   2.8276104008e+00    0.2933683    0.2368606 -75.15   0.00105403    1.944    0.486
        82  -8.9687    160.0177    221.2460   1.2637641064e+02   8.3504275273e+00    0.4532152    0.1989225  56.46  0.001679197    2.788    0.641
        83  -9.1696    239.1181    221.0085   1.1267638071e+02  -4.8302234869e+00    0.2946061    0.1744027 -18.38  0.001144453    1.852    0.460
        84  -9.2109      7.8536    222.2497   1.5257886033e+02   2.8926239199e+01    0.2359784   0.05781457  54.22  0.001260624    2.824    0.646
        85  -8.4141    202.7477    220.4205   1.1871226799e+02   1.2002949173e+00    0.1956512    0.1625527 -24.33 0.0007140636    1.404    0.287
        86  -9.1162    120.5575    219.3325   1.3324132664e+02   1.5130367981e+01    0.3939781     0.194984  67.40  0.001780789    2.975    0.664
        87  -8.2797     82.6390    220.5951   1.4012347762e+02   2.0543057607e+01    0.2353174    0.1208092  69.33 0.0009102678    2.065    0.516
        88  -8.2124     72.8655    220.5559   1.4181985940e+02   2.1871913635e+01    0.2132968    0.1043989  71.16  0.001030662    2.213    0.548
        89  -7.8484     27.5425    221.5041   1.4945343658e+02   2.7092177060e+01    0.1032755   0.07262611  73.33 0.0005539014    1.018    0.018
        90  -9.5695    248.0527    216.9835   1.1055057558e+02  -5.7974860994e+00    0.3587085    0.2932833 -85.09   0.00209523    2.994    0.666
        91  -9.1636    132.6525    215.9877   1.3063917260e+02   1.3731351540e+01    0.4046663    0.2275241  77.90   0.00180909    3.256    0.693
        92  -7.8833    111.9516    217.7829   1.3461818652e+02   1.6731368821e+01     0.203296    0.1071018  62.74  0.001066146    2.001    0.500
        93  -8.3250     61.8482    217.4432   1.4346494027e+02   2.3842240181e+01     0.215885    0.1138534  82.43 0.0009716441    1.942    0.485
        94  -8.6461     51.6512    217.2365   1.4519491857e+02   2.5131986760e+01    0.2652421    0.1313279  69.51  0.001203354    1.850    0.459
        95  -8.8310    169.3919    216.2874   1.2399273723e+02   7.4775363386e+00    0.2520576    0.1956075  82.46 0.0008946398    1.774    0.436
        96  -8.3352    142.7502    216.6254   1.2887762394e+02   1.1958404047e+01    0.2132528    0.1597263 -76.10  0.000837015    1.659    0.397
        97  -8.5992     18.6052    216.2608   1.5059971426e+02   2.8926614141e+01    0.1892632    0.0766481 -85.69  0.001129507    2.163    0.538
        98  -8.5737    232.1551    214.4726   1.1273829911e+02  -2.9793548973e+00     0.204672    0.1670638 -29.02 0.0009463868    1.474    0.322
        99  -8.3940    185.8154    214.5418   1.2078126058e+02   4.8823041585e+00    0.2019187    0.1635418 -73.02 0.0008309351    1.808    0.447
       100  -7.9626    154.2257    215.1807   1.2658888834e+02   1.0246368919e+01    0.1646505    0.1289803  67.05 0.0005650231    1.357    0.263
       101  -8.6562     93.1521    214.2627   1.3763876690e+02   2.0155590941e+01    0.2744407     0.148269  71.07  0.001234043    2.095    0.523
       102  -7.9710     41.3245    215.6559   1.4682884742e+02   2.6616800246e+01    0.1169003   0.05787208  68.26 0.0007050557    1.737    0.424
       103  -7.8056    196.6702    214.6698   1.1887376316e+02   2.9848643218e+00    0.1268788   0.08500303  17.11 0.0005046884    1.715    0.417
       104  -9.2881     73.0401    211.9339   1.4102954034e+02   2.3374407846e+01    0.4798425    0.1777354  63.26  0.001994035    3.595    0.722
       105  -8.2768    224.8237    213.0108   1.1372676131e+02  -1.5963195551e+00    0.1684148    0.1574656  33.68 0.0009798422    1.328    0.247
       106  -9.4227    213.9295    212.0193   1.1542782632e+02   3.6394982051e-01    0.2973297    0.2661121  62.11  0.001373525    1.488    0.328
       107  -8.4372    161.5863    212.3926   1.2484772871e+02   9.4082251173e+00    0.1970156     0.160567  75.65 0.0006937803    1.447    0.309
       108  -7.8843    106.5399    212.7552   1.3503846156e+02   1.8421528978e+01    0.1495031    0.1039693 -87.90 0.0008278704    1.559    0.359
       109  -8.8875    204.4911    211.0451   1.1691368954e+02   2.1122944190e+00    0.2391521    0.2022009 -52.32 0.0008184198    1.602    0.376
       110  -9.3443    175.6040    210.1891   1.2195624727e+02   7.2899897676e+00    0.3856755    0.2500191  73.53   0.00154305    2.676    0.626
       111  -9.5127      7.1803    210.1799   1.5212526163e+02   3.1100683982e+01    0.4152028     0.111781  70.30  0.001665587    4.890    0.796
       112  -9.6445    246.3231    207.3404   1.0916553551e+02  -4.4647571779e+00    0.3567017    0.2668028 -45.04 0.0006128172    1.987    0.497
       113  -9.4569    250.1059    201.9606   1.0758876597e+02  -4.4650114927e+00    0.4348215    0.1659133 -32.30  0.002056276    2.740    0.635
       114  -9.2923    243.0372    200.6242   1.0850886297e+02  -3.1533082168e+00    0.2887005    0.1928565 -29.45  0.001125598    1.613    0.380
       115  -8.3428    210.0624    219.0539   1.1723588861e+02   1.3974864839e-01    0.1644765    0.1425305  68.11 0.0005076154    1.616    0.381
       116  -8.1117    192.3273    210.4839   1.1898068994e+02   4.3087128086e+00     0.176629    0.1492151 -73.84   0.00067799    1.713    0.416
       117  -8.8410    147.8033    210.5554   1.2712822289e+02   1.2070135407e+01    0.2666967    0.1896285  72.38 0.0009665287    1.677    0.404
       118  -8.7754    116.4280    210.6648   1.3297101089e+02   1.7241432328e+01    0.2950915    0.1655583  64.83  0.001144058    1.956    0.489
       119  -8.4005     32.5291    210.4263   1.4796529620e+02   2.8529212792e+01     0.276012    0.1024858  86.71  0.001320469    3.176    0.685
       120  -8.9710    236.4489    208.2856   1.1096286041e+02  -2.9648033327e+00    0.2592069    0.2224239 -56.79  0.001095656    1.885    0.469
       121  -7.6534     46.3470    209.6449   1.4554572977e+02   2.7125162813e+01    0.1218855   0.06001702  68.24 0.0007035281    1.832    0.454
       122  -8.2551    139.0466    207.9688   1.2840406947e+02   1.3982620960e+01    0.1966343    0.1346744  71.66 0.0006336632    1.706    0.414
       123  -9.2946    124.3681    206.3453   1.3094760037e+02   1.6705268446e+01    0.3114159     0.188564  72.84  0.001615306    2.108    0.526
       124  -9.1392     99.3725    206.2278   1.3563018367e+02   2.0663035447e+01    0.3187457    0.1884486  78.50  0.001542574    2.012    0.503
       125  -8.1681     11.7958    206.8528   1.5120976143e+02   3.1268755818e+01    0.1480721   0.08355021  71.64 0.0008280078    1.321    0.243
       126  -8.2664     56.4538    205.5399   1.4344083636e+02   2.6671646561e+01    0.2281544     0.112396  75.76  0.001205651    2.140    0.533
       127  -9.3279    194.7860    203.4994   1.1739878206e+02   4.8504952298e+00     0.320538    0.3099221 -17.03  0.001017348    1.228    0.185
       128  -9.2673    192.4029    197.5607   1.1683054845e+02   6.1357615659e+00    0.3466583    0.2645558  86.50  0.001188036    2.188    0.543
       129  -8.4612    131.4246    204.2785   1.2934019968e+02   1.5890467374e+01     0.275023    0.1518153  67.10 0.0009758956    2.433    0.589
       130  -7.6449    109.2899    205.6452   1.3370175481e+02   1.9244648437e+01    0.1261139   0.08109254  73.21 0.0007026923    1.679    0.404
       131  -7.9097     92.2314    205.1857   1.3684896489e+02   2.1912497486e+01    0.1697167    0.1153224  71.96 0.0009740153    1.367    0.269
       132  -8.8965    183.7549    203.8348   1.1946345526e+02   6.7776536990e+00    0.2601871    0.1933816  56.35 0.0009470943    1.420    0.296
       133  -9.5791    163.8614    203.1569   1.2304761037e+02   1.0442204824e+01    0.3992311    0.2293705  60.85 0.0009964039    2.137    0.532
       134  -8.3019     49.0692    203.1903   1.4457137448e+02   2.7998832356e+01    0.2248421    0.1085186  74.90  0.001236687    2.112    0.526
       135  -8.4909     85.7951    209.7781   1.3851857096e+02   2.2008068179e+01    0.2829576    0.1354506  66.15  0.001407467    2.368    0.578
       136  -7.9576    221.8624    201.7876   1.1230659263e+02   2.9916850977e-01    0.1532534    0.1452395  43.52 0.0004499918    1.340    0.254
       137  -8.3248    211.0092    202.0235   1.1424657321e+02   2.1687005430e+00    0.1756414    0.1537571  77.80 0.0005238402    1.661    0.398
       138  -8.8746    140.2538    201.0895   1.2721436006e+02   1.4932401252e+01    0.2926332    0.2021886  84.88  0.001062619    1.957    0.489
       139  -8.1890     79.8279    201.4867   1.3877795948e+02   2.4366279188e+01    0.2283276    0.1176115  73.42  0.001067545    2.306    0.566
       140  -9.0967    236.8428    198.0674   1.0908087582e+02  -1.8074084410e+00    0.3028451    0.2033817 -38.48  0.001527464    1.802    0.445
       141  -9.3764    149.5338    198.7511   1.2509361584e+02   1.3705727951e+01    0.3517878    0.2450475 -89.95  0.001278871    2.094    0.522
       142  -8.7591    123.9881    199.2926   1.3009008844e+02   1.8004099810e+01    0.2761134    0.1796354  87.79  0.001167757    2.043    0.511
       143  -8.9718    112.9478    198.6029   1.3213100213e+02   1.9932274202e+01     0.420058     0.224652  71.36   0.00185991    2.694    0.629
       144  -9.0299     88.5827    198.5230   1.3680520986e+02   2.3676878192e+01    0.3345621    0.1899491  79.50  0.001761518    2.099    0.524
       145  -8.3705    177.0457    199.0282   1.1992247020e+02   8.7124107787e+00    0.1909693    0.1491917  72.41 0.0005155567    1.640    0.390
       146  -8.3657    202.2873    197.7687   1.1506620370e+02   4.3114064461e+00    0.2101732    0.1901881 -85.74  0.000826997    1.541    0.351
       147  -9.0417     61.5251    197.1345   1.4177620672e+02   2.7621290346e+01    0.3578049     0.175352  75.55  0.001434577    2.325    0.570
       148  -8.8482     12.7275    197.4752   1.5054410227e+02   3.2905626294e+01    0.2547885   0.09826012  81.48  0.001359668    2.499    0.600
       149  -8.1928     36.1751    196.7776   1.4639042443e+02   3.0671218610e+01    0.1939004   0.07659487  68.72 0.0009367655    2.764    0.638
       150  -8.5191    215.9539    195.5250   1.1222670857e+02   2.1628700413e+00    0.2178978    0.1736885 -51.23 0.0008374624    1.715    0.417
       151  -7.9757    133.0242    196.0613   1.2788880857e+02   1.7050575492e+01    0.2002378    0.1396679  74.13 0.0006578979    1.663    0.399
       152  -9.4089    245.5945    192.5506   1.0660183810e+02  -2.6152751456e+00    0.3896193    0.2265813 -27.59   0.00163024    1.754    0.430
       153  -8.6938    224.6372    194.1072   1.1044790203e+02   8.0827265124e-01    0.2206749    0.1872825 -39.54 0.0008352462    1.475    0.322
       154  -7.5166    209.2957    195.6386   1.1343104459e+02   3.3431295931e+00    0.1177168    0.1023722  85.35 0.0007032058    1.708    0.415
       155  -8.8626    185.3583    194.8333   1.1766792007e+02   7.8336571325e+00    0.2247591    0.1918177  70.31  0.000698798    1.427    0.299
       156  -8.8153    161.0109    194.4655   1.2222247463e+02   1.2360079993e+01    0.2807224    0.2011945  75.16  0.001030694    1.868    0.465
       157  -8.9802     43.9318    193.6578   1.4473774673e+02   3.0405542048e+01    0.3746363    0.1655632  72.19   0.00190327    2.477    0.596
       158  -8.0399    230.6755    194.0697   1.0939861508e+02  -2.4643579323e-01    0.1795942    0.1521724 -37.24 0.0009387083    1.472    0.321
       159  -8.5383     77.0780    194.0295   1.3852077875e+02   2.6160489461e+01    0.2155833    0.1383448  63.72 0.0007048253    1.374    0.272
       160  -7.8582    241.4673    192.0595   1.0719726450e+02  -1.8557486816e+00    0.1733118    0.1151203 -24.85 0.0004340859    1.533    0.348
       161  -8.1832    198.8410    191.6434   1.1461400254e+02   5.8220998283e+00    0.1879375     0.154093 -39.69 0.0005027736    1.413    0.292
       162  -8.1578    179.1502    192.1064   1.1836813350e+02   9.4032491371e+00    0.1703837    0.1495668  70.22 0.0004916515    1.323    0.244
       163  -8.4588    172.3198    191.8130   1.1961751238e+02   1.0716343340e+01    0.2304468    0.1905912  83.85  0.000800747    1.550    0.355
       164  -9.0604    139.6151    190.7444   1.2580973872e+02   1.6845411703e+01    0.3349141    0.2208121  76.36  0.001096188    2.053    0.513
       165  -7.6291    205.2721    191.6619   1.1344361361e+02   4.6350674764e+00    0.1168079    0.1032817  86.50 0.0003458952    1.604    0.377
       166 -10.2212     91.9371    188.2915   1.3495770935e+02   2.5136844765e+01    0.8520929    0.3590176  56.45  0.003067233    2.493    0.599
       167  -8.4135    148.5517    189.3592   1.2383128906e+02   1.5491067799e+01    0.2674671    0.1892403  81.87  0.000898624    1.926    0.481
       168  -8.8098    129.3297    188.7842   1.2755608984e+02   1.8998210321e+01    0.2955455    0.1942943  76.40  0.001070358    1.940    0.485
       169  -8.2610    237.1570    188.3756   1.0723101605e+02  -6.4984692940e-01    0.2064301    0.1533569  -9.31 0.0005144408    1.317    0.241
       170  -8.8014    191.4660    187.4256   1.1522563857e+02   7.8293896288e+00    0.2975672    0.2286067 -72.42   0.00107641    1.997    0.499
       171  -9.2800    155.8139    187.2505   1.2205906001e+02   1.4531613329e+01    0.3910004    0.2275157 -62.49   0.00119733    2.349    0.574
       172  -9.8264    121.0265    186.9640   1.2895271322e+02   2.0754641182e+01    0.4996836    0.2656568 -76.30  0.002142309    2.995    0.666
       173  -8.8659     34.3692    188.1848   1.4607153411e+02   3.2522782941e+01    0.2906056    0.1279077  75.76  0.001129673    2.420    0.587
       174  -7.9929    242.6235    188.1785   1.0627295384e+02  -1.5720783679e+00    0.1707837    0.1082745 -14.65 0.0006962849    1.632    0.387
       175  -8.8009    216.4748    187.7306   1.1070733843e+02   3.1363999643e+00    0.2199012    0.2169211 -41.15 0.0007614797    1.315    0.240
       176  -9.1034     54.7575    187.0029   1.4211424251e+02   3.0431362681e+01    0.3872109    0.1835467  73.08  0.001571278    2.418    0.586
       177  -8.0822    230.2235    187.1781   1.0819098893e+02   7.2809900486e-01    0.1592407    0.1527233 -36.97   0.00105884    1.383    0.277
       178  -8.6677    164.9116    186.8126   1.2020207561e+02   1.2918423824e+01    0.2524627    0.2042769 -85.80 0.0008705377    1.597    0.374
       179  -9.0139    109.6372    186.1732   1.3113518935e+02   2.2789565520e+01    0.3483215    0.2038699  75.55  0.001185182    2.290    0.563
       180  -8.4667    249.3592    185.1264   1.0457213560e+02  -2.3461193459e+00    0.2875926    0.1412791 -29.48  0.001166279    2.042    0.510
       181  -8.7059    210.2267    184.4586   1.1121801135e+02   4.7540886219e+00    0.2140471    0.1757853 -26.10 0.0004969688    1.305    0.233
       182  -8.4802    202.9726    184.6473   1.1257897122e+02   6.0848265355e+00    0.2245484     0.184699 -57.63  0.000694102    1.617    0.382
       183  -8.7713    182.9946    184.9127   1.1637635213e+02   9.8227605105e+00    0.2119436    0.1938601 -42.02 0.0005885439    1.246    0.197
       184  -8.9925     66.6057    184.4402   1.3954580008e+02   2.9446500233e+01    0.3345181    0.1732646  72.12  0.001077379    2.165    0.538
       185  -8.4570    224.0075    183.9345   1.0865728128e+02   2.2846862350e+00    0.1948892    0.1697457  22.40 0.0004754777    1.062    0.058
       186  -8.7492    174.2301    183.6655   1.1784143042e+02   1.1689060241e+01    0.2485495    0.1997574 -82.61 0.0006959505    1.697    0.411
       187  -7.9820      1.8125    183.8074   1.5167816919e+02   3.6459061683e+01    0.1473399   0.08504614  66.81  0.001035976    1.363    0.267
       188  -8.8413    241.0213    182.1263   1.0537962218e+02  -5.2571366133e-01    0.3061947    0.1993093 -59.19  0.001383854    3.356    0.702
       189  -8.2377    197.5921    182.6541   1.1320529272e+02   7.4020855191e+00    0.3115757    0.1789702 -21.18  0.001354177    2.364    0.577
       190  -8.8830     44.3616    182.4420   1.4370272925e+02   3.2559695456e+01    0.3058118    0.1570512  74.95  0.001031762    1.947    0.486
       191  -9.2270    147.5733    180.6826   1.2261093925e+02   1.7214418754e+01    0.3292823    0.2399489  88.65  0.001126746    1.842    0.457
       192  -9.6335     25.6753    179.1408   1.4700986698e+02   3.5201557123e+01    0.5457112    0.1987992  79.09  0.002258826    3.847    0.740
       193  -8.1152    235.1570    181.2338   1.0620187111e+02   6.3208484422e-01     0.160297    0.1517232 -30.27   0.00105164    1.352    0.260
       194  -8.5622    137.5540    179.4854   1.2444956203e+02   1.9265285034e+01    0.2813891    0.1800973  75.92 0.0009905769    2.224    0.550
       195  -9.2697    191.5408    178.2904   1.1352695554e+02   9.2415470720e+00     0.289295    0.2516114  72.56 0.0005141792    1.421    0.296
       196  -8.1095    169.5218    178.7416   1.1788323927e+02   1.3416203526e+01    0.1699988    0.1314691 -61.97 0.0009285702    1.579    0.366
       197  -9.0533     35.6974    176.5520   1.4487199862e+02   3.4695126544e+01    0.4544261    0.1736005  79.33  0.001783286    4.097    0.756
       198  -9.4457    248.3975    176.6227   1.0306779266e+02  -1.1136012841e+00    0.3934927     0.253104 -40.99  0.001871076    1.884    0.469
       199  -8.5716    250.5152    172.9216   1.0197933219e+02  -1.0104921309e+00    0.1822713    0.1677138  -0.45 0.0005521199    1.218    0.179
       200  -8.3739    205.1198    177.6775   1.1086183927e+02   6.7220540306e+00    0.2168533    0.1811747 -45.09 0.0006618647    1.416    0.294
       201  -8.5699    129.0269    177.4292   1.2587149595e+02   2.1178863572e+01    0.2386261     0.177473 -84.87 0.0006115378    1.572    0.364
       202  -8.0095     97.2578    177.9361   1.3253997885e+02   2.6370046403e+01    0.1892382     0.143928 -33.37  0.001063686    1.986    0.497
       203  -8.2716    231.1093    176.9400   1.0605745674e+02   1.9436386072e+00    0.1814755    0.1749638 -35.79 0.0005318188    1.343    0.255
       204  -8.3191    217.3564    177.0887   1.0851558612e+02   4.4818109197e+00    0.1787518    0.1611022 -15.47  0.000635937    1.169    0.145
       205  -9.1036    183.1274    176.1912   1.1474775210e+02   1.1213317893e+01    0.2532023    0.2192127 -59.49  0.000610914    1.385    0.278
       206  -9.2573    159.0448    175.2377   1.1934756016e+02   1.6037761207e+01    0.4023794    0.2707199  79.86   0.00130765    2.361    0.576
       207  -8.5444     88.9806    176.8492   1.3411202558e+02   2.7847656090e+01     0.264697     0.170751  80.95  0.000897148    1.686    0.407
       208  -9.9771     57.3563    173.3916   1.4023142168e+02   3.2862345657e+01    0.7319374     0.313969  79.97  0.002745612    4.184    0.761
       209  -8.9849     13.2793    176.9511   1.4918491673e+02   3.6804253768e+01    0.2788053    0.1056003  59.42  0.001500664    2.417    0.586
       210  -9.2482    104.3947    174.8065   1.3061083215e+02   2.5868277103e+01    0.4594977    0.2294402  66.47  0.001874351    2.908    0.656
       211  -9.4277     81.6134    154.7389   1.3263279799e+02   3.3560982121e+01    0.4850078    0.3659064 -64.10  0.001755464    1.272    0.214
       212 -10.5478     76.1189    171.2603   1.3608517069e+02   3.0845235767e+01    0.9453798    0.3731466 -80.00  0.003167907    4.803    0.792
       213  -9.0651     74.5125    160.4982   1.3503118222e+02   3.3330991877e+01    0.3345764    0.2375867   1.87  0.001649977    2.959    0.662
       214  -7.7722    224.5159    174.5190   1.0673188707e+02   3.5032254870e+00    0.1323407    0.1170434  17.68  0.000809735    1.046    0.044
       215  -9.3763    175.8719    172.5182   1.1547657231e+02   1.3249018575e+01     0.310131    0.2483524 -51.97 0.0008187794    1.422    0.297
       216  -8.3210    143.2342    173.0374   1.2219716513e+02   1.9430224990e+01    0.2609056    0.1638613  68.10 0.0009351881    2.073    0.518
       217  -8.0529    194.5007    172.4755   1.1184610121e+02   9.5931474431e+00    0.1373418     0.123228  28.58  0.000810183    1.001    0.001
       218  -8.3188    134.8382    171.7636   1.2372883986e+02   2.1221317162e+01    0.2375816    0.1664692 -87.93 0.0006891922    1.893    0.472
       219  -9.4662    121.4765    170.7351   1.2637710999e+02   2.3810369717e+01    0.3627238    0.2474711 -89.28  0.001133472    1.861    0.463
       220  -9.0280     45.1340    171.0404   1.4248470029e+02   3.4789884985e+01    0.3412304    0.1681413  89.70  0.001320983    2.108    0.526
       221  -8.8181    230.6949    170.0829   1.0475574641e+02   2.9711684898e+00    0.2448467    0.2153804  51.46 0.0009055141    1.362    0.266
       222  -8.2955    237.1345    169.8287   1.0359344343e+02   1.8094116571e+00     0.181689    0.1770516  25.02 0.0005378746    1.296    0.229
       223  -8.1453    205.7006    170.1436   1.0927335697e+02   7.7630587878e+00    0.1991834     0.167694 -50.50 0.0004934355    1.443    0.307
       224  -8.3411    198.4822    170.1387   1.1062875188e+02   9.1829941367e+00    0.2046152    0.1854398  66.72 0.0005563278    1.311    0.237
       225  -9.1235    167.2432    168.7173   1.1648377257e+02   1.5610229316e+01    0.3300894      0.23153  72.87  0.001095342    1.966    0.491
       226  -8.5103    149.7531    169.7414   1.2026223606e+02   1.8818766627e+01    0.2645926    0.1863422  82.21 0.0009561625    2.002    0.501
       227  -8.0904    244.4174    169.2568   1.0224637585e+02   5.5627285197e-01    0.1693479    0.1161875 -37.31 0.0005338097    1.611    0.379
       228  -8.3773    218.8462    168.3424   1.0650048308e+02   5.4771884955e+00    0.2096945    0.1804017 -34.87 0.0005247741    1.294    0.227
       229  -8.1559     88.5260    168.5945   1.3309677870e+02   2.9607356608e+01    0.2194428    0.1146159 -76.19 0.0009991712    2.240    0.554
       230  -7.9900    211.1486    168.1888   1.0787088556e+02   6.9970079141e+00    0.1757183    0.1654064 -70.27 0.0006310359    1.368    0.269
       231  -8.4312    111.8201    167.7010   1.2795487122e+02   2.6077908974e+01    0.3027113    0.1772285  70.70  0.001261289    2.274    0.560
       232  -8.8725    192.0008    166.6943   1.1118199031e+02   1.1028786021e+01     0.258282    0.2199405 -62.89 0.0007741729    1.470    0.320
       233  -9.1083    184.9802    166.8062   1.1257206790e+02   1.2415084792e+01    0.2251106    0.2019016 -43.24  0.000608088    1.228    0.186
       234  -9.9801     95.3311    163.3726   1.3086814491e+02   2.9654455392e+01    0.7642561    0.3816288  75.38  0.002645604    4.248    0.765
       235  -9.1869     20.4376    166.1152   1.4701781338e+02   3.8337394051e+01    0.3499635    0.1416934  65.05  0.001177941    2.584    0.613
       236  -9.8501    136.7471    164.4545   1.2205049850e+02   2.2288005906e+01    0.5735375    0.2721406  59.78  0.002069075    2.900    0.655
       237  -8.2502    233.8755    165.0722   1.0317632498e+02   3.0785926746e+00    0.1881505    0.1766393 -22.08 0.0005140688    1.239    0.193
       238  -8.7679    159.4415    164.4945   1.1727696355e+02   1.7914367148e+01    0.2795113    0.2250214  89.77 0.0007795418    1.556    0.357
       239  -9.3539     33.6091    163.4724   1.4412105977e+02   3.7603357355e+01    0.5002142    0.1805295  59.01   0.00223829    3.131    0.681
       240  -8.1718    239.8936    164.2123   1.0196883339e+02   2.0710302509e+00    0.1831446     0.175096   1.36 0.0005240014    1.228    0.186
       241  -8.5125    212.8923    163.6327   1.0661627090e+02   7.3523369993e+00    0.2446903    0.1931952 -37.82 0.0005412567    1.374    0.272
       242  -8.6566    246.0081    162.8558   1.0066106109e+02   1.1268637141e+00    0.2257834    0.1742607 -22.99 0.0005568298    1.251    0.201
       243  -8.3784    204.9005    162.8103   1.0793082793e+02   9.0730894304e+00    0.2305072    0.1793911 -67.18 0.0005458919    1.880    0.468
       244  -9.3197      3.4622    162.3850   1.5008617463e+02   4.0550977656e+01     0.349023    0.1385615  57.58  0.001623173    2.319    0.569
       245  -8.9013    177.4450    160.7978   1.1286639737e+02   1.4973374157e+01    0.2928922     0.230398 -76.26 0.0009619063    1.734    0.423
       246  -8.5652    151.6631    161.0452   1.1824460683e+02   2.0090926029e+01    0.2459966    0.2036389  86.97 0.0009170282    1.409    0.290
       247  -8.4332     60.7624    160.2318   1.3800647796e+02   3.5200884720e+01    0.2359814    0.1355118  84.66  0.001132682    1.900    0.474
       248  -8.4267    227.2112    158.9449   1.0305437823e+02   5.2420197828e+00    0.2679511    0.1764918 -44.76  0.001109653    1.792    0.442
       249  -9.5022    250.1919    157.8297   9.8915896897e+01   1.0394846080e+00    0.2995509    0.1727445 -29.26 0.0007604677    1.656    0.396
       250  -8.4729    236.8828    158.7426   1.0133284103e+02   3.4046561274e+00    0.2425939    0.1694958 -53.95 0.0008248456    2.092    0.522
       251  -8.1525    128.3668    159.2704   1.2293179210e+02   2.4871891262e+01    0.2403726    0.1591053  65.02 0.0008893241    1.709    0.415
       252  -9.4109    105.7039    158.1981   1.2775968977e+02   2.9065763329e+01    0.3801637    0.2488603  78.02  0.001114719    1.888    0.470
       253  -8.5001    196.8103    158.0850   1.0848528834e+02   1.1480879395e+01    0.2065539    0.1919467  84.85 0.0005775417    1.310    0.236
       254  -8.3116    188.0845    158.0134   1.1017219551e+02   1.3282975542e+01    0.2094556    0.1744105 -87.10 0.0005489485    1.624    0.384
       255  -9.0144    167.4581    157.3603   1.1420949179e+02   1.7624280867e+01    0.2933102    0.2408304 -77.29 0.0007840638    1.516    0.340
       256  -8.4023    217.9182    156.6866   1.0423593532e+02   7.4209855067e+00    0.2626508    0.1750548 -50.82 0.0009307108    1.937    0.484
       257  -9.0225    157.4911    156.2843   1.1607926370e+02   1.9840606652e+01     0.316134    0.2209919 -65.58 0.0009702425    1.797    0.444
       258  -9.2820    119.4383    155.2194   1.2417917676e+02   2.7318316313e+01    0.4003777    0.2562078 -85.01  0.001662598    2.216    0.549
       259  -7.8709    204.6443    155.7077   1.0648571863e+02   1.0266781791e+01     0.184119    0.1294661 -43.11 0.0004635319    1.556    0.357
       260  -7.3905     96.3319    155.2729   1.2938741190e+02   3.1209127160e+01     0.120675    0.1067087 -13.51 0.0006987848    1.593    0.372
       261  -8.9623     49.4690    155.2533   1.3988243248e+02   3.7626684600e+01    0.3284436    0.1772529  74.34  0.001586136    2.065    0.516
       262  -8.4742     23.6053    155.7538   1.4549660612e+02   4.0198152793e+01    0.1667768    0.1455529  18.69 0.0009815202    1.695    0.410
       263  -8.1107    237.1840    150.4192   9.9490446574e+01   4.5431296265e+00     0.173692    0.1307001  55.35 0.0003144139    1.578    0.366
       264  -8.3569    242.8077    154.8014   9.9490447867e+01   2.8350830050e+00     0.238932     0.177443  40.78 0.0003517295    1.346    0.257
       265  -7.8663    239.6991    153.3165   9.9693164903e+01   3.6387483401e+00     0.186546    0.1122467 -51.53 0.0002413889    2.469    0.595
       266  -8.4399    144.6132    155.0057   1.1858663125e+02   2.2641772369e+01    0.2182941    0.1708347 -75.48 0.0007203954    1.500    0.333
       267  -9.5572     68.0145    153.7855   1.3556763320e+02   3.5653375867e+01    0.4282169    0.2255686  74.06  0.001414445    2.545    0.607
       268  -7.8603    232.9326    154.4253   1.0108879034e+02   4.7889903070e+00    0.1685706    0.1236336  75.29 0.0004299155    2.321    0.569
       269  -9.6692    132.5254    152.6647   1.2078845889e+02   2.5436744222e+01    0.4312994    0.3232152  79.21  0.001422647    1.592    0.372
       270  -9.3014    133.4874    148.5061   1.1976622315e+02   2.6102709757e+01    0.4062623    0.2404349 -49.19  0.001892529    1.738    0.425
       271  -8.3757     20.0148    152.7756   1.4598776384e+02   4.1151852945e+01    0.1834355   0.09232828  62.88 0.0005969636    1.938    0.484
       272  -8.2328      8.8266    153.3849   1.4837112725e+02   4.1970597718e+01    0.1186915    0.1075772  17.50 0.0009438799    1.662    0.398
       273  -9.6360     29.2188    150.6807   1.4381746001e+02   4.0745376984e+01    0.4069278    0.1785964  71.02  0.001825809    2.795    0.642
       274  -8.9476      2.8415    151.4067   1.4945142080e+02   4.2846371763e+01    0.2174087    0.1192217 -80.24  0.001422699    1.376    0.273
       275  -9.3648    248.8465    149.3928   9.7324536222e+01   2.4488108433e+00    0.3330534    0.1869257 -30.89 0.0007979986    1.691    0.409
       276  -8.4801    243.1217    149.9572   9.8390426950e+01   3.4598788241e+00    0.2633589    0.1645737 -34.17 0.0007515943    1.581    0.368
       277  -8.8271    189.5281    150.4345   1.0827559515e+02   1.4291654876e+01     0.283058    0.2216489 -66.52 0.0009239845    1.690    0.408
       278  -8.0879    182.5936    151.3275   1.0985411081e+02   1.5588831274e+01    0.2094813    0.1713056 -85.95 0.0005530901    1.646    0.392
       279  -8.0477    162.7303    150.8019   1.1384945142e+02   1.9815614416e+01    0.1980437    0.1681391  86.69  0.001049596    1.396    0.284
       280  -8.6193     98.3291    150.6891   1.2817893407e+02   3.1871354370e+01    0.2891544     0.196169  78.69 0.0009149741    1.728    0.421
       281  -8.1964    212.9480    150.1071   1.0372078338e+02   9.4624220589e+00    0.1981831    0.1924627 -86.41 0.0004714024    1.255    0.203
       282 -10.0862     39.8787    146.8179   1.4104335390e+02   4.0507108055e+01    0.6724172    0.3536351 -80.11  0.002661296    1.704    0.413
       283  -8.4114    198.9007    149.1126   1.0615447919e+02   1.2549334835e+01    0.2084424    0.1931446 -84.18 0.0004793188    1.319    0.242
       284  -9.8768     89.1695    146.2905   1.2956903125e+02   3.4268012524e+01    0.6170965    0.3380251  87.31  0.002427576    3.142    0.682
       285  -8.9325    233.1578    147.7397   9.9591587111e+01   5.7298908794e+00    0.2617562    0.1883116 -21.27 0.0006677429    1.355    0.262
       286 -10.2558     55.0227    144.7917   1.3732680908e+02   3.9253763053e+01    0.7370872      0.34628  75.81  0.002906899    3.547    0.718
       287  -9.1278     56.0892    135.8057   1.3582431724e+02   4.1118206333e+01    0.3214613    0.2224579   1.86  0.001662886    2.692    0.628
       288  -8.2474    223.4673    146.9575   1.0111654144e+02   7.8001456568e+00    0.2011075    0.1330545 -31.47 0.0003508476    1.498    0.333
       289 -10.1718    149.0392    145.0566   1.1560218452e+02   2.3730508305e+01    0.5250468    0.3630787  88.26  0.001616458    2.240    0.554
       290 -10.2965    139.0489    144.7994   1.1777129840e+02   2.5779755327e+01    0.9472897     0.328292 -47.83  0.003285987    2.963    0.662
       291  -9.8218    136.8147    135.3102   1.1627531019e+02   2.8174147137e+01    0.3253324    0.2702498 -74.08 0.0003821603    1.312    0.238
       292  -9.8644    132.0540    131.3443   1.1651633271e+02   2.9948447802e+01    0.5362109    0.3558801 -84.67  0.001179457    2.371    0.578
       293 -10.1624    106.5204    144.1255   1.2512220694e+02   3.1925584256e+01    0.7046608    0.4250253 -87.38  0.002167946    2.568    0.611
       294  -8.8462     77.8104    146.9275   1.3232630927e+02   3.5806771170e+01    0.2434372    0.1605078 -87.64 0.0006900966    1.620    0.383
       295  -9.2723     13.5685    146.3599   1.4680057795e+02   4.3059941295e+01    0.3002399    0.1411522  61.55  0.001216409    2.136    0.532
       296  -8.1010    240.0165    145.3164   9.7889342480e+01   4.7305482710e+00    0.2138985    0.1672235 -22.89 0.0005158154    1.210    0.174
       297  -8.2636    243.1168    142.2753   9.6696471554e+01   4.5632507976e+00     0.404873    0.1761598 -19.46  0.001462768    3.164    0.684
       298  -8.0698    206.7557    146.4065   1.0405783273e+02   1.1350492622e+01    0.1836001    0.1775299 -13.28 0.0005591369    1.104    0.094
       299  -8.2415    175.3705    146.0798   1.1019355321e+02   1.8058039102e+01    0.2532589    0.2013339  76.83 0.0009150231    1.594    0.373
       300 -10.8883     68.2589    139.6944   1.3347237585e+02   3.8716817611e+01    0.9517242    0.5202314 -72.27  0.003735906    1.771    0.435
       301  -9.5348     73.2636    129.3141   1.3054639242e+02   4.0362353503e+01    0.4307445    0.2472338 -82.35  0.001046156    2.148    0.534
       302  -9.8107    125.1463    142.7388   1.2051988576e+02   2.8881587345e+01    0.5571467    0.3511351 -81.24  0.001747321    2.438    0.590
       303  -8.6736    247.0116    143.8891   9.6415629946e+01   3.5737376913e+00    0.2296629    0.1759629 -20.52 0.0005743421    1.209    0.173
       304  -7.8839    194.3787    144.1940   1.0594379616e+02   1.4346667287e+01     0.199003    0.1334977 -48.07 0.0005323645    1.669    0.401
       305  -8.7863    165.5862    144.0455   1.1180155376e+02   2.0504141937e+01    0.2633173    0.1982355  64.01 0.0007057363    1.497    0.332
       306  -9.2798      2.7678    142.0206   1.4876116637e+02   4.4809435029e+01    0.3435102    0.1469172  71.35  0.001811197    2.439    0.590
       307  -8.4737    182.0762    141.7119   1.0784754391e+02   1.7424661614e+01    0.2431561    0.1984922 -52.51 0.0005407411    1.354    0.261
       308  -7.8458    250.5085    140.9753   9.5202752346e+01   3.3129427040e+00    0.1981142    0.1230743 -28.42 0.0003767317    1.500    0.334
       309  -8.7678    151.8684    152.9053   1.1660118620e+02   2.1617274877e+01    0.2493945    0.1951464 -58.44  0.000694771    1.384    0.277
       310  -9.7310     23.5108    138.3410   1.4383013885e+02   4.3933959731e+01    0.4804453    0.2183455  73.11   0.00182576    2.690    0.628
       311  -7.8185    218.6250    138.7931   1.0014380391e+02   1.0087261179e+01     0.194875    0.1288063 -41.45 0.0004191244    1.592    0.372
       312  -8.4108    172.3547    138.2955   1.0908976342e+02   2.0149749080e+01    0.3019639    0.2144136 -68.70 0.0009057194    1.956    0.489
       313  -8.2213    207.1823    137.9196   1.0205391339e+02   1.2667505932e+01    0.2161502    0.1970328 -75.09  0.000763451    1.355    0.262
       314  -8.5538    197.6013    137.5678   1.0380671264e+02   1.4798851190e+01    0.2784669    0.2105847 -54.95 0.0007964691    1.579    0.367
       315  -8.5308     80.6970    137.9676   1.3019429027e+02   3.7370901121e+01    0.1902889    0.1590584 -79.55 0.0006395478    1.075    0.069
       316  -8.2463    162.6965    136.6243   1.1077313214e+02   2.2542341937e+01    0.2403272    0.1787094 -66.13 0.0006987445    1.659    0.397
       317  -8.3874    151.3654    136.0378   1.1313274319e+02   2.5051724473e+01    0.4001768    0.2177486  34.44   0.00160995    2.180    0.541
       318  -9.2322     39.0676    136.0741   1.3994435153e+02   4.2947814932e+01    0.2637399    0.1578372  85.02 0.0007687595    1.682    0.405
       319  -8.7689    250.7094    130.2728   9.2753464775e+01   4.8003791807e+00    0.3954481    0.1201012 -28.43  0.001311696    3.435    0.709
       320  -8.7771    248.3795    135.2114   9.4249323783e+01   4.5489980348e+00    0.2916387    0.2033188 -31.19 0.0007126892    1.356    0.263
       321  -8.4104    246.8397    130.5468   9.3431324768e+01   5.5306865618e+00    0.2575611    0.1737955 -41.06 0.0006772539    1.554    0.356
       322 -10.2187     83.4268    132.6405   1.2859815085e+02   3.8155728857e+01    0.5764161    0.2952678 -70.12  0.001341376    2.162    0.537
       323  -7.3548    231.3305    134.2708   9.6863752237e+01   8.1372376154e+00    0.1446021    0.1025194  16.02  0.000343598    1.586    0.370
       324  -8.2858    179.6191    133.9753   1.0657990539e+02   1.9374059078e+01    0.2738627    0.1798777 -54.26 0.0008383503    1.796    0.443
       325  -9.0481    112.8032    133.2546   1.2151579295e+02   3.3178994616e+01     0.333075    0.2333051  81.70 0.0007483721    1.855    0.461
       326  -7.8913    237.3876    133.2623   9.5604676363e+01   7.0423141215e+00    0.1972443    0.1219165 -39.92 0.0006426645    1.658    0.397
       327  -9.1173    143.0697    131.9425   1.1409113488e+02   2.7600851162e+01    0.3470114    0.2528934 -72.78 0.0008556742    1.725    0.420
       328 -10.6617     98.5708    130.0733   1.2435840741e+02   3.6339962449e+01    0.9130008    0.2966694 -56.23  0.003217266    3.016    0.668
       329  -9.9669     12.8882    128.9474   1.4532402630e+02   4.6851241821e+01    0.5395149    0.2327378  86.94   0.00262463    2.510    0.602
       330  -8.3571      1.8830    130.5533   1.4801381855e+02   4.7300494805e+01    0.2128068   0.09863192  70.79  0.001160916    2.254    0.556
       331  -8.1902    211.6643    129.4946   9.9243905708e+01   1.3098222001e+01    0.2519599    0.1692792 -52.94  0.000871688    1.837    0.456
       332  -7.9355    204.6847    130.2033   1.0071816764e+02   1.4512049292e+01    0.2223992    0.1759066 -50.31 0.0006709897    1.420    0.296
       333  -7.8950    192.9500    130.4862   1.0305905803e+02   1.7060055989e+01    0.2145375     0.144582  50.32 0.0003829836    1.489    0.328
       334  -9.1341    168.3635    129.5224   1.0790547178e+02   2.2685187415e+01    0.3003102    0.2432264 -75.51 0.0005529402    1.540    0.351
       335  -8.8874    161.7989    130.3291   1.0951932941e+02   2.3961312095e+01    0.2095266    0.1940284 -58.22 0.0005653405    1.125    0.111
       336  -9.4328    152.8066    128.2499   1.1102902717e+02   2.6308517285e+01    0.5824581    0.2811194 -47.34  0.001833584    2.130    0.530
       337  -7.6458    220.4973    129.5959   9.7665663251e+01   1.1163351710e+01    0.1420832    0.1344908   6.17 0.0008024014    1.043    0.041
       338 -10.6461     45.0068    123.7066   1.3679847521e+02   4.5086154160e+01     1.018713    0.4818679  80.32  0.003870909    3.891    0.743
       339 -10.2623     60.1126    125.1846   1.3317917572e+02   4.3014480379e+01    0.7286706    0.3991872  75.45  0.002911424    2.705    0.630
       340  -9.8634    117.8097    125.2837   1.1860121175e+02   3.3988260803e+01    0.5000747    0.3335281  85.71  0.001324849    2.287    0.563
       341  -8.4873    228.3876    125.2687   9.5257380417e+01   1.0155879025e+01    0.2032029    0.1269975 -40.26 0.0009432179    1.618    0.382
       342  -8.9641    179.0123    124.7006   1.0449312039e+02   2.1228917879e+01    0.3165249    0.2623793  73.72 0.0007275072    1.426    0.299
       343 -10.3472     28.4704    122.3869   1.4079199593e+02   4.7002385242e+01    0.7413598    0.3282833  80.84  0.003006967    3.601    0.722
       344  -8.1492    187.7485    135.5783   1.0529534763e+02   1.7299363441e+01    0.1963015    0.1410576  57.90  0.000397943    1.515    0.340
       345  -7.8811    188.5002    123.9867   1.0237744261e+02   1.9219672428e+01    0.2239322    0.1466975 -38.67 0.0004823364    1.533    0.348
       346 -10.6031    131.9156    119.7313   1.1388874108e+02   3.2423379911e+01    0.8268282    0.4953416 -76.01  0.002806527    3.135    0.681
       347  -9.1997    158.7868    121.6041   1.0809561772e+02   2.6335585895e+01    0.3934962    0.2792761 -75.66 0.0009109849    2.042    0.510
       348  -8.3019     85.3218    122.6819   1.2624640821e+02   4.0102213786e+01     0.328029    0.1941762  17.01  0.001335863    3.192    0.687
       349  -8.0821    202.9825    122.2663   9.9122944649e+01   1.6249738348e+01    0.2072352    0.1918391  34.46   0.00040842    1.072    0.067
       350  -8.5185    172.0829    121.6347   1.0520082803e+02   2.3365739141e+01     0.251057     0.203146 -50.84 0.0005177158    1.302    0.232
       351  -9.5377     71.1555    119.7392   1.2936420001e+02   4.2812612251e+01     0.418535    0.2158355 -71.67  0.001281354    2.129    0.530
       352  -9.8125    141.4913    118.2909   1.1125454918e+02   3.0742089756e+01    0.5945833    0.3202013 -56.51  0.001394532    2.191    0.544
       353  -8.3317    119.9457    119.3660   1.1673504027e+02   3.4862521684e+01    0.2358065    0.1240441  22.65 0.0007038465    4.507    0.778
       354  -9.6386      3.0009    117.3234   1.4652415240e+02   5.0070301844e+01      0.46525    0.1961928  77.96  0.002215497    2.900    0.655
       355  -7.7630    231.6119    117.8141   9.2919495764e+01   1.0628354323e+01     0.206176    0.1250727 -40.90 0.0005077568    1.658    0.397
       356  -7.5342    185.3155    116.6475   1.0119487164e+02   2.1278856147e+01    0.1563904    0.1210691 -74.12 0.0007046403    1.735    0.424
       357  -9.8523    109.2228    114.2516   1.1825683513e+02   3.7978985607e+01    0.4601858    0.3090874 -77.85   0.00125245    1.999    0.500
       358  -8.6456     58.7674    115.8259   1.3192732072e+02   4.5297229294e+01    0.2096571    0.1209595 -32.50 0.0009400598    2.748    0.636
       359 -10.3374    246.8472    114.2161   8.9599723115e+01   7.9344293194e+00    0.3776582    0.2769534  55.32 0.0009424096    1.537    0.349
       360  -8.0769    193.0090    115.0867   9.9260211728e+01   1.9784653540e+01    0.2298049    0.1816661 -68.82 0.0004242836    1.617    0.381
       361  -9.9456     78.9559    112.6440   1.2589201579e+02   4.3314863884e+01    0.5410849    0.3427037  86.89  0.001663055    2.301    0.565
       362  -8.2316     78.6401    105.5932   1.2446831145e+02   4.4948861105e+01    0.2692701    0.1859712 -28.05 0.0009710886    1.941    0.485
       363  -7.9580    167.1743    114.3952   1.0444050220e+02   2.5863993455e+01    0.2085968    0.1919168 -16.33 0.0006059777    1.128    0.113
       364  -9.9899     92.7038    112.4235   1.2216339516e+02   4.1236773378e+01    0.5080866    0.3184787 -73.42  0.001319649    1.951    0.487
       365  -8.7226     93.4909    104.9890   1.2024430449e+02   4.2761518377e+01    0.4153436    0.2653826  12.70  0.001725586    2.828    0.646
       366  -8.4338    159.3878    112.2699   1.0561610946e+02   2.8042775677e+01     0.261573    0.2339472 -68.43 0.0006738018    1.217    0.178
       367 -10.0829    121.6204    111.9603   1.1455016524e+02   3.6130792244e+01    0.4688989    0.3162519 -70.93  0.001273457    1.908    0.476
       368  -9.8845     14.2610    111.1353   1.4300090782e+02   5.0649043994e+01    0.3782017    0.1990225  75.05  0.001320761    2.205    0.546
       369  -7.3743    199.7172    112.3237   9.7256371092e+01   1.8717120725e+01    0.1497786    0.1188594 -67.39 0.0002528678    1.595    0.373
       370  -8.4318    174.8003    111.9970   1.0218619274e+02   2.4569282637e+01      0.23186    0.2023631 -64.40 0.0005406911    1.279    0.218
       371  -9.6968    133.5057    109.2335   1.1091172603e+02   3.4300749243e+01    0.5510098    0.2768148 -47.64   0.00151621    1.970    0.492
       372  -9.7665     66.3150    110.5033   1.2889098039e+02   4.5550895248e+01    0.3679733    0.2572843 -89.99   0.00120628    1.653    0.395
       373  -8.2327     67.1640    105.3240   1.2760918310e+02   4.6610852721e+01    0.2382476    0.1295018  23.99  0.001075444    2.625    0.619
       374  -7.7161    182.8460    109.8004   9.9941150091e+01   2.3104094701e+01    0.2062032    0.1773026 -64.48 0.0004566753    1.324    0.245
       375  -9.2000    248.7945    108.5763   8.7948807042e+01   8.3610843131e+00    0.2762685    0.2118841   6.74  0.001399938    1.428    0.300
       376  -8.7248     43.3077    109.5253   1.3501086832e+02   4.8462932611e+01    0.2708095    0.1312375  26.12  0.001321116    2.713    0.631
       377  -8.2273    189.0933    108.0410   9.8221044620e+01   2.1956727804e+01    0.2380278    0.1857119 -69.19 0.0006226973    1.636    0.389
       378  -8.9739    109.2179    107.8781   1.1673669276e+02   3.9372507478e+01    0.2700682    0.1990208   6.13  0.001003257    2.077    0.518
       379  -9.2179    140.0499    104.7745   1.0815855483e+02   3.3830808425e+01    0.3730891    0.2767644 -81.32 0.0009100367    1.866    0.464
       380 -10.4936     45.8135    102.6671   1.3311113530e+02   4.9749688476e+01    0.7065285    0.3814386  75.34  0.003031308    3.145    0.682
       381 -10.6989     23.0072    102.8299   1.3953566569e+02   5.1823038442e+01    0.6590052     0.331081  76.14   0.00279653    2.879    0.653
       382  -8.4167    166.8936    104.4837   1.0190725563e+02   2.7829458156e+01    0.2847227     0.206604 -56.12 0.0006387853    1.555    0.357
       383  -9.4893    150.5431    103.2140   1.0525277638e+02   3.1827935495e+01    0.4716021    0.2855129 -58.11   0.00116424    2.055    0.513
       384  -9.2965    249.2648    103.3737   8.6620209172e+01   9.0288998074e+00    0.3583151    0.1926191 -11.46  0.001404753    2.599    0.615
       385  -8.7886      6.8073    103.2418   1.4399963550e+02   5.2893166017e+01    0.2632212    0.1575428  77.08   0.00117777    1.748    0.428
       386  -9.5730    128.5706    102.2642   1.1032335400e+02   3.6782234574e+01    0.3481402    0.2795303  89.59 0.0008023159    1.557    0.358
       387 -10.3485    108.9267     98.8626   1.1453505745e+02   4.1378999053e+01    0.8018026    0.4670202  70.78  0.001349119    3.339    0.701
       388  -8.9300    108.2185     92.4828   1.1302155447e+02   4.2874768458e+01    0.4538974    0.2705095  23.30  0.001818555    2.585    0.613
       389  -7.8217    175.4448    102.2439   9.9472880129e+01   2.6240422045e+01    0.2131158    0.1431928 -48.88 0.0004666205    1.579    0.367
       390  -7.9122    192.3779    101.1670   9.5757534500e+01   2.2398942002e+01    0.2244547    0.1362047 -45.25  0.000939837    1.709    0.415
       391  -8.2355    159.8244    101.0749   1.0255046583e+02   3.0126876990e+01    0.2328221    0.2044017 -62.92 0.0004588056    1.233    0.189
       392  -9.1855     82.2312    100.0636   1.2220164847e+02   4.5648847818e+01     0.360081    0.2213063 -69.47 0.0009277966    1.867    0.464
       393  -9.0912     95.0316     97.0563   1.1787072647e+02   4.4249996456e+01    0.3074138    0.2141793 -63.92 0.0005133889    1.513    0.339
       394  -9.9653     63.8620     95.8160   1.2651028866e+02   4.9181282811e+01    0.5713369    0.3366613 -83.75  0.001926139    2.571    0.611
       395  -8.6317     66.5092     87.2495   1.2371749798e+02   5.0738843707e+01    0.4890359       0.2278  17.75  0.001625521    5.066    0.803
       396  -8.4653    151.3835     95.4918   1.0293564476e+02   3.3158180874e+01    0.3171232    0.2116821  18.89  0.001060582    2.213    0.548
       397  -9.5778    249.0566     94.6870   8.4526454334e+01   1.0350971433e+01    0.3305566    0.1830417 -32.13   0.00151048    1.629    0.386
       398  -8.1613    164.9066     94.3405   9.9558830858e+01   3.0217563197e+01    0.2666666     0.200552 -48.20 0.0005586137    1.370    0.270
       399  -8.9292     45.4243     92.9372   1.3135194974e+02   5.1978636556e+01    0.3126685    0.1966152 -12.60  0.001538879    2.722    0.633
       400  -7.6302    188.5068     93.5494   9.4446154117e+01   2.4670473737e+01      0.15224    0.1500645 -29.22 0.0001786832    1.028    0.027
       401  -8.1449    176.3281     93.0827   9.6770583509e+01   2.7709459761e+01    0.2265459    0.1893851 -41.52  0.000497042    1.192    0.161
       402  -9.2822    138.8919     91.8183   1.0487838791e+02   3.6701432724e+01    0.4958933    0.2735083 -51.38  0.001244468    1.979    0.495
       403  -8.2040    128.3566     83.3003   1.0503756813e+02   4.0694706218e+01    0.3589097    0.2300704  25.17  0.001486312    2.124    0.529
       404  -9.1976    120.5918     92.8149   1.0980295273e+02   4.0386065862e+01    0.2953394    0.2380672  52.10  0.001438003    1.311    0.237
       405  -9.8438    124.5767     91.1112   1.0828547892e+02   3.9919829253e+01    0.5698758    0.3521967 -51.25  0.001346469    1.654    0.395
       406  -9.4559      5.4567     92.2905   1.4297031730e+02   5.5371210419e+01    0.3104451    0.1841233  68.49   0.00124273    1.975    0.494
       407  -7.7709    157.6273     91.8080   1.0046223052e+02   3.2416735314e+01    0.2141238    0.1408867 -47.78 0.0003653316    1.572    0.364
       408  -9.4692     34.7690     89.7574   1.3392542414e+02   5.3734634991e+01    0.4301371     0.223191 -80.61   0.00166721    2.322    0.569
       409  -8.9722     22.9238     90.0477   1.3753342360e+02   5.4670550513e+01    0.2402638    0.1668357 -51.27  0.001061385    1.303    0.232
       410  -7.9334    151.1178     89.1902   1.0120291716e+02   3.4438200423e+01    0.2158091    0.1794731 -63.87 0.0004463388    1.354    0.261
       411  -9.9063     86.3948     86.2109   1.1749928335e+02   4.8036163482e+01    0.5692345    0.3379919 -61.10  0.001326761    1.829    0.453
       412  -7.3661    188.2616     87.3277   9.2762727694e+01   2.5812797403e+01    0.1544515    0.1200815   8.62 0.0002228093    1.564    0.361
       413  -7.7034    164.0000     87.0434   9.7675330258e+01   3.1791290517e+01    0.2507831   0.08773118 -36.77 0.0004216576    2.827    0.646
       414  -9.6340     48.3711     84.4271   1.2863545249e+02   5.3558043416e+01    0.4300024    0.2685183  81.25  0.001711812    2.564    0.610
       415  -9.6716    104.7294     83.1261   1.1134993554e+02   4.5493459886e+01    0.4225887     0.286543 -65.44 0.0009700357    1.851    0.460
       416  -8.4809    158.0301     84.0034   9.8107659897e+01   3.3784765345e+01    0.2347856     0.224903 -28.10 0.0004843107    1.029    0.028
       417  -8.9311    140.8184     82.9262   1.0180899993e+02   3.8008836132e+01    0.3526141      0.20185 -45.57  0.000532166    1.757    0.431
       418  -9.3441     10.1249     81.3541   1.3996631608e+02   5.7473466718e+01    0.3707795     0.188424  65.69  0.001526798    2.974    0.664
       419  -8.1501     35.4902     82.5156   1.3225797506e+02   5.5273696375e+01    0.1253367    0.1006191 -59.04 0.0008103527    1.016    0.016
       420  -9.6430     24.4686     80.4625   1.3532559159e+02   5.6663809807e+01    0.4320844    0.2302232 -87.80   0.00155644    2.578    0.612
       421  -8.1027    150.2129     80.8187   9.8942363849e+01   3.6231894479e+01    0.2286516    0.2068501 -66.68 0.0008682715    1.207    0.171
       422  -8.7275    119.3823     80.3928   1.0651672908e+02   4.3164565663e+01    0.3368451    0.2351487 -57.72  0.001079868    1.620    0.383
       423  -8.7706     74.5549     80.5942   1.1953761013e+02   5.1065285236e+01    0.2994515    0.2053659 -64.46  0.001138617    1.551    0.355
       424  -8.2334    166.7929     79.8563   9.4962347934e+01   3.2413301860e+01    0.2265333    0.2052918   3.37  0.000454721    1.169    0.145
       425  -8.1029    183.8199     78.4050   9.1072461336e+01   2.8440716362e+01     0.214275    0.1410413  43.66 0.0005271854    1.570    0.363
       426  -7.4252    174.5631     78.5094   9.2943278436e+01   3.0730930657e+01    0.1540644    0.1501495 -43.82 8.732885e-05    1.037    0.036
       427  -7.9431     90.9630     79.0000   1.1412573959e+02   4.8811536247e+01      0.22415   0.08178896  40.99 0.0008102875    2.997    0.666
       428  -9.1787     65.3151     77.6640   1.2163041846e+02   5.2986750469e+01    0.2630309    0.2035109 -64.10  0.001063984    1.285    0.222
       429  -9.8853     63.3888     73.6204   1.2114754418e+02   5.4107358697e+01    0.4859521    0.2456898 -62.33  0.001448463    2.216    0.549
       430  -9.1954    128.1074     75.8003   1.0281570283e+02   4.2210086502e+01    0.3588657    0.2538494 -64.62  0.000961254    1.846    0.458
       431  -7.5986    157.1507     76.2206   9.5969103068e+01   3.5413857946e+01    0.2123489    0.1786016 -62.22 0.0004591646    1.333    0.250
       432  -8.5934    140.5349     75.2945   9.9549267400e+01   3.9515876360e+01    0.2763618    0.1438106 -42.09  0.000757867    1.890    0.471
       433  -9.6602     82.5360     72.9587   1.1489519701e+02   5.1457686072e+01     0.417741     0.272982 -67.87  0.001120372    2.051    0.513
       434  -7.3852    216.2392     74.3451   8.4218949989e+01   2.1022989177e+01    0.1479963    0.1141974   6.48 0.0002383355    1.562    0.360
       435  -8.3197    163.5909     73.6982   9.3791913646e+01   3.4285316301e+01    0.2709993    0.1834305 -44.32 0.0007199558    1.503    0.335
       436  -8.0465    151.5006     73.4755   9.6399772755e+01   3.7267713435e+01    0.1526433    0.1501737 -31.64 0.0002536729    1.027    0.027
       437  -8.7512    115.5953     72.3554   1.0505346491e+02   4.5524464821e+01    0.3764139    0.1669572 -42.35 0.0009686464    2.149    0.535
       438  -9.2492    105.9351     71.8685   1.0759522694e+02   4.7544137924e+01    0.3018031    0.2022659 -53.16  0.000641658    1.582    0.368
       439  -9.2452     95.1066     71.2655   1.1056038236e+02   4.9676509613e+01    0.3655908     0.208842 -56.10 0.0009610157    2.002    0.501
       440  -8.2903     42.4622     72.6918   1.2777520871e+02   5.6744548321e+01    0.2440482    0.1102702 -63.56 0.0007367642    2.122    0.529
       441  -7.8219    175.4743     72.5368   9.0981040419e+01   3.1523852466e+01    0.1533142    0.1508088  -1.04 8.100898e-05    1.008    0.008
       442  -9.3711     51.4186     69.6361   1.2399830931e+02   5.6429621996e+01    0.4089723     0.228766 -71.10  0.001499221    2.383    0.580
       443  -8.6416     28.5149     70.5070   1.3193150574e+02   5.8503838101e+01    0.2516516    0.1638635 -29.99 0.0009300459    1.741    0.426
       444  -8.2292     32.0160     68.0014   1.3016215513e+02   5.8742780592e+01     0.190148    0.1537773 -51.60 0.0007710519    1.035    0.033
       445  -8.8390     16.6658     69.9039   1.3578764640e+02   5.9528974564e+01    0.2471487    0.1474781 -76.39 0.0008927752    1.622    0.384
       446  -8.4143    130.1400     69.6636   1.0035169141e+02   4.2916853992e+01    0.3343478    0.1739023  29.13  0.001150295    3.004    0.667
       447  -8.6008    147.0810     68.3832   9.5816299842e+01   3.9230495594e+01    0.2856357    0.2127433 -41.96 0.0004596064    1.341    0.255
       448  -8.4431    138.6835     66.5010   9.7204255648e+01   4.1543298433e+01    0.2941197    0.2097216 -58.36 0.0007098763    1.700    0.412
       449  -8.7274    121.6179     66.1784   1.0143397380e+02   4.5427293491e+01    0.3221923    0.2300641 -59.89 0.0007727222    1.735    0.424
       450  -8.8964     84.3952     64.6664   1.1174082923e+02   5.2836849971e+01    0.4332224    0.2522828   2.86  0.001467868    4.297    0.767
       451  -8.7287     64.5837     63.5802   1.1783537266e+02   5.6043417110e+01    0.3902554    0.2173949 -19.54   0.00157795    3.123    0.680
       452  -8.8598     37.2890     64.2605   1.2740659887e+02   5.9055025202e+01    0.2973453    0.1956245 -77.11  0.001262641    1.865    0.464
       453  -7.2589    187.3084     63.3469   8.5973135862e+01   3.0010874522e+01    0.1612017    0.1178901  19.43 0.0007044082    1.703    0.413
       454  -8.2728    158.1535     61.8421   9.1248108787e+01   3.7645277614e+01     0.208214    0.1784968  15.56 0.0003364107    1.265    0.209
       455  -9.2850     97.2934     60.8340   1.0651360938e+02   5.1312872281e+01     0.282393    0.2304505  44.64  0.001105672    1.334    0.251
       456  -9.5899     73.3206     59.6211   1.1366996032e+02   5.5586261511e+01     0.379691    0.2183553 -55.57  0.001062598    1.886    0.470
       457  -8.1646    147.1440     59.2250   9.2828935717e+01   4.0783351607e+01    0.2086474     0.177014 -60.30 0.0004297253    1.330    0.248
       458  -9.0130    110.2062     63.9258   1.0380587220e+02   4.8226703973e+01    0.3179858    0.2338812 -52.25  0.000752196    1.469    0.319
       459  -9.3902      7.5655     57.5488   1.3639413657e+02   6.2717847132e+01    0.2966308    0.1846648 -86.20 0.0009893011    1.888    0.470
       460  -8.2336    130.7840     58.0355   9.6337663569e+01   4.4841936563e+01    0.2276958    0.1951265 -53.77 0.0004903114    1.280    0.219
       461  -9.7573     23.4206     56.4412   1.3035680691e+02   6.1890855354e+01    0.3961765    0.2454575  89.69  0.002055111    2.613    0.617
       462  -9.2564    119.0670     55.7230   9.8571801622e+01   4.7848395102e+01    0.4113276    0.2272727 -46.13  0.001735086    1.930    0.482
       463  -9.4722     54.3378     55.7706   1.1893472733e+02   5.8948658349e+01    0.3282964    0.2060823 -61.27  0.001051187    1.773    0.436
       464  -8.1589    140.0047     56.3220   9.3513583803e+01   4.2979159023e+01    0.2065025     0.196324  49.26 0.0003638408    1.084    0.077
       465  -8.7476     43.9753     55.4982   1.2256925689e+02   6.0194937900e+01    0.2752851    0.1577293 -56.78  0.001024525    1.589    0.371
       466  -8.4117    105.9137     53.2705   1.0135153556e+02   5.1023466974e+01    0.2477594    0.1935197 -59.02 0.0006824031    1.568    0.362
       467  -8.4642    198.0434     53.0328   8.1076728429e+01   2.8799395837e+01     0.218137    0.2136417 -27.02            0    1.027    0.026
       468  -9.4690     92.3442     50.7222   1.0447916826e+02   5.4082084590e+01    0.4066383    0.2226697 -47.07  0.001202858    1.900    0.474
       469  -8.1829    158.4576     49.5191   8.7162846615e+01   3.9514138743e+01    0.1520166     0.144788  19.56 2.271936e-05    1.042    0.041
       470  -8.2668    144.6193     48.8643   8.9907352010e+01   4.3057165431e+01    0.2199228    0.1315476 -42.30 0.0006202615    1.734    0.423
       471  -8.2700    129.6415     49.2451   9.3569476058e+01   4.6559582930e+01    0.2037263    0.1374914 -21.06 0.0002184184    1.569    0.363
       472  -8.5256    120.8200     47.4896   9.5181758212e+01   4.8838930409e+01    0.2517211    0.1931589 -31.01 0.0004527965    1.264    0.209
       473  -8.4588    112.2493     47.0399   9.7313312748e+01   5.0772139240e+01    0.2361157     0.202913 -79.32  0.000576738    1.537    0.350
       474  -8.8272     82.0319     46.6827   1.0627501573e+02   5.6620024895e+01    0.2516054     0.181873 -42.81 0.0005815648    1.334    0.250
       475  -8.5505     45.0282     44.6236   1.1868654735e+02   6.2227183357e+01    0.2242158    0.1550184 -58.37 0.0005197697    1.550    0.355
       476  -8.6819     16.7550     44.6764   1.2976064035e+02   6.4781832298e+01     0.223478    0.1322072 -65.21 0.0006753505    1.600    0.375
       477  -8.6176    132.9320     43.4896   9.0716771808e+01   4.6684532291e+01    0.2845594    0.1944939 -48.66 0.0008587597    1.660    0.397
       478  -8.7679     58.1517     42.6109   1.1305498567e+02   6.0986941765e+01    0.3121716    0.1895631 -59.71  0.001138633    2.232    0.552
       479  -7.9023     32.3536     44.3331   1.2349412387e+02   6.3583721064e+01    0.1305079   0.07499984 -29.59 0.0007045313    1.786    0.440
       480  -8.1933     92.3946     42.8424   1.0153069965e+02   5.5431897537e+01    0.2050059     0.122365 -25.31 0.0009526943    1.714    0.417
       481  -9.3457     69.5584     41.2948   1.0846647527e+02   5.9585018298e+01    0.4830519    0.2315404 -50.59  0.001628317    2.415    0.586
       482  -9.4697      5.1466     41.8001   1.3363346668e+02   6.6077556365e+01     0.386814    0.1829565 -74.83    0.0019447    2.606    0.616
       483  -8.6791    105.9955     41.4601   9.6972688840e+01   5.2978957798e+01    0.2647954    0.1847012 -46.07 0.0006127954    1.575    0.365
       484  -8.3819    140.3805     41.2531   8.8197343605e+01   4.5228385732e+01    0.2064021    0.1332587 -38.83 0.0006275777    1.579    0.367
       485  -8.3742     36.8858     41.0555   1.2062695817e+02   6.3778622196e+01    0.1765942     0.151732 -58.54   0.00054345    1.317    0.241
       486  -8.9884     95.4066     38.0445   9.8750145112e+01   5.5637250140e+01    0.2798487      0.18934 -47.89 0.0007352194    1.698    0.411
       487  -8.1199     80.6217     36.8082   1.0293895796e+02   5.8544814108e+01    0.1906367    0.1148467 -44.09  0.000454686    1.706    0.414
       488  -7.6714    133.4822     36.4590   8.8034314207e+01   4.7574821214e+01    0.1461472     0.137923  16.60 0.0002995641    1.003    0.003
       489  -8.1435    125.9291     35.6891   8.9536055641e+01   4.9461913521e+01    0.2003706    0.1783982  40.55 0.0003564094    1.105    0.095
       490  -8.4446    111.8590     34.7961   9.2785957090e+01   5.2748907897e+01    0.2459085     0.196189 -41.44 0.0005665122    1.345    0.257
       491  -8.7962    119.0247     32.5780   9.0061305098e+01   5.1477762219e+01    0.4116651    0.1622531 -40.68  0.001160832    2.726    0.633
       492  -8.3640    104.5325     34.4954   9.4683023587e+01   5.4347569487e+01    0.1408122    0.1279538  -1.45 0.0003957931    1.008    0.008
       493  -7.9585     88.5335     34.5266   9.9467510971e+01   5.7491532063e+01    0.1358325    0.1221593 -13.62 0.0001016227    1.055    0.052
       494  -8.8611     48.4644     33.4966   1.1327465635e+02   6.3871195407e+01    0.2253431    0.1927721 -46.87 0.0006584746    1.303    0.233
       495  -8.7399     60.7623     32.6504   1.0823214171e+02   6.2375687157e+01    0.2335945    0.1827558 -43.17 0.0005945745    1.320    0.242
       496  -8.7998     72.0813     31.3100   1.0360182132e+02   6.0862182711e+01    0.2204874    0.1712035 -50.48  0.000623513    1.570    0.363
       497  -9.1216     12.9405     30.6598   1.2710497107e+02   6.7775399312e+01    0.2634203    0.1405421 -61.36  0.001284262    1.801    0.445
       498  -8.3347    101.3443     29.4378   9.3556438422e+01   5.5736127932e+01    0.2321468    0.1523784 -45.03 0.0008190462    1.753    0.429
       499  -7.8427     42.1646     30.1531   1.1447662364e+02   6.5207018547e+01    0.1575275    0.1310619 -47.68  0.000403427    1.327    0.247
       500  -8.8028     81.4151     27.6165   9.8890042184e+01   5.9836166001e+01    0.2539442    0.2014256 -57.41 0.0007847617    1.756    0.430
       501  -8.7642      3.5150     27.8244   1.3037304252e+02   6.8891482372e+01    0.1863571    0.1552252 -74.93 0.0007306847    1.472    0.321
       502  -7.8496    109.7123     27.3544   9.0410516540e+01   5.4251541832e+01     0.138127    0.1075728 -56.80  0.000702412    1.673    0.402
       503  -8.9376     91.6189     26.3945   9.5153596000e+01   5.8108548924e+01     0.294917    0.2045259 -42.45 0.0008289306    1.601    0.376
       504  -7.4775    127.0000     25.0121   8.5219124705e+01   5.0625659808e+01    0.2232374   0.07983694 -26.37 0.0004732573    2.820    0.645
       505  -7.8019    104.4694     22.9541   9.0016738775e+01   5.5953696625e+01     0.199646    0.1285405 -26.54 0.0004783571    1.505    0.336
       506  -8.6355    218.5660    247.4439   1.2006561320e+02  -4.4374328226e+00    0.2595347    0.1072466 -35.53  0.001418195    3.029    0.670
       507  -8.9083     48.3168     21.7226   1.0842586841e+02   6.5859954019e+01    0.2118635    0.1822366 -50.83 0.0005914079    1.529    0.346
       508  -7.9263    120.6845     21.3106   8.5238809403e+01   5.2552507024e+01    0.1375642    0.1095043 -62.33 0.0005561234    1.635    0.389
       509  -8.1257     19.4269     21.2654   1.2079759691e+02   6.9005084292e+01     0.155129   0.09401088 -54.27 0.0009425646    1.624    0.384
       510  -7.9840    145.9978     20.2540   7.9463086693e+01   4.6536037121e+01    0.1864398    0.1189642  60.73 0.0004512444    1.507    0.336
       511  -8.9344     73.9813     19.4082   9.7779331927e+01   6.2311908437e+01    0.2719828    0.1630131 -42.21 0.0008793076    1.867    0.464
       512  -8.1727     87.8685     17.8426   9.2594251894e+01   5.9976301761e+01    0.1699757     0.150259 -34.72 0.0004221271    1.299    0.230
       513  -7.7946     38.8990     18.4121   1.1088437957e+02   6.7547145522e+01    0.1644448    0.1278207 -34.27 0.0006678458    1.191    0.161
       514  -8.6451    132.3412    247.9415   1.3434282214e+02   8.9608566574e+00    0.2207865    0.1428688  71.00 0.0005864533    1.758    0.431
       515  -8.1506      7.6140     15.7618   1.2423133673e+02   7.0849275641e+01    0.1495847   0.08783938 -56.56 0.0006849425    1.636    0.389
       516  -7.8309     17.0702     14.4974   1.1912088301e+02   7.0363027188e+01    0.1406009    0.1045564  12.96 0.0006933986    1.511    0.338
       517  -8.2872     75.3086     13.3434   9.4542405535e+01   6.2876053065e+01    0.1369158    0.0880104   9.13 0.0004969166    1.696    0.410
       518  -8.0138     30.0339     16.3130   1.1385841815e+02   6.8858902935e+01    0.1561633    0.1308548 -20.36 0.0007985586    1.135    0.119
       519  -7.9894    113.3585    249.0966   1.3757153215e+02   1.1625011622e+01    0.1397263   0.09109378 -87.55 0.0009329939    1.865    0.464
       520  -9.2173    103.7608    246.6207   1.3891006610e+02   1.3374365195e+01    0.3681243    0.1898002 -87.40   0.00199617    2.984    0.665
       521 -10.0231    224.0672    244.3826   1.1874251790e+02  -4.9619712254e+00    0.3850109    0.2209224 -43.62  0.002354854    2.592    0.614
       522  -8.8937    175.5171    247.2606   1.2709735351e+02   2.3133547416e+00    0.2424811    0.2132681 -81.67  0.001162891    1.568    0.362
       523  -8.4980    155.9955    248.1656   1.3044705240e+02   5.2751738303e+00    0.1723678    0.1221275  58.19 0.0005852055    1.338    0.253
       524  -7.5740     40.6727    248.3279   1.4890810303e+02   2.1213666845e+01    0.1081473   0.04994139  65.66 0.0006696447    1.703    0.413
       525  -8.6658    147.2199    246.2118   1.3168555029e+02   6.9059368613e+00    0.2611253    0.1545119  72.96   0.00107295    2.636    0.621
       526  -8.9259    120.3696    245.5632   1.3608262694e+02   1.1103218438e+01    0.3079646    0.1793458  76.92  0.001480641    2.300    0.565
       527  -8.6647     12.8491    247.1938   1.5290018139e+02   2.4342357002e+01    0.2019212   0.03182596  44.34  0.001032732    3.447    0.710
       528  -8.6569     78.4379    243.7677   1.4276809411e+02   1.7299025932e+01    0.3621323    0.1405213  70.79  0.001478018    4.632    0.784
       529  -8.0764     67.5299    245.0461   1.4459265454e+02   1.8510823788e+01    0.1397866   0.08936491 -81.41 0.0009068197    1.579    0.367
       530  -8.2858     59.0435    245.2780   1.4593352010e+02   1.9531597568e+01    0.1943838   0.07161729  70.00 0.0008961313    3.624    0.724
       531  -8.1400     50.0368    244.2746   1.4726031321e+02   2.0773323837e+01    0.2614891   0.09974317  86.85  0.001297418    3.554    0.719
       532  -8.5505    201.9494    243.2925   1.2219712861e+02  -1.4072280621e+00    0.1967251    0.1541705 -47.19  0.000930502    1.797    0.443
       533  -7.5725    139.3424    244.6619   1.3283032995e+02   8.3432850037e+00    0.1168661   0.07250693  65.52 0.0004544968    1.769    0.435
