#   1 NUMBER                 Running object number                                     
#   2 MAG_AUTO               Kron-like elliptical aperture magnitude                    [mag]
#   3 X_IMAGE                Object position along x                                    [pixel]
#   4 Y_IMAGE                Object position along y                                    [pixel]
#   5 X_WORLD                Barycenter position along world x axis                     [deg]
#   6 Y_WORLD                Barycenter position along world y axis                     [deg]
#   7 A_WORLD                Profile RMS along major axis (world units)                 [deg]
#   8 B_WORLD                Profile RMS along minor axis (world units)                 [deg]
#   9 THETA_WORLD            Position angle (CCW/world-x)                               [deg]
#  10 FWHM_WORLD             FWHM assuming a gaussian core                              [deg]
#  11 ELONGATION             A_IMAGE/B_IMAGE                                           
#  12 ELLIPTICITY            1 - B_IMAGE/A_IMAGE                                       
         1 -11.1195     80.3685     35.4130   6.6520188472e+01   6.0450911400e+01     1.146719    0.8149137 -25.73  0.005662453    1.469    0.319
         2 -12.4085     75.0713     51.9761   7.5622601306e+01   5.8414835502e+01     1.571456     1.006815 -58.88  0.006999161    1.852    0.460
         3 -13.4870     42.9989     45.9429   8.7571239732e+01   6.5046698344e+01     1.386699    0.6498875  45.09 0.0009443026    2.603    0.616
         4 -11.4680     60.3147     46.8449   7.9677745054e+01   6.2175911145e+01     1.544811     1.037248 -47.28  0.007632793    1.421    0.296
         5 -11.4707     61.0081     36.6237   7.4891153755e+01   6.4094749269e+01    0.9524531    0.6426823   8.69  0.002748023    2.096    0.523
         6 -12.1050    124.7966     27.9402   5.0951985815e+01   5.0891508103e+01    0.8980569    0.5885763  46.19  0.002773259    1.574    0.365
         7 -12.4119    120.2736     57.2418   6.3166552677e+01   4.7436285925e+01     2.289316     1.353243 -72.57  0.007811846    3.264    0.694
         8 -12.8661    116.2200     41.7199   5.8376754157e+01   5.1057637285e+01     1.074368    0.7632549 -76.86  0.004823392    1.877    0.467
         9 -11.4850    146.0078     47.1255   5.3784782237e+01   4.2742965356e+01     1.111642    0.4369538 -24.38   0.00359382    3.261    0.693
        10 -11.7764      3.1046      5.0640   9.5384699485e+01   7.7828562960e+01     1.117989    0.6743144 -69.09  0.003433586    2.032    0.508
        11 -10.9185      7.8797     33.2372   1.0356214242e+02   7.1434960704e+01     1.994296    0.4657827 -59.22  0.007613892    2.884    0.653
        12 -10.4123     46.9027     19.1299   7.2690863886e+01   6.9729948828e+01    0.3934461    0.3353715 -42.09  0.002008564    1.249    0.199
        13 -12.0356     26.6892     27.7055   8.9073026071e+01   7.1022578518e+01    0.5569957    0.5171199  28.47   0.00236057    1.238    0.192
        14 -12.0346     36.3409     18.3916   7.8202606595e+01   7.1561570738e+01    0.8212618    0.5594984 -50.07  0.004469021    1.586    0.369
        15 -11.6951     20.2035     21.8567   9.0583379001e+01   7.2939337375e+01    0.7480803    0.2409851 -51.24   0.00304554    2.586    0.613
        16 -12.5856     16.8579     12.9290   8.8292184589e+01   7.5070048891e+01     0.943821    0.4888864 -36.47  0.003164323    1.785    0.440
        17 -12.1227     22.7297     11.7285   8.3196632533e+01   7.4626445386e+01    0.5618301    0.3783225 -17.35  0.002135241    1.558    0.358
        18 -11.2569    164.9858     18.0350   4.0970005950e+01   4.1684611035e+01    0.6305982    0.3391868  34.76  0.002573853    2.673    0.626
        19 -10.4634    125.4855     20.9548   4.8020677594e+01   5.1586640662e+01    0.8241276    0.3168508  75.28   0.00266664    3.472    0.712
        20  -9.3505    141.4745     12.0561   4.1933220540e+01   4.8397506983e+01    0.2463217    0.1752397  -2.71  0.000858031    1.696    0.410
        21 -11.1329    142.8882     25.6246   4.6724152287e+01   4.6507785580e+01     1.103884    0.4354144  47.22  0.003953794    2.839    0.648
        22 -10.3843    147.1617     16.7477   4.2847631669e+01   4.6421822481e+01    0.4870324    0.3993769  36.98  0.002646898    1.365    0.268
        23 -11.3820    136.8980     22.7617   4.6667555941e+01   4.8409610280e+01    0.9484255    0.3626801  52.88  0.003524097    2.523    0.604
        24 -11.4795    105.9098     20.3274   5.1939051844e+01   5.6658908723e+01    0.5457994    0.4212177 -46.83  0.002009441    1.365    0.267
        25 -10.9112    198.3702     29.1370   4.0672460154e+01   3.2210216357e+01     0.505613    0.3621542 -25.39  0.002041155    1.391    0.281
        26 -12.1249    130.8231     14.8630   4.4641483124e+01   5.0886696262e+01      1.31927    0.6188198  77.41  0.003369517    2.366    0.577
        27 -11.1364     87.4412      7.5184   5.0419139784e+01   6.2673751651e+01    0.5957915    0.3844376  67.17   0.00205492    1.578    0.366
        28 -11.1864     90.6569     20.8130   5.6212541500e+01   6.0327381102e+01    0.6730313    0.4063395 -32.91  0.002334141    1.657    0.396
        29 -11.2476     86.0846     14.2211   5.4268771156e+01   6.2246798526e+01    0.8128293    0.4758594  16.56  0.003410812    2.445    0.591
        30 -12.4011     48.7854     12.9388   6.8025119561e+01   7.0377803483e+01    0.7040145    0.3280919  45.75  0.001676233    2.172    0.540
        31 -10.8764    178.9568     21.0483   4.0332721492e+01   3.7835138399e+01    0.5847056     0.279425  46.72  0.001844601    2.555    0.609
        32 -11.9307     68.2000     17.9848   6.2351450697e+01   6.5786847930e+01     0.523104    0.4828944   1.61  0.001857944    1.025    0.024
        33 -12.0650    237.9866     15.9057   3.4089016621e+01   2.4974466311e+01    0.5862158    0.4213539  72.32  0.002929096    1.576    0.366
        34 -11.1288    226.3910     15.0732   3.4627126522e+01   2.7482241231e+01     0.483179    0.2946347 -60.91  0.001968415    1.506    0.336
        35 -11.0037    211.3205     18.7445   3.6665065728e+01   3.0403252865e+01    0.2729095    0.2131038 -30.91 0.0002571888    1.226    0.184
        36 -12.3977    245.8454      6.7431   3.1515912255e+01   2.4327195935e+01     1.195096     0.508971 -27.59  0.006065194    2.020    0.505
        37 -11.5363    192.5591      9.3016   3.5559330989e+01   3.5755519253e+01     1.046008     0.493076 -11.06  0.004283216    2.915    0.657
        38 -11.2216    154.5255     23.7515   4.4268189052e+01   4.3720693512e+01    0.9214494    0.5197626  30.76  0.003729374    2.599    0.615
        39 -12.3070    104.5432     12.7058   4.8788191505e+01   5.7889283746e+01    0.5775595    0.4650018 -36.60  0.002649482    1.281    0.220
        40 -11.4659    211.9718      9.1502   3.4080491064e+01   3.1255217514e+01    0.6002311    0.3342712  -3.70  0.002134656    2.707    0.631
        41 -11.1943    206.4092      2.4832   3.2676957520e+01   3.3166856171e+01    0.5489463    0.2509423  86.50  0.001494455    2.282    0.562
        42 -10.1547     65.9434     10.1908   5.8792179668e+01   6.7312013946e+01    0.5998206    0.2176298  56.21   0.00229267    2.793    0.642
        43 -10.1115     63.1401      6.6214   5.7725118097e+01   6.8349030859e+01    0.3651524    0.2425949  32.19  0.001340221    1.521    0.342
        44  -9.5167    168.7277      9.7498   3.7858000416e+01   4.1594178200e+01      0.34446     0.137292  57.19  0.001386038    2.486    0.598
        45  -9.2648    163.3010     10.1850   3.8571092736e+01   4.2932351334e+01    0.2358006    0.1941816  88.10  0.001005263    1.160    0.138
        46 -11.0546    232.4474      7.3842   3.2373782076e+01   2.6985803141e+01    0.6968111    0.2708215 -54.73  0.003234505    2.288    0.563
        47 -10.9102    236.7257      5.0233   3.1580057834e+01   2.6332371226e+01    0.5111932    0.2008053 -63.99   0.00232075    2.632    0.620
        48 -10.8950    218.7595      3.5772   3.2212588940e+01   3.0290228823e+01    0.3383014    0.2784583 -23.39  0.001070044    1.302    0.232
        49 -11.0528    223.4822      2.0010   3.1550953163e+01   2.9411814926e+01    0.5049218     0.233866  89.40  0.002437981    2.296    0.564
        50  -9.6795    154.7629      7.3213   3.8547584329e+01   4.5405603901e+01    0.4059813    0.1998405 -89.88  0.001583743    2.291    0.564
        51 -10.4048    184.0114      5.0103   3.4996768858e+01   3.8241961565e+01    0.4539538    0.2752836 -32.88  0.002072202    1.527    0.345
        52 -10.6823    115.2493      3.2770   4.2441513954e+01   5.6071543599e+01    0.6555116    0.3879736  54.98  0.002939186    1.573    0.364
        53  -9.5719     78.4939      7.5246   5.2975997014e+01   6.4800238587e+01    0.2603248    0.1318909  61.61 0.0006138641    1.965    0.491
        54 -11.1505     75.1776      3.5435   5.1743356898e+01   6.5989842361e+01    0.7186965    0.3485398  52.81  0.002895016    1.861    0.463
        55 -10.7356     41.6139      4.2708   6.6089188127e+01   7.2921241909e+01    0.4362227    0.2686787   4.62   0.00211709    2.138    0.532
        56 -11.0330    176.8690      5.7394   3.5821239390e+01   3.9936306729e+01    0.4050833    0.2236531 -87.99  0.001484816    1.874    0.466
        57 -10.7716    169.3069      2.3877   3.5438954363e+01   4.2141084529e+01    0.2629776    0.1870339 -53.96 0.0001439153    1.305    0.234
        58 -10.2901    122.4897      5.1176   4.2040528214e+01   5.4026027481e+01    0.3779021    0.1937101  69.35 0.0002895956    1.826    0.452
        59  -8.8287     31.2287      5.9488   7.3490419240e+01   7.4421792565e+01    0.1593866   0.09668441 -36.34 0.0003537024    1.555    0.357
        60 -12.1961    134.2106      2.5166   3.9293512287e+01   5.1194255270e+01    0.4640668    0.2869188  80.14 0.0006285053    1.577    0.366
        61 -10.0474    142.6111      3.2298   3.8504347470e+01   4.8937350620e+01    0.3893664     0.266112  76.52  0.001471217    1.386    0.279
        62  -9.3179     54.8801      4.0890   5.9497000376e+01   7.0382622135e+01    0.1817708    0.1686825 -42.54  0.000439653    1.263    0.209
        63  -9.7512    158.5994      2.4323   3.6464808344e+01   4.4864537390e+01     0.360807    0.2021689  46.23  0.001671022    2.023    0.506
        64 -10.1550     12.9771      1.9936   8.4450611799e+01   7.7506247876e+01    0.3355589     0.200491  25.22  0.001452006    1.744    0.427
        65  -8.9732    152.2312      1.3068   3.6728679430e+01   4.6604474161e+01    0.1976291     0.116211  89.06 0.0006035389    1.708    0.415
        66 -11.1238    106.5693      1.9135   4.3368070380e+01   5.8425528149e+01    0.6782386    0.2946862  73.12  0.002291023    2.328    0.570
        67 -10.2777     82.2397      1.3072   4.8469431502e+01   6.4536262404e+01    0.2167618    0.1152173  61.75 0.0003518294    1.761    0.432
        68  -8.7541     33.5253      1.4682   6.8774547528e+01   7.4711925402e+01    0.1289051    0.1077616   1.37 0.0006498273    1.061    0.058
        69 -10.8012    135.0067     45.7034   5.5521365965e+01   4.5738112208e+01    0.4595145    0.2432998  59.99  0.001031472    1.903    0.474
        70  -9.7892    142.8147    249.8160   9.7438083145e+01   6.7981220010e+00    0.1528152    0.1078335  42.91  0.001074882    1.346    0.257
        71 -10.6988     33.5013    144.3385   1.1143700559e+02   4.1351368924e+01    0.4456308    0.2437965  49.22  0.001987342    1.708    0.415
        72  -8.9581    234.2959    143.6216   6.3922541315e+01   8.7857709093e+00    0.1202097   0.09138458 -51.30 0.0007022973    1.752    0.429
        73 -10.0338    132.9989    140.8264   8.3120090065e+01   2.7345402758e+01    0.3278535    0.2456013 -56.89 0.0009029502    1.433    0.302
        74  -9.8853     27.4584    140.0439   1.1280900960e+02   4.2996007008e+01    0.3164643     0.212626 -79.07   0.00104369    1.338    0.252
        75 -12.0522     30.0175    132.8940   1.1132044826e+02   4.4551633501e+01     0.616503     0.360578  81.35 0.0003261468    1.702    0.412
        76 -10.7626     21.4734    135.4374   1.1419256133e+02   4.4676354681e+01    0.4822647    0.3453232  87.48  0.002780057    1.223    0.182
        77 -10.1384     25.4953    135.4863   1.1297200170e+02   4.4313949587e+01    0.2947939    0.1877619 -82.54  0.000861189    1.403    0.287
        78 -10.1805    216.7165    137.7640   6.5457772762e+01   1.2501248709e+01    0.3525957    0.1987706 -39.27  0.001242499    1.676    0.403
        79 -10.0085     80.0959    136.9942   9.6650023064e+01   3.7314766650e+01    0.4505231    0.2873595 -24.91  0.001874468    2.567    0.610
        80 -10.1498     67.1840    136.1763   1.0034119006e+02   3.9389095035e+01    0.3915519    0.2094806 -48.57  0.001377924    2.039    0.510
        81 -10.3651     47.1577    135.5027   1.0633153542e+02   4.2096542124e+01    0.4494179    0.2683716 -75.83  0.001494517    1.592    0.372
        82 -10.3221     39.5758    138.1451   1.0896744994e+02   4.2270337387e+01    0.3272526     0.197398  26.54  0.001023102    1.799    0.444
        83 -10.5696     93.6431    132.1789   9.1827696708e+01   3.6315317843e+01    0.5411446    0.1942789 -54.08  0.001908454    2.702    0.630
        84  -8.9928    107.5405    146.0052   9.0638880173e+01   3.0756700392e+01    0.2101216    0.1415098 -57.11 0.0003947869    1.530    0.347
        85  -9.9671     73.9870    132.3826   9.7663161829e+01   3.9358385212e+01    0.3288422    0.2636231  -0.13  0.001685316    1.650    0.394
        86  -9.9822     61.7598    132.1174   1.0134920365e+02   4.1137417820e+01    0.4058576    0.3306965 -28.88  0.002179071    1.534    0.348
        87  -9.6933     39.1578    133.0356   1.0849395565e+02   4.3602151975e+01     0.263726    0.1872144  31.83 0.0008332091    1.484    0.326
        88  -9.7725    104.0636    130.8187   8.8599979810e+01   3.4844556466e+01    0.2411406    0.2131414 -35.46 0.0003073239    1.227    0.185
        89 -10.7236     10.3265    127.5980   1.1699094760e+02   4.7508607276e+01    0.6524307    0.2341355 -61.01  0.002773188    2.524    0.604
        90  -9.4951     78.8560    128.8494   9.5556507133e+01   3.9498655684e+01    0.2500316    0.1875548 -53.22 0.0003296871    1.342    0.255
        91  -9.8287     81.4926    124.9780   9.4016121517e+01   4.0041390900e+01    0.4361926    0.3213636  43.05  0.002185361    1.353    0.261
        92 -10.5912     22.7921    127.1074   1.1300378125e+02   4.6667780550e+01    0.2064471    0.1903088  86.34 0.0003227258    1.102    0.093
        93  -9.0714    223.9771    126.9127   6.1971013396e+01   1.2890365270e+01    0.1926296    0.1460935 -53.01 0.0005665304    1.631    0.387
        94  -9.6509      2.3665    126.0268   1.1936944269e+02   4.8422127022e+01    0.2929329    0.1490985  65.00  0.001157672    1.819    0.450
        95  -9.6786     58.5050    118.0557   1.0004332089e+02   4.5135056889e+01    0.2877441    0.1245898 -59.85  0.001145273    2.103    0.524
        96 -10.7809     55.7926    123.4061   1.0183976118e+02   4.4120327011e+01    0.5544039    0.4148222 -21.74  0.002527358    1.815    0.449
        97  -9.9094     49.1856    123.2806   1.0396867406e+02   4.4966250987e+01    0.2928213    0.2556759  -7.32  0.001205838    1.429    0.300
        98 -11.3422     45.3646    120.1253   1.0475101239e+02   4.6221938984e+01    0.7433433    0.3697611  77.90  0.002796902    2.895    0.655
        99 -12.2162    103.9632    122.5291   8.6849337616e+01   3.6800705240e+01    0.4462517     0.397709 -34.38  0.001559712    1.209    0.173
       100 -11.9186     18.8110    122.2340   1.1381276736e+02   4.8236822770e+01    0.2490018    0.2016881  89.94 0.0002944503    1.056    0.053
       101  -9.5008     94.0177    123.0651   8.9857528172e+01   3.8434842986e+01    0.2312217    0.1740573  76.84 0.0005187821    1.591    0.372
       102  -9.8595     70.7608    121.4224   9.6678207460e+01   4.2567004348e+01    0.3650143    0.2423062 -22.46  0.001227772    2.344    0.573
       103  -9.2404      4.8764    121.5768   1.1828193196e+02   4.9384797086e+01    0.2966194    0.1117677  69.28  0.001176992    2.839    0.648
       104  -8.9777    221.4603    120.5048   6.0943292810e+01   1.4290001697e+01    0.1328792    0.1135352 -22.71 0.0001101927    1.018    0.018
       105  -9.0726    148.2034    120.1936   7.4818274528e+01   2.8659417194e+01    0.2512232    0.1636548  -0.65 0.0009448444    2.798    0.643
       106  -8.8705     62.8191    120.2151   9.9011889054e+01   4.4002644908e+01    0.1795786    0.1567276 -46.17 0.0002289726    1.235    0.190
       107 -11.8542     49.6410     98.9993   9.9556956037e+01   5.1178366430e+01     1.906093     1.041324 -49.57  0.008484955    1.798    0.444
       108 -11.9242      7.1288     88.7814   1.1452783634e+02   5.7652611439e+01    0.6750454    0.4705267  29.61  0.002508915    1.614    0.380
       109 -10.5991     15.8136    109.5931   1.1354944927e+02   5.1713813041e+01    0.3871566    0.3010382  46.51  0.001675653    1.329    0.248
       110 -11.7579     17.0598    101.0074   1.1212139280e+02   5.3847849970e+01    0.5053593    0.3166603  26.27 0.0003492883    1.772    0.436
       111 -11.1342     10.0693     97.4467   1.1434506067e+02   5.5241544753e+01    0.7087183    0.5359499  21.91  0.001599292    1.538    0.350
       112 -11.0195     42.3897     94.1497   1.0133779059e+02   5.3292560622e+01    0.3831815    0.2978252  44.18 0.0004475808    1.362    0.266
       113 -11.2288     26.9879     86.1251   1.0599586467e+02   5.6924607964e+01    0.6018301    0.5842003 -79.01 0.0007993575    1.111    0.100
       114 -10.8685     18.7440    106.0795   1.1210924053e+02   5.2405725376e+01    0.2309079    0.1967461  55.86 0.0002309744    1.203    0.169
       115 -12.1179     34.8973     93.6943   1.0417014367e+02   5.4212063973e+01     1.324985    0.8127969 -65.98  0.004752681    1.436    0.304
       116 -11.8631     24.3794    113.8078   1.1103123241e+02   4.9948199412e+01     1.063664    0.4639864  19.28  0.004545039    2.717    0.632
       117 -12.1576     25.3739    107.9472   1.0995070289e+02   5.1383727162e+01    0.8818458    0.6152808 -37.35  0.004690429    1.687    0.407
       118 -11.8897     18.1574     90.2927   1.1027787093e+02   5.6552460543e+01    0.5353696    0.2638204 -68.10  0.002074744    1.696    0.410
       119  -8.9679     13.6847    118.9594   1.1519487549e+02   4.9460500890e+01    0.1789178    0.1374882 -86.25 0.0003285432    1.108    0.097
       120  -9.6389    113.9047    115.7596   8.2478959333e+01   3.6499492065e+01    0.3333619    0.2047396 -41.30  0.001435742    1.708    0.414
       121  -9.3066     67.3188    114.0098   9.6360963940e+01   4.4942455698e+01    0.3918419    0.2479143  83.21  0.001671358    2.096    0.523
       122  -9.7580     65.6863    110.6829   9.6239170371e+01   4.6023562959e+01    0.4983132    0.1865211  28.94  0.001722041    3.104    0.678
       123 -10.4061      7.1548    114.2026   1.1697269784e+02   5.1113547247e+01    0.2804117    0.2357665  52.97 0.0007122769    1.219    0.179
       124 -12.4940      2.1422    111.3088   1.1845091869e+02   5.2145243447e+01    0.3924237    0.2281554 -83.00 0.0005908539    1.436    0.304
       125 -11.2424      4.0165    105.0950   1.1730916862e+02   5.3627080433e+01    0.4662541    0.3333428  39.04  0.002242784    1.491    0.329
       126  -9.1444    126.7077    114.0069   7.8597684515e+01   3.4349531840e+01    0.2156061    0.1976374 -42.13 0.0007606946    1.084    0.077
       127 -11.4921     22.3690     94.8844   1.0927358547e+02   5.5034906651e+01    0.5448033    0.3366915  13.16  0.002276596    1.976    0.494
       128 -10.2942    107.4330    111.8526   8.3362376551e+01   3.8645296612e+01    0.4016494    0.3318399  67.77  0.001641733    1.337    0.252
       129 -11.0257    102.4310    109.4661   8.4239941575e+01   4.0153489362e+01    0.6630658    0.5743303   0.74  0.003027209    1.394    0.282
       130  -9.7260     48.7745    112.2900   1.0233540640e+02   4.7846073622e+01    0.2541386     0.201848  68.61  0.001367924    1.275    0.216
       131 -10.9934    170.4761    110.3756   6.7532724324e+01   2.5938150445e+01    0.4729443     0.385705  -1.55  0.002400647    1.407    0.289
       132 -10.0146    132.4312    111.1823   7.6411789553e+01   3.3786501189e+01     0.392388    0.1861444 -53.62   0.00143227    2.381    0.580
       133 -10.1453    120.6908    109.1122   7.8964307302e+01   3.6648800168e+01    0.4051728    0.2969144 -15.48  0.001589872    1.887    0.470
       134 -11.4635     79.6939    108.3073   9.1063748248e+01   4.4459094873e+01    0.6420899     0.378814  35.16  0.001048959    1.776    0.437
       135  -9.4676     59.0407    109.6146   9.8295767165e+01   4.7225715856e+01    0.2448922    0.1891796 -84.42 0.0005023274    1.306    0.234
       136 -10.0374    157.3333    106.7697   6.9383058461e+01   2.9411112869e+01    0.3734149    0.2726348 -16.08  0.001580988    1.672    0.402
       137 -10.9522    143.6754    106.1292   7.2335596703e+01   3.2470075347e+01    0.3847233    0.3233596  83.12  0.001332737    1.439    0.305
       138 -11.5564    145.4959    100.0015   7.0266803358e+01   3.3315000052e+01    0.4963188    0.4206488 -32.66 0.0003424885    1.178    0.151
       139 -10.4791     89.8962    104.4901   8.6863152499e+01   4.3645293535e+01    0.4065053    0.3370959 -18.45  0.001084487    1.479    0.324
       140 -11.0360     85.8672    103.8523   8.8000137150e+01   4.4511056890e+01     0.516496    0.4345576   3.70  0.001853489    1.474    0.322
       141  -9.7595    209.6201     98.9396   5.7731073606e+01   1.9835098844e+01    0.4594505    0.2127193 -23.53  0.001797877    2.568    0.611
       142  -9.3411    120.7961    101.1962   7.6851937408e+01   3.8375693193e+01    0.2176196     0.187316  -8.56  0.001077452    1.371    0.271
       143 -11.4325     67.6448     95.5774   9.2201524882e+01   4.9553789238e+01    0.6493591    0.5552965   9.67  0.002897438    1.386    0.278
       144 -10.2629     66.5368     88.7435   9.0892276466e+01   5.1431364628e+01     0.347865    0.2663587 -15.81  0.001012817    1.706    0.414
       145 -10.4952     67.0982     82.0119   8.8864173623e+01   5.3002040138e+01    0.4660539    0.4139286 -27.71  0.002524542    1.214    0.177
       146 -10.5148     80.3586     83.8032   8.4511608814e+01   5.0324465077e+01    0.7185571    0.3714298 -44.51  0.002887468    1.933    0.483
       147 -11.4378     74.9160     78.0956   8.4783770502e+01   5.2638883764e+01    0.7279263    0.6200239  89.45  0.003774171    1.337    0.252
       148 -10.0878     77.5378     96.5625   8.8967008669e+01   4.7721545845e+01    0.3590878     0.263721  54.75 0.0009683901    1.476    0.323
       149 -10.1518     82.2575     93.6008   8.6582378933e+01   4.7635969882e+01    0.3576307    0.3214309  -1.69  0.001181652    1.293    0.226
       150 -10.8001     76.9801     92.9980   8.8242290773e+01   4.8690778645e+01    0.4566292    0.3653066  25.76  0.001619818    1.405    0.288
       151 -10.9159     89.9548     89.4909   8.2867597519e+01   4.7217418575e+01     1.221049    0.7169598 -19.48  0.003948264    3.753    0.734
       152 -10.2974    117.9481     92.9856   7.5350122467e+01   4.0772084760e+01    0.4456193    0.3248875 -12.29  0.001761756    1.959    0.490
       153 -10.9927    124.6257     94.0341   7.3827789055e+01   3.9111297475e+01    0.6056041    0.3688676  48.70  0.001728844    1.690    0.408
       154 -11.0080    120.6965     87.7619   7.3065756336e+01   4.1301043239e+01    0.7273422    0.3619525 -47.95  0.002791678    2.000    0.500
       155 -10.8438    152.3580     91.7202   6.6408992430e+01   3.3411286042e+01    0.5175918    0.3703619  62.63  0.001953518    1.584    0.369
       156 -10.8432    100.7516     91.5542   7.9998294832e+01   4.4645487730e+01    0.6125134    0.4345055  56.90  0.002336994    1.563    0.360
       157 -10.7032    104.9613     86.5235   7.7237245960e+01   4.4927205194e+01    0.6097921    0.3708005 -21.58  0.002213584    2.762    0.638
       158 -10.9690    113.3909     83.5088   7.3831606666e+01   4.3799264381e+01    0.4700973    0.4177051 -67.89   0.00214255    1.176    0.150
       159  -8.8766    137.8821     93.1179   7.0175505363e+01   3.6386695758e+01    0.3146903    0.1942804   5.08 0.0009594419    4.137    0.758
       160 -10.4458    183.5864     85.9140   5.8647995244e+01   2.7424774567e+01    0.6292466    0.2652023 -42.48   0.00241566    2.220    0.550
       161 -10.0284    109.0305     80.6932   7.4232302301e+01   4.5344897856e+01    0.3246971     0.303987   2.59  0.001011165    1.168    0.144
       162  -8.3945    214.6857     86.2775   5.3874111560e+01   2.0758552786e+01    0.1342976    0.0983234 -59.80  0.000189719    1.566    0.362
       163 -10.3969    165.7292     83.5756   6.1306511378e+01   3.1864253745e+01    0.4016621    0.3026035 -49.82    0.0012693    1.322    0.243
       164  -9.9749    127.5164     83.0387   6.9821670750e+01   4.0765154459e+01    0.2825658    0.2689043  19.34  0.001223351    1.120    0.107
       165  -9.8089     60.2034     83.2272   9.1852680725e+01   5.3759845057e+01    0.3043582    0.2459146 -65.12   0.00103826    1.182    0.154
       166 -10.8646     57.9903     77.8201   9.1257514071e+01   5.5422177721e+01    0.3763322    0.2699961 -67.21 0.0008365745    1.401    0.286
       167 -11.6018     53.0003     75.9687   9.2786401970e+01   5.6587957822e+01    0.6648219    0.4261399 -64.97  0.002795876    1.531    0.347
       168 -10.8791     47.0772     74.6654   9.4930198217e+01   5.7698158026e+01    0.4382063    0.2848735 -66.73 0.0009217134    1.495    0.331
       169  -8.5875     11.5840     82.7359   1.1192225687e+02   5.8952581673e+01    0.1389164   0.08453234 -39.81 0.0006953507    1.766    0.434
       170  -9.3498     21.1436     80.8171   1.0753005136e+02   5.8782725901e+01    0.2055947    0.1720672  70.68 0.0008463712    1.244    0.196
       171  -8.5309    249.3040     80.7033   4.8284815888e+01   1.4962251034e+01    0.1256077   0.08226936 -52.11  0.000230187    1.583    0.368
       172 -10.3213    232.9260     77.8035   4.9460158242e+01   1.8379865588e+01    0.3837511    0.2131069 -27.25  0.001815203    1.618    0.382
       173  -9.8035    103.2570     79.3543   7.5557266431e+01   4.6863344404e+01    0.3048483    0.2161455 -36.85 0.0006391927    1.455    0.313
       174 -10.7445    103.9152     74.2676   7.3715910994e+01   4.7818492358e+01    0.4881409    0.3293955 -52.83 0.0007081397    1.515    0.340
       175 -10.3334    126.8235     77.5796   6.8308250417e+01   4.2022997512e+01    0.3956955    0.3156963   9.22  0.001011303    1.622    0.383
       176  -9.5160    174.7455    246.5576   9.1273789726e+01   3.2461524608e+00    0.2178539   0.08452628  30.02   0.00114618    2.098    0.523
       177 -11.6370     86.2413     73.7117   7.9326777408e+01   5.1562698111e+01    0.8537834    0.6456379  53.62  0.003994851    1.431    0.301
       178 -10.4537     94.6733     76.1496   7.7265769578e+01   4.9343494390e+01    0.4312268    0.3687119  47.00  0.001400766    1.209    0.173
       179 -10.6700     78.9225     67.4543   7.9866443199e+01   5.4361899277e+01    0.6089332    0.5254658  51.43  0.003215133    1.231    0.187
       180 -11.1755    127.2296    242.0201   9.9551258586e+01   9.8558560036e+00    0.3203578    0.2673422  29.81  0.001802639    1.073    0.068
       181 -11.5050     91.3810     63.0056   7.3883119131e+01   5.2848171522e+01    0.9903872    0.4716529  50.30   0.00358928    2.261    0.558
       182 -10.9837     87.5955     56.9358   7.2939112604e+01   5.4884879833e+01    0.6714385    0.2699112 -37.70  0.001491524    2.653    0.623
       183 -10.8781     91.8803     57.1952   7.1571167371e+01   5.3928481334e+01    0.4622612    0.3706296 -43.67  0.002332613    1.217    0.178
       184 -11.7743     14.1127     74.8287   1.0961108059e+02   6.0827429553e+01     0.560998    0.3590444 -77.15  0.001807945    1.381    0.276
       185 -10.0882     14.8815     67.4503   1.0794085265e+02   6.2658907455e+01    0.4158393    0.2751195   8.49  0.002246226    1.806    0.446
       186 -11.2303    142.7914     84.1766   6.6400445237e+01   3.7047122383e+01    0.4889047    0.3515861  42.39 0.0009853657    1.474    0.322
       187 -12.2881     42.9246     85.0384   9.9208069411e+01   5.5579478345e+01    0.9471364    0.5172488  18.52  0.004139508    2.283    0.562
       188 -11.6109      1.9738     71.1727   1.1460020231e+02   6.2421342751e+01    0.5953387    0.2102271 -74.29  0.002501426    2.278    0.561
       189 -12.4933      5.9922     62.4357   1.1138271973e+02   6.4445219393e+01    0.7527822    0.5038728 -16.69  0.002719486    1.757    0.431
       190 -12.2316    186.0491     69.9542   5.3844211665e+01   2.9458725882e+01     1.106344    0.5816329 -37.69  0.003653433    1.709    0.415
       191 -10.0018     64.2200     74.9187   8.7924243831e+01   5.5179058140e+01    0.4780857    0.3500837  35.25  0.002300923    1.457    0.314
       192 -11.1740     41.1704     70.8603   9.6496079175e+01   5.9371055154e+01    0.5593107    0.3095032 -57.45  0.001960821    1.594    0.373
       193 -11.6007     32.3644     72.1722   1.0078954003e+02   6.0000976095e+01    0.6777698    0.2841358  27.31  0.001784417    2.567    0.610
       194  -9.6093     24.4248     72.6215   1.0450627994e+02   6.0620198791e+01    0.3576646    0.1719047 -78.83  0.001383908    2.215    0.549
       195  -9.0354     21.9909     66.0060   1.0422428399e+02   6.2498706943e+01    0.4456364    0.2596613  83.70  0.001306384    2.197    0.545
       196  -8.7803     25.5890     65.4961   1.0237305968e+02   6.2321984506e+01    0.1377354    0.1175742 -58.66 0.0001102882    1.028    0.027
       197  -9.6289    152.8526     72.9684   6.0788759201e+01   3.6767304349e+01    0.4884525    0.1762956  43.12  0.001510431    3.500    0.714
       198 -11.7200    123.6814     68.5599   6.6197422621e+01   4.4518927696e+01    0.7824705    0.5634131  32.60  0.002470987    1.629    0.386
       199 -10.0247    172.2224     68.5857   5.5757558134e+01   3.2901219322e+01    0.3665878    0.3234026  -4.16  0.001336843    1.270    0.213
       200  -9.8685    171.8902     64.8256   5.4704198261e+01   3.3586486055e+01    0.5147764    0.3300795  88.81  0.002185343    2.211    0.548
       201  -9.6408    162.0753     70.7760   5.8273627805e+01   3.4948356075e+01    0.3121124    0.2311287 -56.14  0.001183791    1.419    0.295
       202 -11.4015    220.1417     66.4377   4.8197127780e+01   2.2509982038e+01    0.5587249    0.3601419  53.01  0.002548197    1.776    0.437
       203  -8.6446    208.3124     68.3247   5.0173303753e+01   2.4743487028e+01    0.1363204    0.1055043  11.01 0.0007040646    1.660    0.398
       204  -9.5855    192.4799     65.7492   5.1690437168e+01   2.8634570229e+01    0.2715224    0.2015493 -63.06 0.0008035096    1.465    0.317
       205 -10.6955     13.1279     47.4598   1.0440136937e+02   6.7736985020e+01    0.9478318    0.1388541 -46.82  0.002693847    5.205    0.808
       206 -11.8321     21.1018     46.7341   9.9667616250e+01   6.7302677693e+01    0.6076562    0.3943886 -79.18  0.003125728    1.736    0.424
       207 -10.8835     25.9974     48.1518   9.7385557167e+01   6.6520905055e+01    0.4419592    0.2107398 -48.17 0.0004078618    1.823    0.452
       208 -10.3609     22.0631     36.7593   9.5739927755e+01   6.9531595522e+01    0.7091348    0.3249708  46.08  0.002962829    3.082    0.676
       209  -9.0233    163.5191    243.5102   9.2918975221e+01   5.0270557412e+00    0.1116385   0.08573302  24.18 0.0001975515    1.029    0.028
       210 -12.1344     25.9656     56.6087   9.9910275205e+01   6.4489626000e+01     1.064624    0.7592406   7.86  0.005809078    1.640    0.390
       211 -10.7091     34.1772     57.6613   9.6057287255e+01   6.3405643114e+01    0.3844151    0.2569583 -18.20  0.001895881    1.866    0.464
       212  -9.8347     68.0340    240.4934   1.1102114186e+02   1.7343716053e+01    0.1725493   0.08860066  33.79 0.0008614492    1.569    0.363
       213  -8.6934    221.4976    239.4902   8.2424582097e+01  -1.5155450986e+00    0.1064506   0.07698157   9.49 -0.0001137316    1.013    0.013
       214 -11.9990     58.1294     30.0100   7.3007404780e+01   6.5843678959e+01    0.4987673    0.3574302  22.81 0.0009829975    1.558    0.358
       215 -11.8076     49.1195     30.4084   7.7572592407e+01   6.7338500289e+01     0.820999    0.3439509  40.46  0.003378699    2.504    0.601
       216 -12.5130     48.9638     60.5843   8.9918017454e+01   6.0869509157e+01    0.8849042    0.6258862  45.95  0.003123432    1.587    0.370
       217 -11.1059     41.1452     57.1779   9.2484772959e+01   6.2705467395e+01    0.4229523    0.3205317  38.66  0.001177119    1.452    0.311
       218  -9.5471    201.5423     64.4799   5.0062306025e+01   2.6784135521e+01    0.2244968    0.2008141 -43.23  0.001315492    1.008    0.008
       219  -9.7976    198.4466     62.9326   5.0066843798e+01   2.7701762959e+01     0.373401    0.1867474 -50.68  0.001230322    2.099    0.524
       220  -9.5908    105.8805     64.1485   6.9666816158e+01   4.9472121084e+01    0.2353927    0.2140724 -76.87  0.001195285    1.185    0.156
       221  -9.2489     65.0000     62.0115   8.3426107645e+01   5.8070656484e+01    0.4289667    0.2379985 -53.45  0.001413742    1.748    0.428
       222 -10.4378     59.5031     63.5440   8.6253879327e+01   5.8614838939e+01    0.4540328    0.3294916   3.50  0.002160097    1.842    0.457
       223 -11.4456    234.3813     61.0040   4.5264743379e+01   2.0360010636e+01    0.4757757    0.3857971  58.29  0.002218936    1.460    0.315
       224 -10.2447    158.6774     62.5568   5.6403254763e+01   3.7143772628e+01    0.5843601    0.2234335  45.83  0.001966903    3.038    0.671
       225 -11.0597    148.5275    237.7332   9.5011350047e+01   7.7219984279e+00    0.4332085     0.196925  33.97  0.001977259    1.737    0.424
       226 -10.3059    247.1696    231.6629   7.7314007291e+01  -3.5538062388e+00    0.1603856    0.1161603 -16.00 0.0005496158    1.328    0.247
       227 -10.4271    242.5965    231.6413   7.8000737226e+01  -3.0558507737e+00    0.2069665    0.1417566  34.44  0.001535391    1.758    0.431
       228  -9.0660    150.6653     60.7068   5.7383018749e+01   3.9411054972e+01    0.2421093    0.1527631 -31.38 0.0007338281    1.586    0.370
       229  -9.0573    147.0445     60.7746   5.8146078160e+01   4.0289171970e+01    0.2976367    0.1369088  56.73 0.0009399263    2.216    0.549
       230  -9.9135     57.3207     61.3061   8.6434407847e+01   5.9473946897e+01    0.2970913    0.2294974  -4.39 0.0005970036    1.613    0.380
       231 -10.1985    134.7733     50.6343   5.7329669050e+01   4.5012596260e+01    0.3611942    0.2934893 -62.03  0.001808038    1.307    0.235
       232 -10.5586    136.4924     56.9106   5.9131654236e+01   4.3542301578e+01    0.7325559    0.4742921  -1.89  0.002836407    2.570    0.611
       233  -9.4992     23.7730    231.8011   1.1929407200e+02   2.3521744119e+01    0.1602497   0.08917279  53.44 0.0007562791    1.336    0.251
       234 -10.1365    145.5025     39.4577   5.1220406816e+01   4.4001357707e+01     0.236568    0.1902581  52.51 0.0005629961    1.277    0.217
       235 -10.9850    106.4716     58.7499   6.7547167683e+01   5.0393032518e+01    0.5166888    0.3466216  61.33  0.001112518    1.672    0.402
       236 -10.1005    162.4217     43.8037   4.9767480511e+01   3.9094242943e+01    0.3978349    0.2533422  66.46  0.001851079    1.617    0.382
       237  -9.3807    161.5464     47.7202   5.1176033948e+01   3.8747467253e+01    0.4298795    0.1986079  74.82  0.001523039    2.923    0.658
       238 -10.9314    157.4110     55.0764   5.4270529676e+01   3.8658034116e+01    0.6529704    0.4827907 -63.78  0.002600596    1.489    0.328
       239 -10.2403    155.2479     49.6596   5.2906056192e+01   4.0033472231e+01    0.3973066    0.2652105  -6.39   0.00116195    2.074    0.518
       240  -9.2769    139.3218     77.2847   6.5124549126e+01   3.9176721045e+01    0.1528351    0.1217789  13.81 0.0001736355    1.595    0.373
       241  -9.5325    188.0143     55.1428   4.9346073608e+01   3.1232728367e+01    0.2910138    0.1845182  61.00  0.001402885    1.676    0.404
       242  -9.8863    211.4964     52.9790   4.5745539720e+01   2.6196284367e+01    0.2447765    0.2330602 -37.50   0.00153912    1.110    0.099
       243  -9.4739    205.5256     52.4936   4.6320034593e+01   2.7584084495e+01    0.4575775    0.1351779  52.99  0.001599454    3.655    0.726
       244 -10.6461    201.8315     48.8195   4.5765010766e+01   2.8914972053e+01     0.610167    0.2244996 -28.80  0.002317073    2.548    0.608
       245 -10.9629    200.3132     44.9906   4.4889740848e+01   2.9772240618e+01    0.5861952    0.2872942  77.17  0.002478055    2.516    0.603
       246 -10.1026    247.6997     51.6935   4.1789009426e+01   1.8963851076e+01    0.2113521    0.1591472 -48.30 0.0006335378    1.153    0.132
       247  -9.3833    244.6828     51.3085   4.1965119838e+01   1.9585940817e+01    0.1758561    0.1607342 -67.85 0.0009100422    1.194    0.163
       248 -10.7749    173.9533     48.4557   4.9424961900e+01   3.5570207083e+01     0.509266    0.3768575 -77.23  0.002541662    1.519    0.342
       249 -10.1287    176.4415     43.6634   4.7593813767e+01   3.5632898877e+01    0.5246627     0.198669  52.21  0.001934947    2.791    0.642
       250 -12.5955    119.5149     37.9109   5.6073497207e+01   5.0827506399e+01    0.9127211    0.6154743 -79.13    0.0031828    2.055    0.513
       251  -8.9532    215.6404     49.2810   4.4313167764e+01   2.5782779450e+01    0.1417533   0.08945324 -60.29 0.0006953474    1.670    0.401
       252  -9.7809     90.9053     47.7173   6.8177265851e+01   5.5966363605e+01    0.3255526    0.2285794 -54.97  0.001514785    1.596    0.374
       253 -10.7760    198.5778    232.8180   8.5305535650e+01   1.9607652533e+00    0.3729406    0.2439027  23.68  0.002585798    1.216    0.178
       254  -9.9259      2.1865     48.6061   1.1089063007e+02   6.8055070371e+01    0.3281061    0.2226496 -83.51  0.001668042    1.403    0.287
       255  -9.4824     15.3418    233.6184   1.2099946763e+02   2.3982387643e+01    0.1839288    0.1163338 -87.19   0.00130603    1.615    0.381
       256  -9.1715    108.5125    229.5234   1.0196043958e+02   1.4201206944e+01    0.1183605   0.09428983  39.33 0.0008100005    1.021    0.021
       257  -9.2255    181.3338    228.2955   8.7721456960e+01   4.7157847237e+00    0.1167214   0.07410936   6.82 0.0007028027    1.643    0.391
       258 -11.0039     13.9918     23.2574   9.5620572215e+01   7.3226480752e+01    0.3032494    0.2087418 -35.11  0.001001531    1.300    0.231
       259  -9.6424    233.7110    223.2877   7.8129105690e+01  -1.1755366643e+00     0.227725    0.1205932   3.37  0.001135963    2.048    0.512
       260  -9.1582     63.3536    222.2972   1.1068764194e+02   2.1065696873e+01     0.105989   0.08834276  -5.37 0.0002723665    1.693    0.409
       261  -9.4075      9.7879    218.0341   1.2159118107e+02   2.7344392533e+01    0.1370081    0.0760185  88.88 0.0007993314    1.702    0.413
       262  -8.9488    225.2899    217.6492   7.8610857107e+01   4.5752886704e-01   0.09064775   0.08646981   0.39 0.0002876433    1.669    0.401
       263 -10.3959    139.7647     43.5592   5.3770594205e+01   4.4862673301e+01    0.3352186    0.2543858  50.83 0.0009296066    1.349    0.259
       264 -10.9480    155.6694     42.1022   5.0328768517e+01   4.1038454881e+01    0.5309703    0.4430609  15.68  0.002756771    1.448    0.309
       265 -12.1260    153.0565     35.9587   4.8691621813e+01   4.2555037947e+01    0.3905488     0.329666   3.60 0.0003490261    1.401    0.286
       266  -9.5809    161.5691     23.4799   4.3204360204e+01   4.1942912831e+01    0.2552968    0.2253154  -1.93 2.971516e-05    1.301    0.231
       267 -10.4435    164.9020    212.4289   8.8562857621e+01   9.1562294970e+00    0.2539925    0.1781486  40.24 0.0009329147    1.384    0.278
       268 -12.1525    160.0539     29.6255   4.5466417683e+01   4.1588477988e+01    0.4868199    0.3953232 -25.61  0.001079937    1.269    0.212
       269 -11.1109    164.0297     27.6904   4.4266738229e+01   4.0813596324e+01    0.3429909    0.2697129 -40.72  0.000444046    1.207    0.171
       270 -10.9062     94.0029     41.2699   6.4485211329e+01   5.6424418919e+01    0.7589758    0.3211056  52.93  0.002834776    2.404    0.584
       271  -9.4559     95.3817     36.4765   6.1995166118e+01   5.6905932042e+01    0.2755221    0.2342889  88.23 0.0009892953    1.388    0.280
       272 -10.2158    189.1609     41.3635   4.5211624249e+01   3.2863523012e+01    0.5231403    0.1967705 -25.43  0.001614907    2.801    0.643
       273 -10.1486    231.6730     39.0674   4.0168678455e+01   2.3668305443e+01    0.2860253    0.1831324 -42.12 0.0008567057    1.279    0.218
       274 -10.0627    193.7919     39.0386   4.3981288725e+01   3.2066636011e+01    0.2214199    0.1955777  63.13 0.0003061765    1.237    0.192
       275  -8.9916    184.5182     38.7232   4.5019696799e+01   3.4325013805e+01    0.2090093    0.1146604 -42.15  0.000944189    1.642    0.391
       276 -11.2888    183.2621     25.5369   4.1224313828e+01   3.6259993072e+01    0.5112935    0.3637978  53.18  0.002690028    1.545    0.353
       277 -11.1122    176.7293     36.6090   4.5391457997e+01   3.6504747273e+01    0.4513926     0.319102 -25.97   0.00228763    1.427    0.299
       278 -10.6672    174.7371     31.3949   4.4036786435e+01   3.7661551420e+01    0.7683333    0.2834528  46.19  0.002437653    3.592    0.722
       279  -9.1416    217.3635     38.6784   4.1377141082e+01   2.6751958239e+01    0.1469224   0.08344974 -57.76 0.0007040731    1.782    0.439
       280  -9.5749    206.9174     37.1251   4.2005317475e+01   2.9268629390e+01    0.2063896    0.1834857 -48.84 0.0007618956    1.029    0.029
       281  -9.5483    132.7547     36.6199   5.2661658616e+01   4.7664235553e+01    0.3650573     0.229117 -63.39  0.001554188    1.988    0.497
       282 -10.6810    138.1085     33.3802   5.0411132862e+01   4.6742181981e+01    0.5165719    0.3251006 -56.13  0.001803497    1.766    0.434
       283  -9.6818    153.2233    207.6941   9.0186419830e+01   1.1553855942e+01    0.2081682    0.1746871  43.67 0.0007091038    1.263    0.208
       284  -9.4159     61.1608    206.6461   1.0995443196e+02   2.4298347245e+01    0.1906853    0.1462351  69.50 0.0006395546    1.214    0.176
       285 -10.1036    238.2202    204.5391   7.4478589984e+01   3.9432270483e-01    0.2078518    0.1315787 -24.17  0.001405257    1.420    0.296
       286 -10.4791     16.9961    203.2549   1.1952617616e+02   2.9601729781e+01    0.2953106    0.1744819 -87.46  0.001845719    1.609    0.379
       287 -11.4219      6.6846    195.1846   1.2147466981e+02   3.2148810640e+01    0.7204524    0.1569976 -70.29  0.002889798    4.155    0.759
       288 -12.1340      4.8684    184.3959   1.2149313100e+02   3.4576288575e+01    0.6121686    0.4291093  63.30  0.003159189    1.112    0.101
       289 -11.8725    106.0072     32.8345   5.7386470200e+01   5.4931552933e+01    0.6274787    0.3773469  21.34  0.002417622    2.591    0.614
       290 -12.1042    113.6805     25.3343   5.2298883274e+01   5.4065898933e+01    0.8524708    0.3829188  52.99  0.002586909    2.103    0.525
       291 -11.2124    240.1676     30.8727   3.7503670249e+01   2.2898870549e+01     0.539776    0.2769066 -28.06  0.002494036    1.711    0.416
       292 -10.5358    245.6483    200.8968   7.2741605603e+01  -8.9429944416e-02    0.1876867    0.1224371  12.97  0.000688415    1.315    0.239
       293  -9.4738    182.5293     32.4911   4.3402432316e+01   3.5601915653e+01    0.1401816    0.1281363 -56.01  4.22801e-05    1.015    0.015
       294  -8.9377    195.4593    199.9385   8.0905832621e+01   6.6295475110e+00    0.1434413    0.1070713 -62.46 0.0008081784    2.483    0.597
       295  -9.3278     35.8742     31.8001   8.5429672219e+01   6.9037364239e+01    0.1723794    0.1598183  67.14 0.0005600881    1.353    0.261
       296  -9.3671    221.7031     29.9245   3.8728415808e+01   2.6853821588e+01    0.1921633    0.1413786 -37.49 0.0008665353    1.166    0.143
       297  -9.1840     99.6989     30.4176   5.8062870300e+01   5.6819260391e+01    0.2393616    0.1381397  57.57 0.0007293845    1.726    0.421
       298  -9.6778     97.7220     26.6006   5.6904763504e+01   5.7844747836e+01    0.3350039    0.2339307 -49.61 0.0009690782    1.578    0.366
       299 -10.2218    230.4798     27.4988   3.7414800109e+01   2.5264705432e+01    0.3468864    0.1911941 -34.47  0.001295754    1.493    0.330
       300 -10.5463    189.5876     27.4921   4.1115156671e+01   3.4493260002e+01    0.3618073    0.2753578   8.71  0.001722779    1.732    0.423
       301  -9.3326    216.4981     20.5198   3.6725263608e+01   2.9052505721e+01    0.2225309    0.1626286 -16.50 0.0008200825    1.513    0.339
       302  -9.6416    211.4966     27.4925   3.8977282427e+01   2.9385917864e+01    0.2509019    0.1965303  -6.44 0.0009989904    1.540    0.351
       303 -10.2122    214.4541     24.4941   3.7929322683e+01   2.9065676717e+01    0.3062084    0.2672666 -51.87  0.001182801    1.036    0.034
       304 -10.0218    250.2840     26.6448   3.5813902618e+01   2.1384994803e+01    0.2439717    0.1512227 -20.81  0.001399868    1.644    0.392
       305  -8.7830      1.2998     26.6864   1.0606126109e+02   7.3290866184e+01    0.1160536   0.09055806  68.42 0.0004535225    1.608    0.378
       306  -8.9588     83.5155    195.9363   1.0385177988e+02   2.3623166723e+01    0.1696067    0.1237593 -70.39 0.0005997755    1.510    0.338
       307  -9.9963    170.0483    191.4552   8.4327015771e+01   1.1634510317e+01    0.3491138    0.1813385  25.50  0.001206883    2.017    0.504
       308 -10.0586    239.7420    184.8964   7.0914794185e+01   2.5506800071e+00    0.2813708    0.1648948  -6.37  0.001130426    1.736    0.424
       309  -9.3385    168.8591     23.8430   4.2386632013e+01   4.0046123807e+01    0.2130079    0.1872357  37.92 0.0007206617    1.304    0.233
       310  -9.5557     59.6041     23.7617   6.9098656333e+01   6.6641780297e+01    0.2607415    0.2191783   3.92 0.0006141437    1.211    0.174
       311 -10.0492     60.1109     19.8022   6.6712384344e+01   6.7174409084e+01    0.3601266    0.2576442 -66.56  0.001235502    2.198    0.545
       312 -10.2159    250.3983    178.1460   6.8117995275e+01   1.9924682358e+00    0.4020898   0.09340134 -30.37  0.001504219    4.156    0.759
       313 -10.2721     52.0267    173.6957   1.0923464702e+02   3.2360794881e+01     0.487867    0.2162564  84.57  0.001923555    3.158    0.683
       314  -9.2699    223.1690     22.1902   3.6642946505e+01   2.7410512583e+01    0.1802534    0.1253545 -60.68 0.0007315287    1.315    0.239
       315  -9.6787     27.9989    175.9236   1.1549206523e+02   3.4416051922e+01    0.1973021    0.1590406  64.29 0.0007681526    1.021    0.021
       316  -9.6330     74.3255     19.4614   6.0847175387e+01   6.4255189457e+01     0.266816    0.2328165  44.02 0.0008391145    1.130    0.115
       317 -10.7411    234.3226    197.2553   7.3883270444e+01   1.7414370866e+00    0.3995043    0.2653067 -13.62  0.002529798    1.287    0.223
       318  -9.5741    230.6302    175.4560   7.0647783627e+01   4.9886913790e+00    0.2465719    0.1058308  35.87 0.0008851444    2.350    0.574
       319  -9.8460    247.7836    173.9058   6.7737855855e+01   2.8514570374e+00    0.3708851    0.1338954  26.80  0.001483595    4.167    0.760
       320 -10.7182    240.1607     50.2475   4.2121118757e+01   2.0594280881e+01    0.3557088    0.2923578  74.38  0.001986804    1.426    0.299
       321 -10.5018     38.1663    173.0520   1.1271778485e+02   3.4042855844e+01    0.4651287    0.1547484  47.63  0.001947013    2.568    0.611
       322  -9.0283    198.2806     17.9843   3.7543409740e+01   3.3494330983e+01    0.1834245    0.1600788 -37.44   0.00060202    1.124    0.110
       323  -8.7215    170.6458    171.7359   8.0786830623e+01   1.4793037171e+01    0.1349483   0.09523215   7.33 0.0004578412    1.623    0.384
       324  -8.9772    205.4806     17.4967   3.6799379161e+01   3.1869338186e+01    0.1329451    0.1139025 -54.37 6.786772e-05    1.003    0.003
       325 -10.2188      9.3226    156.0994   1.1910791597e+02   4.0619994913e+01    0.2597736    0.2192907  83.93  0.001208327    1.093    0.085
       326  -9.9876    186.4520     15.2711   3.7831768719e+01   3.6620032999e+01    0.2520757    0.2169102 -69.16 0.0005867989    1.063    0.059
       327  -8.9222    174.2123     15.9109   3.9247204316e+01   3.9579635160e+01    0.1749785    0.1565723  41.87 0.0004898448    1.284    0.221
       328 -11.6238      9.4946    167.0577   1.1962964296e+02   3.8059326541e+01      0.48779    0.3549065  82.94  0.002176669    1.164    0.141
       329  -8.7449     75.9030     14.0000   5.7365563517e+01   6.4633377482e+01    0.2224403   0.07628494  57.03 0.0006702496    2.869    0.651
       330 -11.2336     13.7006    159.3455   1.1812606023e+02   3.9509325253e+01    0.5334276    0.2370445 -73.12  0.001933662    2.039    0.510
       331  -9.0657    198.1092    167.8956   7.4776747278e+01   1.0946520244e+01    0.1809573    0.1361597  -1.06  0.000911589    1.306    0.235
       332  -8.6676     94.4687     12.4521   5.1080440123e+01   6.0427226265e+01    0.1368504    0.1337434  80.26 0.0002539369    1.070    0.066
       333  -9.2868    187.9695    168.0258   7.6689556452e+01   1.2561818404e+01     0.215534    0.1467095   0.44  0.001079655    1.711    0.416
       334  -8.7877    156.4777    166.4800   8.2777785289e+01   1.8097401815e+01    0.1350761    0.1238877  13.73  0.000107426    1.003    0.003
       335  -8.9810    152.4283    166.5146   8.3661004684e+01   1.8780301419e+01      0.13464    0.1243237  12.05 0.0001097742    1.016    0.015
       336 -10.3629     19.1732    164.9120   1.1702698588e+02   3.7746732380e+01    0.3157006    0.2716397   2.06   0.00177542    1.545    0.353
       337  -9.2242    188.8308    164.0093   7.5757496995e+01   1.3067893668e+01     0.221161    0.1383127 -11.49  0.001072415    2.005    0.501
       338  -9.7187     41.0816    164.0511   1.1118857368e+02   3.5812749304e+01    0.2155334    0.1253545  58.60  0.001109112    1.601    0.375
       339 -10.5446     28.5161    160.5123   1.1425147049e+02   3.7923099623e+01    0.2653875    0.1669352 -67.19   0.00147115    1.571    0.363
       340  -9.8759    204.9886    162.9725   7.2595036046e+01   1.0601070905e+01    0.2327113    0.1710745  22.22 0.0006031946    1.317    0.240
       341  -9.4342    208.4859    160.4848   7.1496129405e+01   1.0418273294e+01    0.2128983    0.1139269 -34.04 0.0007997226    1.747    0.428
       342  -9.3217     79.1009    160.2328   1.0055396119e+02   3.1946082874e+01    0.2595683    0.1633222  76.62  0.001013156    1.971    0.493
       343  -9.3427    215.3378    158.1608   6.9866483898e+01   9.6759325343e+00    0.2536307    0.1039786 -28.45  0.001076996    2.537    0.606
       344 -11.1178     31.9671    153.4209   1.1272135327e+02   3.9283305093e+01    0.7483402    0.3710418  64.92  0.003485399    2.052    0.513
       345 -11.3947     15.8029    147.7705   1.1681643807e+02   4.2103349035e+01    0.5436822    0.3562302  62.22  0.001600077    1.347    0.257
       346 -11.4118     12.9578    137.8735   1.1694443916e+02   4.4752527704e+01    0.8942823     0.443828  86.39  0.004345939    1.851    0.460
       347 -10.9340     22.2002    155.0134   1.1555102398e+02   3.9813823804e+01    0.5318527    0.2570131  35.44 0.0008345301    1.912    0.477
       348 -11.2621     21.4651    150.5636   1.1542537121e+02   4.0949623093e+01    0.2438037    0.1998873  81.42 0.0005777543    1.041    0.039
       349 -11.7243     24.4663    147.2354   1.1431387030e+02   4.1493463299e+01    0.3786292    0.2162919 -65.28   0.00101376    1.677    0.404
       350 -10.4826    104.8031    154.1415   9.2813434427e+01   2.9389200240e+01     0.348878    0.3220794 -31.45  0.002024899    1.201    0.168
       351 -11.7155      3.7882    147.7146   1.2017008302e+02   4.3018218851e+01      0.73906    0.3179227 -85.95  0.003003136    2.017    0.504
       352 -11.6529      3.2134    141.6056   1.2001268587e+02   4.4530527897e+01    0.6802114    0.2936612  58.44  0.001475502    2.090    0.521
       353 -10.8113     63.0494    150.7466   1.0366439955e+02   3.6377768575e+01    0.3877291    0.3076355   0.81  0.001257291    1.689    0.408
       354 -11.3150     45.6661    148.0454   1.0829570840e+02   3.9148599548e+01    0.7333565    0.4565551 -60.85  0.003794919    1.598    0.374
       355  -9.4723    223.9643    156.9683   6.8209238142e+01   8.5031517466e+00    0.2446153    0.1540134 -40.47  0.001095833    1.659    0.397
       356 -10.0117     71.5261    150.9156   1.0130403671e+02   3.5197612085e+01    0.2988575    0.2482729  21.91  0.001674058    1.365    0.267
       357  -9.6907    234.4028    150.0936   6.5210216615e+01   7.8691592948e+00    0.2612905    0.1419711 -16.21  0.001310283    2.004    0.501
       358  -9.9940    239.6660    146.6201   6.3728708602e+01   7.5485822137e+00    0.2181401    0.1601121 -18.91 0.0005994057    1.128    0.113
       359 -10.7797    249.6360    142.8273   6.1545391162e+01   6.5732184992e+00    0.5516676    0.1948877 -31.94  0.002508749    2.357    0.576
