#   1 NUMBER                 Running object number                                     
#   2 MAG_AUTO               Kron-like elliptical aperture magnitude                    [mag]
#   3 X_IMAGE                Object position along x                                    [pixel]
#   4 Y_IMAGE                Object position along y                                    [pixel]
#   5 X_WORLD                Barycenter position along world x axis                     [deg]
#   6 Y_WORLD                Barycenter position along world y axis                     [deg]
#   7 A_WORLD                Profile RMS along major axis (world units)                 [deg]
#   8 B_WORLD                Profile RMS along minor axis (world units)                 [deg]
#   9 THETA_WORLD            Position angle (CCW/world-x)                               [deg]
#  10 FWHM_WORLD             FWHM assuming a gaussian core                              [deg]
#  11 ELONGATION             A_IMAGE/B_IMAGE                                           
#  12 ELLIPTICITY            1 - B_IMAGE/A_IMAGE                                       
         1 -12.9198    162.0142     43.3004   7.8879146705e+01   3.9322960042e+01     1.464135     1.021736 -14.02   0.00677619    1.695    0.410
         2 -11.6621    176.3657     11.3186   6.6471878904e+01   3.9258674442e+01    0.9102566    0.6529616  75.53  0.004699968    1.274    0.215
         3 -10.5406    178.4565      5.6722   6.4510833457e+01   3.9240057881e+01    0.5425287    0.2959675  75.24  0.002499742    1.682    0.406
         4  -9.5515    234.5106      7.0696   5.9263383811e+01   2.4883979476e+01    0.3318608    0.2330087 -34.77  0.001260975    1.441    0.306
         5  -8.1574    151.0032    216.9821   1.2280340776e+02   9.6343695004e+00    0.1364752    0.1222363 -52.52 0.0004011175    1.362    0.266
         6 -15.4340    188.8012    221.7102   1.1611220604e+02   2.2718384874e+00     4.361315     3.677001 -31.82   0.02869311    1.429    0.300
         7  -8.3864    143.9537    175.6976   1.1764960951e+02   1.8391268577e+01    0.3244503    0.1575553  48.42 0.0001899588    1.931    0.482
         8  -9.2555    151.4676    181.4208   1.1700478316e+02   1.5834979374e+01     0.379951    0.2021437  34.41  0.001641801    1.917    0.478
         9  -8.7710    146.9886    179.9992   1.1774010919e+02   1.6970436513e+01    0.2966751    0.1911408 -50.45  0.001454195    1.744    0.427
        10  -8.2654    131.7095    181.3930   1.2138949862e+02   1.9586181889e+01    0.1309121    0.1198092  71.30 0.0001669991    1.095    0.087
        11 -12.3138    108.5922    178.2501   1.2614033530e+02   2.4348314115e+01    0.2534456    0.2130359  50.78 0.0003429507    1.090    0.082
        12  -7.6865     57.3502    179.1774   1.3789921414e+02   3.1776977370e+01    0.1032266   0.09104365  21.72 0.0006622669    1.524    0.344
        13  -8.1305     21.5154    178.0288   1.4551350354e+02   3.5963248345e+01    0.1355077   0.09196673 -83.58 0.0009002753    1.231    0.188
        14 -16.4765     58.1428    139.5318   1.3269999780e+02   4.0551739595e+01     7.364284     6.618456  39.29   0.04714615    1.258    0.205
        15  -9.0420    137.1218    207.7558   1.2430191928e+02   1.3651721029e+01      0.10043   0.08376597 -81.71 0.0001878796    1.418    0.295
        16  -8.5879     99.1270    173.1490   1.2755920769e+02   2.7013469581e+01    0.1645156    0.1344908  77.12            0    1.188    0.158
        17  -7.9376     17.4981    172.7492   1.4596746130e+02   3.7442594803e+01    0.2560987   0.09411778 -82.92  0.001218862    2.494    0.599
        18 -14.5610    116.1779    198.9177   1.2746313332e+02   1.8911141711e+01    0.9640518     0.489209  64.29  0.003983178    2.777    0.640
        19 -16.6684    105.0529    239.5563   1.3446610445e+02   1.3446354520e+01     1.401262    0.7783906 -81.74   0.00763179    2.525    0.604
        20 -10.8514    104.8860    168.3515   1.2545271392e+02   2.7080849611e+01    0.4591416    0.3138888 -72.00  0.001239445    1.598    0.374
        21 -19.6846     66.2384    231.6659   1.4092037651e+02   2.0318767527e+01     6.029649     3.300328  47.45   0.03739132    1.448    0.309
        22  -8.4149    143.8440    169.3712   1.1651328024e+02   1.9664685335e+01    0.2346504    0.1616093  51.69  0.001051875    1.385    0.278
        23 -10.4088     21.3001    168.0892   1.4479680203e+02   3.8085767765e+01    0.1782737    0.1457685  69.31 0.0002987185    1.132    0.117
        24  -7.9193    155.4084    168.2874   1.1368666600e+02   1.7571984782e+01    0.1810431    0.1430377 -58.89 0.0006281665    1.459    0.315
        25  -8.0753    150.8777    167.1371   1.1448629364e+02   1.8709366352e+01    0.2118252    0.1851105  72.50 0.0002977589    1.253    0.202
        26  -8.5648      6.0029    166.1069   1.4793210050e+02   3.9813253982e+01     0.152858    0.1183665  88.02 0.0003025295    1.061    0.058
        27 -10.6434      5.9059    186.3451   1.4918053691e+02   3.5659537421e+01    0.1460315    0.1068958  80.11 0.0002353937    1.015    0.015
        28  -7.9590    132.1182    164.8933   1.1839704151e+02   2.2860615864e+01    0.2140205     0.173605  62.37 0.0005339266    1.239    0.193
        29  99.0000      2.0547    201.2901   1.5066575380e+02   3.3057937971e+01    0.1577512    0.1005468  83.64   0.00115372    1.183    0.154
        30  -8.8133    140.2395    203.6231   1.2304663675e+02   1.3835134931e+01    0.1204818    0.1064207  73.86 0.0001893305    1.211    0.174
        31 -16.3457     99.6806    211.7487   1.3253274329e+02   1.9157106345e+01     1.415295    0.5754082  38.27  0.006409843    2.264    0.558
        32 -12.6341     25.6009    193.9912   1.4582257513e+02   3.2288413243e+01    0.4446677    0.2226513  72.49  0.002566501    1.810    0.448
        33 -10.6547    132.0139    195.4905   1.2356546926e+02   1.6802822507e+01    0.2178876    0.1784891  72.23 -6.375722e-05    1.287    0.223
        34  -9.6735      6.1657    202.8146   1.4999958065e+02   3.2404773527e+01    0.1166493   0.09228823  82.18            0    1.173    0.148
        35 -10.7353    245.1555    144.5904   9.0713788860e+01   3.2654391150e+00    0.5059834    0.2354127  43.92  0.002228552    2.170    0.539
        36  -7.3213    166.2637    149.2856   1.0730375258e+02   1.9014810658e+01    0.1448775    0.1163834   6.97 0.0001743302    1.490    0.329
        37 -11.0696     18.9004    215.4825   1.4837913889e+02   2.8797956917e+01    0.1353294    0.0991432  64.61 0.0003097997    1.100    0.091
        38 -10.0825    249.6380    136.6483   8.8221451945e+01   3.5894933534e+00    0.3030797    0.2065966   7.65   0.00152324    1.732    0.423
        39 -11.4293    247.7316    130.3586   8.7119179749e+01   4.9024750812e+00    0.8199943    0.5110071  21.50  0.003851539    2.011    0.503
        40 -10.7834    244.1853    124.9649   8.6461557213e+01   6.4307536085e+00    0.3703424    0.3066157 -27.44  0.001678676    1.124    0.110
        41 -11.2994    247.9417    118.2159   8.4314588812e+01   6.6994522907e+00    0.7514308    0.3274888 -41.05  0.003099924    2.237    0.553
        42  -9.2697    160.9847    127.7927   1.0353893310e+02   2.4463519627e+01    0.4244272    0.3123992 -80.86  0.001814267    2.010    0.502
        43  -8.3041    122.8278    191.3012   1.2492675194e+02   1.9238253740e+01    0.1944503    0.1028081 -59.66 0.0008919053    2.184    0.542
        44  -9.7056    234.5278    130.7967   8.9407181355e+01   7.4989777141e+00    0.2773702    0.2387798  37.30 0.0005251916    1.184    0.155
        45  -8.9040    196.6822    107.1863   9.0575643616e+01   1.9972164254e+01    0.2701365    0.2299329  43.95 0.0004897076    1.162    0.140
        46 -12.1347    116.8034    190.2087   1.2608709710e+02   2.0503509968e+01    0.3600881    0.2245741 -55.01  0.001008846    1.783    0.439
        47  -8.1339    144.4308    191.6733   1.2028648494e+02   1.5250029575e+01    0.1388218    0.1132668  48.72 0.0002009233    1.079    0.073
        48  99.0000      5.9457    198.3073   1.4981267210e+02   3.3294081425e+01    0.2813089   0.09328536  89.00 0.0009967302    2.919    0.657
        49 -12.7989    108.3085    189.1049   1.2780198231e+02   2.2169019646e+01    0.3865944    0.2441194 -63.51    0.0020242    1.730    0.422
        50  -8.4046     38.9794     84.9176   1.2869955086e+02   5.5283024036e+01    0.1864381    0.1581258 -61.11 0.0003474905    1.056    0.053
        51  -7.4070    139.7211    189.0085   1.2087223315e+02   1.6624478944e+01    0.3679977   0.08893166  41.65  0.001134671    3.639    0.725
        52  -8.9025    146.1991    214.7315   1.2344673543e+02   1.0851314911e+01    0.2684726    0.1168366  41.24  0.001209808    1.905    0.475
        53  -7.2064    189.4745     68.4607   8.1363242235e+01   2.8355639932e+01    0.1517323    0.1480509  70.69 8.089371e-05    1.003    0.003
        54 -11.5938    151.2844     56.8062   8.5504425116e+01   4.0118427208e+01     0.624427    0.5121788  35.81  0.003114049    1.229    0.186
        55 -11.3660    136.6190    243.9222   1.2906551418e+02   7.8160348496e+00    0.3298135    0.1460709  39.17  0.001673365    1.831    0.454
        56  -8.2725    244.9866     55.5037   6.9796403979e+01   1.6565746250e+01    0.1990226    0.1325058  65.66 0.0006716239    1.568    0.362
        57  -7.4809    186.6349     41.7025   7.4058994622e+01   3.3013237145e+01    0.1582423    0.1071632  35.71 0.0001422597    1.722    0.419
        58  -9.6539    140.1496     32.6657   7.9770795662e+01   4.6416877638e+01    0.2502068    0.2348638  22.26 0.0002262129    1.073    0.068
        59  -9.8528    166.6506     33.5390   7.4893249947e+01   3.9377573685e+01     0.382531     0.311523 -22.24  0.001234096    1.344    0.256
        60  -9.1014    138.6362    238.7180   1.2807527858e+02   8.2784280074e+00    0.2439049    0.1680111 -26.39 0.0007594722    2.386    0.581
        61 -10.4099    148.3013    231.3084   1.2530170193e+02   7.8160842153e+00    0.1862534    0.1486439  44.91 0.0002435407    1.019    0.019
