#   1 NUMBER                 Running object number                                     
#   2 MAG_AUTO               Kron-like elliptical aperture magnitude                    [mag]
#   3 X_IMAGE                Object position along x                                    [pixel]
#   4 Y_IMAGE                Object position along y                                    [pixel]
#   5 X_WORLD                Barycenter position along world x axis                     [deg]
#   6 Y_WORLD                Barycenter position along world y axis                     [deg]
#   7 A_WORLD                Profile RMS along major axis (world units)                 [deg]
#   8 B_WORLD                Profile RMS along minor axis (world units)                 [deg]
#   9 THETA_WORLD            Position angle (CCW/world-x)                               [deg]
#  10 FWHM_WORLD             FWHM assuming a gaussian core                              [deg]
#  11 ELONGATION             A_IMAGE/B_IMAGE                                           
#  12 ELLIPTICITY            1 - B_IMAGE/A_IMAGE                                       
         1 -12.6297    199.2473     38.5788   4.5585360598e+01   3.0669960042e+01     1.201156     1.088189  20.78  0.005966767    1.353    0.261
         2 -12.5555    210.2328     27.5220   4.1424077498e+01   2.9446296433e+01    0.8852424     0.758086  30.66  0.003244303    1.502    0.334
         3  -9.6869     32.6710     19.3290   8.1979504836e+01   6.8625463535e+01    0.2015882    0.1026596 -43.24 0.0009621472    2.045    0.511
         4  -9.0610     33.0000      8.0103   7.6211028590e+01   7.0144383812e+01     0.184596   0.05781452 -34.26  0.000741169    2.924    0.658
         5 -10.7694    237.2344      3.3788   3.3430762312e+01   2.6066492628e+01    0.5435606    0.3649415  57.80  0.002875789    1.730    0.422
         6 -10.6259    231.8139      2.9988   3.3731623568e+01   2.7283530490e+01     0.398317    0.2787026  87.84  0.001792517    1.287    0.223
         7  -9.2828     53.6218    221.1777   1.1763010253e+02   2.1565128415e+01    0.5742028    0.2601637  39.54  0.002094809    2.014    0.504
         8 -11.1720     14.6024    190.2336   1.2301809102e+02   3.2431294556e+01    0.2476546    0.1993777  71.32 0.0002091587    1.124    0.110
         9 -11.8627     44.0280    201.8013   1.1786792623e+02   2.6801172502e+01    0.7327119    0.4973339 -76.56  0.001412674    1.339    0.253
        10 -12.3652     54.4809    190.2487   1.1448384428e+02   2.8097145772e+01     2.452145     1.507181 -82.17    0.0110777    1.536    0.349
        11  -8.5282     71.1555    213.3854   1.1336121655e+02   2.0879863573e+01    0.3431424    0.1207637 -55.00  0.001436265    3.127    0.680
        12  -9.3621     65.7731    207.1567   1.1383568424e+02   2.2919400346e+01    0.2680016    0.2018173 -56.44 0.0009960501    1.525    0.344
        13  -8.1187     32.9951    204.0203   1.2031639472e+02   2.7571302997e+01     0.196257    0.1099178  69.62 0.0005759323    1.629    0.386
        14  -9.5348    109.7140    201.5534   1.0362545526e+02   1.7590833080e+01    0.2464623    0.2019537 -18.16 0.0009335697    1.690    0.408
        15  -9.0306     63.0732    201.5294   1.1381696478e+02   2.4490799536e+01    0.2082619    0.1572555 -81.09 0.0004051388    1.229    0.186
        16 -15.3418      6.4246    203.3517   1.2548291644e+02   3.0361659725e+01     16.18161     1.004598 -76.02   0.01724107   10.877    0.908
        17  -7.9473    115.3033    200.3305   1.0221246363e+02   1.6929961742e+01    0.1309632    0.1081008 -12.66 0.0007035392    1.653    0.395
        18  -8.7044     66.7114    195.5366   1.1236604762e+02   2.5325237914e+01     0.310747    0.1888608  79.22  0.001501704    1.790    0.441
        19  -8.5099     99.2347    181.0549   1.0295571718e+02   2.3776336117e+01    0.2052925    0.1900596 -37.98 0.0008947762    1.260    0.207
        20 -15.2138      8.3155    242.4669   1.2716798155e+02   2.2465292236e+01     13.11666     2.124016 -77.43   0.04834147    5.487    0.818
        21  -8.3140    150.6686    179.0088   9.0633521092e+01   1.5115098295e+01    0.3239489    0.2032184 -69.34  0.001348643    2.381    0.580
        22 -10.1460     68.4961    176.0035   1.0954094588e+02   2.9550415394e+01    0.3155175    0.2278148 -51.31 0.0008605632    1.510    0.338
        23 -10.5354     73.1866    170.5013   1.0764197908e+02   3.0197768275e+01    0.4827901     0.297623 -40.73  0.002240929    2.109    0.526
        24  -8.4672     92.6982    217.2033   1.0931175720e+02   1.7017646504e+01    0.2015391    0.1624278  52.01 0.0005782378    1.099    0.090
        25  -8.8851    113.7617    171.9763   9.7965843261e+01   2.3401941572e+01    0.5215356     0.286768  86.30  0.001457413    5.466    0.817
        26  -9.5025    100.4657    170.8860   1.0101121366e+02   2.5915713037e+01    0.4582962    0.2375023  65.67  0.001628713    3.198    0.687
        27  -9.4774     33.6042    165.7916   1.1664734445e+02   3.6164816408e+01    0.4457591    0.2531775  60.31  0.002111212    1.794    0.443
        28 -12.0497     70.2908    156.7851   1.0630320837e+02   3.3906939598e+01    0.6084974    0.4755162 -40.87  0.001479014    1.486    0.327
        29 -11.9342     68.5750    144.2367   1.0469137567e+02   3.7224621175e+01    0.9015269    0.6007227  76.36   0.00328215    1.828    0.453
        30 -11.6014     58.5381    131.2348   1.0520846658e+02   4.1770931282e+01     1.167681    0.4468059 -73.32  0.003683588    3.861    0.741
        31  -9.8246     54.3156    149.0429   1.0929337989e+02   3.7891985500e+01    0.2899085    0.2132341  28.19  0.001592059    1.610    0.379
        32  -9.1114     38.6035    146.2102   1.1304273201e+02   4.0366264520e+01    0.3002359    0.1863137  46.06 0.0008001428    1.711    0.416
        33  -9.2549    134.0275    144.4173   8.7424189462e+01   2.5940366326e+01     0.859311    0.2184776 -54.64  0.001918654    6.192    0.838
        34 -10.0509    102.3873    139.9292   9.4663102291e+01   3.2967647679e+01    0.5373849    0.3379967 -30.92  0.002228058    2.152    0.535
        35 -10.6733     89.9901    139.7251   9.7989995598e+01   3.5115781122e+01    0.3034523    0.2654602 -41.83 0.0004492479    1.199    0.166
        36 -10.8448     88.9470    154.5714   1.0108565992e+02   3.1665594302e+01    0.6312019    0.4437859 -22.33  0.002870137    2.160    0.537
        37  -8.7723    105.9173    130.8828   9.1717281723e+01   3.4512991172e+01    0.3300965    0.2450865 -46.43  0.001582364    1.309    0.236
        38  -9.9786     32.6881    129.6300   1.1233622813e+02   4.5022922162e+01    0.3716207    0.1574851 -65.28  0.001667416    1.911    0.477
        39  -9.2859    112.0369    130.1458   8.9878620457e+01   3.3554466275e+01    0.3518717    0.2196648  27.61    0.0011252    1.971    0.493
        40  -9.4071     98.9032    126.2639   9.2609863531e+01   3.6879801340e+01    0.3274625    0.2657177  -8.78  0.001090731    1.571    0.364
        41  -8.8631     43.2578    129.4305   1.0929001241e+02   4.4002599132e+01    0.1749401    0.1219213  47.33 0.0009443773    1.585    0.369
        42  -9.5957     33.4257    119.2791   1.1051903215e+02   4.7491784489e+01    0.2728159   0.09947672 -61.18  0.001137086    2.140    0.533
        43  -8.3649    107.9591    119.0264   8.8330199250e+01   3.6954235686e+01    0.2255122     0.211125 -28.84 -0.001877172    1.098    0.089
        44 -11.2767     81.7954    161.3364   1.0408391326e+02   3.1135867215e+01     1.097097    0.4648759  57.86 0.0004308853    3.703    0.730
        45  -9.1911     41.4842    113.0024   1.0696521138e+02   4.8230704138e+01    0.2150591    0.1167653 -64.22  0.001027021    1.577    0.366
        46  -8.3033    205.9504    110.0672   6.3209764550e+01   1.7494036498e+01    0.2342568    0.1818693   4.69 0.0009178654    1.645    0.392
        47 -10.1217    245.2537    107.1969   5.6179134616e+01   9.8027167177e+00    0.4472057    0.1439119 -43.45   0.00160494    2.790    0.642
        48  -8.4525    135.0000    106.9969   7.7852906238e+01   3.4168012015e+01    0.2682341   0.08799076 -43.81  0.000804715    2.958    0.662
        49  -9.8265     48.0192    106.8380   1.0368622824e+02   4.9024652978e+01    0.2635957    0.1680882  58.14  0.001274545    2.047    0.511
        50  -8.9596    120.3695    103.8440   8.0876612042e+01   3.7975363193e+01    0.2330618    0.1408633 -36.03 0.0008449559    1.731    0.422
        51 -10.5627     32.9447     98.5121   1.0691654871e+02   5.2566959786e+01    0.5212907    0.1538447 -58.07  0.002018231    2.520    0.603
        52  -8.2875     52.5062     91.4640   9.8696518178e+01   5.2162566164e+01    0.1407374    0.1192772 -43.51 0.0001307268    1.050    0.048
        53  -7.8520     74.2929     84.6411   8.9419977286e+01   5.0709605887e+01    0.1416951    0.1137955 -85.49 0.0007029967    1.695    0.410
        54 -11.9016    189.2965     46.0055   4.8979070044e+01   3.2087513085e+01    0.7462792    0.6339502  49.81  0.001448494    1.256    0.204
        55  -9.1765    140.1432    248.7137   1.0366270503e+02   4.0386228174e+00    0.2112959    0.1482556 -77.97  0.001238125    2.084    0.520
        56  -9.0970     59.7996    231.9871   1.1735246822e+02   1.8639470273e+01    0.2022482     0.168684 -89.15  0.000527163    1.200    0.167
        57  -8.2018     68.8346     52.5194   8.0767229125e+01   5.8082747516e+01    0.2084403    0.1823907 -49.65 0.0007368994    1.337    0.252
        58  -9.2768    143.5796     48.5000   5.7881793907e+01   4.3051009381e+01    0.2834772    0.2384211 -77.93 0.0006331867    1.377    0.274
        59  -8.1757    146.3235     43.0163   5.5520415818e+01   4.3164988603e+01    0.1967091    0.1850365 -35.54  0.000405285    1.101    0.092
        60 -14.5052     38.8667    248.9011   1.2236576638e+02   1.8011712871e+01     8.935624     2.830652  27.83   0.02436752   10.815    0.908
        61  -9.8145     32.7136     33.3846   8.8109886862e+01   6.6361235558e+01    0.4452703    0.1066508 -49.50  0.001440388    4.851    0.794
        62 -11.5624     57.8702    241.2284   1.1845651098e+02   1.7126664741e+01    0.4281306    0.2445164  67.26 0.0004549765    1.585    0.369
        63  -8.2798     44.1936    230.3298   1.2015753804e+02   2.0887234910e+01    0.1652162    0.1156608  61.58  0.001108668    1.138    0.121
        64  -9.3940     48.8204    216.2059   1.1815271266e+02   2.3174178677e+01    0.3187222     0.207973  78.84  0.001508216    1.373    0.272
        65  -9.0369     48.9099    224.6834   1.1883312803e+02   2.1438470820e+01    0.2032389    0.1737309  64.50  0.000735393    1.167    0.143
        66  -9.2701     33.7927    227.3924   1.2187664453e+02   2.2665142274e+01     0.201515    0.1459446 -73.70  0.000261513    1.421    0.296
        67  -8.2775     44.2246    219.6013   1.1933171970e+02   2.3027786339e+01     0.255235    0.1570914  29.17  0.001292977    2.013    0.503
