#   1 NUMBER                 Running object number                                     
#   2 MAG_AUTO               Kron-like elliptical aperture magnitude                    [mag]
#   3 X_IMAGE                Object position along x                                    [pixel]
#   4 Y_IMAGE                Object position along y                                    [pixel]
#   5 X_WORLD                Barycenter position along world x axis                     [deg]
#   6 Y_WORLD                Barycenter position along world y axis                     [deg]
#   7 A_WORLD                Profile RMS along major axis (world units)                 [deg]
#   8 B_WORLD                Profile RMS along minor axis (world units)                 [deg]
#   9 THETA_WORLD            Position angle (CCW/world-x)                               [deg]
#  10 FWHM_WORLD             FWHM assuming a gaussian core                              [deg]
#  11 ELONGATION             A_IMAGE/B_IMAGE                                           
#  12 ELLIPTICITY            1 - B_IMAGE/A_IMAGE                                       
         1 -14.1839     76.7989    156.5726   9.8287411146e+01   3.3212499848e+01     5.995584     2.930417  86.81  0.001432296    7.738    0.871
         2 -13.7143    219.6916     36.0450   3.7770355950e+01   2.6934174974e+01     1.001459    0.8354371  87.82  0.004653126    1.129    0.114
         3 -13.5681    226.5307     29.6134   3.5724362470e+01   2.6295480222e+01     1.012122     0.541834  60.92  0.001439743    1.954    0.488
         4 -12.9110      2.8394      6.8735   8.7396670907e+01   7.3526736882e+01     1.465149    0.3920215 -43.72  0.006861049    3.075    0.675
         5 -13.5454    245.4143     13.2829   3.0934869718e+01   2.4396794932e+01    0.7147475    0.4649915 -62.16  0.002655071    1.220    0.180
         6 -10.0043     92.4610      1.9292   4.7593701779e+01   5.9887493364e+01    0.2244856    0.1585919  59.17 0.0005213573    1.253    0.202
         7 -11.2716     22.9464    224.1974   1.1898262585e+02   2.3857804872e+01    0.3231029    0.1658792  59.50  0.001748261    1.688    0.408
         8 -14.9099     60.6687    245.5964   1.1290185560e+02   1.5056890918e+01      6.21154     1.506652  28.97   0.01655283    7.052    0.858
         9 -14.5842    104.9923    227.3734   1.0157571610e+02   1.2525643113e+01     7.896232    0.6822945  41.92   0.01874353    6.984    0.857
        10 -11.6897     57.8489    173.0745   1.0595574172e+02   3.1700060188e+01    0.2940031    0.2559655 -41.30 0.0005333273    1.328    0.247
        11 -12.1843     13.3280    247.0870   1.2214930440e+02   2.0183825232e+01    0.8668126     0.263916  61.11  0.001454301    3.116    0.679
        12 -15.5162      5.4434    236.8316   1.2310516800e+02   2.2987090503e+01     13.68457    0.4555352 -75.72   0.03403465   10.735    0.907
        13 -12.2271     50.3187    179.8892   1.0876163310e+02   3.0961203878e+01     0.747094    0.4742215 -24.45   0.00232154    2.666    0.625
        14 -13.7450     10.2795    206.8517   1.2049945726e+02   2.8873166153e+01    0.7933176    0.6042159  24.00  0.003221866    1.652    0.395
        15  -9.8741    192.0305    193.0513   7.6893097851e+01   4.9548035298e+00    0.3363073    0.1804971 -63.32  0.001138903    4.327    0.769
        16  -8.4734     99.6415    180.7476   9.6196934204e+01   2.3706160197e+01    0.1413731    0.1148546  -5.99 0.0002780392    1.610    0.379
        17 -10.3832     98.7567    170.5561   9.4715758539e+01   2.6299581474e+01    0.3595818    0.1744904  41.53  0.001445983    1.997    0.499
        18  -8.4826    110.5382    167.5446   9.1079059483e+01   2.5021219576e+01    0.1495207    0.1426707  71.29 0.0002513437    1.032    0.031
        19 -11.7527     43.6954    218.0621   1.1415534929e+02   2.2882404724e+01    0.4344354    0.2936275  38.64 0.0003911182    1.432    0.301
        20 -13.3462     55.3215    159.6216   1.0477761409e+02   3.5376938810e+01    0.5370983    0.3352116 -40.11  0.001656304    1.927    0.481
        21 -11.1262     37.0142    161.2321   1.1001633781e+02   3.7077055545e+01    0.3943198     0.186895  60.45  0.001626276    2.609    0.617
        22 -12.7840     19.9287    206.0683   1.1838108633e+02   2.8127827904e+01    0.3432622    0.2996905 -55.31 0.0007748675    1.431    0.301
        23  -9.7313    134.0000    146.6155   8.0717086144e+01   2.5598100342e+01    0.5190053   0.08765007 -49.50  0.001153211    5.904    0.831
        24 -10.5275     93.3131    142.9768   9.1038488858e+01   3.3997813729e+01    0.3778677    0.2827159 -41.26 0.0008424735    1.405    0.288
        25  -9.5421     96.6449    139.6919   8.9400336992e+01   3.4241058988e+01    0.3007004    0.1925222 -23.42  0.001181632    2.380    0.580
        26 -12.0624     80.9184    141.3150   9.4315246607e+01   3.6419389507e+01    0.3322968    0.2734869 -54.97 0.0005036286    1.169    0.145
        27 -10.1110     44.5132    141.9995   1.0526720005e+02   4.1105015980e+01    0.2026783    0.1111867  84.23 0.0008101392    2.540    0.606
        28 -10.6960    106.2931    131.1532   8.4753339743e+01   3.4594533104e+01    0.3894183     0.345333   7.08 0.0009771015    1.269    0.212
        29 -11.7390     66.5005    127.2141   9.5907957325e+01   4.2082409318e+01    0.6156102    0.3878503 -86.90  0.002601567    2.219    0.549
        30 -12.0387     69.5125    146.0079   9.8540740437e+01   3.6929503771e+01    0.4512252    0.3558041 -45.83  0.001047251    1.299    0.230
        31 -10.8184     93.1827    127.8234   8.7834062517e+01   3.7750467153e+01    0.3255019    0.2611041 -27.63 0.0004567876    1.408    0.290
        32 -12.4321     67.5220    142.4998   9.8502253458e+01   3.8095172532e+01    0.5170102    0.3973295  53.13  0.001324811    1.374    0.272
        33  -9.6202    239.3497    127.3122   5.4965913048e+01   8.6622006569e+00    0.1318778    0.1003448  -3.91 0.0007045864    1.720    0.419
        34  -9.8037    114.0865    125.3285   8.1176724767e+01   3.4500403266e+01    0.2502088    0.1986944  13.24  0.001169227    1.528    0.346
        35  -9.7785    104.6027    119.8756   8.2584359805e+01   3.7598804355e+01    0.2312787    0.2079481  18.96 0.0004179794    1.188    0.159
        36  -8.8326    160.6077    117.7713   6.7432892262e+01   2.6423995654e+01    0.2237334    0.1401543 -54.78 0.0009098796    1.725    0.420
        37  -9.8247    205.1688    110.6447   5.6832101090e+01   1.8221625665e+01    0.3153059    0.2494671  34.55  0.001388125    1.489    0.328
        38 -14.8666     30.6634    196.4345   1.1522025705e+02   2.9232634880e+01     2.151923     1.536103  64.67   0.01295719    1.250    0.200
        39  -9.8719     50.2233    101.3956   9.5819132507e+01   5.0515308826e+01    0.1845041    0.1276385  39.78 0.0004899537    1.596    0.374
        40 -11.1505      2.2276     96.1448   1.1201694705e+02   5.5811570457e+01    0.3596848    0.2604254  89.22  0.002192432    1.459    0.315
        41 -10.8521      1.7633     87.8120   1.1089204762e+02   5.7770589538e+01    0.4848715    0.1462723 -69.73  0.001954884    2.816    0.645
        42 -10.8772      2.1539     81.0269   1.0959793444e+02   5.9300127338e+01    0.4007628    0.1396715 -60.52  0.001848419    2.093    0.522
        43 -10.7472      1.6916     76.0057   1.0887264244e+02   6.0450259960e+01    0.3068637    0.1596868 -52.13 0.0007859286    1.483    0.326
        44 -11.3039     69.2296    163.2336   1.0147606840e+02   3.2630877453e+01    0.2898094    0.2720338 -70.61 0.0005071826    1.070    0.066
        45 -10.3185    162.9162     83.1666   5.7983709486e+01   3.2690228164e+01    0.2375041    0.2011217 -77.45 0.0007766514    1.267    0.210
        46  -9.7498     61.7128     71.8367   8.3717182983e+01   5.5578791284e+01    0.2278721    0.1801118  10.30 0.0004493529    1.309    0.236
        47 -10.7193     13.3041     60.3721   1.0052049324e+02   6.3169942301e+01    0.2340044     0.179943 -43.13 0.0005662258    1.065    0.061
        48 -12.4449    203.3492     48.8168   4.2547473193e+01   2.8811764722e+01     1.474033       0.9402  48.35  0.007637501    1.857    0.462
        49 -10.1414     58.9484    230.5259   1.1196458401e+02   1.8334439656e+01    0.3155283    0.1650884 -67.74  0.001208232    1.963    0.491
        50  -9.8282     53.4189    232.1209   1.1326992907e+02   1.8698064479e+01    0.2206095    0.2028361 -84.08  0.001533536    1.242    0.195
        51  -9.8885     21.3505     48.9000   9.3558036131e+01   6.4861320758e+01    0.2096204    0.1590736  -5.10 0.0004458315    1.256    0.204
        52 -10.3914      2.6689     38.3022   9.9438208310e+01   6.8221323060e+01     0.184285    0.1656222 -43.83 0.0007789477    1.260    0.207
        53  -8.9534    125.6361     33.3418   5.1188489065e+01   4.9210022451e+01      0.14263    0.1022558 -75.98 1.085775e-05    1.843    0.457
        54 -10.1373     23.7080    231.6848   1.1930735854e+02   2.2206080878e+01    0.2435405   0.08447918  50.27  0.001154761    2.336    0.572
        55  -9.0510    126.2337     26.2414   4.8750973738e+01   4.9918233039e+01    0.1793755    0.1486014 -79.80 0.0005026522    1.369    0.269
        56  -9.0996    116.4848     24.9995   5.0428125369e+01   5.2315951727e+01    0.1807138     0.131266 -31.39 0.0005708257    1.529    0.346
        57  -9.9282     77.1308    226.2730   1.0761493016e+02   1.6805965952e+01    0.2239663    0.1732025  86.16 0.0003748357    1.308    0.236
        58 -10.2127    189.2109     15.1312   3.6168534704e+01   3.6244122596e+01    0.1827654    0.1634584  71.04  0.001135238    1.206    0.171
