#   1 NUMBER                 Running object number                                     
#   2 MAG_AUTO               Kron-like elliptical aperture magnitude                    [mag]
#   3 X_IMAGE                Object position along x                                    [pixel]
#   4 Y_IMAGE                Object position along y                                    [pixel]
#   5 X_WORLD                Barycenter position along world x axis                     [deg]
#   6 Y_WORLD                Barycenter position along world y axis                     [deg]
#   7 A_WORLD                Profile RMS along major axis (world units)                 [deg]
#   8 B_WORLD                Profile RMS along minor axis (world units)                 [deg]
#   9 THETA_WORLD            Position angle (CCW/world-x)                               [deg]
#  10 FWHM_WORLD             FWHM assuming a gaussian core                              [deg]
#  11 ELONGATION             A_IMAGE/B_IMAGE                                           
#  12 ELLIPTICITY            1 - B_IMAGE/A_IMAGE                                       
         1  -8.1531    112.8057     29.7536   2.9062829348e+02   6.7884974231e+00   0.01259512  0.008597303  -6.65  0.001249026    1.853    0.460
         2 -10.1235      9.2107     19.6766   2.9177748731e+02   7.5038954782e+00   0.02576265   0.01463209  18.19  0.001362968    1.945    0.486
         3 -10.3883     24.6644     16.6152   2.9157856547e+02   7.4503787483e+00   0.02013774   0.01520508  23.74 0.0007615093    1.342    0.255
         4  -9.0914     31.8196     10.6095   2.9145895465e+02   7.4787889843e+00   0.02188267   0.01152759 -40.17  0.001286628    2.127    0.530
         5  -9.7576     64.0467     14.2976   2.9110462953e+02   7.2499513289e+00   0.02054037   0.01450339  -8.07 0.0008722537    1.741    0.426
         6  -8.6212     76.9864      7.0231   2.9090985614e+02   7.2595058225e+00   0.01520014  0.008733498  11.76 0.0009345326    2.123    0.529
         7  -8.9253     80.2622     12.6770   2.9090555635e+02   7.1749886374e+00   0.01428595     0.012342  84.09  0.000983377    1.273    0.214
         8  -9.6702     74.6516     13.0460   2.9097328071e+02   7.2031603911e+00   0.02153036   0.01373206 -58.91  0.001890206    1.529    0.346
         9  -7.8903    134.8048     13.1690   2.9027203598e+02   6.8532723774e+00  0.009310868  0.007317269 -34.67 0.0004166963    1.339    0.253
        10  -8.1921    106.0105     10.5294   2.9059210367e+02   7.0508286655e+00   0.01041654  0.008884895 -62.12 0.0006102702    1.167    0.143
        11 -10.5104     20.1492      8.8372   2.9158469791e+02   7.5666268899e+00   0.01660623   0.01241976   7.82 0.0003976887    1.481    0.325
        12  -7.6629     65.0421      9.4695   2.9106402522e+02   7.3001963028e+00  0.009691348  0.006513931  25.59 0.0004346643    1.501    0.334
        13  -8.4282      1.8613      7.9249   2.9179297019e+02   7.6825329620e+00   0.01385408   0.01010867 -79.19  0.001476029    1.536    0.349
        14  -8.7388     97.2397     12.1522   2.9070421614e+02   7.0828129188e+00    0.0133764   0.01055936 -27.17 0.0007193265    1.380    0.275
        15  -8.5241    128.2560      7.7633   2.9031592427e+02   6.9539377444e+00  0.009071463  0.007419422 -30.63 0.0004801874    1.293    0.226
        16  -7.7992     39.3231      8.3387   2.9135766630e+02   7.4618403365e+00  0.007165364  0.004853869 -29.00 0.0007050876    1.720    0.418
        17  -7.9749    119.3901      6.8068   2.9041360778e+02   7.0164436288e+00  0.009703327  0.005767596 -51.12 0.0005710022    1.638    0.389
        18  -8.6661     84.6834      5.9448   2.9081350899e+02   7.2274785270e+00   0.01550302  0.007701358 -23.25  0.001074594    3.862    0.741
        19  -8.6261     68.7706      3.9939   2.9098760892e+02   7.3421425450e+00   0.01928825  0.008202163 -53.78  0.001432398    2.205    0.547
        20  -8.8507     56.6980      4.6333   2.9113245466e+02   7.4044976007e+00   0.01794026   0.01086688 -20.95  0.001617887    2.284    0.562
        21  -9.9462     49.0805      4.6351   2.9122144994e+02   7.4484708137e+00   0.01365386   0.01130351 -27.52 0.0003768827    1.284    0.221
        22  -9.0306    110.9644      4.3813   2.9049734618e+02   7.0934067849e+00   0.01515467   0.01005121 -71.64 0.0005698008    1.625    0.384
        23  -8.5092    125.3699      3.5737   2.9032440642e+02   7.0192476453e+00   0.01219969  0.007896864 -57.53 0.0005460114    1.502    0.334
        24  -8.9115    104.3291      3.0097   2.9056654197e+02   7.1477584425e+00   0.01851078  0.008562751 -48.26  0.001602631    2.149    0.535
        25  -9.0447    235.8716      2.4786   2.8903036865e+02   6.3892894458e+00   0.01361468    0.0111048 -65.72   0.00100792    1.236    0.191
        26  -8.1023    153.7718      3.2216   2.8999104132e+02   6.8584678830e+00  0.009012949  0.007446921 -22.02 0.0002931278    1.312    0.238
        27  -8.0736    182.3217      2.0994   2.8965153642e+02   6.7055191419e+00    0.0090842  0.008353829 -68.06 0.0003570173    1.097    0.089
        28  -7.7945    143.1566      2.1776   2.9010854176e+02   6.9322131271e+00   0.00895118  0.007544389  61.29 0.0003334261    1.291    0.225
        29  -8.3544     12.1023      4.5551   2.9165307201e+02   7.6626536069e+00   0.01983986   0.01053858  44.72  0.001517217    2.013    0.503
        30  -7.6669      3.0056      1.2017   2.9173930086e+02   7.7539235777e+00  0.008498795  0.005231894  25.84 0.0003433897    1.638    0.389
        31  -7.7764    101.4841    229.4467   2.9195514638e+02   4.5342224003e+00  0.006498581   0.00646735 -19.95 0.0001150326    1.010    0.010
        32  -8.3516    249.0992    250.1445   2.9036313764e+02   3.4391822081e+00   0.01044745  0.008909004 -24.05 0.0009767909    1.244    0.196
        33  -8.7068    224.6353    250.1869   2.9064739042e+02   3.5805037633e+00   0.01330247  0.004775002  29.37   0.00102425    2.664    0.625
        34  -9.5296    212.1527    249.8421   2.9079029020e+02   3.6568424992e+00   0.01836062   0.01060363  56.58  0.001658974    2.207    0.547
        35  -9.7137    200.2765    249.0928   2.9092376273e+02   3.7343503161e+00    0.0187806   0.01335069 -14.50  0.001166625    1.719    0.418
        36  -9.1196    151.5870    250.0324   2.9149520050e+02   4.0053059615e+00   0.01719774  0.009072986  35.06  0.001604751    1.849    0.459
        37  -7.5249    123.3254    250.7464   2.9182805496e+02   4.1604363213e+00    0.0100282   0.00571102   8.48  0.000669307    2.279    0.561
        38  -8.5850     59.9710    249.5069   2.9255761775e+02   4.5406089483e+00   0.01635471   0.01083772 -10.37  0.001402393    1.973    0.493
        39  -8.8100    247.0861    226.3383   2.9024408919e+02   3.7272063211e+00   0.02150951  0.009477477 -60.59  0.001837011    2.191    0.544
        40  -8.0474    229.6569    226.7034   2.9044865317e+02   3.8240627330e+00   0.01604069  0.006684384 -48.65   0.00131433    2.372    0.578
        41  -7.5231    174.8450    228.1775   2.9109434916e+02   4.1246067865e+00   0.00925626  0.007544296 -25.32 0.0005118822    1.326    0.246
        42  -8.2557     37.0029    227.9070   2.9269643352e+02   4.9241395447e+00   0.01004859  0.009648106 -27.63 0.0005509031    1.043    0.041
        43  -7.7424    110.7078    227.6665   2.9183721525e+02   4.5016202283e+00  0.007012995  0.004859365 -30.99 0.0003887862    1.635    0.389
        44  -7.0713    142.3423    226.3143   2.9146115441e+02   4.3344052764e+00  0.007115634  0.004911044 -26.53 0.0003556924    1.707    0.414
        45  -7.5733     70.4412    226.0413   2.9229610761e+02   4.7530423640e+00   0.01005055   0.00460083 -41.53 0.0008069349    2.498    0.600
        46  -7.7378    223.8245    224.7480   2.9050469537e+02   3.8805912951e+00    0.0113053  0.006065259 -29.11 0.0009254212    2.632    0.620
        47  -7.4676    200.2890    223.3059   2.9076950434e+02   4.0337828759e+00  0.006841368  0.004906123 -29.54 0.0003160767    1.572    0.364
        48  -7.4660    206.5317    222.4511   2.9069185348e+02   4.0075263996e+00  0.006696176  0.006263083 -28.20 9.126215e-05    1.080    0.074
        49  -8.8759    239.2792    219.7108   2.9029506959e+02   3.8494386970e+00   0.01965892  0.009983883 -56.18 0.0009445425    1.874    0.466
        50  -7.9351    129.9366    220.6386   2.9157157929e+02   4.4721322513e+00   0.01081332  0.008290408  -7.75  0.001169063    1.507    0.337
        51  -7.6598     51.5410    221.5204   2.9248918801e+02   4.9146175260e+00  0.006631225  0.006342576 -32.03 0.0002924078    1.044    0.042
        52  -8.3206    182.3172    219.7376   2.9095705214e+02   4.1793751747e+00    0.0130919  0.009006317   9.30 0.0009130849    1.661    0.398
        53  -7.6818    237.4426    225.4772   2.9035090329e+02   3.7931444449e+00  0.006611029  0.006344327 -33.98 0.0001226588    1.037    0.036
        54  -8.3876    186.7348    226.7987   2.9094790600e+02   4.0717538393e+00   0.01123663  0.007980582 -41.05  0.001189272    1.456    0.313
        55  -7.6705    173.3330    219.3170   2.9105898570e+02   4.2363047196e+00  0.007093337  0.004909436 -27.19 0.0007047624    1.690    0.408
        56  -7.6088     94.6826    218.3386   2.9196806807e+02   4.7026426521e+00  0.007041244  0.004978118  63.70 0.0007048831    1.705    0.414
        57  -7.4590    227.5495    217.5408   2.9041830975e+02   3.9426757289e+00  0.006618213  0.006333908 -31.10  0.000806779    1.044    0.042
        58  -7.7578    105.5029    217.4670   2.9183694670e+02   4.6502584458e+00  0.006523221  0.006469673 -33.30 0.0001050785    1.005    0.005
        59  -7.5839    203.5096    216.5049   2.9069140993e+02   4.0941073861e+00   0.00673235  0.006269324 -29.30 -3.928472e-05    1.085    0.079
        60  -8.4488    193.5321    215.7479   2.9080284048e+02   4.1607342969e+00   0.01313828  0.009867842 -19.78   0.00101766    1.539    0.350
        61  -9.3839    248.2653    213.1184   2.9015126714e+02   3.8738320023e+00   0.02235081   0.01303014 -60.13  0.001969428    1.674    0.403
        62  -7.9323    122.0389    213.4568   2.9162059972e+02   4.6012784298e+00   0.01008708   0.00651836  25.49 0.0006604657    1.564    0.361
        63  -7.1736    169.9516    212.0000   2.9105457290e+02   4.3409017687e+00   0.01071855  0.003769198  26.46 0.0006727093    2.865    0.651
        64  -7.7873    186.1241    210.1832   2.9085567786e+02   4.2683089699e+00   0.01035658   0.00865038 -26.24 0.0008410508    1.275    0.216
        65  -8.1962    232.2056    211.9098   2.9033052971e+02   3.9810495048e+00   0.01307365  0.008394499 -17.44  0.001228765    2.076    0.518
        66  -7.6100    163.2060    207.5902   2.9110666185e+02   4.4312084301e+00  0.009038177  0.006415699   7.61 0.0008699684    1.606    0.377
        67  -8.1200    236.1156    205.1311   2.9024453679e+02   4.0370677890e+00   0.01445726  0.008417278 -47.32  0.001397842    1.716    0.417
        68  -7.6948    246.6048    205.1419   2.9012278647e+02   3.9760666562e+00   0.01026798  0.005554263 -49.97 0.0009521615    1.806    0.446
        69  -9.4510    227.6358    202.2963   2.9032606586e+02   4.1191871524e+00   0.02645749   0.01066938 -44.37  0.001962744    2.718    0.632
        70  -8.0900    117.6783    204.9342   2.9162047022e+02   4.7255544715e+00   0.01149963  0.009043036   7.63   0.00067174    1.382    0.277
        71  -7.8201    176.2761    204.3109   2.9093506444e+02   4.3935942003e+00  0.006815439  0.004879909 -31.09 0.0002068431    1.557    0.358
        72  -7.3385    157.0105    204.0032   2.9115728364e+02   4.5087659091e+00  0.007863314  0.007664763  14.49 0.0004171054    1.031    0.030
        73  -8.2718    250.5126    199.4597   2.9004337918e+02   4.0193448184e+00   0.01407793  0.006351919 -61.12  0.001204569    2.156    0.536
        74  -7.8033    196.0685    200.4881   2.9068208552e+02   4.3232833188e+00   0.01024622  0.006575338  24.17  0.001030865    1.590    0.371
        75  -7.9637    185.0561    199.9577   2.9080693987e+02   4.3932843012e+00     0.010822  0.007641446 -26.88 0.0007786278    1.641    0.391
        76  -8.1069    243.6063    198.1510   2.9011574109e+02   4.0746294201e+00  0.009821855  0.005644973 -49.74 0.0007639898    1.705    0.414
        77  -8.1357    166.0808    197.3369   2.9101193230e+02   4.5336881081e+00   0.01050444  0.008177577  -1.31  0.001149825    1.452    0.311
        78  -7.4072    140.3605    197.3147   2.9131101497e+02   4.6828837630e+00   0.00719043  0.004899248 -25.72 0.0007042574    1.754    0.430
        79  -8.1199    216.0592    205.3226   2.9047868116e+02   4.1512044769e+00   0.01081677  0.008274763  -3.90  0.001126159    1.504    0.335
        80  -8.1841    192.8867    194.4058   2.9068268239e+02   4.4123802054e+00   0.01471969  0.007558734 -45.24  0.001321237    2.012    0.503
        81  -7.3471    124.7196    193.3268   2.9146920624e+02   4.8197386281e+00   0.00677465    0.0050341  66.51 0.0006998258    1.597    0.374
        82  -7.6021     90.4790    192.4541   2.9186259893e+02   5.0278333385e+00  0.006574794  0.006398738 -28.45 8.630862e-05    1.022    0.022
        83  -7.4106    231.2809    191.3731   2.9021831188e+02   4.2248638171e+00  0.007161831  0.004764081 -33.21 0.0007012299    1.701    0.412
        84  -8.2639    246.1815    190.1982   2.9003819410e+02   4.1520026306e+00  0.009732704  0.008769316 -25.23 0.0004055911    1.145    0.126
        85  -7.6567    161.6412    189.7197   2.9101802558e+02   4.6479087887e+00  0.006975022    0.0049576 -22.77 0.0004401355    1.666    0.400
        86  -7.6284     64.8185    189.4091   2.9214325871e+02   5.2113947920e+00  0.009455563  0.006440814   8.85 0.0009519848    1.690    0.408
        87  -6.9564     45.3043    187.6621   2.9236014410e+02   5.3442626908e+00  0.006961363  0.004999153  64.70 0.0007039537    1.672    0.402
        88  -7.5983    148.6651    185.6441   2.9114462674e+02   4.7704232971e+00  0.007313757   0.00482034 -29.12 0.0007042813    1.798    0.444
        89  -7.2893    230.6875    184.6867   2.9018515601e+02   4.3059427308e+00  0.006984124  0.004914858 -28.17 0.0004095596    1.635    0.388
        90  -7.8619    250.0354    181.7072   2.8994255810e+02   4.2281889392e+00   0.00912606  0.008681034  16.83 0.0004809588    1.059    0.056
        91  -7.8055    165.0192    182.5249   2.9093569529e+02   4.7119306323e+00   0.01016066  0.006559058  24.56  0.001025781    1.576    0.365
        92  -7.8176    155.9962    181.7575   2.9103608235e+02   4.7731227470e+00    0.0102354  0.006749518 -39.14  0.001030653    1.619    0.382
        93  -7.6864     96.5395    178.4315   2.9170831843e+02   5.1558182779e+00  0.006582542  0.006342463 -26.09 6.456902e-05    1.038    0.037
        94  -8.1443    148.4627    174.8598   2.9108249094e+02   4.8969057582e+00   0.01345952  0.008797737  -0.63  0.001169429    1.960    0.490
        95  -7.9981     47.2071    175.5830   2.9226596904e+02   5.4737336104e+00   0.00949331  0.006459143   8.86 0.0009554062    1.693    0.409
        96  -7.6568    184.3252    171.3143   2.9064402794e+02   4.7302492270e+00  0.007044755  0.004916381 -27.43 0.0007042484    1.666    0.400
        97  -7.7039     14.3509    170.3366   2.9261757541e+02   5.7240303558e+00  0.007274594  0.004848572 -27.62 0.0007045724    1.789    0.441
        98  -7.5939    105.6724    168.7008   2.9154383181e+02   5.2161220349e+00  0.006966155  0.004938642 -26.22 0.0007028728    1.637    0.389
        99  -7.8014    198.7954    166.7901   2.9044864989e+02   4.6988577636e+00   0.01156115  0.006164445 -28.52 0.0009354409    2.707    0.631
       100  -8.1338    177.3465    167.3202   2.9070129358e+02   4.8171119724e+00   0.01105377  0.007479721 -27.06  0.001103173    1.756    0.431
       101  -7.5727    150.6240    165.7036   2.9100256133e+02   4.9907720459e+00   0.00713944  0.004919927 -23.69 0.0007025141    1.747    0.428
       102  -7.9105    168.5497    163.5027   2.9078078440e+02   4.9124593409e+00   0.01232705  0.006602488   9.20  0.001030417    2.531    0.605
       103  -7.6064    123.1880    162.6042   2.9130341908e+02   5.1856495298e+00  0.009475049  0.006401747   8.57 0.0009473669    1.717    0.417
       104  -7.7158    205.5091    159.4429   2.9032656597e+02   4.7452180235e+00  0.006611794  0.006352352 -26.04 4.221357e-05    1.043    0.041
       105  -7.4354    159.7029    159.6971   2.9086095100e+02   5.0079487292e+00  0.006858738  0.004920149 -28.64 0.0004524943    1.581    0.368
       106  -7.5144    138.4960    158.4879   2.9110056497e+02   5.1448589933e+00  0.006537284  0.006469951 -37.03 0.0001027808    1.004    0.004
       107  -8.0212    196.0346    154.2440   2.9040559437e+02   4.8605805483e+00  0.008909212  0.005634724  25.04 0.0006858665    1.605    0.377
       108  -7.9768    168.1948    152.4181   2.9071854431e+02   5.0432795474e+00   0.01556092  0.005646475 -38.46 0.0009645378    4.390    0.772
       109  -7.4734    106.9911    152.2033   2.9142986094e+02   5.4002289484e+00  0.008869967   0.00524778  26.41 0.0007647685    1.700    0.412
       110  -8.0297    132.8908    147.8542   2.9110219972e+02   5.3008725320e+00   0.01061601  0.008685344 -30.93 0.0008457726    1.291    0.225
       111  -9.4255     67.1311    144.6377   2.9184909237e+02   5.7185096511e+00   0.02448955   0.01401964  53.46   0.00224569    2.116    0.527
       112  -7.0978    166.3148    139.3667   2.9066224837e+02   5.2057781418e+00  0.007281178  0.004798813 -30.62 0.0007038338    1.772    0.436
       113  -7.6139    139.6718    137.7197   2.9096256962e+02   5.3793397234e+00  0.006852125  0.004964539 -24.34 0.0003461074    1.600    0.375
       114  -7.3894     55.3396    135.3052   2.9193079473e+02   5.8950423740e+00  0.007050291   0.00492388 -26.07 0.0007040848    1.678    0.404
       115  -8.2118      4.2433    134.4189   2.9252133736e+02   6.1997824093e+00   0.01258325  0.006658157  19.75  0.001127603    2.076    0.518
       116  -8.4346     23.9460    129.9576   2.9226493093e+02   6.1382051995e+00   0.01917894   0.01025845 -12.41  0.001424799    3.469    0.712
       117  -7.2055    123.7469    129.2942   2.9109760602e+02   5.5694541301e+00  0.006460583  0.005027214  67.73  0.000224146    1.489    0.328
       118  -9.6869    237.5879    126.8093   2.8975793258e+02   4.9377127485e+00    0.0133675   0.01244798  42.47 0.0003786265    1.091    0.084
       119  -7.8964    132.7584    124.4311   2.9096351123e+02   5.5737600613e+00  0.009343408  0.006474503   8.34 0.0009500597    1.656    0.396
       120  -9.8632     13.8269    119.6696   2.9232155237e+02   6.3160590212e+00   0.02829629   0.01348857 -33.96  0.002204708    2.945    0.660
       121  -7.3202     84.4783    121.5315   2.9150876060e+02   5.8868219790e+00  0.006551324  0.006434859 -31.94 5.203419e-05    1.008    0.008
       122  -8.0496     99.2884    119.6817   2.9132506379e+02   5.8226806116e+00   0.01349021  0.008020183  -6.08  0.001166828    2.489    0.598
       123  -7.8566    119.4662    118.9978   2.9108582851e+02   5.7138542060e+00   0.01169703  0.007043354  15.48 0.0008149604    1.876    0.467
       124  -7.9277     58.7392    114.2337   2.9176522342e+02   6.1202994448e+00   0.01037541  0.005624705  10.44 0.0008815277    2.399    0.583
       125  -8.0773    184.6555    112.4701   2.9028753969e+02   5.4116941899e+00     0.012132  0.006093291  32.59 0.0007027972    1.930    0.482
       126  -9.2840      2.2604    109.7481   2.9239727828e+02   6.4979372750e+00   0.01931561   0.01087041 -36.59  0.001722787    2.071    0.517
       127  -8.1263    133.8607    106.4535   2.9084296454e+02   5.7761853846e+00    0.0141089  0.007540047 -45.05  0.001292847    1.930    0.482
       128  -7.9341    124.0581    107.4373   2.9096307742e+02   5.8215475154e+00  0.009408418  0.005643622  -9.16 0.0007479418    2.465    0.594
       129  -9.5348     15.5680    104.7851   2.9221236453e+02   6.4790091658e+00   0.02664718   0.01511583 -14.37  0.002191425    2.832    0.647
       130  -7.5080    109.3219    106.3260   2.9112815830e+02   5.9197774526e+00  0.007097274   0.00489034 -28.41 0.0007047732    1.685    0.407
       131  -8.7990    247.8612    103.3118   2.8949744915e+02   5.1506060093e+00   0.01138073  0.008172884  48.11  0.001210287    1.478    0.323
       132  -8.0604     94.4519    103.5150   2.9128466466e+02   6.0384684384e+00   0.01191525   0.00661039   9.76  0.001033517    2.336    0.572
       133  -7.1414     64.6688    101.3251   2.9161886185e+02   6.2360440954e+00  0.007057347  0.004953546  61.98   0.00041538    1.706    0.414
       134  -7.9575    129.1750     98.1914   2.9084804256e+02   5.8992854817e+00   0.01222377  0.006316157 -28.26 0.0009531447    2.933    0.659
       135  -9.6204      9.6397     96.1897   2.9223020316e+02   6.6130170509e+00   0.02245286  0.009203903  23.08  0.001788223    2.632    0.620
       136  -9.3895     19.8701     92.5315   2.9208895039e+02   6.5966065712e+00   0.02102348  0.009157886 -39.58  0.001627731    2.850    0.649
       137  -8.6378     44.5435     92.0322   2.9179804521e+02   6.4601700391e+00   0.02060352   0.01246268 -11.02   0.00182574    2.411    0.585
       138  -8.8199     14.9888     93.0082   2.9214876721e+02   6.6191821032e+00   0.01101462  0.007635553 -29.38 0.0007267149    1.654    0.395
       139  -8.2251     96.4371     90.6522   2.9118448229e+02   6.1763890681e+00   0.01590939  0.009048656 -20.01    0.0013258    2.686    0.628
       140  -7.0848     57.2506     91.6752   2.9164765514e+02   6.3909825873e+00  0.006578584  0.005041858  70.63 0.0002179974    1.541    0.351
       141  -9.3785     36.0385     81.9411   2.9183693141e+02   6.6264458615e+00   0.03222187   0.01587002 -33.26  0.002574035    2.815    0.645
       142  -8.4865     66.7077     85.9079   2.9150280854e+02   6.4033593392e+00   0.01925765  0.009667119  11.06  0.001558748    2.737    0.635
       143  -7.9678    126.0511     84.4847   2.9080227589e+02   6.0765465773e+00  0.009776479   0.00569137  -7.96 0.0008093483    2.656    0.624
       144  -8.6485     88.9523     78.8609   2.9120112431e+02   6.3566213050e+00   0.02641468   0.01399523  -2.48  0.001999384    3.341    0.701
       145  -9.6727      7.5980     77.5496   2.9214265056e+02   6.8413162356e+00   0.02548795   0.01475521 -22.76  0.002216067    2.473    0.596
       146  -7.7862    184.4634     78.0580   2.9008324209e+02   5.8122379818e+00  0.009865168  0.006428868 -61.23 0.0004754715    1.514    0.339
       147  -8.8144     48.8612     76.8770   2.9165698187e+02   6.6112931114e+00   0.01618855   0.01315308 -44.34  0.001530515    1.230    0.187
       148  -7.2639    120.3254     76.2872   2.9081986062e+02   6.2048953444e+00  0.006881188  0.004954628 -25.18 0.0003284068    1.608    0.378
       149  -9.0070     29.4283     68.7817   2.9183535594e+02   6.8173968697e+00   0.01743683   0.01278804  -9.95  0.001842081    1.627    0.385
       150  -9.5550     24.1474     73.0928   2.9192279741e+02   6.7977655937e+00    0.0258595   0.01301286 -39.49  0.001507297    2.298    0.565
       151  -7.9888     23.4880     69.4880   2.9190893121e+02   6.8434308709e+00   0.01356557  0.009194018  26.25 0.0007499225    1.484    0.326
       152  -7.9096     74.9183     74.6698   2.9133972268e+02   6.4864330785e+00   0.01042421  0.008125196  -3.59 0.0006034517    1.455    0.313
       153  -7.7287    129.0550     69.4599   2.9067714283e+02   6.2335668150e+00  0.009340807  0.005646887  -9.81 0.0008050959    2.422    0.587
       154  -8.6528     42.8173     68.3856   2.9167669366e+02   6.7447818355e+00   0.01807604   0.01053619 -16.49  0.001539862    2.599    0.615
       155  -8.2852     80.4871     67.9252   2.9123434157e+02   6.5325562967e+00   0.01077384  0.009124481  -7.18 0.0003805985    1.279    0.218
       156  -8.5646     84.4211     63.8545   2.9116404735e+02   6.5570692065e+00   0.01822211   0.01143774 -10.86  0.001185402    2.215    0.549
       157  -7.9613    106.0528     67.4845   2.9093348899e+02   6.3897517455e+00   0.01029717  0.006546937  25.15  0.001033341    1.594    0.373
       158  -8.2825     61.6518     67.1994   2.9144977000e+02   6.6498311055e+00   0.01705683  0.007746527 -44.16  0.001016461    2.362    0.577
       159  -9.6498     65.5338     61.0264   2.9136748484e+02   6.6990808803e+00   0.01993779   0.01517434 -21.97 -6.038872e-05    1.492    0.330
       160  -9.6934     17.7505     62.2075   2.9193236329e+02   6.9610354421e+00   0.02636073   0.01434529 -44.28  0.001881061    1.909    0.476
       161  -7.1238    191.6980     64.3222   2.8991650900e+02   5.9295695113e+00   0.00687926  0.005008492  64.09 0.0003296158    1.632    0.387
       162  -8.9680     51.2340     60.3306   2.9153021611e+02   6.7897405195e+00   0.02027754   0.01400126  61.49  0.001856225    1.746    0.427
       163 -10.7323     38.4472     57.6232   2.9166327291e+02   6.8949613590e+00   0.02537741   0.01546795 -16.24 0.0004976679    2.332    0.571
       164  -9.5925      2.9292     55.2437   2.9206378829e+02   7.1272354896e+00   0.02938041   0.01807426 -47.08  0.002946678    1.623    0.384
       165  -9.9796      9.8244     47.7338   2.9193831909e+02   7.1747347249e+00   0.03185624   0.01893942 -16.60  0.002381989    2.466    0.595
       166  -9.0983      2.2128     45.5665   2.9201426063e+02   7.2437113199e+00   0.01565007   0.01268511  14.97  0.001790967    1.285    0.222
       167  -7.4248    111.5174     58.4775   2.9081573453e+02   6.4626599959e+00  0.006806835  0.006173123 -28.66 0.0002073638    1.127    0.112
       168  -8.0149     99.4289     54.2440   2.9093133603e+02   6.5817949723e+00   0.01354023  0.005957805 -57.79  0.001154877    2.144    0.534
       169  -7.1339    131.6789     53.6628   2.9055174700e+02   6.4016983298e+00  0.007151939  0.004867334 -28.99  0.000705022    1.711    0.415
       170  -9.1569    246.5936     51.0178   2.8919783781e+02   5.7644102647e+00   0.01559045    0.0108747 -17.96 0.0009719514    1.768    0.434
       171  -8.0876    250.5146     47.4870   2.8913101179e+02   5.7824911412e+00   0.01189364    0.0075387 -39.93 0.0008093584    1.689    0.408
       172  -7.9955    118.6614     51.4217   2.9069008166e+02   6.5031612381e+00   0.01200398   0.00611375  31.50 0.0006582664    1.909    0.476
       173  -9.0807     75.2401     50.2354   2.9118952932e+02   6.7682554751e+00    0.0132811   0.01092095  -2.02 0.0004110858    1.332    0.249
       174 -10.2417     45.3322     49.0561   2.9153157718e+02   6.9546972759e+00   0.01342268   0.01177947  -3.00 0.0006424795    1.205    0.170
       175  -8.3552    106.9501     48.0666   2.9080653740e+02   6.6099404711e+00  0.009550583  0.009443752 -19.69  0.001202495    1.007    0.007
       176  -9.8561     24.6754     47.2473   2.9176195523e+02   7.0948301153e+00   0.03084133   0.01496139   7.85    0.0023214    3.266    0.694
       177  -9.1459     31.8262     44.0931   2.9165955524e+02   7.0902206932e+00    0.0129771  0.009804523  10.48 0.0008746005    1.439    0.305
       178  -7.6516    113.0689     42.6213   2.9070248294e+02   6.6376843493e+00   0.01117275  0.005530862  -3.42  0.000702698    4.589    0.782
       179  -8.8935     93.6227     42.0404   2.9092586228e+02   6.7570318620e+00   0.01222167  0.009115566 -20.25 0.0009069095    1.553    0.356
       180 -10.2789     83.1744     40.1551   2.9103647668e+02   6.8393646366e+00     0.018065    0.0129013 -32.11            0    1.549    0.355
       181  -7.9585    123.2181     40.9044   2.9057380345e+02   6.5987884632e+00   0.01148349  0.006614108 -38.60 0.0009838181    1.942    0.485
       182  -8.5736      3.7143     40.4518   2.9196611109e+02   7.2944423840e+00   0.01211402  0.005791115 -61.88 0.0008555556    2.054    0.513
       183  -9.7481     18.1760     37.0830   2.9177700208e+02   7.2502658829e+00   0.03310319   0.01290187 -47.76  0.002630787    2.581    0.613
       184  -8.7024    106.3572     36.8023   2.9074584584e+02   6.7440803578e+00   0.01788532   0.01069489 -20.65  0.001587381    2.363    0.577
       185  -9.1870     91.9059     37.0524   2.9091596331e+02   6.8248478275e+00   0.01757584   0.01184426 -19.71  0.001200788    1.862    0.463
       186  -9.2996     96.0254     33.1318   2.9084436175e+02   6.8464927402e+00   0.01343904   0.01118022 -37.31 0.0003766285    1.230    0.187
       187  -9.7102     54.9490     36.8352   2.9134605232e+02   7.0410260746e+00   0.01560384   0.01437603  -6.05 0.0009117008    1.120    0.107
       188  -8.8896     37.5075     35.3958   2.9154109947e+02   7.1584003148e+00   0.01672132   0.01143242   2.46  0.001691772    1.765    0.433
       189  -9.2234      6.7432     33.9886   2.9189203447e+02   7.3520240315e+00   0.01885776   0.01209139 -46.17  0.001923662    1.565    0.361
       190  -8.2094     76.8254     34.3086   2.9107550618e+02   6.9439262779e+00   0.01437871   0.01115145  29.25  0.001614841    1.288    0.224
       191  -8.4150     81.5605     32.6262   2.9101014205e+02   6.9360623926e+00   0.01550773   0.00972396 -28.40 0.0009477569    1.968    0.492
       192  -8.0235     71.0102     35.4768   2.9115039517e+02   6.9639920622e+00   0.01028529  0.006564977  24.00  0.001032932    1.599    0.375
       193  -7.5145    143.9697     33.9757   2.9029021621e+02   6.5588040221e+00  0.007946275  0.007353798  22.38  0.000353221    1.088    0.081
       194  -8.0746    104.3667     32.0945   2.9074080525e+02   6.8102289464e+00   0.01411994  0.005053743 -53.95  0.001099077    2.561    0.610
       195  -8.4454    127.9046     30.2223   2.9045499114e+02   6.6955350739e+00     0.010948  0.008958313 -41.30 0.0002852566    1.235    0.190
       196  -8.0301     88.3364     31.3035   2.9092311965e+02   6.9122076194e+00  0.007022064  0.004927662 -25.95 0.0007038277    1.667    0.400
       197  -8.9453      1.7285     29.4479   2.9192343964e+02   7.4335860189e+00   0.01869701   0.00815225 -52.94  0.001599521    2.163    0.538
       198  -9.3431    243.4055    244.4075   2.9039491559e+02   3.5387922589e+00   0.01897273   0.01060248 -47.23  0.001803238    1.792    0.442
       199  -8.1290    153.1811     27.0584   2.9014126439e+02   6.5855567728e+00   0.01131366  0.006586227 -37.19 0.0005668924    1.957    0.489
       200  -8.3753     65.0132     23.2063   2.9114680068e+02   7.1410243462e+00   0.02533599  0.009244828  45.78  0.001819393    3.301    0.697
       201  -9.5303     84.4068     22.0631   2.9091352263e+02   7.0421430097e+00   0.03020924   0.01448035  15.53  0.001778653    2.624    0.619
       202  -9.9940     72.6946     25.7025   2.9107209227e+02   7.0676640412e+00   0.01950181    0.0128076  14.64 0.0009189713    1.685    0.406
       203  -8.8355     76.9742     24.0352   2.9101212505e+02   7.0622605876e+00   0.01135958  0.009487989  22.46 0.0003007564    1.212    0.175
       204  -7.9424     61.8316     27.1870   2.9120783055e+02   7.1132248264e+00  0.009798777  0.009131961  59.07 0.0005883699    1.118    0.106
       205  -8.8837     57.6812     25.2966   2.9124495649e+02   7.1591357994e+00   0.01804615   0.01144665  32.44  0.001069211    1.554    0.357
       206  -8.8566     48.2637     25.8777   2.9135842119e+02   7.2067771069e+00   0.01818565  0.009779423  16.10  0.001207701    2.170    0.539
       207  -7.7680    142.9845     28.5240   2.9026894314e+02   6.6277501982e+00  0.009579111  0.005677624  -8.64 0.0008099228    2.544    0.607
       208  -6.8042    150.2948     23.3037   2.9015234058e+02   6.6458540680e+00  0.006845643  0.004914564 -28.77 0.0006053204    1.578    0.366
       209  -8.5727     92.1876     21.0923   2.9081687302e+02   7.0083758923e+00   0.01385855   0.01028855 -42.62  0.001253051    1.369    0.270
       210  -7.9511     73.9941    247.5029   2.9238254156e+02   4.4830248300e+00  0.009533226    0.0056702  -9.25 0.0008102271    2.513    0.602
       211  -7.8640    116.8789     19.8907   2.9052153142e+02   6.8792885338e+00  0.009225911  0.007700555  68.56 0.0003931638    1.336    0.252
       212  -8.3766     45.5201     19.9345   2.9135482417e+02   7.2915671364e+00   0.01238646   0.01086408 -23.93  0.001470531    1.192    0.161
       213  -7.5306    146.5432     19.4212   2.9017273849e+02   6.7126530727e+00  0.006526028  0.006365326 -21.45 5.096022e-05    1.023    0.022
       214  -8.1656    102.6817     18.4281   2.9067840071e+02   6.9785126436e+00    0.0223459   0.01011542 -28.24  0.001431342    4.501    0.778
       215  -7.4504     32.3089    247.3322   2.9286655745e+02   4.7252981781e+00  0.007073918  0.004868469 -29.79 0.0007041558    1.669    0.401
       216  -7.4915     18.6435    247.7041   2.9302778767e+02   4.7996453885e+00  0.007057346   0.00492838 -24.60 0.0007033256    1.697    0.411
       217  -8.3575    127.7659     16.8918   2.9037651102e+02   6.8509397346e+00  0.009784305  0.008654611 -35.42 0.0003486265    1.147    0.128
       218  -8.5860    249.6877    245.1216   2.9032626629e+02   3.4940746513e+00   0.01773269  0.003363296 -53.58  0.001082854    4.147    0.759
       219  -8.7711     50.4921     15.0554   2.9126748361e+02   7.3194625579e+00   0.01512012   0.01064496   7.74 0.0008957933    1.621    0.383
       220  -8.7822    218.7119    245.2559   2.9068670388e+02   3.6720907966e+00   0.01484798  0.006367707 -43.10  0.001177816    2.608    0.617
       221 -10.1272    193.2507    244.1327   2.9097575765e+02   3.8326575286e+00   0.01985714   0.01372304 -15.23  0.002002652    1.809    0.447
       222  -7.6323     81.4788    246.4790   2.9228936909e+02   4.4517385856e+00  0.006610062   0.00638161 -30.95 -1.142962e-05    1.032    0.031
       223  -8.1796    146.6674     14.1135   2.9013937939e+02   6.7734695062e+00  0.009151371  0.008021282 -51.30 0.0003281903    1.124    0.110
       224  -8.7271    233.5134    243.9473   2.9050700409e+02   3.6014876367e+00   0.01597165  0.008160617 -45.43   0.00143378    2.017    0.504
       225  -8.3669     89.2220     13.2097   2.9080415498e+02   7.1169660229e+00   0.01512457  0.008928125   3.67 0.0009422391    2.293    0.564
       226  -9.5244    162.3210    244.9816   2.9134028169e+02   4.0018811093e+00  0.009676352    0.0088921 -53.60   0.00117326    1.074    0.069
       227  -9.4183    157.1817    244.7368   2.9139856377e+02   4.0344665250e+00   0.01311783  0.007549608 -37.99 0.0008600914    1.963    0.491
       228  -8.5348    176.3161    243.3378   2.9116779977e+02   3.9399640905e+00  0.007137774  0.004866023 -29.41 0.0007048071    1.700    0.412
       229  -7.7463     95.7381    243.5892   2.9210627480e+02   4.4030116448e+00  0.009125552  0.006051522  36.97 0.0005772142    1.501    0.334
       230  -7.7026     25.9367    241.1994   2.9290426820e+02   4.8333044862e+00  0.009063819  0.005161869  27.62 0.0005701242    1.750    0.429
       231  -9.0290    170.2461    239.6509   2.9121633547e+02   4.0179398131e+00   0.01351407   0.01025117 -38.16 0.0009312651    1.372    0.271
       232  -8.2549    249.5692    238.6917   2.9028917980e+02   3.5693997297e+00   0.01281897   0.00596593 -57.16  0.001121057    2.033    0.508
       233  -7.8224    121.9942    239.2303   2.9177487991e+02   4.3019756934e+00  0.008961145  0.005491502  26.31 0.0008782374    1.642    0.391
       234  -8.0484    224.3139    238.3135   2.9058014197e+02   3.7202330588e+00  0.006991488  0.004913276 -28.11  0.000264185    1.638    0.390
       235  -7.9816     79.9130    238.4784   2.9225995009e+02   4.5537866032e+00   0.00995181  0.006486672  27.24 0.0007557059    1.536    0.349
       236  -8.9985    242.4916    235.9250   2.9035478770e+02   3.6425651586e+00   0.01989987   0.01058193 -50.15  0.001858726    1.834    0.455
       237  -8.3527    195.4293    236.4520   2.9090455416e+02   3.9092502566e+00    0.0136947   0.00862685 -17.33  0.000967529    2.161    0.537
       238  -7.7600    148.4657    237.5080   2.9145675680e+02   4.1688976211e+00  0.006617052  0.006373939 -32.15 0.0001220782    1.034    0.033
       239  -9.7318    188.9809    234.5107   2.9096788602e+02   3.9691576201e+00   0.01549911   0.01215541  36.43  0.001035867    1.277    0.217
       240  -8.6771    161.9246    234.3500   2.9128142028e+02   4.1277024653e+00    0.0122143   0.01015691 -30.33 0.0006392889    1.265    0.210
       241  -8.2518    248.5000    233.5304   2.9027071151e+02   3.6355145092e+00   0.01334516  0.006449713 -62.18 0.0008558098    2.043    0.510
       242  -7.4572    138.4581    234.5696   2.9155559721e+02   4.2609393342e+00  0.006599713  0.006320536 -26.29 0.0002203844    1.047    0.045
       243  -8.0090    236.3688    230.2422   2.9039188110e+02   3.7440502682e+00  0.009178442  0.006358704 -75.90 0.0004751641    1.603    0.376
       244  -7.5462    204.9555    230.7649   2.9075987653e+02   3.9201039882e+00  0.008648647  0.005569016  24.56 0.0005303693    1.580    0.367
       245  -7.9295    195.0909    228.9584   2.9086370096e+02   3.9982520457e+00    0.0107107  0.007575324 -27.98 0.0008747318    1.624    0.384
