#   1 NUMBER                 Running object number                                     
#   2 MAG_AUTO               Kron-like elliptical aperture magnitude                    [mag]
#   3 X_IMAGE                Object position along x                                    [pixel]
#   4 Y_IMAGE                Object position along y                                    [pixel]
#   5 X_WORLD                Barycenter position along world x axis                     [deg]
#   6 Y_WORLD                Barycenter position along world y axis                     [deg]
#   7 A_WORLD                Profile RMS along major axis (world units)                 [deg]
#   8 B_WORLD                Profile RMS along minor axis (world units)                 [deg]
#   9 THETA_WORLD            Position angle (CCW/world-x)                               [deg]
#  10 FWHM_WORLD             FWHM assuming a gaussian core                              [deg]
#  11 ELONGATION             A_IMAGE/B_IMAGE                                           
#  12 ELLIPTICITY            1 - B_IMAGE/A_IMAGE                                       
         1 -14.4408    190.0143    151.5174   5.1203811601e+01   1.6852138580e+01     8.411495     6.536533  75.07   0.04453845    2.550    0.608
         2 -13.5893    200.8940     60.9882   2.8731874785e+01   2.8090458217e+01     2.766936     2.358746 -43.29   0.01585827    1.057    0.054
         3 -13.9465    233.3980     61.0065   2.5303092097e+01   2.1917586037e+01     2.068195     1.222257 -13.07   0.01135761    2.027    0.507
         4 -14.6202    235.3878    105.0951   3.4590959139e+01   1.6190020721e+01     5.032957    0.6851822 -39.80   0.01421978    6.468    0.845
         5 -13.9899    249.4406     59.6633   2.3616239578e+01   1.9341671437e+01     1.159008     0.418729 -24.37  0.002718023    2.755    0.637
         6 -14.0598    232.9213     41.1952   2.0946655264e+01   2.4202978955e+01     2.024434     1.085372   4.47  0.008219422    4.545    0.780
         7 -13.7525    246.7838     25.9622   1.6727283849e+01   2.3283067149e+01     1.001324    0.5926513 -40.33  0.002989727    1.297    0.229
         8 -13.3415    176.3694     91.1156   3.9992125081e+01   2.8875786678e+01      2.15014     1.151829 -21.57 0.0008273722    2.276    0.561
         9 -14.3544    218.7035     30.4420   1.9570369363e+01   2.8020593947e+01     2.855383     1.824566  -8.49   0.01619849    1.984    0.496
        10 -12.6614    247.9027     35.5915   1.8681851434e+01   2.2140758798e+01    0.8547717    0.4265688  -9.53  0.002121965    3.202    0.688
        11  -9.7642    192.2432     34.1774   2.2798175761e+01   3.3105328212e+01    0.6726915     0.365844  18.68  0.002606744    4.027    0.752
        12 -10.0394    120.2787      9.3132   2.3691731095e+01   5.3152700003e+01    0.3359498    0.2966861 -41.61 0.0009656841    1.194    0.163
        13  -9.2480    178.5642      6.6038   1.6498533272e+01   3.8914172056e+01    0.3279947     0.130778 -56.39  0.001406089    2.551    0.608
        14  -9.7742    182.1970      3.8054   1.5463774305e+01   3.8320589305e+01    0.2574589    0.2125314 -76.44  0.001676668    1.095    0.087
        15  -8.0451    195.9804      2.9527   1.4362517816e+01   3.5326839348e+01    0.1795545    0.1352539  38.98  0.000831543    1.712    0.416
        16  -8.6220    133.9049      2.8677   1.9448612983e+01   5.0173810288e+01     0.202278    0.1671262  49.64 0.0003578325    1.266    0.210
        17  -8.2959    171.7763      2.5887   1.5863548068e+01   4.0836644102e+01    0.1773484    0.1067206 -81.70 0.0009083715    1.618    0.382
        18 -15.6022    241.4238     86.0181   2.9902868141e+01   1.7598844305e+01     6.143665     2.295732  44.56   0.02868253    3.444    0.710
        19  -7.8893    209.3350      1.3350   1.3232066234e+01   3.2639950601e+01    0.1107891   0.08515389  36.65 0.0007052098    1.741    0.426
        20  -7.7871    100.3076      1.2874   2.3607770100e+01   5.9034818755e+01    0.1428518   0.09136932  42.90 0.0002115164    1.572    0.364
        21 -10.8116    206.2979    179.2907   5.3513660603e+01   1.0452937943e+01    0.4620379     0.276129 -46.76  0.001507982    2.335    0.572
        22 -11.2301    213.3109    179.6586   5.2385910559e+01   9.4814692711e+00    0.6250414    0.3636303 -19.14  0.003067119    1.577    0.366
        23  -9.0118    212.9953    174.7740   5.1571481174e+01   1.0174895106e+01    0.1635483     0.109461  27.00 0.0003068146    1.449    0.310
        24  -8.1152    174.2832    188.6738   6.1105871163e+01   1.3464524478e+01    0.1065412    0.1006114  53.16 0.0003449677    1.601    0.375
        25  -9.4855    138.1243    183.4001   6.7995710593e+01   1.9519169281e+01    0.2009573     0.182023 -28.56 0.0002751126    1.230    0.187
        26  -9.2703    131.4645    245.2138   7.7813588491e+01   1.0457285084e+01    0.2284661    0.1324398  51.56  0.001246471    2.641    0.621
        27  -7.9813     81.7583    171.9764   8.0658008606e+01   2.9846273190e+01    0.1720472    0.1593818  32.95 0.0002139874    1.038    0.036
        28  -9.9882    100.9180    246.2191   8.4313767121e+01   1.3733068844e+01    0.1846064    0.1667754 -13.51 0.0004872614    1.309    0.236
        29  -9.7595    237.7737    242.1303   5.8235808295e+01  -4.5643252580e-01    0.2610545      0.14922  37.26  0.001415298    2.629    0.620
        30  -8.5841    143.6367    169.9915   6.4418791249e+01   2.1092584631e+01    0.1803928      0.16286 -15.25 0.0005591045    1.130    0.115
        31  -9.3227    249.5106    168.9151   4.4981020165e+01   6.3349731838e+00    0.1689372    0.1520079  22.95  0.001034228    1.583    0.368
        32  -9.5794    188.3571    166.9921   5.4507186285e+01   1.4742143000e+01    0.1920742    0.1624376  25.17 0.0004692723    1.252    0.201
        33  -9.1154    223.7148    163.3633   4.7764445459e+01   1.0262441806e+01    0.1940125    0.1745595 -35.44 0.0006264329    1.528    0.346
        34  -8.8050    173.0540    162.4865   5.6637520043e+01   1.7776694093e+01    0.1916143    0.1598503 -20.63  0.000327494    1.144    0.126
        35 -10.4467    204.1102    152.7332   4.8943316347e+01   1.4505292923e+01    0.4589605    0.3554555  84.51  0.002176378    3.104    0.678
        36  -9.5150    168.3506    155.0663   5.6153428559e+01   1.9754139531e+01    0.3126539    0.2447708 -57.80  0.001734274    1.783    0.439
        37 -13.3534    249.2043    106.4158   3.3242356918e+01   1.3930518083e+01     1.160024    0.5038885 -31.52  0.003712061    1.813    0.448
        38 -10.4793    133.7456    144.6425   6.1904766611e+01   2.7513992945e+01     1.281062    0.3718507 -54.02  0.003216415    6.539    0.847
        39 -12.5323      3.8215    142.2678   1.0164672787e+02   4.4684250847e+01    0.9370049    0.4720814 -83.91  0.004276216    1.892    0.471
        40  -8.3829    142.3115    148.6758   6.0649584222e+01   2.5257548809e+01     0.186896    0.1494459 -59.70 0.0009907478    1.592    0.372
        41  -8.9563    125.8078    234.8149   7.7826629591e+01   1.2633945635e+01    0.2402465    0.1310929  17.35  0.001339543    1.649    0.394
        42  -7.9137     82.9749    148.9736   7.6813733779e+01   3.4843750660e+01    0.1653868    0.1515601 -57.58 0.0009312534    1.170    0.145
        43 -12.4631    250.3230     42.1279   1.9889303092e+01   2.1065338784e+01    0.5646216    0.2328119 -21.77  0.002283558    2.538    0.606
        44 -12.1578     15.8606    144.2915   9.7836404035e+01   4.3411168087e+01    0.6458666    0.4111524  66.29  0.003397581    1.549    0.354
        45 -11.1786    201.7639    140.9189   4.6976493079e+01   1.6593673054e+01    0.6831131    0.3739398 -55.68  0.002785788    3.751    0.733
        46 -10.4027     57.3139    117.0457   7.9715170354e+01   4.6188572821e+01    0.2744414     0.242912  11.13 0.0003072352    1.169    0.145
        47 -12.4326     63.9237    128.4234   7.9423579886e+01   4.2458983680e+01     1.680225     1.273122  40.88  0.008600826    1.277    0.217
        48 -11.9828     49.7969    132.3839   8.4969859021e+01   4.3247781739e+01    0.9370626    0.5395294 -73.90  0.002231898    1.871    0.466
        49 -12.6631     42.0782    132.5090   8.7689691146e+01   4.4070558941e+01    0.9735155    0.8445815  89.09   0.00352364    1.170    0.145
        50 -12.5946     33.8332    134.6916   9.0849370707e+01   4.4339662311e+01     1.007971    0.5216138  15.55  0.001392216    2.088    0.521
        51 -11.0799     28.4172    144.8645   9.3747806037e+01   4.2275641552e+01     0.482888    0.2697569 -37.46  0.002201167    2.221    0.550
        52  -8.6560     51.8475    234.1714   9.4186912076e+01   2.0884136906e+01      0.16759    0.1237813  39.42            0    1.081    0.075
        53 -10.8524    150.3275    139.2191   5.6797848202e+01   2.5624097077e+01    0.4205533    0.2825927  -8.02  0.001973628    1.909    0.476
        54 -10.7069    212.2935    135.6679   4.4176481501e+01   1.5697839015e+01    0.4824644    0.3143346  29.92  0.002821462    1.626    0.385
        55  -8.8545    239.9355    228.4335   5.5955436980e+01   7.3080538713e-01    0.1433829   0.07884323  21.52 0.0005911625    1.547    0.353
        56  -9.2367    246.7511    220.8876   5.3820338697e+01   8.5274747649e-01    0.1525689    0.1237151  30.77  0.000830349    2.021    0.505
        57  -9.1970     82.1693    132.9570   7.4191299872e+01   3.8709276590e+01    0.2905463    0.2077798 -64.95 0.0006058436    1.544    0.352
        58  -8.7910     81.0000    128.9832   7.3795356109e+01   3.9833049602e+01    0.2932773    0.1990924 -63.69 0.0006322511    1.616    0.381
        59 -10.8783     67.7346    143.8345   8.0721095558e+01   3.8183717354e+01     1.309464    0.5617114  51.43   0.00466133    2.972    0.663
        60  -9.8703    194.5445    174.2753   5.4703823494e+01   1.2769565288e+01    0.3443764    0.2722989 -75.83  0.001833108    2.989    0.665
        61  -8.4962    131.1234    130.6579   5.9551512104e+01   3.0763097750e+01    0.2355768    0.1963085 -54.50 0.0005984701    1.358    0.264
        62 -10.2231    160.5555    128.5786   5.2176909608e+01   2.5691981631e+01     0.399264    0.3277259 -23.14  0.001716152    1.171    0.146
        63  -8.7975    148.4759    177.0921   6.4574069753e+01   1.9092139116e+01    0.2022938    0.1609848  22.70 0.0004386746    1.116    0.104
        64 -10.2860    202.1665    126.7784   4.3943832908e+01   1.8617682535e+01    0.3232668    0.2373653 -54.19  0.001309566    1.795    0.443
        65 -11.6926     22.0740    125.7138   9.4078372357e+01   4.7644385778e+01     0.576723    0.3402407  12.99  0.002776596    1.827    0.453
        66 -10.2409    151.9065    124.8037   5.3211663173e+01   2.7989861927e+01     0.397688    0.2231465 -49.73  0.001295832    2.039    0.510
        67  -8.8489    224.0202    218.4813   5.6964564531e+01   3.4307866372e+00    0.1935692    0.1234931  38.17  0.001277618    2.162    0.537
        68  -8.5619     78.9508    118.7473   7.2370141751e+01   4.2604302146e+01    0.2030884    0.1897764  41.27 0.0003421816    1.057    0.054
        69  -8.2633    100.9949    176.0014   7.6012783579e+01   2.6342175840e+01    0.1827646    0.1617576  22.98  0.001087133    1.004    0.004
        70  -7.9486     92.0244    120.9950   6.8557076574e+01   3.9907771767e+01    0.1771305    0.1722838 -30.27 0.0004338335    1.058    0.055
        71 -10.5327    216.9343    109.7140   3.7998144090e+01   1.8575332721e+01    0.3390255    0.2523991 -17.06  0.001029123    1.240    0.194
        72 -10.5429    215.7388    105.7885   3.7308356812e+01   1.9316672362e+01    0.3135609    0.2405683  63.67    0.0016051    1.710    0.415
        73 -10.5809    110.9696    110.0123   6.0124568917e+01   3.8885413425e+01     0.494339    0.3222694 -43.66  0.001598387    1.568    0.362
        74  -9.6538    207.2094    171.6051   5.1977544749e+01   1.1387211531e+01    0.2112177    0.1902246   1.54 0.0006612819    1.290    0.225
        75  -9.1182    166.8311     91.2083   4.1750724405e+01   3.0840135329e+01    0.3829812    0.1848204 -38.19  0.001325792    1.962    0.490
        76  -9.8078    195.4048     88.3136   3.6213447167e+01   2.5486741439e+01    0.4561195    0.2892581  22.20   0.00220894    2.229    0.551
        77  -8.9838    157.8714     89.6205   4.3076969042e+01   3.3003285422e+01    0.2425003    0.1873991 -25.36 0.0006179821    1.309    0.236
        78  -9.4473    142.9836     89.5550   4.6246331194e+01   3.6239946764e+01    0.2720003    0.2044176 -40.18 0.0006416328    1.322    0.243
        79  -9.5416    154.0301     86.4055   4.2983104619e+01   3.4373144120e+01    0.2541742    0.2004343 -33.56 0.0002790809    1.239    0.193
        80  -8.5577    153.2993     81.0502   4.1640471729e+01   3.5425119659e+01     0.199159    0.1816243 -35.13  0.001118968    1.072    0.067
        81  -9.5417    127.9559     78.6418   4.6647206438e+01   4.1545491087e+01    0.5108502    0.3111527 -67.63  0.001899851    2.874    0.652
        82  -9.1834    139.5119     78.9698   4.3994142609e+01   3.8869660019e+01    0.2207875    0.1439507 -33.42 0.0005914327    1.555    0.357
        83  -8.3506    149.2547    215.9750   7.0470204570e+01   1.2626711046e+01    0.1593906     0.132355  -0.75 0.0003315725    1.125    0.111
        84  -9.8482    169.1146     72.8231   3.6405150791e+01   3.3214842610e+01    0.6774734    0.1873294 -32.20  0.001836188    3.584    0.721
        85  -9.5933    152.8056     73.0137   3.9440942543e+01   3.6837243536e+01    0.3588606    0.2176078 -43.76 0.0009984315    1.646    0.393
        86  -8.2805    104.3584     73.7813   5.1640316863e+01   4.7756761234e+01    0.2144286     0.142591 -30.86 0.0007732336    1.661    0.398
        87  -8.0381    111.4476     71.5078   4.8800704300e+01   4.6604445718e+01    0.1489105    0.1461387  33.95 3.085378e-05    1.012    0.012
        88  -9.2208    140.7226     67.6869   4.0323114711e+01   4.0478729387e+01    0.2698359    0.2205052 -47.49 0.0004599571    1.245    0.197
        89  -9.0165     99.0823     66.9337   5.0979326074e+01   5.0249329705e+01    0.2234312    0.2089649  23.95 0.0002936301    1.064    0.060
        90 -10.0417    141.0930     62.0342   3.8487826298e+01   4.1288100325e+01     0.330468    0.2518041 -81.64 0.0003376302    1.636    0.389
        91  -9.5768    144.5108     59.5005   3.7004909344e+01   4.0864557343e+01    0.2918595    0.2314085 -48.50 0.0006133938    1.280    0.218
        92 -10.7823    207.9676     56.2978   2.6766595858e+01   2.7248930598e+01    0.4279455    0.2081522 -25.19   0.00122366    2.023    0.506
        93 -11.4917    147.8019     42.5112   3.1010657002e+01   4.2460014516e+01    0.5862874     0.334498 -43.41  0.002709343    1.738    0.425
        94  -9.8732    162.5818     57.2344   3.3077233124e+01   3.6945946624e+01    0.4533349     0.239874 -36.74  0.001404991    1.782    0.439
        95 -11.2413    163.6947     50.1373   3.0817347461e+01   3.7652375612e+01    0.7831108    0.4361731  70.94  0.003578315    1.982    0.496
        96 -10.2934    152.9855     48.2309   3.1950148204e+01   4.0445774412e+01    0.3729177    0.2921292 -71.26 0.0008027698    1.396    0.284
        97 -10.9551    153.9019     43.0566   3.0190798994e+01   4.0906248337e+01    0.6295393    0.2757768 -28.49 0.0007463801    2.318    0.569
        98  -7.7723     72.7260     58.3461   5.7345740299e+01   5.7539256284e+01    0.1458642     0.120349 -87.25 0.0004559784    1.625    0.385
        99  -9.3637    191.3984    212.0446   6.1595059552e+01   7.9326205455e+00    0.2098803    0.1409375  21.56 0.0004034486    1.261    0.207
       100 -10.0961    178.6370     52.7611   2.9414136249e+01   3.3892747168e+01    0.4029851    0.2475358  23.04  0.001789714    2.587    0.614
       101 -10.4185    124.9821     50.8806   3.8298490933e+01   4.6893350932e+01    0.4922851    0.2130875 -31.40  0.001460878    2.431    0.589
       102 -11.5288    138.9801     46.9846   3.4050626752e+01   4.4020931315e+01    0.6062769    0.4320755  -8.28   0.00204393    1.767    0.434
       103  -9.2155     90.8700     50.2512   4.7480973334e+01   5.5166149175e+01    0.2523542    0.2109856 -29.35 0.0002956834    1.253    0.202
       104 -10.7955    187.0016     46.7673   2.6719489221e+01   3.2793441830e+01    0.5664439    0.4007827 -32.27  0.002321824    1.319    0.242
       105  -9.9479    248.5117    210.4257   5.1970128930e+01   1.7796706933e+00      0.25839    0.1826766  29.53  0.001267099    1.761    0.432
       106  -8.7639    198.9833     35.9755   2.2607896529e+01   3.1458181046e+01    0.2619931    0.1610947  75.76   0.00130331    1.753    0.430
       107  -8.9206    111.4095     49.7370   4.1209202470e+01   5.0384975239e+01    0.3128564    0.2307024  46.76 0.0006962859    1.316    0.240
       108  -8.8391     87.1023     42.5066   4.5581896756e+01   5.7348838330e+01    0.3753543    0.1976142 -30.05  0.001436717    2.129    0.530
       109 -10.1858    133.4116     39.7059   3.2646598416e+01   4.6389611913e+01    0.5070127    0.1685309 -45.55  0.001655862    3.445    0.710
       110  -8.8676    159.4059     40.2896   2.8501191591e+01   3.9930486199e+01    0.1982604     0.117295 -40.79  0.000947992    1.614    0.380
       111  -9.5714    124.0122     38.6644   3.4160015227e+01   4.8885276867e+01    0.2057045    0.1868437  69.90 0.0006331477    1.062    0.058
       112  -9.3431    170.8892     34.6529   2.5285590631e+01   3.7881246746e+01    0.3282163    0.1942342  71.88  0.001638344    1.725    0.420
       113  -9.8880    161.3254     28.9700   2.4776864012e+01   4.0796929759e+01    0.4664991    0.2447692  -5.85  0.001762186    3.033    0.670
       114  -9.7294    184.0427     32.4004   2.3158509147e+01   3.5116393804e+01     0.286893    0.1775361 -23.23 0.0006778936    1.664    0.399
       115 -10.1583    144.4998     32.9429   2.8420795110e+01   4.4470561570e+01    0.3109938    0.1460596 -18.17  0.001213713    2.706    0.630
       116  -8.7804    134.0000     31.9256   2.9821926935e+01   4.7227934533e+01    0.2269001   0.08048785 -27.36 0.0008012868    2.934    0.659
       117 -11.4409    193.7576     41.9337   2.4677288284e+01   3.1900691266e+01    0.5677587    0.4354348  -5.92  0.002854157    1.557    0.358
       118  -9.8581    183.3892     24.1628   2.0962536875e+01   3.6141882805e+01    0.3615658     0.286847  21.07    0.0014088    1.618    0.382
       119  -9.7500    178.8742     24.0923   2.1380974672e+01   3.7179558391e+01    0.3951017    0.2917171 -50.94  0.001597687    1.245    0.197
       120  -8.9336    199.2809     22.0154   1.9011399307e+01   3.2859492983e+01    0.1741793    0.1411677 -41.43 0.0004740226    1.108    0.098
       121  -9.8122    232.1958     20.6918   1.6437758194e+01   2.6408583435e+01    0.2220928    0.1804507 -88.08 0.0008681624    1.315    0.239
       122  -8.0482    154.3183     20.2810   2.2927575551e+01   4.3433002153e+01     0.133773   0.09718609  40.70            0    1.581    0.367
       123  -7.8857     71.2730     18.6613   3.9877072458e+01   6.4571837019e+01    0.1367724    0.1092751 -66.61 0.0003124677    1.607    0.378
       124  -8.0806    190.4317     15.4544   1.8001081325e+01   3.5424200948e+01    0.1220174     0.108958 -58.70 0.0001584162    1.033    0.032
       125  -8.9658    233.4558    209.4897   5.4087128476e+01   3.4430444675e+00    0.1825237    0.1062368 -21.82 7.562203e-05    1.429    0.300
       126  -9.9525    229.2443    207.5307   5.4438186567e+01   4.1222836294e+00    0.2391694    0.1691769  33.89  0.001297282    1.804    0.446
       127 -10.3136    207.9404    206.7251   5.7824071190e+01   6.6420753369e+00     0.406108    0.2733663  53.42  0.001962681    3.625    0.724
       128  -9.9791    248.1595    203.3098   5.0907454491e+01   2.5824696113e+00    0.2018525    0.1548493  18.97 0.0009356171    1.470    0.320
       129  -9.1822    234.4098    202.0583   5.2762851451e+01   4.1875920818e+00     0.194419    0.1711342   2.65  0.001338888    1.542    0.352
       130 -11.1967    192.9729    194.9053   5.8571644840e+01   1.0052889181e+01    0.8624685    0.7210891 -86.71  0.004968046    2.995    0.666
       131 -11.4579    219.9793    188.1200   5.2747634001e+01   7.5441181877e+00    0.6359614    0.5501144 -58.07  0.004328431    2.255    0.557
       132 -10.8966    212.0250    188.6862   5.4164001814e+01   8.4577197237e+00    0.4624335    0.2870575  30.30  0.002923973    1.578    0.366
