#   1 NUMBER                 Running object number                                     
#   2 MAG_AUTO               Kron-like elliptical aperture magnitude                    [mag]
#   3 X_IMAGE                Object position along x                                    [pixel]
#   4 Y_IMAGE                Object position along y                                    [pixel]
#   5 X_WORLD                Barycenter position along world x axis                     [deg]
#   6 Y_WORLD                Barycenter position along world y axis                     [deg]
#   7 A_WORLD                Profile RMS along major axis (world units)                 [deg]
#   8 B_WORLD                Profile RMS along minor axis (world units)                 [deg]
#   9 THETA_WORLD            Position angle (CCW/world-x)                               [deg]
#  10 FWHM_WORLD             FWHM assuming a gaussian core                              [deg]
#  11 ELONGATION             A_IMAGE/B_IMAGE                                           
#  12 ELLIPTICITY            1 - B_IMAGE/A_IMAGE                                       
         1 -15.8384     93.3383     74.1536   7.1824669449e+01   4.9845800961e+01     3.046948     1.185926  36.85  0.008059058    2.867    0.651
         2 -15.4286     71.3855     60.7656   7.5066471258e+01   5.6693380288e+01     1.985846     1.280122 -38.77  0.009622754    1.555    0.357
         3 -14.1142     84.8917     63.4622   7.1076895556e+01   5.3609082943e+01     1.119042    0.6462646 -30.43  0.004853213    1.952    0.488
         4 -15.0469     25.2010     56.4306   9.4394289881e+01   6.4088963446e+01     3.593678     1.655339 -20.78   0.01376574    3.219    0.689
         5 -14.3527      8.2032     21.3182   9.1298755510e+01   7.2555064911e+01     1.568993    0.9627166 -12.98  0.009214723    1.537    0.349
         6 -13.1139     25.0078     11.1696   7.5303579587e+01   7.2339245804e+01     0.716639     0.537518  -5.11  0.004665388    1.155    0.134
         7 -11.5468    242.0018     22.5470   3.2485204679e+01   2.4382231789e+01    0.2602133    0.1693415 -61.93 0.0004847141    1.259    0.206
         8 -13.2501    107.9360      3.5414   4.2077995407e+01   5.6385512441e+01     1.840471    0.4692369  65.61  0.006588644    3.205    0.688
         9 -11.5575     74.0381      1.6019   4.9049905861e+01   6.4341399064e+01    0.3948371    0.1674306  64.16  0.001185743    2.337    0.572
        10 -13.0695     75.6936     13.9162   5.4236931679e+01   6.2836588013e+01    0.4708201    0.4185031  88.81  0.001025219    1.419    0.295
        11 -14.4052     85.5898     11.3115   5.0214296900e+01   6.0912869648e+01     1.327297     1.180601  33.94  0.008546429    1.069    0.065
        12 -12.5517     83.0832     22.2748   5.5624934562e+01   6.0305522477e+01    0.6411642    0.4834436  86.73  0.002511361    1.869    0.465
        13 -10.8672    175.3683     14.6306   3.6220260027e+01   3.9257463174e+01     0.217035    0.2029998  76.90 0.0006038926    1.173    0.147
        14 -11.9340    115.5804     12.7823   4.4036831346e+01   5.3751094512e+01    0.3482428    0.2625893 -59.03  0.001990058    1.517    0.341
        15 -11.8508    123.7229     10.8216   4.1902541876e+01   5.1968233283e+01    0.2925552    0.2499847  53.42   0.00072149    1.118    0.105
        16 -12.0991     64.6197     17.4258   5.9646589107e+01   6.4756720816e+01     1.079273    0.6248639  13.13  0.005019703    2.351    0.575
        17 -10.8627    150.7372      9.0101   3.7446082273e+01   4.5609198897e+01    0.2595477    0.1851423 -82.86   0.00134853    1.356    0.262
        18 -11.5489     34.3994      6.4891   6.7323658395e+01   7.1549502793e+01    0.4713107     0.259175 -21.51  0.002561988    1.902    0.474
        19 -11.3962     38.2139      1.9880   6.2763810986e+01   7.1419616083e+01    0.3665988    0.2564558  17.31  0.001441472    1.282    0.220
        20 -10.1765    178.9438      8.4844   3.4285560619e+01   3.9043701855e+01    0.1772075    0.1075782  75.76  0.000385833    1.478    0.323
        21 -11.6378    138.3754      5.1068   3.7842281387e+01   4.8927773093e+01    0.5405844    0.1955905  64.99  0.001823701    2.246    0.555
        22 -10.1023    128.7883      5.7767   3.9405546679e+01   5.1186657652e+01    0.1739708    0.1371213 -75.47  0.000590389    1.309    0.236
        23 -11.5832      6.1072      2.4667   8.3064944775e+01   7.5842216393e+01    0.4206128    0.2315037  -7.33  0.002342285    1.941    0.485
        24 -10.4347     11.9726      2.1307   7.8546719184e+01   7.5252589799e+01     0.199969    0.1653562 -10.43  0.001088921    1.183    0.154
        25 -10.6009    188.1498      5.2204   3.2671319535e+01   3.7278598593e+01    0.1694097    0.1478298  79.82  0.000376641    1.175    0.149
        26 -10.8574    161.3893      3.1880   3.4596679021e+01   4.3601497499e+01    0.2644419    0.1933924  32.41  0.001559278    1.790    0.441
        27  -9.6457    212.0028      1.2823   3.0046541152e+01   3.2522995602e+01    0.1373659   0.08826873  85.46  0.000392777    1.400    0.286
        28 -14.3959     58.0196     76.4709   8.5631277121e+01   5.5643233273e+01     1.292844      0.66482 -42.93  0.005554253    1.877    0.467
        29 -10.8972    169.2270     71.6180   5.2375976683e+01   3.3187710277e+01    0.2023095     0.127224  48.44 0.0009508434    1.674    0.403
        30 -14.0220     56.3814     57.2829   7.9932645046e+01   5.9923130119e+01    0.6546416    0.5428144 -27.60  0.003718071    1.148    0.129
        31 -13.2623      9.1709     63.8666   1.0452804154e+02   6.3667179613e+01    0.4716009    0.3470514 -40.27  0.002287949    1.153    0.133
        32 -11.1428     34.2903    177.0185   1.1219804803e+02   3.3203887372e+01    0.2687316    0.1605888 -18.91  0.001185132    2.700    0.630
        33 -12.3325    203.9626    171.6683   6.9092557128e+01   8.4611751111e+00     0.381478    0.2184075  34.99  0.001914576    1.832    0.454
        34 -13.3894    240.6302    156.1512   5.9824554534e+01   5.4887455709e+00    0.8464253    0.3473046 -39.07  0.003989923    2.040    0.510
        35 -13.9337     42.0093     42.9791   8.1078073514e+01   6.4801108086e+01     1.208259    0.5596015  16.48  0.004373249    3.325    0.699
        36 -11.0077    170.0385     62.7499   4.9845977886e+01   3.4393480353e+01    0.2473589    0.1911255 -49.09 0.0003722238    1.253    0.202
        37 -10.5185    166.1076     63.0974   5.0610176729e+01   3.5249417183e+01    0.2422609    0.1823911  51.08 0.0004502898    1.372    0.271
        38 -13.9155    135.5734     75.8493   6.0502804431e+01   4.0240942211e+01     1.003236    0.5120959 -32.54   0.00399327    2.174    0.540
        39 -10.3359    214.4727     61.8741   4.3385597763e+01   2.4820723745e+01    0.2033367    0.1134704 -37.27  0.001041616    1.620    0.383
        40 -13.0528    151.2068     73.7592   5.6426856758e+01   3.6986893798e+01    0.5469033    0.3250825 -32.53  0.002433053    1.784    0.439
        41 -11.4244    124.7956     57.6709   5.7445849336e+01   4.5833769854e+01    0.2701894    0.1702388  50.00  0.001254528    1.514    0.339
        42 -11.3034    174.4400     56.4247   4.7437815880e+01   3.4319959554e+01    0.2408656    0.2112752 -73.75  0.000267304    1.091    0.084
        43  -9.7930    209.9594     54.5287   4.2221841683e+01   2.6771994651e+01    0.1768279   0.09638757  42.50 0.0008098479    2.642    0.621
        44 -11.4062    155.2559     52.1838   4.9437508225e+01   3.9427242729e+01    0.2615642    0.2106353 -85.67 0.0004478659    1.312    0.238
        45 -10.1747    127.9983     52.9907   5.5180906004e+01   4.5807733201e+01    0.2164546    0.1686518 -74.62 0.0003461449    1.550    0.355
        46 -13.3406      3.4147     46.7887   1.0325968239e+02   6.7805451355e+01    0.7972487    0.6060013  61.87  0.002909163    1.890    0.471
        47 -12.3078      2.3340     38.5157   1.0148009014e+02   6.9615916633e+01    0.4542298    0.3661642 -85.56  0.002201249    1.671    0.402
        48 -13.7970    248.6429    141.7011   5.5845600932e+01   6.5693261639e+00     2.279241    0.4053867 -37.16  0.007003681    4.828    0.793
        49 -11.8697    201.3249    153.1499   6.5842593090e+01   1.2163065841e+01     0.291619    0.1656938 -59.60  0.001166398    3.002    0.667
        50 -11.4219     86.9855     51.9456   6.6215095307e+01   5.5231951079e+01    0.2178534    0.2024373  29.93 0.0004299935    1.036    0.035
        51 -11.6805    145.5283     50.5765   5.0754936475e+01   4.1980064290e+01    0.2830747     0.236564 -73.34   0.00072643    1.266    0.210
        52  -9.8126    100.6294     49.6939   6.1126152146e+01   5.2649107789e+01    0.1530211    0.1060286  22.04 0.0007033665    1.758    0.431
        53 -11.3005    137.1903     47.9550   5.1593014975e+01   4.4354810825e+01    0.2213405    0.1858157 -72.82 0.0009588827    1.286    0.222
        54 -12.4173     79.0842     30.6949   6.0466810273e+01   6.0108222205e+01    0.6237944    0.4278479 -46.14   0.00268778    1.766    0.434
        55 -13.9387     68.4752     39.7806   6.8107919462e+01   6.0916702191e+01    0.9048505     0.654488  11.79  0.002605899    1.528    0.346
        56 -12.4924     73.7440     30.5722   6.2258123004e+01   6.1233798135e+01    0.5395771     0.404263 -45.20   0.00297834    1.598    0.374
        57 -11.3504    122.2296     43.8940   5.3498898971e+01   4.8508211645e+01    0.2687493    0.2304954   2.67 0.0006986817    1.347    0.258
        58 -10.7354    156.8401     43.7228   4.6718328608e+01   4.0225696884e+01    0.2370729     0.206287  65.40 0.0007617492    1.110    0.099
        59 -10.6934    140.8215     44.3817   4.9760535265e+01   4.3981254199e+01    0.1999337    0.1189828  51.63 0.0004827232    1.612    0.380
        60 -10.0651    204.4932     43.4513   4.0247526131e+01   2.9398909636e+01    0.1255544    0.1111651 -67.38 0.0001890834    1.039    0.038
        61 -10.2507    181.1640     43.1611   4.2978685710e+01   3.4604011066e+01    0.1826853    0.1388515 -72.74 0.0003461578    1.299    0.230
        62 -10.6791    197.2643     40.5408   4.0355056135e+01   3.1335764289e+01    0.2087789    0.1589808 -43.44 0.0006095788    1.240    0.193
        63 -11.7541    217.8107     38.3672   3.7733458351e+01   2.7255050340e+01    0.2633534    0.2015545  62.15 0.0003911999    1.462    0.316
        64  -9.9937    159.9303     36.4304   4.4137073521e+01   4.0431499336e+01     0.187375     0.123602  68.15 1.862005e-05    1.430    0.301
        65 -11.0134    140.3407     34.9820   4.6918840835e+01   4.5326117490e+01    0.2471566    0.1813709  56.21 0.0003528515    1.280    0.219
        66 -10.0354    176.4720     33.4651   4.1043811876e+01   3.6905104703e+01    0.1307473    0.1163156 -80.35  0.000132833    1.002    0.002
        67 -10.0243    249.1697     32.1079   3.3875893830e+01   2.1967744498e+01    0.1579507    0.1012565 -59.64 0.0003010257    1.282    0.220
        68 -13.2314     42.2704     47.7680   8.2832417206e+01   6.3863960496e+01    0.5536786    0.4023983  17.35  0.001802525    1.342    0.255
        69 -11.1647     33.8422     29.8105   7.9640558317e+01   6.8253128207e+01    0.3039427    0.2031294 -36.47  0.001271784    1.449    0.310
        70  -9.8112    216.3761     28.3017   3.5631087111e+01   2.8758023005e+01    0.1135676    0.0897819  40.04 0.0007027709    1.761    0.432
        71 -12.4043     51.5512    141.7169   1.0263032565e+02   4.0299366531e+01    0.5823881    0.3137986 -70.11  0.002508942    1.864    0.464
        72 -12.5672     47.2243    142.1906   1.0409133865e+02   4.0680447264e+01    0.4363261    0.2495215  19.77  0.001949023    1.976    0.494
        73 -12.8975    197.1209    137.9512   6.3384737008e+01   1.5648195215e+01    0.4755454    0.3276609 -17.57  0.002366939    1.656    0.396
        74 -10.8614      4.2441    139.9896   1.1744279813e+02   4.4983179051e+01    0.1826046   0.09725735 -77.68 0.0008715444    1.628    0.386
        75 -11.0194     33.8393    135.8426   1.0751104584e+02   4.3738477643e+01    0.2005854    0.1581725  67.00  0.001081566    1.339    0.253
        76 -10.6079    148.4021     20.6192   4.1206515667e+01   4.5024886590e+01    0.2809209    0.1786651 -76.79 0.0008915712    1.779    0.438
        77 -11.4581     32.9566     20.5004   7.5665279919e+01   6.9865038251e+01    0.2752974    0.1940719 -26.87            0    1.354    0.261
        78 -10.1858    215.0105     20.3482   3.3989484809e+01   2.9940634906e+01    0.1614602    0.1294625 -79.95 0.0004042553    1.099    0.090
        79 -13.7335    204.1051    125.4420   5.9382560101e+01   1.6612553273e+01      0.92404    0.6706401 -28.67  0.004982379    1.315    0.240
        80 -13.0453    217.2286    122.8603   5.6651120458e+01   1.4681914319e+01    0.7328448    0.4930942 -53.77  0.003884447    1.610    0.379
        81 -10.7445    157.7230     14.0405   3.8045240034e+01   4.3460591324e+01    0.1705599    0.1558121 -76.97 0.0001871446    1.080    0.074
        82 -10.8365     28.3223    126.6591   1.0806210631e+02   4.6637231038e+01    0.1470899    0.0979557  64.80  0.000705061    1.723    0.420
        83  -9.7880    162.6996     12.6675   3.7072427791e+01   4.2414772117e+01    0.1254651   0.09105937  41.33 0.0005762822    1.651    0.394
        84 -11.1190    194.9193    113.3556   5.8243367830e+01   2.0507499636e+01    0.2824625    0.1996695 -31.77  0.001077485    1.362    0.266
        85 -10.4656    186.5073     11.4891   3.4343389308e+01   3.7035794080e+01    0.1220209    0.1052695 -82.93 4.398262e-05    1.050    0.047
        86 -11.6008    139.5771    103.4179   6.7319928050e+01   3.4041050993e+01    0.3396966    0.2337819   4.04 0.0008447797    2.350    0.575
        87 -10.0438    156.7808     10.3449   3.7105897406e+01   4.4041764190e+01    0.1773436    0.1006535  64.02  0.000353354    1.570    0.363
        88 -11.1702    140.8854     97.4234   6.5379582037e+01   3.4960615605e+01    0.3137978    0.2034452 -24.53  0.001325227    1.917    0.478
        89 -12.4835     71.8115     93.8019   8.5317227012e+01   4.9532309202e+01    0.3273922    0.2653095  87.08  0.001604511    1.640    0.390
        90 -12.2153    175.1953     89.2615   5.5925390290e+01   2.8883354720e+01    0.4499116    0.2849196 -54.34  0.002023507    1.691    0.409
        91 -12.9018     92.8369     56.9147   6.6107404420e+01   5.3155239080e+01    0.5483007    0.3294715 -49.27 0.0009133367    1.932    0.482
        92 -11.0382    246.6491    183.1509   6.3958813633e+01   5.7134556883e-01    0.1782935    0.1566582   1.18 0.0007037766    1.253    0.202
        93 -13.9701    142.7004     75.9196   5.8881617421e+01   3.8583724779e+01    0.7382156    0.4969541  41.00  0.002480319    1.580    0.367
        94 -12.6544    121.9298     81.2715   6.5569470287e+01   4.2330796239e+01    0.3661702    0.3265697  88.68  0.001205611    1.279    0.218
        95 -12.8448     40.8714     81.6459   9.4309098048e+01   5.6725051544e+01    0.4432708    0.2794111  21.30  0.002170159    1.675    0.403
        96 -12.5786     28.1517     81.4946   9.9795410852e+01   5.8077281114e+01    0.2883271    0.2280422  39.36  0.001307259    1.444    0.307
        97 -13.1163    118.9967     65.2125   6.1340337803e+01   4.5925317609e+01    0.3390495    0.2553608 -36.45 0.0008510351    1.372    0.271
