#   1 NUMBER                 Running object number                                     
#   2 MAG_AUTO               Kron-like elliptical aperture magnitude                    [mag]
#   3 X_IMAGE                Object position along x                                    [pixel]
#   4 Y_IMAGE                Object position along y                                    [pixel]
#   5 X_WORLD                Barycenter position along world x axis                     [deg]
#   6 Y_WORLD                Barycenter position along world y axis                     [deg]
#   7 A_WORLD                Profile RMS along major axis (world units)                 [deg]
#   8 B_WORLD                Profile RMS along minor axis (world units)                 [deg]
#   9 THETA_WORLD            Position angle (CCW/world-x)                               [deg]
#  10 FWHM_WORLD             FWHM assuming a gaussian core                              [deg]
#  11 ELONGATION             A_IMAGE/B_IMAGE                                           
#  12 ELLIPTICITY            1 - B_IMAGE/A_IMAGE                                       
         1 -15.2054      8.2747    137.9510   1.4220344916e+02   4.5592859835e+01     6.810822     1.583514 -75.67   0.02200966    4.817    0.792
         2 -12.5211      4.4546     50.0516   1.2809300292e+02   6.4353254152e+01    0.4950809     0.283214 -61.41  0.003117179    1.662    0.398
         3 -13.4664    198.4479     28.1882   6.7508405840e+01   3.2392385083e+01     1.432132     1.215763  32.25  0.007117532    1.490    0.329
         4 -13.5136    214.2744      9.1456   6.1135697376e+01   3.0781610621e+01     0.958382    0.8070577  66.76  0.003783292    1.242    0.195
         5 -11.2898      2.6348      4.0881   1.1336370759e+02   7.1840194484e+01    0.3077615     0.165279 -49.93  0.001932063    2.449    0.592
         6 -10.4747     81.0626    249.0067   1.3871336601e+02   1.3133968559e+01    0.1936098     0.147067  67.92  0.001307436    1.017    0.016
         7 -11.2574    122.1955    249.6933   1.3126655433e+02   6.5406365283e+00    0.3666634      0.14356  43.54  0.001677011    2.108    0.526
         8  -9.5942     66.5146    250.0870   1.4136308545e+02   1.5023123826e+01    0.1817987    0.1247446  57.13 0.0005305812    1.178    0.151
         9 -11.4784     46.9499    248.4852   1.4456524697e+02   1.7936918355e+01    0.4792157    0.1968461  55.47  0.002279804    1.957    0.489
        10 -11.1051     29.1490    248.3910   1.4747699353e+02   2.0135364449e+01    0.3884318     0.171068 -62.89  0.001650063    2.502    0.600
        11 -12.7886     34.7766    244.4406   1.4630101716e+02   2.0206371251e+01    0.6330984    0.5311708  88.70  0.004941192    1.341    0.254
        12 -12.0670      6.9035    249.2020   1.5099358488e+02   2.2445580116e+01    0.8472661    0.2687222  39.95  0.004349533    2.997    0.666
        13 -10.0886    203.9496    250.0000   1.1591762404e+02  -7.3250605757e+00    0.2081323   0.05940088  41.03 0.0008009622    2.932    0.659
        14 -11.4526    197.3603    244.1846   1.1623899888e+02  -5.4031424059e+00    0.4717391    0.2512316 -50.70  0.002363791    2.547    0.607
        15 -12.6487     11.7298    240.7806   1.4979600284e+02   2.3498849470e+01    0.5268307    0.2938015  78.44  0.003608132    1.351    0.260
        16 -11.3105     17.9168    241.6012   1.4886019989e+02   2.2678928949e+01    0.2801173    0.1275349  62.72  0.001059828    1.752    0.429
        17 -11.5049    174.0416    249.7042   1.2148061354e+02  -2.2701385112e+00    0.6234145   0.09134623  43.29  0.001717867    5.590    0.821
        18 -11.5849    119.5014    237.8154   1.3034003874e+02   9.1194808483e+00    0.4009207    0.2091226 -76.11  0.001799295    2.847    0.649
        19 -12.3376    121.4499    232.0330   1.2922487358e+02   9.8687385802e+00    0.8026104    0.1605766  43.31  0.002532934    4.102    0.756
        20 -12.4256    108.9129    230.9908   1.3155606176e+02   1.2177326632e+01    0.8703926    0.1836452  45.81  0.002872116    3.868    0.741
        21 -11.5416     49.6788    235.9798   1.4313018158e+02   1.9972774903e+01    0.3008432    0.1949031 -62.46  0.001915182    1.767    0.434
        22 -13.0424     46.2700    215.2630   1.4197604914e+02   2.4598201793e+01     1.086217    0.7378165 -87.23  0.006404134    1.236    0.191
        23 -13.9353     36.0927    226.2963   1.4475849485e+02   2.3581619069e+01    0.7898757    0.5213163  70.09  0.002363002    1.191    0.161
        24 -12.4210     91.9341    227.5560   1.3446434462e+02   1.5592457048e+01     1.358496    0.1875523  48.57   0.00347702    6.820    0.853
        25 -11.0744     11.9092    232.6423   1.4929651761e+02   2.5030721801e+01    0.2101013     0.119384  87.59 0.0005132357    1.352    0.260
        26 -10.3603      4.5830    229.2487   1.5028759504e+02   2.6430877292e+01    0.1432107   0.07789324 -74.46 0.0009243858    1.606    0.377
        27  -9.6362    172.9671    223.0000   1.1757927555e+02   2.2950702688e+00    0.2324375   0.06894711  42.40 0.0008055517    2.964    0.663
        28 -11.5607     58.7858    212.9989   1.3935922173e+02   2.3448271092e+01    0.6765895    0.2322477  59.64  0.002514032    3.721    0.731
        29 -12.9087     30.9699    232.8809   1.4613585605e+02   2.2880067171e+01    0.2991444    0.2368331 -86.50 0.0007918828    1.263    0.208
        30  -8.6223    152.5843    213.2085   1.2014437750e+02   7.8766900849e+00     0.163577     0.134448 -37.97 0.0002810019    1.428    0.300
        31 -12.4226      9.7932    207.2073   1.4803250361e+02   3.0328380723e+01    0.5881101     0.447886  32.72  0.002889779    1.821    0.451
        32 -10.8929     56.0280    205.8217   1.3916859097e+02   2.5349497981e+01    0.5026667    0.1786487  59.10   0.00192956    3.445    0.710
        33 -11.7056     58.4117    199.0824   1.3796467895e+02   2.6502195182e+01    0.2842172    0.2273611 -79.63  0.000593187    1.154    0.133
        34 -12.2585    244.6960    248.1067   1.0823445033e+02  -1.3392846926e+01    0.8021773    0.2913722  39.31  0.003812587    2.450    0.592
        35  -9.8167     96.0185    173.0956   1.2607606014e+02   2.6796651439e+01    0.2182183    0.1844433  80.83 0.0004501614    1.113    0.101
        36 -11.8369     83.4179    168.4446   1.2830337215e+02   2.9914389744e+01    0.6421857    0.6182687 -33.00  0.003686188    1.299    0.230
        37 -10.6951     10.3460    194.5422   1.4702016592e+02   3.2928910859e+01    0.2624453    0.1590162  58.55 0.0008170714    1.504    0.335
        38 -10.2130     96.4324    152.7143   1.2236902026e+02   3.1530655207e+01    0.3464441    0.2749793 -50.69 0.0008019241    1.275    0.216
        39  -9.2334     99.5526    148.3105   1.2072763747e+02   3.2042282110e+01    0.2333869    0.1662932 -41.31 0.0005149335    1.560    0.359
        40 -12.0032     84.9300    151.5919   1.2506451740e+02   3.3674424059e+01    0.3117844    0.2514852 -50.70  0.000468312    1.266    0.210
        41 -12.1931     67.4335    143.6081   1.2812349518e+02   3.8148790046e+01    0.6745684    0.4306848  67.41  0.002609101    1.915    0.478
        42  -9.7424    108.6004    137.7133   1.1619633776e+02   3.2930100169e+01     0.394437    0.2571671 -25.36  0.001234381    2.368    0.578
        43 -10.4376     95.7118    134.7056   1.1894294955e+02   3.5927215247e+01    0.2563325    0.2347126 -41.62 0.0004630343    1.155    0.134
        44 -11.9053     25.5004    128.5392   1.3665727339e+02   4.6359384626e+01    0.3703507    0.2557107  54.67 0.0007022085    1.664    0.399
        45 -11.6429     19.9088    125.7510   1.3772219051e+02   4.7462920081e+01    0.2586476    0.2419867  83.43  0.001116223    1.216    0.178
        46  -9.1253     76.2771    129.5187   1.2311201969e+02   4.0239653470e+01    0.2396877    0.1324517  43.37 0.0006171151    1.952    0.488
        47 -10.3646     82.1974    125.0711   1.2055276974e+02   4.0393335901e+01    0.3390522    0.2331052  67.04 0.0009576017    1.867    0.464
        48  -8.8566    106.2199    124.0144   1.1373039534e+02   3.6564397956e+01    0.1941075    0.1820224 -61.19 0.0002886696    1.014    0.014
        49  -8.1563     68.6877    123.3423   1.2395406818e+02   4.2769803087e+01    0.1414669    0.1033278  82.90 0.0005642532    1.702    0.412
        50  -9.8704    167.8723    112.9394   9.5517944314e+01   2.5774650728e+01    0.3069863    0.2385395 -58.74 0.0005939045    1.363    0.266
        51 -10.2649     41.6717     96.6281   1.2629028663e+02   5.2060415170e+01    0.4155739      0.20734  51.05  0.001857007    3.019    0.669
        52 -11.9684     65.0122    190.5825   1.3558833963e+02   2.7498915924e+01    0.2778737    0.2335918 -73.12 0.0004660093    1.193    0.162
        53  -8.3587     65.3007     81.6526   1.1504184497e+02   5.2463677946e+01    0.1280056    0.1051529 -86.81 0.0003126573    1.686    0.407
        54  -9.7877    158.4917     76.9264   8.7821189345e+01   3.5014690874e+01    0.2307143    0.1504014 -38.70 0.0006959437    1.570    0.363
        55  -8.8966     56.8686     75.5596   1.1612435761e+02   5.4791598062e+01    0.1681569    0.1192335  45.81 0.0009318907    1.759    0.431
        56  -8.4208     47.6732     70.2564   1.1776344728e+02   5.6926724661e+01    0.1102846   0.09854218  75.45 0.0002133852    1.554    0.356
        57 -13.1159     62.1794    175.6469   1.3430163074e+02   3.1299884992e+01     0.515546    0.2767476 -47.22  0.001917781    2.272    0.560
        58 -11.8650    145.8411    247.6068   1.2654464833e+02   2.9060032256e+00    0.4102692    0.3296814   5.43  0.002468344    1.778    0.438
        59 -11.9400     99.7379    247.9871   1.3523490295e+02   1.0472603110e+01    0.4353803    0.3213335  45.19  0.002777655    1.300    0.231
        60 -11.2996    161.9250    249.2825   1.2371583466e+02  -1.2934205474e-01    0.2899341    0.2520682  88.37  0.001910353    1.392    0.282
        61 -10.8143     75.6764    177.5598   1.3149273467e+02   2.8954911565e+01    0.2486926    0.2129539 -86.43  0.000302509    1.030    0.029
