#   1 NUMBER                 Running object number                                     
#   2 MAG_AUTO               Kron-like elliptical aperture magnitude                    [mag]
#   3 X_IMAGE                Object position along x                                    [pixel]
#   4 Y_IMAGE                Object position along y                                    [pixel]
#   5 X_WORLD                Barycenter position along world x axis                     [deg]
#   6 Y_WORLD                Barycenter position along world y axis                     [deg]
#   7 A_WORLD                Profile RMS along major axis (world units)                 [deg]
#   8 B_WORLD                Profile RMS along minor axis (world units)                 [deg]
#   9 THETA_WORLD            Position angle (CCW/world-x)                               [deg]
#  10 FWHM_WORLD             FWHM assuming a gaussian core                              [deg]
#  11 ELONGATION             A_IMAGE/B_IMAGE                                           
#  12 ELLIPTICITY            1 - B_IMAGE/A_IMAGE                                       
         1 -13.4075     20.7422     20.8360   8.3473577668e+01   6.9960575559e+01    0.4266063    0.3685707 -28.17  0.002630056    1.298    0.230
         2 -14.2619     17.5592     35.7213   9.1039804041e+01   6.7805460078e+01        0.822     0.691274 -58.40  0.005038702    1.507    0.336
         3 -14.0093     14.7016     27.4110   8.9373057515e+01   6.9489708905e+01    0.5900428    0.4645415  12.53  0.003030819    1.294    0.227
         4 -11.5919     85.4122      7.7672   5.2071548805e+01   6.0982943768e+01    0.3160578    0.1831105  50.58 0.0003290243    1.454    0.312
         5 -13.6786     85.2139     21.5581   5.7658271906e+01   5.9604879377e+01    0.8727363    0.5516783 -15.17  0.004572831    1.820    0.450
         6 -11.9551     84.4326     11.8237   5.3982189704e+01   6.0801136547e+01    0.4596116    0.2935057 -84.05  0.002049577    3.343    0.701
         7 -12.4538    131.0131     17.3084   4.5495272130e+01   4.9837381861e+01    0.3027016     0.216207  53.68  0.001721963    1.260    0.206
         8 -13.5982     47.1881     13.0170   6.7339367456e+01   6.7523015360e+01    0.7060345    0.4321556  26.56  0.003277289    1.503    0.335
         9 -11.2705     34.8879     13.8766   7.3220288530e+01   6.9231134078e+01    0.1844608    0.1325442   1.94 0.0004871461    1.244    0.196
        10 -13.8559      7.0715     10.3053   8.6299868578e+01   7.2845889386e+01    0.7369993    0.3542895  17.56  0.004325993    2.055    0.513
        11 -12.8972    241.1912     10.1693   3.1309661942e+01   2.5472510045e+01    0.3367068    0.1077779 -45.05   0.00162095    2.397    0.583
        12 -13.1273    207.3761      5.8807   3.2963551715e+01   3.3110003880e+01    0.6778718    0.3899437  -8.48  0.003168374    3.565    0.720
        13 -13.1721     99.6838      9.5117   4.9198456333e+01   5.7767704863e+01    0.8546042    0.4930589 -60.89   0.00395162    2.888    0.654
        14 -11.0201    114.6660      9.8369   4.6099847568e+01   5.4372468528e+01    0.1931523    0.1516723  25.52 0.0006729943    1.398    0.285
        15 -11.8513    124.2834      7.0165   4.3352317227e+01   5.2403112343e+01    0.2913956    0.1657109  78.56  0.001457971    1.841    0.457
        16 -15.0668    176.9450      6.9262   3.6085795746e+01   3.9956978454e+01     1.585601     0.850668  89.09  0.008022024    1.840    0.456
        17 -12.5116    233.5034      2.9827   3.0417900844e+01   2.7831571877e+01    0.2537204    0.1598188 -78.97  0.001089753    1.312    0.238
        18 -11.1001    113.4864      1.8108   4.3540682637e+01   5.5333270303e+01    0.2285248    0.1497817  64.04 0.0005946087    1.299    0.230
        19 -11.0042     49.4597      1.4962   6.0884146004e+01   6.8382804868e+01    0.2421082   0.09856399  46.92    0.0012116    2.171    0.539
        20 -14.3324    164.2002     11.6886   3.8816371937e+01   4.2493030474e+01     1.142855    0.5895541 -75.53  0.005129408    2.452    0.592
        21 -13.7501    249.5775    167.2572   6.2315019881e+01  -1.5689444531e-01    0.7669104    0.1651782 -42.85  0.002473183    4.223    0.763
        22 -17.2721     19.8862    139.0443   1.1237904825e+02   4.4383067249e+01     6.309025     4.673323  52.98   0.03721877    1.434    0.303
        23 -16.9725     93.7073    227.1196   1.0450960454e+02   1.4169730090e+01     3.952095     1.966779  52.44   0.01826068    1.947    0.486
        24 -17.9223     81.9017    186.1975   1.0199505088e+02   2.5122402495e+01     10.22369     4.287406  59.54   0.03294415    3.829    0.739
        25 -11.0140    105.6575    153.8372   9.0308480004e+01   2.9108364532e+01    0.2151646    0.1856823 -65.04  0.001103709    1.141    0.124
        26 -14.4252    248.6622    128.9636   5.4833499408e+01   6.4064964823e+00    0.7992883    0.4008827 -41.40  0.003908751    1.666    0.400
        27 -14.4521    245.6953    138.9116   5.7290696304e+01   5.2173654670e+00    0.6914918    0.4471903 -39.38  0.003807014    1.308    0.235
        28 -12.7316     81.0202    132.6963   9.3011539279e+01   3.8555014189e+01    0.3810918    0.3153929  10.61  0.001944594    1.460    0.315
        29 -10.8035    106.9827    133.0292   8.5546455284e+01   3.3948744374e+01    0.1924887    0.1752352 -59.27 0.0006145092    1.070    0.066
        30 -14.1961     75.4869    127.2572   9.3548411577e+01   4.0780660733e+01    0.8451974    0.5100716 -88.57  0.003239722    2.669    0.625
        31 -11.3996     98.4608    123.5276   8.5805952693e+01   3.7825123019e+01    0.2740644    0.2586482 -53.17 0.0008519689    1.037    0.035
        32 -13.9212    249.0723    116.9508   5.2319059284e+01   8.3611200823e+00     0.582872    0.4371375 -26.05  0.003405652    1.403    0.287
        33  99.0000     25.1792    189.6789   1.1619906918e+02   3.1491236536e+01     1.448825     0.486551  45.84   0.00622027    2.656    0.624
        34 -13.4879     61.7558    109.8552   9.4137099874e+01   4.7076380519e+01    0.4122629    0.3078089  34.51  0.001741397    1.436    0.303
        35 -12.7610    249.6423    100.3616   4.8829595571e+01   1.1013004052e+01    0.3834719     0.151362 -36.45  0.001620435    2.340    0.573
        36 -16.6840     73.6247    235.7193   1.0973133254e+02   1.5288961799e+01     2.113208     1.386452 -64.14   0.01229445    1.659    0.397
        37 -12.0396      7.2985    100.6458   1.1110118109e+02   5.4686748368e+01    0.2447181    0.2366229  78.93   0.00127299    1.200    0.167
        38 -14.5302     38.3646    188.6665   1.1299635799e+02   3.0306667525e+01     1.389767    0.6186771 -86.85  0.005832962    2.535    0.606
        39 -10.4440    101.9820     98.4940   7.8384459153e+01   4.2978633227e+01    0.2283888    0.1488762  44.00 0.0009375194    1.563    0.360
        40 -11.1539     90.2417     94.8479   8.0998507376e+01   4.6005582907e+01    0.2454875    0.2054857  40.00  0.000825446    1.227    0.185
        41 -11.5115     34.8144     92.9366   9.9779336974e+01   5.4325676312e+01    0.2062676    0.1589321 -40.11 0.0004190386    1.204    0.169
        42 -10.4199    132.5446     92.5718   6.8253955172e+01   3.7792026216e+01    0.1500356    0.1479999  76.91    7.112e-05    1.013    0.013
        43 -10.8039      2.4754     89.3804   1.1104190732e+02   5.7599311049e+01    0.1971714    0.1517416  18.01 0.0008557474    1.557    0.358
        44 -11.7613     18.2571     83.6036   1.0401580797e+02   5.7926425799e+01    0.2678175    0.2243937 -29.24  0.001133582    1.176    0.150
        45 -12.3273     14.0197     83.0263   1.0553569123e+02   5.8361675291e+01     0.310712    0.2703052 -52.90  0.001338625    1.052    0.049
        46 -12.0555    249.4955     82.5284   4.5170967582e+01   1.3906368827e+01    0.2821035    0.1083532 -39.41  0.001225509    2.216    0.549
        47 -16.9240     57.9040    225.2002   1.1206750969e+02   1.9596615294e+01     3.008102     1.625348 -50.36   0.01501027    2.394    0.582
        48 -10.6655     87.9006     79.5219   7.7300354950e+01   4.9710275147e+01    0.2177294    0.1416544  38.34  0.001019339    1.559    0.358
        49 -12.4378     40.7028     76.7835   9.3587874360e+01   5.7363923932e+01    0.3165314    0.2141574  78.55  0.001462525    2.658    0.624
        50 -11.3686      5.5411     77.3377   1.0773108846e+02   6.0173876994e+01    0.2063048    0.1630121 -88.40 0.0008467338    1.436    0.304
        51 -11.3557      5.9100     72.8673   1.0668888307e+02   6.1145966641e+01    0.2390069    0.1462737 -47.16  0.001081075    1.325    0.245
        52 -11.1381      7.8246     68.6990   1.0500711071e+02   6.1946113986e+01     0.284508    0.1512724 -56.81 0.0006529384    1.504    0.335
        53 -15.3380    102.2443    243.0418   1.0450451135e+02   9.7389799446e+00      1.65229     1.213246 -15.91  0.006614493    2.239    0.553
        54 -10.7226     43.2569     62.5784   8.8430204967e+01   6.0045055511e+01    0.1723931    0.1199085   9.09 0.0006760402    1.571    0.364
        55 -12.8196     24.9127     66.0537   9.7131365770e+01   6.1250488818e+01    0.4459445    0.3077173  -4.36  0.002149885    1.587    0.370
        56 -12.4227     35.2922     62.7604   9.1801967871e+01   6.0919352881e+01    0.7527766    0.2444492  25.47  0.002921093    3.438    0.709
        57 -11.2905     99.5260     60.9175   6.7710947094e+01   5.0961140579e+01    0.3049126     0.259728 -89.25  0.001638785    1.501    0.334
        58 -13.0332    249.2078     55.7925   3.9735038735e+01   1.7989804830e+01    0.6871166    0.1345134 -41.86  0.002450237    3.608    0.723
        59 -10.7782    147.4603     58.5671   5.4977121598e+01   4.0491754006e+01    0.2382202    0.1651013  22.72 -2.202378e-05    2.114    0.527
        60 -11.7139    150.0861     53.1519   5.2865169397e+01   4.0700679062e+01    0.4861618    0.2924779 -42.39  0.002253318    1.700    0.412
        61 -10.8829     45.0276     55.7644   8.5488824010e+01   6.1157882685e+01    0.2130323    0.1667099 -36.13 0.0004904367    1.164    0.141
        62 -10.8943     61.7194     52.9951   7.7832574564e+01   5.9288044716e+01    0.1947138    0.1660866 -23.95  0.001173654    1.100    0.091
        63 -12.1034     13.5235     49.6666   9.7578401522e+01   6.5517560863e+01    0.2304181    0.1832561 -29.35 0.0002748728    1.051    0.048
        64 -11.7988      3.8174     58.1551   1.0431107790e+02   6.4418858070e+01     0.346042    0.1680733 -52.86  0.001902346    1.585    0.369
        65 -16.3630     46.6203    213.4197   1.1344275842e+02   2.3600677506e+01     2.226046     1.833538 -63.05   0.01419999    1.379    0.275
        66 -11.1063    166.4033    212.7740   8.6530836849e+01   5.2911231572e+00    0.1854209    0.1245665 -33.88 0.0005847529    1.631    0.387
        67 -13.0015    143.8078    205.7764   9.0296195063e+01   1.0485325313e+01    0.3463207    0.2635498  61.81   0.00158725    1.515    0.340
        68 -10.6945     96.1377     38.1606   6.0781132681e+01   5.5234831190e+01    0.1989076    0.1667834  23.54 0.0004482849    1.180    0.152
        69 -12.1743     80.2609     37.1526   6.5289387770e+01   5.8580067965e+01    0.5917648    0.2880521  46.31  0.002740002    1.933    0.483
        70 -11.1235     56.1367     37.5360   7.4227999686e+01   6.2748689392e+01    0.2531891    0.2150255 -23.23  0.001616179    1.152    0.132
        71 -11.3765    154.0224     32.0212   4.5998585488e+01   4.2656426955e+01    0.2003854    0.1789078  76.18  0.001209742    1.017    0.016
        72 -11.4190     68.9398     42.8454   7.1391112021e+01   5.9798784888e+01     0.318058    0.1755757  50.61  0.001226548    2.106    0.525
        73 -11.7112     58.6862     29.0667   6.9781633414e+01   6.3591585550e+01    0.3304507    0.2262631 -34.61  0.001404823    1.512    0.339
        74 -11.7255    160.3991     27.2864   4.3644357135e+01   4.1692659537e+01    0.2501943    0.2196431  62.45 0.0002783756    1.135    0.119
        75 -12.5867    146.1093    202.8071   8.9287079174e+01   1.0695705485e+01    0.2928577     0.252707  14.21 0.0008072148    1.219    0.180
        76 -11.1598     24.7587    202.7020   1.1735608739e+02   2.8512328421e+01    0.2611899    0.1588929  66.19  0.001478812    1.460    0.315
        77 -12.3634      2.9164    174.0316   1.2017070053e+02   3.7219197163e+01    0.2533003    0.1966572  80.88 0.0007512021    1.060    0.056
        78 -11.7079    250.5654     24.0819   3.3340372390e+01   2.1960201952e+01    0.2069829    0.1108768 -39.93 0.0003321122    1.702    0.412
        79 -11.4931    145.4006     25.2260   4.5437254877e+01   4.5544288873e+01     0.237677    0.1703392  57.81 0.0009216201    1.269    0.212
        80 -13.0837    144.0306     21.3428   4.4499213639e+01   4.6308439899e+01    0.4265538    0.2510073  56.93  0.002187614    1.513    0.339
        81 -12.1405    123.7126     23.6927   4.8978455932e+01   5.0867636610e+01    0.3755429    0.2948317  53.74  0.001282461    1.141    0.124
        82 -10.7469    239.2990     24.6990   3.4326831755e+01   2.4134760344e+01    0.1271008   0.07101568 -65.06 0.0002336455    1.581    0.368
        83  -8.6677     11.8637    201.0000   1.2004212069e+02   3.0182885130e+01    0.1816975   0.06548145  28.88 0.0008105223    2.999    0.667
        84  99.0000     17.8774    197.1891   1.1845804637e+02   3.0473710779e+01    0.3280356    0.2053277 -41.99  0.001764787    2.331    0.571
        85  99.0000     12.4097    195.6525   1.1955586049e+02   3.1350569900e+01    0.3993943    0.1674271  36.20  0.002004188    2.272    0.560
        86 -11.0337    149.0249    195.4765   8.7371467369e+01   1.1699253511e+01    0.2199085    0.1346218  37.97 0.0006617763    1.554    0.357
        87 -11.7500    113.0489    162.0273   8.9947829411e+01   2.5787128562e+01    0.2487683      0.18024  72.73 0.0007856268    1.697    0.411
        88  -9.7386      1.2059    191.2909   1.2172355969e+02   3.3340757313e+01    0.1080626   0.07509387 -66.96 0.0006671095    1.431    0.301
        89 -14.0260    248.4441    186.5433   6.6159624147e+01  -3.0925050771e+00    0.6722237     0.251283 -37.85  0.003000732    2.327    0.570
        90 -10.1237    116.7089    161.7022   8.8935810543e+01   2.5197585260e+01    0.1478063    0.1206683 -16.35 0.0002088522    1.560    0.359
        91 -10.4495     26.1375    183.3917   1.1541782265e+02   3.2887045285e+01     0.178394   0.09866098  47.96 0.0009251868    1.711    0.415
        92  -9.6014     30.2584    182.2270   1.1431746400e+02   3.2739337017e+01     0.110025   0.09356028 -51.40 0.0003176194    1.397    0.284
        93 -15.5972     49.5845    180.6710   1.0938488589e+02   3.0910217630e+01     1.468379     1.194303  77.72  0.008665327    1.105    0.095
        94  99.0000      7.4483    186.5448   1.2002208890e+02   3.3904183195e+01    0.3199436     0.124849  70.29  0.001344908    2.866    0.651
        95 -11.6829    102.4267    156.7172   9.1738176572e+01   2.8973729079e+01    0.2778724    0.1473216 -61.52 0.0006722593    1.966    0.491
