#   1 NUMBER                 Running object number                                     
#   2 MAG_AUTO               Kron-like elliptical aperture magnitude                    [mag]
#   3 X_IMAGE                Object position along x                                    [pixel]
#   4 Y_IMAGE                Object position along y                                    [pixel]
#   5 X_WORLD                Barycenter position along world x axis                     [deg]
#   6 Y_WORLD                Barycenter position along world y axis                     [deg]
#   7 A_WORLD                Profile RMS along major axis (world units)                 [deg]
#   8 B_WORLD                Profile RMS along minor axis (world units)                 [deg]
#   9 THETA_WORLD            Position angle (CCW/world-x)                               [deg]
#  10 FWHM_WORLD             FWHM assuming a gaussian core                              [deg]
#  11 ELONGATION             A_IMAGE/B_IMAGE                                           
#  12 ELLIPTICITY            1 - B_IMAGE/A_IMAGE                                       
         1 -14.4164    161.5961     53.9029   7.7234140638e+01   3.8017917767e+01     1.729501     1.341724  23.51  0.006128532    1.622    0.384
         2 -14.1240    174.3707     38.3793   7.0722777211e+01   3.7085433564e+01    0.8984261      0.80044  70.07  0.003093482    1.046    0.044
         3 -14.4324    191.9711      7.0431   6.0451949602e+01   3.6475835300e+01     1.019394    0.8191221  66.33  0.004947212    1.192    0.161
         4 -12.2425    167.7762    232.7313   1.1690520953e+02   9.3750538013e-01    0.3493135    0.2514787  45.18 0.0007819138    1.266    0.210
         5 -17.7132     85.2068    193.5055   1.2872114861e+02   2.3436870104e+01     9.516364     4.407441 -65.81   0.04058903    2.155    0.536
         6 -11.4002     11.4441    206.1785   1.4553324215e+02   2.9844300889e+01    0.2524315    0.1991465  52.23  0.001737883    1.386    0.279
         7 -10.3887      6.4779    207.6939   1.4656770047e+02   2.9995377369e+01    0.1410366    0.1013792  42.18 0.0003282179    1.605    0.377
         8 -13.1307    157.0351    200.5761   1.1371330562e+02   9.0869531819e+00    0.8193187    0.5079134 -89.10  0.002922921    3.573    0.720
         9 -12.3361    153.2516    194.5978   1.1345516712e+02   1.1065276757e+01    0.3256554    0.2682841  23.03   0.00133023    1.349    0.259
        10 -12.6299    193.5662    195.6430   1.0500393914e+02   3.0999514964e+00     1.309186    0.6997032 -66.30  0.004031113    4.913    0.796
        11 -12.2322    204.3862    200.2476   1.0370248668e+02   2.3582248060e-01    0.4344337    0.2442071  26.08    0.0018927    2.125    0.529
        12 -10.4017    163.7433    203.0560   1.1270630736e+02   7.3050816669e+00    0.2506826    0.1922276  65.06 0.0007901127    1.513    0.339
        13 -11.3059    207.6446    194.2189   1.0187355353e+02   7.4517429998e-01    0.2436511    0.1745148 -29.22 0.0006794598    1.421    0.296
        14 -19.1664     46.7309     99.6314   1.2216062405e+02   5.1023761871e+01     17.16864    0.9482055 -57.39   0.02741212   15.549    0.936
        15 -12.1425    165.6602    188.7330   1.0960047100e+02   9.8852919945e+00    0.4211636    0.3148974  11.57   0.00198338    1.754    0.430
        16 -10.7288    175.1841    185.8382   1.0695203088e+02   8.6077075119e+00    0.3891276    0.2003503 -56.95  0.001500311    2.439    0.590
        17 -12.3287    153.5554    186.3961   1.1184368649e+02   1.2767439203e+01     0.308886    0.2818524  81.25 0.0007806994    1.153    0.132
        18 -12.0251     34.4567    184.2961   1.3890020793e+02   3.2370141533e+01    0.2199894    0.1832683 -68.32 0.0002280273    1.237    0.192
        19 -10.3331    169.9419    183.4532   1.0761904226e+02   1.0146544532e+01    0.2335427    0.1429967  43.58  0.001029873    1.598    0.374
        20 -11.5846    150.2215    180.4262   1.1144164658e+02   1.4735145979e+01    0.2465706    0.1847519 -57.84  0.001188751    1.393    0.282
        21 -10.7057    206.6757    178.3468   9.8848600165e+01   3.9231387164e+00    0.3063669    0.2217506  20.17  0.001493355    1.602    0.376
        22 -10.7254    203.4173    170.4210   9.7835505407e+01   6.1098346075e+00    0.5022973    0.2932385  32.31  0.002156144    1.964    0.491
        23 -12.4801    195.3101    168.8145   9.9148244401e+01   8.0588605302e+00    0.4491771    0.3922206 -42.22 0.0005658321    1.129    0.114
        24 -11.2633    192.5219    163.9469   9.8676682709e+01   9.6234364447e+00    0.3812453    0.3206998 -15.10  0.001528259    1.313    0.238
        25 -10.3213    164.2115    170.8348   1.0631193745e+02   1.4016517607e+01    0.2292682    0.2061662 -89.34 0.0004390673    1.222    0.181
        26 -11.8738    230.2422    166.6747   9.1883586004e+01   1.6571481643e+00       0.3874    0.1805092 -45.81  0.001599737    2.114    0.527
        27  -9.3559     28.5364    165.4471   1.3812187377e+02   3.7411174166e+01    0.1737234     0.160228 -76.94   0.00118915    1.212    0.175
        28  -9.8350     25.3248    165.3491   1.3885587027e+02   3.7750466204e+01    0.1940637    0.1321255  19.09  0.001120072    2.058    0.514
        29 -12.0104    120.6597    164.0818   1.1523253377e+02   2.4279868522e+01    0.3902134    0.2803112  72.15  0.000703648    1.681    0.405
        30 -12.2263    113.8456    160.9325   1.1629934171e+02   2.6309194279e+01    0.5003674    0.3393071  89.85  0.001415832    2.015    0.504
        31 -13.4305    134.0848    146.3893   1.0814268022e+02   2.5813470016e+01     1.569383     0.390313 -54.95  0.003489092    6.049    0.835
        32 -10.2130    166.6861    155.3227   1.0239422554e+02   1.6908433346e+01    0.1587977    0.1239182 -89.38 0.0005659976    1.659    0.397
        33 -10.5292    188.6046    154.2406   9.7353818431e+01   1.2460605199e+01    0.2208802    0.1419688 -33.52 0.0009472165    1.666    0.400
        34 -10.9061    174.3602    148.8801   9.9216918032e+01   1.6666577618e+01    0.3233246    0.2734715  88.85 0.0008130116    1.389    0.280
        35 -12.7955    144.0774    145.7525   1.0553848599e+02   2.3883926443e+01    0.6068696    0.3607732 -68.63  0.002246474    2.415    0.586
        36 -12.6732    135.0000    121.8944   1.0206995161e+02   3.1261637664e+01     1.016603    0.2470206 -49.26  0.002609574    4.370    0.771
        37 -12.8565    106.4966    130.9791   1.1179537834e+02   3.4853592842e+01    0.5644824    0.4452881  73.31   0.00191442    1.506    0.336
        38 -11.5645    107.2571    124.7546   1.1012198633e+02   3.6177574397e+01    0.3174062    0.2700753 -23.92 0.0006250782    1.322    0.244
        39  -9.8322    166.9967    133.5228   9.7256275482e+01   2.1636726685e+01    0.2369876    0.1559663  50.23  0.001015087    1.557    0.358
        40 -11.5816    160.2684    127.4962   9.7327670190e+01   2.4460564726e+01    0.4898821    0.3121502 -60.16  0.001700418    1.822    0.451
        41 -11.2033    113.4914    118.7380   1.0694201764e+02   3.6379625864e+01    0.3400644    0.2914779 -84.14 0.0008565485    1.325    0.245
        42 -11.1045    168.1596    113.1548   9.1930947820e+01   2.5720698324e+01    0.4254377    0.3128157 -84.20  0.001385078    1.825    0.452
        43 -10.7775    135.0000    112.0158   9.9529975390e+01   3.3447596136e+01    0.5145236    0.1523645 -45.03   0.00151339    3.319    0.699
        44 -11.2437    134.7642    105.5094   9.7861971460e+01   3.4897805760e+01    0.5418206    0.1791671 -44.04  0.001697636    2.984    0.665
        45 -10.9604    204.9702    110.4747   8.3828015052e+01   1.7752829911e+01    0.3882344    0.2782201  41.10  0.001208095    1.583    0.368
        46 -17.8712     66.4101    238.2058   1.3788183663e+02   1.6466630015e+01     7.954121     4.969417  61.18   0.03432464    1.362    0.266
        47 -11.1360      9.5347    211.1032   1.4624450257e+02   2.8973991033e+01    0.1855372   0.09171347  85.96  0.001032049    1.744    0.427
        48 -11.1999    197.6409    212.8578   1.0743322662e+02  -8.1987256909e-01    0.2531722     0.177733  26.67  0.001325349    1.418    0.295
        49 -10.0498    148.4902     80.4598   8.7557117127e+01   3.6747174144e+01    0.1486117    0.1452878  56.42 7.998314e-05    1.015    0.015
        50 -10.2796    114.6081     76.9879   9.5063758001e+01   4.4882297205e+01    0.2860636    0.2120994  52.35  0.001427568    1.418    0.295
        51 -10.6965    109.5296     75.2504   9.5946010700e+01   4.6236471282e+01    0.4628233    0.1864801  45.53  0.001740638    2.483    0.597
        52 -11.1548    249.1319    249.1064   1.0413828463e+02  -1.4402745912e+01     0.283055     0.164205   2.05  0.001568213    1.967    0.492
        53 -10.5415     35.7461    212.8669   1.4142245114e+02   2.5781429973e+01    0.1882093    0.1454544  54.90  0.001247196    1.287    0.223
        54 -13.2678    178.5137     31.1105   6.8165949766e+01   3.7002907941e+01     0.506124    0.3890141  44.08  0.001404344    1.440    0.305
        55 -10.4464     13.5145     59.7987   1.2395136292e+02   6.2210513872e+01    0.1757657     0.146212 -15.11 0.0003826984    1.208    0.172
        56 -11.6049    188.1853     31.2243   6.6814572328e+01   3.4664832577e+01    0.2765189    0.2229898  46.31  0.001211231    1.397    0.284
        57  -9.2994    123.3469     25.7237   7.6519851581e+01   5.0575788501e+01    0.1266472     0.100217 -84.56 0.0003956376    1.631    0.387
