#   1 NUMBER                 Running object number                                     
#   2 MAG_AUTO               Kron-like elliptical aperture magnitude                    [mag]
#   3 X_IMAGE                Object position along x                                    [pixel]
#   4 Y_IMAGE                Object position along y                                    [pixel]
#   5 X_WORLD                Barycenter position along world x axis                     [deg]
#   6 Y_WORLD                Barycenter position along world y axis                     [deg]
#   7 A_WORLD                Profile RMS along major axis (world units)                 [deg]
#   8 B_WORLD                Profile RMS along minor axis (world units)                 [deg]
#   9 THETA_WORLD            Position angle (CCW/world-x)                               [deg]
#  10 FWHM_WORLD             FWHM assuming a gaussian core                              [deg]
#  11 ELONGATION             A_IMAGE/B_IMAGE                                           
#  12 ELLIPTICITY            1 - B_IMAGE/A_IMAGE                                       
         1 -14.5065    162.0701     53.0553   7.7879698197e+01   3.7996542347e+01     1.885128     1.440467  14.85  0.006577669    1.760    0.432
         2 -14.0794    174.8810     36.9692   7.1181698147e+01   3.7066624402e+01    0.9051629    0.7767449 -63.71  0.002972787    1.191    0.160
         3 -13.4152    179.1358     29.9705   6.8669187961e+01   3.6897452527e+01    0.5533126     0.482244  -1.99  0.001723079    1.476    0.323
         4 -12.9390    189.8372     14.6211   6.3342256131e+01   3.6051991062e+01    0.4692383    0.3214441 -80.30  0.001651299    1.439    0.305
         5 -14.2877    193.2507      5.0899   6.0658598325e+01   3.6218134727e+01     1.137615    0.6832522  65.43  0.004540077    1.436    0.304
         6 -12.1046    151.6519    182.5540   1.1255343543e+02   1.4175933161e+01    0.3206906    0.2675729  80.69  0.001636431    1.351    0.260
         7 -18.6987     63.8451    239.5622   1.3927002711e+02   1.7048211403e+01     8.228908     6.254722 -83.49   0.05498518    1.246    0.198
         8 -11.9794    207.9057    196.3217   1.0329648132e+02   3.8210341857e-01    0.3537908    0.2462851  31.35 0.0008570363    1.424    0.298
         9 -10.8250    175.9507    187.0034   1.0806181510e+02   8.3583473150e+00    0.4737035    0.2721454 -65.38  0.001805571    2.771    0.639
        10 -12.2869    154.0133    195.8378   1.1452343037e+02   1.0883430944e+01    0.3953777    0.2830026  75.35  0.001835899    1.846    0.458
        11  -9.7322    170.4392    185.2398   1.0890622584e+02   9.8252937132e+00    0.1968313    0.1432344 -60.61 0.0008430468    1.576    0.365
        12 -11.6786     33.2901    184.1740   1.3993036193e+02   3.2878481998e+01    0.2802584     0.170422 -60.06 0.0003260978    1.586    0.369
        13 -11.5429    205.5859    179.7783   1.0043015802e+02   3.8847710952e+00    0.3968108    0.3001908 -85.28  0.001852409    2.104    0.525
        14 -10.4780    209.6322    176.4900   9.8942404473e+01   3.7157222462e+00    0.3880945    0.2896629  -9.94  0.001321737    1.607    0.378
        15 -10.3364      2.9325    176.5400   1.4560945496e+02   3.7510485434e+01    0.1203126    0.1064034  76.96 0.0002965911    1.258    0.205
        16 -12.2830    195.8474    170.1187   1.0038226219e+02   7.7177429279e+00    0.5758015    0.4207128 -47.26  0.001989275    1.394    0.283
        17 -11.3677    193.8058    164.9282   9.9689507705e+01   9.1815091763e+00    0.3976601    0.3676972 -67.23  0.001303674    1.172    0.147
        18 -12.0888    231.4029    170.2038   9.3482083191e+01   7.0779951134e-01    0.3271847    0.1916642 -41.62  0.001545466    1.626    0.385
        19  -9.9387    202.9957    171.7583   9.9272574601e+01   5.9419190988e+00    0.2039907    0.1929718  29.58 0.0005809421    1.059    0.056
        20 -11.1838    163.2058    203.5634   1.1392578876e+02   7.5316764759e+00    0.2772977    0.2041554 -45.95 0.0003020162    1.461    0.316
        21 -10.5801    164.5980    171.0061   1.0730833313e+02   1.4027297733e+01    0.4160898    0.2650557 -79.06  0.001199697    2.801    0.643
        22 -11.3580    121.2548    164.5499   1.1618153456e+02   2.4259833114e+01    0.3610296    0.2563774  63.27  0.001221608    1.549    0.354
        23  -9.7942     25.4160    165.4988   1.3965138679e+02   3.8003883783e+01    0.1688627    0.1258888   5.34  0.000753967    2.088    0.521
        24 -10.3282    141.2122    164.1567   1.1128512517e+02   2.0391348567e+01    0.2127665    0.1783981  87.18 0.0004416491    1.323    0.244
        25  -9.6984     29.8819    165.0000   1.3856553107e+02   3.7674576112e+01    0.1698653   0.07169956  30.75 0.0005389055    2.795    0.642
        26 -10.1202    200.6748    162.3202   9.7713048469e+01   8.2754597482e+00    0.3233656    0.2252385   4.63 0.0009638887    2.162    0.537
        27  -9.9557    222.6436    161.9337   9.3345559632e+01   3.9033187331e+00    0.2904143    0.1683936 -52.36  0.001118417    1.961    0.490
        28 -11.4164    113.5789    160.5250   1.1728123373e+02   2.6661161824e+01    0.3629624    0.2688681 -88.73  0.001277878    1.600    0.375
        29 -19.1751     45.0328    102.1341   1.2422324775e+02   5.0775241475e+01      16.8587    0.9075332 -58.32   0.02665188   16.149    0.938
        30 -12.8441    134.0720    146.2664   1.0915984049e+02   2.5979360202e+01     1.456283    0.3666367 -54.80   0.00332163    5.824    0.828
        31  -9.9910    175.1086    193.4539   1.0949849953e+02   7.2296390068e+00    0.2746067    0.1900703 -66.66 0.0007470824    1.918    0.479
        32 -11.2088    174.3571    148.3447   1.0016052855e+02   1.6824700797e+01    0.4330907    0.2978608 -61.98  0.001378451    1.701    0.412
        33 -12.1907    144.3761    146.2663   1.0663422067e+02   2.3816204844e+01    0.5571191    0.3206516 -66.95  0.002034808    2.472    0.595
        34 -11.8459     11.6837    205.6507   1.4616771165e+02   3.0368176655e+01    0.3051835     0.257502 -81.66  0.002286289    1.290    0.225
        35 -10.7695    119.6860    141.2858   1.1168270000e+02   3.0047257222e+01    0.2966531    0.1855901  55.73   0.00125377    1.776    0.437
        36 -12.1981    136.0000    129.4944   1.0475742709e+02   2.9422910052e+01    0.9291139    0.2150207 -49.79    0.0023166    4.652    0.785
        37 -11.6230    135.0000    120.9447   1.0289089903e+02   3.1557475499e+01    0.6770533    0.2121699 -50.09  0.001978653    3.409    0.707
        38 -11.6102    167.2063    188.3339   1.1021708404e+02   9.8352906247e+00    0.4498572    0.3756065 -25.72  0.001777739    1.355    0.262
        39 -12.4622    106.5310    130.9789   1.1281268461e+02   3.4990065704e+01    0.5412683    0.4088927  66.17  0.001887998    1.542    0.352
        40 -11.4568    106.9711    125.4508   1.1140100620e+02   3.6199645952e+01    0.3455776    0.2666564 -32.63 0.0006755922    1.439    0.305
        41 -11.6748    118.4367    129.6377   1.0932181662e+02   3.3015182687e+01     0.387059    0.2834122 -41.92  0.000751989    1.390    0.281
        42 -11.2077    160.1981    127.5011   9.8410759901e+01   2.4512425008e+01    0.4521647     0.280579 -54.98   0.00133412    1.731    0.422
        43 -11.4918    121.7151    124.2252   1.0714908006e+02   3.3601682036e+01    0.2953944    0.2669431  27.43  0.001128679    1.200    0.166
        44 -11.6683     91.5247    123.2315   1.1516142239e+02   3.9472164399e+01     0.263898     0.239504  57.95 0.0007941609    1.170    0.145
        45 -10.8665    113.3289    118.8375   1.0805887093e+02   3.6501358743e+01    0.2896966    0.2715694 -74.79  0.000555297    1.083    0.077
        46 -11.0709    168.3097    113.1104   9.2946413056e+01   2.5687113275e+01    0.4193963    0.3002087 -77.28  0.001279158    1.876    0.467
        47 -10.8717    135.0000    112.5055   1.0072142313e+02   3.3411449299e+01    0.5400828    0.1512282 -46.18    0.0015405    3.556    0.719
        48 -10.8301    134.5934    106.2366   9.9164333177e+01   3.4844037606e+01    0.3866878    0.1866528 -46.35  0.001456333    2.067    0.516
        49 -10.9485    205.2068    110.3817   8.4797437076e+01   1.7584501475e+01    0.3589759     0.278268  41.26 0.0009414009    1.434    0.302
        50 -11.1010    163.4669    188.4659   1.1106151924e+02   1.0554457470e+01    0.3124706    0.2618456  55.30 0.0008842642    1.189    0.159
        51  -9.4261    146.9675    108.0397   9.6569545436e+01   3.1692509106e+01    0.1870106    0.1754454  56.11 0.0003459829    1.066    0.062
        52  -9.7755     80.6364    105.2861   1.1400507947e+02   4.5354553181e+01    0.1414591    0.1110991  76.97 0.0007021529    1.691    0.409
        53 -10.4449     70.0012     99.2379   1.1572912954e+02   4.8288503632e+01    0.1842855    0.1750455 -16.43  0.000336566    1.086    0.079
        54 -10.6419      3.7623    209.3778   1.4788116847e+02   3.0339997952e+01    0.1142171   0.09034413  74.04 0.0004475705    1.174    0.148
        55 -10.0209    148.7076     79.9723   8.8408972758e+01   3.6798438069e+01    0.2120611    0.1948418 -44.12 0.0005402949    1.113    0.101
        56 -12.9276    193.7174    194.5372   1.0580909123e+02   3.3937057261e+00     1.383689    0.6926152 -60.25  0.004810081    3.645    0.726
        57 -10.3751    108.8510     75.0582   9.7137352098e+01   4.6486519379e+01    0.3819106    0.1787918  44.02  0.001547007    2.125    0.529
        58 -12.1596    158.8789    235.6754   1.2013082871e+02   2.2984848750e+00    0.3802258    0.3013259  21.54  0.001364138    1.386    0.279
        59 -10.6721    168.8574    234.5417   1.1795430511e+02   7.3256262230e-01    0.2045276    0.1888189 -45.48 0.0002645356    1.245    0.197
        60 -10.3276    199.0298    222.3738   1.0990503899e+02  -2.5359852567e+00    0.2078604    0.1748409 -10.51 0.0005282909    1.236    0.191
        61 -10.3232     13.4303     59.8647   1.2498037711e+02   6.2285734511e+01    0.1603766    0.1438266 -27.61 0.0004300028    1.190    0.160
        62 -11.5604    188.3927     30.8738   6.7581364354e+01   3.4530736711e+01    0.2815798    0.2179713  78.36 0.0009782885    1.153    0.133
        63  -9.0795    115.6509     31.2848   8.1091845753e+01   5.1694875900e+01    0.1274833    0.1036395 -84.82   0.00043897    1.654    0.395
        64  -9.6016    122.9969     25.5484   7.7493109008e+01   5.0732198360e+01    0.1977577    0.1185357  58.49 0.0004461951    1.528    0.346
        65 -11.0770    156.5139    202.0455   1.1509598517e+02   9.1225992605e+00     0.304576    0.2064296 -72.37  0.001106541    2.002    0.501
