#   1 NUMBER                 Running object number                                     
#   2 MAG_AUTO               Kron-like elliptical aperture magnitude                    [mag]
#   3 X_IMAGE                Object position along x                                    [pixel]
#   4 Y_IMAGE                Object position along y                                    [pixel]
#   5 X_WORLD                Barycenter position along world x axis                     [deg]
#   6 Y_WORLD                Barycenter position along world y axis                     [deg]
#   7 A_WORLD                Profile RMS along major axis (world units)                 [deg]
#   8 B_WORLD                Profile RMS along minor axis (world units)                 [deg]
#   9 THETA_WORLD            Position angle (CCW/world-x)                               [deg]
#  10 FWHM_WORLD             FWHM assuming a gaussian core                              [deg]
#  11 ELONGATION             A_IMAGE/B_IMAGE                                           
#  12 ELLIPTICITY            1 - B_IMAGE/A_IMAGE                                       
         1 -12.4286     75.4046     51.9267   7.8670550435e+01   5.7259026568e+01     1.443363    0.9082162 -49.63  0.007020726    1.853    0.460
         2 -13.1678     42.5240     45.7502   8.9486252141e+01   6.3102515605e+01      1.16833    0.6692274  43.77 0.0007714909    2.411    0.585
         3 -13.6663    117.3034     41.7289   6.1787667362e+01   5.0451804409e+01     1.312627      1.04945   7.38  0.004170426    1.345    0.256
         4 -12.0804     60.3721     46.0870   8.2188403829e+01   6.0679859274e+01    0.9241598    0.5032937 -39.42  0.004563138    1.704    0.413
         5 -10.2183    147.3725     16.2382   4.6584118148e+01   4.6298431114e+01    0.5275866    0.3533722  43.18  0.002765243    1.476    0.322
         6 -11.7857    137.4559     23.0905   5.0646966910e+01   4.8013450054e+01      1.29925    0.5308884  56.91   0.00535235    2.105    0.525
         7 -11.0322    154.3181     25.1796   4.8256966391e+01   4.3626426945e+01      1.02763    0.5781205  40.56  0.004690042    1.936    0.484
         8 -12.1434    132.1279     14.9280   4.8874763239e+01   5.0152905750e+01     1.608058    0.5896093  57.52  0.006523452    2.252    0.556
         9  -9.7659    141.6178     12.2534   4.6255432137e+01   4.8100439534e+01    0.2179727     0.174899  23.02   0.00055992    1.373    0.272
        10 -12.5355    162.1962     28.7847   4.8054192483e+01   4.1250415607e+01    0.8687746    0.3980035  46.66  0.001048718    2.238    0.553
        11 -10.4019     47.0914     18.9197   7.6276995060e+01   6.6901408235e+01    0.3288448    0.2895587 -11.30  0.001540463    1.253    0.202
        12  -9.8603     31.9244     12.1416   8.0129562508e+01   6.9852753386e+01     0.192003     0.151755  31.24 0.0006227577    1.546    0.353
        13 -11.0936     14.0340     23.4054   9.4532749354e+01   6.9874089337e+01    0.4846271    0.3476277  26.31  0.001243697    1.681    0.405
        14 -11.9103     26.6866     27.8778   8.9890457247e+01   6.7990974605e+01     0.506422    0.3991055  14.98  0.002457539    1.340    0.254
        15 -12.2394     49.0667     12.8524   7.2504720530e+01   6.7410500625e+01    0.7489373    0.2958508  39.81  0.003529581    2.436    0.589
        16 -11.7423     20.1177     22.1345   9.0812437869e+01   6.9577453484e+01    0.7301834    0.2172992 -44.18  0.003244539    2.717    0.632
        17 -12.0950     22.9220     11.5515   8.4483874647e+01   7.0957615492e+01    0.7260295    0.4595712  -1.85  0.004579793    1.461    0.316
        18 -11.0003     78.2258     35.1939   7.1143955658e+01   5.9484930089e+01    0.7425054    0.4984426  -9.63  0.003862624    1.605    0.377
        19 -12.3556    104.5600     12.9129   5.4116578680e+01   5.6782781732e+01    0.5257213    0.4138281 -27.26  0.001615784    1.402    0.287
        20 -11.0938    105.9918     20.9339   5.6918676071e+01   5.5630412163e+01     0.427708    0.3317217 -28.87   0.00122886    1.397    0.284
        21 -11.9300     36.0264     19.0077   8.1420986531e+01   6.8366409792e+01    0.6235107    0.3935685 -31.81  0.003038948    1.413    0.293
        22 -10.8043    178.8334     21.0932   4.3338148489e+01   3.7991031771e+01    0.5627336    0.2630598  46.87  0.001743639    2.340    0.573
        23 -10.7964    214.6882     23.0971   3.9660137744e+01   2.9146583268e+01     0.439328    0.3402767  12.65  0.002363092    1.893    0.472
        24 -10.7074     87.3450      7.5060   5.6420018434e+01   6.1013526833e+01    0.5555372    0.3314196  56.46  0.002518177    1.633    0.387
        25 -11.2736     90.7051     20.9643   6.1174821063e+01   5.8915722762e+01    0.5970314    0.3788295 -23.90   0.00231768    1.625    0.384
        26 -11.3453     86.0846     14.2384   5.9706971222e+01   6.0607801074e+01    0.7379776    0.4105482  15.03  0.002950471    2.251    0.556
        27 -11.7828      5.2246     35.0990   1.0326601842e+02   6.8316790225e+01    0.9833008    0.4547714 -44.72 0.0007930156    1.580    0.367
        28 -11.9883     68.1260     18.0783   6.7393378707e+01   6.3616200741e+01    0.5378501    0.4624419  30.45   0.00266119    1.204    0.169
        29 -12.0789    237.5845     16.0723   3.5954562255e+01   2.4823886210e+01    0.5714373    0.3847911  68.45  0.002446974    1.503    0.334
        30 -11.3017    165.0653     17.9709   4.4355731722e+01   4.1736580425e+01    0.4651837    0.2697604  41.13  0.001672686    1.925    0.481
        31 -10.5404    226.3058     15.7190   3.6827059492e+01   2.7340862667e+01    0.3640067     0.232744 -44.92  0.001514733    1.426    0.299
        32  -9.4181    191.6109     16.8784   4.0604201938e+01   3.5321192384e+01    0.3361323     0.250692  13.48  0.001729305    1.884    0.469
        33 -11.4545    192.7575      7.8511   3.8124722982e+01   3.5971160333e+01    0.6717222    0.4562715  11.42  0.003104752    2.248    0.555
        34 -12.3113    245.6493      6.3661   3.3290826991e+01   2.4176737696e+01    0.7605445    0.5504649 -79.18  0.005023603    1.190    0.160
        35 -10.5463    237.2453      5.1703   3.3633426612e+01   2.6082533666e+01    0.2725154    0.1595065 -48.18  0.001595741    1.481    0.325
        36 -11.4486    232.4826      7.2678   3.4439145459e+01   2.6892581440e+01    0.6773139    0.2923222 -73.06  0.002964842    2.786    0.641
        37 -10.9517    218.7648      3.3139   3.4635502221e+01   3.0347174859e+01    0.3200707    0.2641549 -40.16  0.001032217    1.290    0.225
        38 -10.9636    223.4837      1.9698   3.3960430178e+01   2.9421689448e+01    0.5022575    0.2031504  81.85  0.002290723    2.450    0.592
        39 -11.3953    211.8990      9.6393   3.6701204427e+01   3.1273731823e+01    0.5305042    0.3355983   3.16  0.002021865    2.773    0.639
        40  -9.3093      4.4351     12.6083   9.5316635108e+01   7.2387000365e+01     0.214367    0.1280365  23.72  0.001395111    1.905    0.475
        41  -7.9188      5.3172      9.3234   9.3326265177e+01   7.2855465979e+01    0.2215621   0.09685545 -22.51 0.0009775757    2.313    0.568
        42  -9.7267    169.0153      9.6267   4.1367480140e+01   4.1590147632e+01    0.3640077    0.1581261  48.99  0.001564183    2.316    0.568
        43  -9.0989    163.1445      9.8291   4.2207547438e+01   4.3020447134e+01    0.1819386    0.1421482  47.44 0.0005969428    1.287    0.223
        44  -9.8966     66.1491     10.3652   6.4532865154e+01   6.4857927229e+01    0.2856323    0.1668576  47.07  0.000995295    1.679    0.404
        45 -10.5181     63.5921      6.6781   6.3694666828e+01   6.5705729199e+01    0.2991769    0.2280844  27.00  0.001258191    1.106    0.096
        46  -9.5083     78.4783      7.5142   5.9061141931e+01   6.2814083424e+01    0.2272006    0.1610873  47.27  0.000679911    1.316    0.240
        47 -11.3242     75.3455      3.3492   5.8128884159e+01   6.3818526747e+01    0.6892783    0.3120987  42.24  0.003166395    1.857    0.461
        48  -9.5963      1.1528      7.0515   9.4771314814e+01   7.3501545182e+01    0.2234156   0.05719494 -49.28 0.0007238677    3.273    0.695
        49 -11.2457      3.0468      1.8835   9.1103463233e+01   7.4163627953e+01      0.39835    0.1674573  11.81   0.00215591    2.594    0.615
        50 -10.1860    183.5477      4.8740   3.8322540773e+01   3.8478954160e+01    0.3910916    0.2375183 -27.83  0.002092652    1.814    0.449
        51 -10.0372    152.2397      7.0951   4.2918767287e+01   4.5961884609e+01    0.5460787    0.1851707  69.82  0.002060389    2.764    0.638
        52 -10.9121    176.7096      5.7060   3.9316527929e+01   4.0067274759e+01    0.4026271    0.2113348  80.93  0.001024492    1.866    0.464
        53  -9.7386    169.4773      2.7548   3.9341931541e+01   4.2102794986e+01    0.2790185    0.1753896 -74.21 0.0008109587    1.751    0.429
        54 -10.7899    115.0350      3.3607   4.8061950164e+01   5.5237581210e+01    0.6801915    0.2562736  54.45  0.001302286    2.095    0.523
        55 -10.7217    105.5284      1.8559   4.9497474995e+01   5.7536931454e+01     0.393726    0.2786933  86.16  0.001367163    1.835    0.455
        56  -9.5583    109.6696      1.7064   4.8542520320e+01   5.6606602117e+01    0.2109172    0.1617466  39.13 0.0006419696    1.149    0.130
        57  -8.9361     31.1957      6.1017   7.7415784845e+01   7.0748420585e+01    0.1418937    0.1183432 -14.32 0.0003354601    1.283    0.220
        58  -8.3828    122.2791      5.3374   4.7360405818e+01   5.3376709722e+01    0.1376391   0.08645438  33.62 0.0002086459    1.616    0.381
        59 -12.1918    134.2498      2.5144   4.4230880796e+01   5.0742761699e+01    0.4298594     0.255937  66.12  0.001216705    1.475    0.322
        60 -10.2685    142.5887      2.9261   4.3038368595e+01   4.8684241039e+01    0.4313989    0.2372977  52.84  0.001262516    1.581    0.367
        61  -8.8967     54.7250      4.2946   6.5885973551e+01   6.7487879793e+01     0.101249    0.0952622 -29.75 0.0001720177    1.525    0.344
        62 -10.1299    207.9135      2.6969   3.5401587927e+01   3.2893865490e+01    0.2316951    0.1964126  86.42 0.0006692543    1.076    0.071
        63 -10.0669    204.4627      1.5099   3.5419044618e+01   3.3810687874e+01     0.315912    0.1610464  64.39  0.001237796    1.792    0.442
        64  -9.7036    158.2688      2.3646   4.0634202104e+01   4.4887628046e+01    0.3607627    0.1717521  47.85  0.001664951    2.062    0.515
        65  -9.8356     12.7779      1.8566   8.5201136366e+01   7.3346602004e+01    0.3019097    0.1397858  19.68  0.001717541    2.156    0.536
        66  -9.1816    151.9273      1.2587   4.1151480913e+01   4.6535611433e+01    0.2546301     0.106119  76.00 0.0008012877    2.427    0.588
        67  -9.1892    123.0428      1.1169   4.5692085794e+01   5.3534900873e+01    0.3308919   0.08315307  67.99  0.001031665    4.167    0.760
        68 -12.6303     17.1359     12.6428   8.8142313967e+01   7.1365945433e+01    0.9260728    0.5370061 -20.69  0.004309205    1.489    0.329
        69 -10.9799     41.2546      4.8105   7.1901544715e+01   6.9540406338e+01    0.4488834     0.234278  -6.06  0.002265611    2.288    0.563
        70  -9.8138    239.7809    146.6174   6.5325005678e+01   4.7141761463e+00    0.2467663    0.1740687 -30.96 0.0006225552    1.250    0.200
        71 -10.1236    142.9440    249.0136   1.0292073098e+02   3.9278136187e+00    0.2409963    0.1768434 -45.52  0.001530797    1.666    0.400
        72 -10.7958    249.6309    142.8893   6.2907052366e+01   3.5962041282e+00    0.6534404    0.2226605 -35.69  0.002523522    2.566    0.610
        73 -10.6356     33.5301    144.4971   1.1458866886e+02   4.1370482159e+01    0.4029034      0.23702  50.12  0.001960139    1.816    0.449
        74  -9.7321    133.0653    140.5000   8.6632481372e+01   2.7373162518e+01    0.3180836    0.2382311 -47.05  0.001088383    1.328    0.247
        75 -11.2522     22.7128    127.1842   1.1536315211e+02   4.6520248551e+01     0.274879    0.2137699  38.20 0.0003032647    1.481    0.325
        76 -11.7284     23.2873    135.2222   1.1622058589e+02   4.4527356117e+01    0.9891609    0.3984224  43.42   0.00448957    2.691    0.628
        77 -11.8523     30.0469    132.8648   1.1403183728e+02   4.4522519834e+01    0.4082851    0.3076144  86.18 0.0003619559    1.293    0.226
        78  -9.6234    214.9128    150.8443   7.0702537427e+01   8.5901708036e+00    0.2538074    0.2142614  66.77  0.001338429    1.567    0.362
        79  -9.6629    216.4544    137.2028   6.7333295948e+01   1.0747505496e+01    0.4013137    0.1726424 -34.78  0.001543797    2.237    0.553
        80  -9.4088     79.2438    138.0077   1.0081174234e+02   3.7439896768e+01    0.3727895    0.1796983 -52.53  0.001544779    1.925    0.480
        81  -9.5112     81.9980    135.4878   9.9536031777e+01   3.7645910933e+01    0.2842018    0.1509889  26.47  0.001161388    2.291    0.563
        82 -10.6060     67.3381    135.6128   1.0377500378e+02   3.9706450535e+01     0.389689    0.2131142 -49.36   0.00073845    1.757    0.431
        83 -10.1906     47.1818    135.8415   1.0959792483e+02   4.2096839449e+01     0.438909    0.1645669 -62.18   0.00137131    2.234    0.552
        84 -10.2459     40.2109    137.9052   1.1187374043e+02   4.2323428942e+01    0.2246352    0.1893019  78.47 0.0003990837    1.180    0.152
        85  -9.4525    107.9136    146.1040   9.4483468822e+01   3.0803232590e+01    0.2320151    0.1993892  79.25 0.0005487127    1.281    0.219
        86  -9.9829     61.7806    132.1630   1.0476584787e+02   4.1282395352e+01    0.4175428    0.3150427 -34.83  0.002212305    1.498    0.333
        87  -9.2520    103.9451    130.7382   9.2273585588e+01   3.5179609258e+01    0.2077004    0.1904765  39.95 0.0003518391    1.127    0.113
        88 -10.2827     93.0854    129.5160   9.5102698071e+01   3.7342043028e+01    0.3791162    0.2701128  77.62  0.001694892    1.927    0.481
        89 -11.2558     10.6311    127.2037   1.1878444453e+02   4.7395851055e+01    0.4297533    0.2001801 -61.76 0.0004460218    1.697    0.411
        90 -10.3220     82.1403    125.3988   9.7418410316e+01   4.0092822851e+01    0.5047371    0.3444067 -19.85  0.001600819    2.071    0.517
        91 -10.2667     74.2618    132.6533   1.0121547824e+02   3.9479893294e+01    0.3216516    0.2222854 -37.17  0.001558372    1.621    0.383
        92  -9.1665    223.9915    126.9350   6.3613177144e+01   1.1078023243e+01    0.2178062    0.1663761 -61.12 0.0005244558    1.612    0.380
        93  -9.9218      2.7228    126.3127   1.2087600722e+02   4.8101419893e+01    0.3132371    0.1946255  71.52  0.001590497    1.681    0.405
        94 -10.6726     54.9539    123.8963   1.0529660532e+02   4.4158817536e+01    0.5194697     0.371965 -15.76  0.002638924    1.873    0.466
        95  -9.7210     49.4807    122.9911   1.0679203084e+02   4.5009349147e+01    0.3242896    0.2074208  17.90  0.001590787    1.949    0.487
        96 -10.8215     45.3996    120.1254   1.0753089606e+02   4.6155827697e+01    0.5929227    0.3138301 -81.10  0.002142156    2.330    0.571
        97  -9.0534     33.4822    126.4684   1.1213756014e+02   4.5774607975e+01    0.1324019    0.1122696 -73.80 0.0001034983    1.024    0.023
        98 -11.9075     18.8251    122.4053   1.1586044533e+02   4.7973725824e+01    0.2740393    0.1786967 -67.63 0.0002257144    1.239    0.193
        99 -12.0796    104.0723    122.3670   9.0298174480e+01   3.7150721845e+01    0.4501712    0.3997797 -28.19 0.0007845925    1.172    0.147
       100  -9.5847     39.2644    132.8124   1.1140164761e+02   4.3667704343e+01    0.2217743    0.1693102  50.13 0.0007089665    1.425    0.298
       101  -9.8289      4.5255    120.8317   1.1979035750e+02   4.9293545110e+01    0.3243488    0.1708916 -74.33  0.001337286    1.502    0.334
       102  -9.1304     71.4943    120.8687   9.9663866215e+01   4.2764863161e+01    0.2197164     0.131837 -57.18 0.0006310241    1.520    0.342
       103 -10.8139     33.2382    119.5037   1.1114313350e+02   4.7498347941e+01    0.4078051     0.308978 -57.94  0.001364786    1.144    0.126
       104 -11.4961     51.1921     96.1052   1.0078603736e+02   5.1324586024e+01     1.257682    0.9300315 -80.87   0.00665461    1.611    0.379
       105 -11.7337     17.0550    101.0138   1.1330546201e+02   5.3227225958e+01     0.316934    0.2690532 -16.10 0.0003663452    1.378    0.274
       106 -11.4410     42.1397     93.7735   1.0339691725e+02   5.2849652987e+01    0.3733703    0.2862519 -88.29 0.0002478302    1.576    0.365
       107 -11.7663     34.9329     93.7241   1.0590217086e+02   5.3551879080e+01     1.300043    0.8510078 -58.55  0.005759859    1.283    0.221
       108 -12.3819     42.5371     85.3165   1.0129880214e+02   5.4776596121e+01     1.904137    0.5263628  21.60  0.005986446    5.212    0.808
       109 -11.9443     18.5875    106.4715   1.1366700001e+02   5.1822013417e+01    0.5052394    0.2157164 -46.93 5.212009e-05    2.131    0.531
       110 -11.7774      9.6471     96.9371   1.1510727814e+02   5.4650560698e+01    0.8897986    0.5104654 -87.40  0.004712426    1.877    0.467
       111 -11.9702      7.1338     88.5389   1.1463640659e+02   5.6745983866e+01    0.5177844    0.4375853  38.06  0.002390896    1.472    0.321
       112 -11.9485     26.0016    113.3986   1.1240775345e+02   4.9598685087e+01     1.094343    0.4209783   9.95  0.004065352    4.489    0.777
       113 -11.8966     22.6317     94.8746   1.1038517070e+02   5.4288367669e+01    0.5502684    0.3710074   0.89  0.002461112    1.856    0.461
       114 -12.0513     18.2971     89.8539   1.1097009576e+02   5.5770993827e+01    0.6508338    0.2593777 -53.83  0.002194607    1.898    0.473
       115  -9.1014    221.1896    120.4123   6.2576328766e+01   1.2796309467e+01     0.188372    0.1422597  65.58 0.0005889841    1.653    0.395
       116  -8.9023    148.4931    120.0037   7.7732421000e+01   2.8719855081e+01    0.2245236     0.137289 -20.28 0.0008095786    2.459    0.593
       117  -9.5224    185.2978    119.3520   6.9159539529e+01   2.0692140887e+01    0.1589396    0.1202956  -0.07 0.0007035403    1.690    0.408
       118 -12.3663     25.6018    107.6580   1.1161452969e+02   5.1015393235e+01    0.8787465    0.5741165 -29.48   0.00462666    1.775    0.437
       119  -9.6340    113.6695    115.8625   8.5945244225e+01   3.6874315597e+01    0.2597486    0.2196382  19.58 0.0006309772    1.297    0.229
       120 -10.7451    107.5906    112.1376   8.6741020184e+01   3.8896706476e+01    0.6303789    0.4174223 -71.50  0.002595076    2.112    0.527
       121 -10.9858    102.5656    109.6031   8.7566674379e+01   4.0418526792e+01    0.6498749    0.5435194 -21.63  0.002683097    1.296    0.228
       122  -9.4695     67.0099    114.0030   9.9588597022e+01   4.5056702954e+01    0.3615713    0.2520614 -88.98  0.001698516    1.899    0.473
       123  -9.5008     67.1115    110.6738   9.8823330353e+01   4.5849463293e+01    0.3551822    0.1485301  31.58  0.001388066    2.624    0.619
       124  -9.9902      7.0579    114.5067   1.1831985453e+02   5.0646275867e+01    0.2280949    0.2196018  71.80 0.0008778567    1.243    0.196
       125 -11.8121      2.1966    111.6018   1.1941477663e+02   5.1605603151e+01    0.3846272    0.2150975 -79.47  0.000873019    1.504    0.335
       126 -11.4362      3.9690    105.4731   1.1812302147e+02   5.2955794880e+01    0.4478889    0.3622448  84.39  0.003025015    1.262    0.207
       127  -9.5913    126.9302    113.7191   8.1702104670e+01   3.4700422327e+01    0.2404181    0.2125852   5.98  0.001199961    1.240    0.193
       128  -9.7866     94.6480    112.2737   9.0621205342e+01   4.1206786584e+01    0.3269148    0.2896092  27.35  0.001737506    1.194    0.163
       129  -9.8073     48.8925    112.2742   1.0498325894e+02   4.7699293720e+01    0.2454149    0.2105399  44.79  0.001253759    1.314    0.239
       130 -11.0780    170.2505    110.4870   7.0121707874e+01   2.5836303377e+01    0.4603392    0.3563402 -38.19  0.001470663    1.263    0.208
       131 -10.1915    120.5297    109.3123   8.2299286257e+01   3.7001089713e+01    0.3786182    0.2835013 -20.92  0.001604771    1.584    0.369
       132 -11.4314     79.2618    108.2452   9.4392920799e+01   4.4675045169e+01    0.7229854    0.3990114  28.74  0.001616563    2.063    0.515
       133 -10.4339     90.2722    104.4207   8.9968701734e+01   4.3795527949e+01    0.4101737    0.3290879 -13.00   0.00130988    1.445    0.308
       134 -10.5676     85.9933    103.9988   9.1203107230e+01   4.4607887777e+01    0.4898612    0.3312173 -15.98  0.001574874    2.058    0.514
       135  -9.4730     58.4798    108.4718   1.0111587960e+02   4.7501799470e+01    0.2809917    0.1284194 -60.50 0.0007135441    2.017    0.504
       136 -10.1376    157.3867    106.7226   7.2067395420e+01   2.9532583382e+01     0.394248    0.2913612 -14.76  0.001643938    1.679    0.404
       137 -10.3426    143.4863    106.0311   7.5282385132e+01   3.2809692611e+01     0.346643     0.302907 -72.55  0.001710204    1.315    0.240
       138 -11.8521    145.4931    100.6198   7.3280430906e+01   3.3488116269e+01    0.5989153    0.5114802  -9.35   0.00237163    1.301    0.231
       139  -9.2305    167.2337    105.1784   6.9384107247e+01   2.7586636793e+01    0.2132132    0.1866885 -78.37 0.0006517576    1.325    0.245
       140  -8.8201     45.5495    105.5763   1.0473732622e+02   4.9683379530e+01    0.1362114    0.1177318 -53.61 0.0001060476    1.020    0.019
       141  -9.7068    181.5058    104.4781   6.6123958425e+01   2.4432962171e+01    0.1532681    0.1482596 -24.92 -2.502261e-05    1.013    0.012
       142  -8.9732     82.4107    102.5131   9.1960468291e+01   4.5534150432e+01    0.1478928    0.1347288 -41.39 0.0001246573    1.019    0.018
       143  -9.6271    208.9611    100.9722   5.9992769536e+01   1.8854415570e+01    0.2727294    0.1993647 -15.86 0.0003683064    1.609    0.378
       144 -11.4913     67.0683     95.2731   9.5156488036e+01   4.9510695740e+01    0.4456636    0.4191738 -13.30  0.001404575    1.097    0.088
       145 -11.0401     90.1279     89.2799   8.5855523291e+01   4.7248792910e+01    0.8778216    0.4904122 -23.57  0.003251931    2.742    0.635
       146  -9.9094     80.7175     98.4300   9.1444717304e+01   4.6751547388e+01    0.2784192    0.2322452   3.55 0.0008744669    1.342    0.255
       147  -9.5593     77.3098     96.9545   9.2171493438e+01   4.7623707064e+01    0.2607026    0.2088858  15.91 0.0005856487    1.388    0.280
       148 -10.1618     82.9677     93.4763   8.9374107205e+01   4.7523025609e+01    0.3068445    0.2628112  18.27 0.0008108742    1.242    0.195
       149 -11.0762     76.8097     92.9725   9.1273156569e+01   4.8614084837e+01    0.5400975    0.4024624  15.51   0.00148213    1.541    0.351
       150  -9.4282    120.8048    101.1761   7.9995636154e+01   3.8742800305e+01     0.223797    0.1858324  -8.25  0.001076903    1.375    0.273
       151 -10.8706    124.5594     93.6907   7.6809142724e+01   3.9552119491e+01     0.642251    0.3845073  43.68  0.001883273    1.694    0.410
       152 -10.0189    117.1585     93.4864   7.8835503842e+01   4.1154233375e+01    0.3614443    0.2957241  20.00  0.001490296    1.336    0.251
       153 -11.6054    120.6367     86.6808   7.5827045870e+01   4.1841619643e+01    0.6523061      0.42981 -46.33  0.002911036    1.536    0.349
       154 -10.8806    152.0290     91.6751   6.9149406303e+01   3.3783417433e+01    0.4808348     0.348814 -64.52  0.001857723    1.742    0.426
       155  -9.1890    138.4686     93.0164   7.2896961733e+01   3.6629474869e+01    0.3467307    0.1911855  29.49  0.001247042    2.492    0.599
       156 -10.8848    100.6146     91.2434   8.3111834689e+01   4.4913155007e+01    0.5964595    0.3640215  49.75  0.002427668    1.860    0.462
       157 -10.4803    104.9718     86.6519   8.0414049311e+01   4.5059343906e+01    0.5603522    0.3212747 -26.56  0.002192025    2.240    0.554
       158 -10.9730    113.6783     83.4645   7.6844785895e+01   4.3962688070e+01    0.4236518    0.3818295 -57.31   0.00151755    1.214    0.176
       159  -8.7798    201.3831     89.6911   5.8456452166e+01   2.2545938656e+01    0.1569671    0.1130222 -73.46 0.0007022009    1.801    0.445
       160 -10.4686    183.6873     86.0080   6.0739505074e+01   2.7337663511e+01    0.6924923     0.279517 -44.29  0.002444306    2.483    0.597
       161  -9.9537     66.7257     88.6509   9.3534796201e+01   5.1080123948e+01    0.3600766    0.2300265 -22.51  0.001128116    1.942    0.485
       162 -10.3838     67.0059     81.9862   9.1582645258e+01   5.2533156193e+01    0.4597763     0.373249 -13.51  0.002535835    1.285    0.222
       163 -10.6131     80.6643     83.8403   8.7391239001e+01   5.0038889647e+01    0.5003416    0.2965512 -40.97  0.002281902    1.589    0.371
       164 -10.4970     77.4999     81.0189   8.7632150626e+01   5.1160720487e+01    0.5366457    0.2534157 -51.28  0.001889406    2.089    0.521
       165 -10.8130     72.9977     78.6423   8.8484836896e+01   5.2376204413e+01    0.4608881    0.3552588 -58.11  0.001797438    1.414    0.293
       166 -10.1016     76.0128     75.2934   8.6401361657e+01   5.2616661095e+01     0.299112    0.2843944 -57.55  0.001212332    1.206    0.171
       167 -10.4114    109.0284     80.5058   7.7303505186e+01   4.5518504845e+01    0.3811679    0.3006658 -29.99  0.001135774    1.260    0.206
       168 -11.4191    142.9025     84.0563   6.9138275935e+01   3.7383282393e+01    0.4673327    0.3535202  34.59 0.0009561109    1.393    0.282
       169 -10.4478    165.6677     83.6898   6.3768410867e+01   3.2063697011e+01    0.4150552     0.343315 -57.11   0.00146796    1.291    0.225
       170 -10.4877    127.4899     82.6248   7.2699529753e+01   4.1162942221e+01    0.3400507    0.2925892 -31.25  0.001373373    1.154    0.133
       171 -10.2639    127.3434     77.1636   7.1048495910e+01   4.2252008219e+01    0.3755464    0.2647154 -48.26 0.0004748063    1.506    0.336
       172 -11.8064    122.8951     68.7856   6.9577859380e+01   4.4802049509e+01    0.6317956    0.5318425  28.87  0.001672201    1.195    0.163
       173 -12.3943     52.4677     73.9257   9.4587565530e+01   5.6216736108e+01    0.6388977    0.3427818 -60.77 0.0008321163    2.074    0.518
       174 -11.2271     47.0838     74.5474   9.6807449091e+01   5.6709859936e+01    0.3668336    0.2129944 -58.05  0.001808939    1.671    0.401
       175  -9.7397    103.0000     80.0053   7.8979501964e+01   4.6825338360e+01    0.3654372    0.1721867 -36.19  0.001381144    2.224    0.550
       176 -10.4954    104.0587     75.2688   7.7151839208e+01   4.7567281413e+01    0.4698599    0.3052393 -48.03  0.001316564    1.611    0.379
       177  -9.4009    160.7224     93.8151   6.7733244382e+01   3.1332782439e+01    0.2997839    0.2108092  81.33  0.001232145    2.095    0.523
       178 -10.2438    232.9297     77.5082   5.0549865929e+01   1.7522605862e+01    0.3670644    0.2199876 -34.79  0.001386495    1.542    0.352
       179 -11.8145     14.0238     74.4948   1.0953226115e+02   5.9562371712e+01    0.5039792      0.30407 -64.81  0.001819423    1.417    0.294
       180 -10.4416     14.8362     67.3439   1.0764820254e+02   6.1100429105e+01    0.3134627    0.2307835  -5.16  0.001704576    1.519    0.341
       181  -9.3955    213.4846    248.5212   8.9379281352e+01  -6.5361737695e+00    0.1211438   0.09210519  14.70 -3.231297e-05    1.024    0.024
       182  -9.8354     94.4737     76.0902   8.0434434687e+01   4.9254759294e+01    0.4982921    0.3762234  20.51  0.002482472    1.439    0.305
       183 -11.7075     85.7950     73.5259   8.2476709342e+01   5.1345874639e+01    0.7454033    0.5307918  41.07  0.002769291    1.491    0.329
       184 -11.1105     79.7508     67.7674   8.2671019701e+01   5.3542205932e+01     0.597033    0.4775195  28.49  0.003255361    1.279    0.218
       185 -11.2158     91.2365     62.9020   7.7115095738e+01   5.2430461838e+01    0.6234887    0.3996261  52.68  0.002885913    1.884    0.469
       186 -11.9818     89.3301     57.7211   7.5930895373e+01   5.3736056112e+01     1.041943     0.697152  51.46  0.005052301    1.748    0.428
       187  -8.3867     38.2964     78.6427   1.0122649705e+02   5.6718129963e+01     0.126864    0.1008541  83.62 0.0005220459    1.700    0.412
       188  -8.2588     33.3098     78.3011   1.0302793356e+02   5.7259986328e+01    0.1368022   0.08309574 -33.97 0.0003550435    1.603    0.376
       189 -10.7488     13.2402     47.1965   1.0311647720e+02   6.5455409023e+01     1.019721    0.1680498 -39.50   0.00294984    6.067    0.835
       190  -9.8398    174.6587    247.0200   9.6480884936e+01  -6.1518635144e-01    0.2605645    0.1573532  29.48   0.00148916    1.407    0.289
       191 -12.2246     21.4702     46.8714   9.9261123392e+01   6.4934845865e+01    0.5203062    0.3416895 -46.54  0.002316835    1.249    0.199
       192 -11.0069     33.9231     58.1674   9.7313650477e+01   6.1565886511e+01    0.3700672    0.2079966 -25.67  0.001872509    1.882    0.469
       193 -11.4587     27.1775     56.4694   9.9668775627e+01   6.2523862276e+01     1.108131    0.6661508 -37.84  0.005496533    1.395    0.283
       194 -10.8213     20.2359     55.0933   1.0226555982e+02   6.3356971871e+01    0.2913005    0.2627892  38.07 0.0003578987    1.450    0.310
       195 -11.4896     40.9523     57.1067   9.4039478593e+01   6.1067753162e+01    0.4988705    0.4053873  66.22  0.002655867    1.922    0.480
       196 -11.9104      1.7934     70.7768   1.1349447724e+02   6.1032882467e+01    0.5536793    0.1646239 -66.67  0.000897401    2.605    0.616
       197 -12.5600      6.2145     62.9891   1.1016562337e+02   6.2535759911e+01    0.8275254    0.4237981 -27.90  0.004506626    2.001    0.500
       198 -11.3206     50.7771     61.1399   9.1336749306e+01   5.9113051714e+01    0.3575483    0.2985587  38.72  0.001459734    1.447    0.309
       199 -11.5499     46.1859     58.5064   9.2334241199e+01   6.0197085846e+01    0.6866347     0.280647 -38.61  0.002912563    2.293    0.564
       200 -12.2332    186.1662     70.0780   5.5913160307e+01   2.9458910415e+01     1.101843    0.6340996 -39.13  0.003872413    1.683    0.406
       201  -9.6610    192.4336     65.7287   5.3647212254e+01   2.8641404079e+01    0.2795314     0.216141 -76.71 0.0008031424    1.465    0.317
       202 -11.3695     58.0728     77.6899   9.3578578525e+01   5.4692573410e+01    0.5880021    0.3167736 -65.23 0.0003928238    2.490    0.598
       203  -9.3254     24.6707     73.6424   1.0522945383e+02   5.9022556111e+01    0.4149304    0.1139688 -61.56  0.001530823    3.125    0.680
       204 -10.8091     21.9526     65.7863   1.0439518897e+02   6.0957252637e+01    0.3643535    0.3324031  42.92  0.001382359    1.404    0.288
       205 -10.1536     63.9571     75.2950   9.0718488486e+01   5.4420188975e+01    0.4182063    0.3015212  26.91  0.001217138    1.486    0.327
       206 -11.7530     40.5656     70.6606   9.8245417087e+01   5.8259248889e+01    0.5070022    0.2973044 -51.76  0.001710308    1.464    0.317
       207 -11.5472     32.6800     72.0905   1.0171907502e+02   5.8702659068e+01    0.6224809    0.2695744  26.21  0.002556755    2.576    0.612
       208  -8.9706    154.4768     72.4632   6.2928280359e+01   3.6763638913e+01    0.2361384    0.1392368  42.15  0.000708268    1.772    0.436
       209  -9.7392    162.2649     70.9341   6.0784460489e+01   3.5138571528e+01    0.2862761    0.2522992 -87.62   0.00109908    1.254    0.202
       210 -10.6855    171.3875     66.6816   5.7696257906e+01   3.3616943876e+01    0.7103561    0.3844158 -40.52  0.002986347    1.828    0.453
       211 -11.4687    220.1148     66.3285   4.9604095402e+01   2.2067411401e+01    0.6167789    0.3785892  56.64  0.002534842    1.712    0.416
       212  -9.0288    208.0018     68.4849   5.1900446711e+01   2.4515762478e+01    0.2154557    0.1389332  59.14  0.001030935    1.598    0.374
       213 -10.5295     59.4859     63.5621   8.8717207609e+01   5.7487226643e+01    0.4438976    0.2514155 -34.21  0.002086929    1.696    0.410
       214  -9.9903     57.3120     61.2946   8.8811260776e+01   5.8239149988e+01     0.251962    0.2000132 -10.74 0.0005825069    1.229    0.186
       215  -9.7393     53.1847     66.0863   9.1960428334e+01   5.7796329451e+01    0.2655617     0.185404  35.86   0.00101612    1.623    0.384
       216  -9.8073    106.1473     64.1706   7.2844360635e+01   4.9247706249e+01    0.3727717     0.227151 -34.99  0.001682593    1.635    0.388
       217 -10.8729    106.6631     58.6781   7.0799378192e+01   5.0113533619e+01    0.4145381    0.3269014  64.19  0.001322056    1.568    0.362
       218 -11.4167    234.3940     61.2099   4.6523561106e+01   1.9668777930e+01     0.517827    0.4127415  81.68  0.002381971    1.321    0.243
       219 -10.2118    200.0566     63.6945   5.1875562111e+01   2.7131384367e+01    0.5511605    0.2886586  77.91  0.002108787    2.730    0.634
       220 -10.1694    159.1594     62.3121   5.8853318753e+01   3.7326964070e+01    0.5442533       0.2327  46.88  0.002002941    2.358    0.576
       221 -11.8162    124.9188     27.9844   5.4987687583e+01   5.0470491433e+01    0.6549583    0.3840943  49.29  0.002263685    1.532    0.347
       222 -11.8143    120.3826     57.6077   6.6534688409e+01   4.7306093190e+01     1.057789    0.6788742  52.91  0.004498995    1.582    0.368
       223 -11.1657    127.6933    241.7833   1.0503843415e+02   7.4449910107e+00    0.3133723    0.3019281  28.79   0.00214362    1.180    0.153
       224  -8.9133    161.5067     47.5456   5.3897496129e+01   3.8985431311e+01    0.2933092    0.2251043  79.50  0.000878026    1.415    0.293
       225 -10.1622    162.7014     43.8003   5.2536047688e+01   3.9211128866e+01    0.4566087    0.2480347  55.76  0.002014555    1.719    0.418
       226 -11.0271    157.7277     55.3452   5.7023012541e+01   3.8771989953e+01    0.5643489    0.4892103  74.75  0.002709624    1.194    0.162
       227 -10.5356    155.2640     49.7341   5.5784629356e+01   4.0217335499e+01    0.4568743    0.3149704  -4.35  0.001344522    1.950    0.487
       228 -10.5838    136.4636     56.5633   6.2095434280e+01   4.3747820371e+01    0.6382791    0.4145375  -5.62  0.002685111    2.196    0.545
       229 -11.5772    145.7555     46.8432   5.6828947222e+01   4.2974039096e+01     1.086507    0.4433854 -24.54   0.00379202    3.099    0.677
       230 -10.3587    134.9580     50.7369   6.0527389463e+01   4.5011107522e+01    0.3369298    0.2649263 -52.63   0.00171132    1.444    0.307
       231  -9.6434    187.6847     55.3115   5.1578936529e+01   3.1385143338e+01    0.2768635    0.2211771  61.21   0.00138558    1.237    0.191
       232  -8.3911     68.3470     32.8731   7.3783870609e+01   6.1570749252e+01    0.5341738    0.5215347  67.15  0.003475486    1.451    0.311
       233 -10.4906     66.6837     54.7704   8.2945447155e+01   5.8151471106e+01    0.4180195    0.2906868 -59.32  0.002089938    1.972    0.493
       234 -11.0924     60.7648     36.5195   7.8248169923e+01   6.2234088467e+01    0.3842081    0.2182437 -30.01 0.0005938003    1.664    0.399
       235 -11.7399     58.0126     30.1121   7.6668560042e+01   6.3656739691e+01    0.4640455     0.311744  11.43  0.001388885    1.512    0.339
       236 -11.5655     48.7847     30.1327   8.0564282194e+01   6.5001712489e+01    0.5343524    0.2722633  27.73  0.002214706    2.004    0.501
       237 -10.0686     61.8784     53.8408   8.4459432187e+01   5.9045792890e+01    0.2715252    0.2378219  42.56  0.001219462    1.408    0.290
       238  -8.9635    163.3117    243.6306   9.8214833129e+01   1.6351535850e+00    0.1210137   0.09125225  63.10 0.0007035921    1.770    0.435
       239 -10.8641    244.8605     51.1503   4.3033813625e+01   1.8861669697e+01     0.561121    0.2633184  86.82  0.002213804    3.437    0.709
       240 -11.0306    240.5276     49.8348   4.3198940972e+01   1.9959372110e+01    0.4755487    0.3131461 -22.01  0.002502657    1.823    0.451
       241  -9.6159    148.6739     60.8981   6.0669297383e+01   4.0115587033e+01    0.4677869    0.1907465  61.94  0.001553546    2.993    0.666
       242  -9.3434     22.7698     37.1561   9.5376107040e+01   6.6697692677e+01    0.5208473     0.365412  33.28  0.002903979    1.792    0.442
       243  -9.6063    211.4770     53.1739   4.7497783878e+01   2.5996619746e+01    0.2584315    0.1966221  68.68  0.001404498    1.327    0.246
       244 -11.3166    200.9882     48.0947   4.7629279828e+01   2.9197038121e+01    0.8788014    0.4224561 -41.35  0.003825974    1.964    0.491
       245 -10.8665    173.9200     48.0241   5.1808425317e+01   3.5833243397e+01    0.6019652     0.455058  67.00  0.003109386    1.295    0.228
       246  -9.5527    176.7453     43.5907   5.0053505453e+01   3.5746471018e+01    0.2616591    0.1895644 -76.28  0.001288434    1.597    0.374
       247  -8.7654    127.2783     49.3626   6.1924483628e+01   4.7031654319e+01    0.1515425    0.1097602  14.57 0.0007010922    1.671    0.401
       248 -10.0997     91.1556     47.8450   7.1716973449e+01   5.5076661586e+01     0.311506    0.1955742 -38.94  0.001368642    1.629    0.386
       249  -9.8429      2.2664     48.7149   1.0851148186e+02   6.5747796887e+01    0.2194235    0.1841082 -33.62  0.001600026    1.145    0.127
       250  -9.2716    193.4967     46.1038   4.8170606525e+01   3.1282145926e+01    0.2373592    0.1827953 -79.88 0.0007045399    1.373    0.272
       251 -10.6906    135.6955     45.5965   5.8636684201e+01   4.5592211833e+01    0.5866867     0.203654  53.24  0.002022831    2.619    0.618
       252 -10.2003    139.9821     43.5461   5.6994062246e+01   4.4847635227e+01    0.3037243    0.2312426  50.44  0.001179147    1.234    0.190
       253  -8.9575    219.7633     45.5273   4.4544258017e+01   2.5145253986e+01    0.1847848    0.1234535  87.71 0.0005359298    1.623    0.384
       254  -9.0972    233.9775     43.5377   4.2460969942e+01   2.2228271231e+01    0.3068272    0.1455076 -20.05  0.001194859    3.307    0.698
       255  -9.9053    231.5152     38.6995   4.1603567938e+01   2.3406933595e+01    0.3125063    0.1653313 -44.60  0.001559203    1.674    0.403
       256 -10.7326    138.0695     33.6310   5.4088263350e+01   4.6625878273e+01     0.453349    0.3300779 -56.90  0.001531019    1.655    0.396
       257  -9.7895     67.9904    240.4838   1.1661986499e+02   1.6199870499e+01    0.1763999   0.09971319  39.20  0.001025622    1.580    0.367
       258 -10.6856    147.3331    237.6827   1.0057351597e+02   5.0825837980e+00    0.2331093     0.191929  81.05  0.001452289    1.602    0.376
       259  -9.1609    199.2673    244.4515   9.1397940671e+01  -3.9473433890e+00    0.1751315   0.09862971  41.97 0.0008539768    1.732    0.423
       260 -10.3282    144.8935     25.4829   5.0030798285e+01   4.5924430541e+01    0.5158646    0.3250009  77.67  0.002444786    1.787    0.440
       261 -10.8334    198.2085    232.9025   8.9787990566e+01  -2.1601362891e+00    0.3246655    0.3009261 -12.93     0.002253    1.284    0.221
       262 -10.3758    247.2526    231.6394   8.0581388969e+01  -9.0365082849e+00    0.1957946     0.140948 -10.50 0.0008216784    1.180    0.153
       263 -11.1415    155.7288     42.0891   5.3308150106e+01   4.1177257573e+01    0.4250506    0.3689543  47.43  0.001089724    1.121    0.108
       264 -11.7661    153.0451     35.9394   5.1880594025e+01   4.2651347420e+01    0.2775351     0.271856 -77.18 0.0003621297    1.067    0.062
       265  -9.8958     23.7999    231.9806   1.2424013316e+02   2.2983071933e+01    0.1804937    0.1102636  66.93  0.001202262    1.298    0.229
       266 -11.1062     94.2785     41.1616   6.8178387190e+01   5.5500334596e+01    0.6740009     0.305976  48.16  0.002830094    2.171    0.539
       267  -9.0585    190.1749    229.7982   9.0849804795e+01  -4.5296827894e-01    0.1790365    0.1305255  11.03 0.0006916309    1.335    0.251
       268  -9.5589    108.4695    230.0273   1.0752291150e+02   1.2470336361e+01     0.172201    0.1242676 -63.62 0.0006116699    1.570    0.363
       269  -9.4006    180.8394    228.3824   9.2469701384e+01   1.2453869381e+00    0.1892786    0.1048794  27.97 0.0009448375    1.691    0.409
       270  -9.8317    234.0639    222.9570   8.1410956935e+01  -6.0965659895e+00    0.2026247    0.1250624   4.66  0.000938367    1.658    0.397
       271  -9.5682     15.2268    233.7778   1.2586423221e+02   2.3505811840e+01     0.200579     0.122247 -75.40  0.001174144    1.584    0.369
       272  -9.6061      9.7845    217.9686   1.2602003889e+02   2.7115026462e+01     0.145171   0.07319999 -81.94 0.0007998093    1.697    0.411
       273 -10.4483    164.9658    212.4498   9.3144114413e+01   6.5261343983e+00    0.2912624    0.2107552  47.72  0.001168357    1.405    0.288
       274  -9.8810     77.3520     42.1765   7.4250861955e+01   5.8567934083e+01    0.3382537     0.189513 -31.66  0.001049494    1.742    0.426
       275  99.0000     86.1772     31.1634   6.6805078184e+01   5.8546087497e+01    0.4850659    0.3025163  44.67  0.002099399    1.535    0.348
       276 -10.3640     82.2761     40.2495   7.1766259673e+01   5.7973889278e+01    0.3388358    0.2350148  55.19  0.001616758    1.808    0.447
       277  -9.6226    203.7844    208.0051   8.4447842046e+01   7.5262811082e-01     0.291552    0.1344994  52.41  0.001063015    3.793    0.736
       278 -10.2960    189.2321     40.8913   4.7375472816e+01   3.3027615583e+01    0.5087175     0.200167 -24.89  0.001832417    3.170    0.685
       279  -9.6589    193.8114     39.0192   4.6220226089e+01   3.2155721397e+01    0.2178947    0.1854436  73.35 0.0003728064    1.126    0.112
       280  -8.5343    184.2957     38.6427   4.7478464741e+01   3.4536009998e+01    0.1495709   0.09909912 -64.00 0.0007032955    1.698    0.411
       281 -11.0837    176.7035     36.2722   4.7956734347e+01   3.6719943907e+01    0.3650677    0.2988278 -28.88  0.001351752    1.313    0.238
       282  -9.9255    171.3869     32.9716   4.7828063310e+01   3.8455537669e+01    0.3653698    0.2052408  73.47  0.001636848    1.856    0.461
       283  -9.5559    133.1095     37.1235   5.6347192834e+01   4.7377209936e+01     0.377927    0.2348346 -69.26   0.00153285    2.723    0.633
       284  -9.3578    227.1397     36.8326   4.1629675954e+01   2.4622078554e+01    0.2160199     0.159194 -63.79  0.001241652    1.259    0.206
       285  -9.9154    207.6128     36.6697   4.3814502350e+01   2.9146119455e+01    0.3175396    0.2074618  49.20  0.001626766    1.704    0.413
       286  -9.6222     61.0938    206.8865   1.1495516896e+02   2.3806380016e+01    0.1908198    0.1604352  70.56 0.0006884011    1.010    0.010
       287  -9.6111    238.4980    204.4945   7.7278572065e+01  -4.1669139662e+00    0.2551252    0.1126804 -35.01  0.001210696    2.165    0.538
       288 -12.0894    105.9039     32.7714   6.1524225814e+01   5.4221750291e+01    0.5799361    0.3256048  20.25  0.002273684    2.487    0.598
       289 -12.2295    113.4263     25.1907   5.6677999622e+01   5.3470848779e+01    0.8148364    0.3771388  51.47  0.003028153    1.904    0.475
       290 -10.9956    240.0149     31.7590   3.9191887586e+01   2.2437396265e+01    0.4514399    0.3382976 -34.57  0.002132445    1.359    0.264
       291  -9.3643    240.4817     26.4702   3.7982428584e+01   2.2985994290e+01    0.2023462    0.1400525 -50.67 7.660347e-06    1.250    0.200
       292 -10.8921    198.7050     29.5550   4.3079313210e+01   3.2160059437e+01    0.5809369    0.4515122 -86.49  0.002804396    1.246    0.197
       293  -9.2227    199.8212     24.4143   4.1614644288e+01   3.2500575811e+01    0.1880955    0.1566275  73.58 0.0003729769    1.139    0.122
       294  -9.1005    216.6236     32.2274   4.1666774730e+01   2.7599615334e+01    0.1688325    0.1252806 -22.24 0.0003693419    1.578    0.366
       295 -10.6738    189.4032     27.9119   4.3821172156e+01   3.4614334530e+01     0.481069    0.3190097  11.75  0.002248959    2.399    0.583
       296  -9.7306      4.5191    204.4780   1.2628424312e+02   3.0337554259e+01    0.2569112   0.06620028 -68.60  0.001148357    3.158    0.683
       297 -10.8457      5.8572    199.3008   1.2573630361e+02   3.1305923523e+01     0.266616    0.1108314 -63.05  0.001419012    2.336    0.572
       298 -10.6794    177.0923     29.9526   4.6089324808e+01   3.7404542953e+01    0.4390878    0.2213069  49.84  0.001935298    1.998    0.500
       299 -11.2680    182.9897     25.3009   4.3954811562e+01   3.6493118322e+01    0.5394541     0.290884  51.44  0.002524414    1.859    0.462
       300  -9.4709    221.8357     29.6449   4.0490075252e+01   2.6722782335e+01    0.2051962    0.1717233 -29.34 0.0005491928    1.332    0.249
       301  -9.0520     99.5090     30.4443   6.2426418565e+01   5.5907059725e+01    0.2257032    0.1233592  50.67 0.0006198529    1.736    0.424
       302  -9.6507     97.8930     26.8072   6.1450944328e+01   5.6710013738e+01    0.3078308     0.231972 -37.86   0.00117291    1.501    0.334
       303 -10.0740    230.5413     27.2689   3.9072233218e+01   2.5056236981e+01    0.3376306    0.1761076 -38.15  0.001270646    1.751    0.429
       304 -10.1205    211.3456     18.8516   3.8971894043e+01   3.0408047552e+01    0.2148973    0.1813464  70.04 0.0002717667    1.194    0.163
       305  -9.6005    211.3924     27.7720   4.1151569959e+01   2.9361469454e+01    0.2429333     0.193752  -7.68  0.001389998    1.646    0.392
       306 -10.5690    245.6310    200.8830   7.5341870618e+01  -4.7043600256e+00    0.2163455    0.1507009  15.94 0.0006545981    1.321    0.243
       307  -8.7742     40.5884     29.7473   8.4056553957e+01   6.6134932960e+01    0.1306348   0.08152343  -3.62 0.0005795129    1.728    0.421
       308  -9.6206    250.4758     26.2160   3.7076825188e+01   2.0912808362e+01    0.2243271    0.1152016 -28.94   0.00113786    2.090    0.522
       309  -8.4601    206.2668     25.6729   4.1198315988e+01   3.0817692261e+01    0.1375938   0.08809012 -61.89 0.0002920968    1.572    0.364
       310  -9.0055     86.0689     23.9657   6.3857132531e+01   5.9500400326e+01    0.1563132    0.1325069  25.70            0    1.046    0.044
       311  -8.4996    207.2756    201.3388   8.2538127271e+01   1.2472001512e+00    0.1371211   0.09395148  -1.82 0.0004186681    1.613    0.380
       312 -10.4635    234.0782    196.9742   7.6654261481e+01  -2.3887129598e+00    0.3850201    0.2728348  10.36  0.001637836    1.338    0.253
       313  -9.5809    153.0864    207.8384   9.4917686365e+01   9.3958188526e+00    0.2110398    0.1794974  55.89  0.001072309    1.264    0.209
       314  -9.2691     45.1066     24.7049   7.9811824659e+01   6.6341203996e+01    0.1707949    0.1383294  -0.01  0.000589516    1.055    0.052
       315  -9.1621     94.9708     36.1802   6.6030811397e+01   5.6083407425e+01    0.2358942    0.2219058 -77.76  0.001326101    1.394    0.283
       316  -9.9477     59.6439     23.9521   7.3304308587e+01   6.4291937664e+01    0.2207382    0.1835887  -5.59 0.0004358684    1.066    0.062
       317 -10.2159     60.1921     19.7890   7.1197500387e+01   6.4762516436e+01    0.3159901    0.2411779 -53.78   0.00125708    2.111    0.526
       318  -9.3246     82.9758    196.1776   1.0891132279e+02   2.3162364008e+01    0.2437965     0.192008  15.04  0.001364849    1.668    0.400
       319  -9.2352    223.4663     22.0409   3.8541114607e+01   2.7260115682e+01    0.1977666    0.1517675  83.11 0.0005656682    1.222    0.181
       320  -9.9121    169.7901    191.4888   8.8438095545e+01   9.5217955302e+00    0.3560933     0.211288  25.99  0.001078261    1.841    0.457
       321  -9.4989     74.2816     19.4529   6.5816698049e+01   6.2327143882e+01    0.2337968     0.168956  41.08 0.0007897234    1.322    0.243
       322 -12.1072      4.8566    184.3337   1.2503536724e+02   3.4608945975e+01    0.5818223    0.4031716  74.22  0.003272149    1.179    0.152
       323 -10.1351    250.4025    177.8758   7.0050158613e+01  -2.0385151815e+00     0.394654    0.1103498 -33.41  0.001407154    3.399    0.706
       324  -9.3023    157.6503    179.6928   8.8898945518e+01   1.4072230755e+01    0.1509824    0.1123965   1.61 0.0007043111    1.707    0.414
       325 -10.2486    186.3872     15.2039   4.0769497285e+01   3.6768124570e+01    0.2485538    0.2086347  83.36  0.000414349    1.069    0.065
       326 -10.1757     52.1422    173.6410   1.1339963347e+02   3.2384835966e+01    0.4704368    0.2141316 -86.65   0.00186977    2.889    0.654
       327  -9.4382     28.1211    175.9133   1.1929991758e+02   3.4440266731e+01     0.202077    0.1408133  72.26  0.001227604    1.297    0.229
       328  -8.7967    174.3345     15.7470   4.2425185569e+01   3.9671015325e+01    0.1357078   0.09377827 -74.84   0.00035916    1.563    0.360
       329  -9.7939    230.9552    175.4187   7.2959065939e+01   1.4903188581e+00    0.3547513      0.12237  38.30  0.001350143    3.027    0.670
       330 -10.0715    239.9716    184.6446   7.3199716891e+01  -1.4384478760e+00    0.2561289     0.178122 -10.98 0.0007036747    1.369    0.269
       331  -9.9280    247.6967    173.9533   6.9719261006e+01  -1.0154726640e+00    0.4221486    0.1634866  27.89  0.001479873    4.105    0.756
       332  -9.5138     56.7287    173.9276   1.1232243553e+02   3.1764231173e+01    0.2736055    0.1412088  60.19  0.001236751    2.185    0.542
       333  -9.6217     39.4968    173.5019   1.1641228812e+02   3.3840652758e+01     0.239105    0.1722465  58.84 0.0009814714    1.323    0.244
       334  -9.2565    220.4842     12.5071   3.6602857158e+01   2.9003454273e+01    0.2368935    0.1072149  89.46  0.001030988    2.536    0.606
       335 -10.4507     35.5734    170.1116   1.1699301864e+02   3.5043616168e+01    0.3837217    0.1942987 -83.52  0.001585507    1.917    0.478
       336  -9.1490     94.5112     12.4226   5.6522493608e+01   5.9030118469e+01    0.1309813    0.1131131  33.21 0.0001581248    1.035    0.034
       337 -11.3835      9.6011    167.1311   1.2279205417e+02   3.8084629375e+01    0.4256636    0.3340693  73.28  0.002082123    1.137    0.121
       338 -11.1959     13.6890    159.6915   1.2122491740e+02   3.9477991583e+01    0.4505493    0.2317718 -69.41  0.001588756    1.595    0.373
       339  -8.9192    197.9944    168.0036   7.7771999798e+01   8.6862652804e+00    0.1775038    0.1591919 -13.86 0.0008666586    1.047    0.045
       340  -9.6836    188.9701    164.0132   7.8796574808e+01   1.1167161231e+01    0.2936152    0.1864866 -14.96  0.001071938    2.112    0.526
       341  -8.8594    152.4095    166.5148   8.7492296379e+01   1.7808351215e+01    0.1473662    0.1416478   3.96  9.86952e-05    1.029    0.028
       342 -10.1152     18.8074    164.8876   1.2047043711e+02   3.7843544738e+01    0.2742344    0.2323578 -41.43  0.001543447    1.493    0.330
       343  -9.9252    205.1153    162.9805   7.5263230011e+01   8.2602343068e+00    0.3050786    0.2023776  29.43 0.0006109335    1.569    0.363
       344  -9.5584    208.5003    160.5001   7.4058722271e+01   8.0700228682e+00    0.2084069    0.1873615  -8.37  0.001183241    1.005    0.005
       345 -10.1331     27.6802    163.6561   1.1823383143e+02   3.7334565860e+01    0.1964449    0.1857859 -19.18   0.00102649    1.392    0.282
       346  -9.5258    247.6523    162.6804   6.7415245658e+01   7.5437533458e-01    0.1396861   0.09303225  -0.44 1.590354e-05    1.734    0.423
       347  -9.6279     78.6838    159.9328   1.0480261192e+02   3.2173330599e+01    0.2576423    0.1794376  65.64  0.001277314    1.591    0.371
       348  -9.3104    215.3183    158.1565   7.2231364807e+01   7.2071680523e+00    0.2900771    0.1205278 -31.59  0.001073046    2.577    0.612
       349  -9.3599    223.6414    156.8362   7.0386582373e+01   5.8975103686e+00    0.2009815    0.1209513 -43.35 0.0009445655    1.679    0.404
       350  -9.9324      8.9969    156.3114   1.2205524397e+02   4.0627906010e+01    0.2814402     0.126973 -66.43    0.0014625    1.802    0.445
       351 -10.7855     22.2944    155.3781   1.1872261513e+02   3.9776270506e+01    0.6650637    0.2447925  46.62  0.002521096    2.786    0.641
       352 -10.9660     21.2955    150.6957   1.1849378932e+02   4.0974457316e+01    0.2211881    0.1889643  79.42 0.0003711127    1.114    0.102
       353 -11.5405     23.8415    148.2011   1.1757563386e+02   4.1353769294e+01    0.3415905    0.2269284 -56.64 0.0006046726    1.432    0.302
       354 -10.5389    104.6112    154.1029   9.6949460889e+01   2.9473848052e+01     0.364772    0.3437582 -69.82   0.00204069    1.039    0.037
       355 -10.9184     31.7177    153.4704   1.1613924096e+02   3.9375654576e+01     0.448291    0.2903999  78.38  0.002469643    1.554    0.357
       356 -10.0438     72.3206    151.6347   1.0514656871e+02   3.5089362483e+01    0.4938727    0.2444883  52.35  0.002045148    2.339    0.573
       357  -9.8296      3.4652    152.6250   1.2307601700e+02   4.1880866796e+01    0.3513347    0.1673435  78.23  0.001765645    2.130    0.530
       358 -10.7625      3.7030    147.4204   1.2258689122e+02   4.3075497874e+01    0.3674714     0.214275  71.44  0.002113076    1.678    0.404
       359 -11.4985      3.0842    141.0330   1.2218555993e+02   4.4610809632e+01    0.7502413    0.3672449  77.13   0.00377907    2.160    0.537
       360 -10.8269     63.3136    150.6611   1.0742261622e+02   3.6531361368e+01     0.434695    0.3224233  -5.90   0.00176001    1.964    0.491
       361 -11.1904     45.9690    148.0601   1.1171750094e+02   3.9231319451e+01    0.6999421     0.405927 -59.23  0.003571249    1.538    0.350
       362  -9.7766    234.4187    150.1014   6.6998286252e+01   5.0908166678e+00    0.2901796    0.1671596 -20.20  0.001288772    1.967    0.492
       363 -11.0555     15.5897    147.6651   1.1963429144e+02   4.2157723689e+01    0.5057675    0.2583109 -74.63   0.00241682    1.597    0.374
       364 -10.3785     13.7782    141.2752   1.1945359838e+02   4.3815111024e+01    0.3199239    0.2155254 -51.44  0.001330988    1.504    0.335
       365 -10.9780     11.1117    137.8377   1.1979995153e+02   4.4826372005e+01     0.657294    0.2689053 -51.31   0.00310629    2.363    0.577
