#   1 NUMBER                 Running object number                                     
#   2 MAG_AUTO               Kron-like elliptical aperture magnitude                    [mag]
#   3 X_IMAGE                Object position along x                                    [pixel]
#   4 Y_IMAGE                Object position along y                                    [pixel]
#   5 X_WORLD                Barycenter position along world x axis                     [deg]
#   6 Y_WORLD                Barycenter position along world y axis                     [deg]
#   7 A_WORLD                Profile RMS along major axis (world units)                 [deg]
#   8 B_WORLD                Profile RMS along minor axis (world units)                 [deg]
#   9 THETA_WORLD            Position angle (CCW/world-x)                               [deg]
#  10 FWHM_WORLD             FWHM assuming a gaussian core                              [deg]
#  11 ELONGATION             A_IMAGE/B_IMAGE                                           
#  12 ELLIPTICITY            1 - B_IMAGE/A_IMAGE                                       
         1  -8.7524     40.5203      1.7390   8.5231950694e+01   6.7685930967e+01    0.2705669    0.1418884  35.23  0.001699404    1.559    0.359
         2 -10.3662     50.9284     36.2894   9.5224479590e+01   6.2303879408e+01     0.640509    0.5306373 -69.66  0.003909131    2.302    0.566
         3  -9.5943     38.5776      8.4382   8.8867368205e+01   6.7332022525e+01     0.536863    0.2713917   7.49  0.002798987    2.567    0.610
         4 -10.5562     39.5103     30.1384   9.7315611942e+01   6.4676687616e+01    0.5138777    0.3312687 -38.64  0.002796213    1.703    0.413
         5 -11.8772     44.4296     21.1483   9.1855418101e+01   6.5140365035e+01    0.9341681    0.8786083 -56.61  0.006874849    1.806    0.446
         6 -10.2637    224.8289     28.8093   5.7289946540e+01   2.6914223701e+01    0.4411014    0.3485607 -86.98  0.002167695    1.064    0.060
         7 -11.9878    129.3471     15.2792   6.6674105000e+01   4.9731095025e+01     1.725635    0.9186557  60.00  0.009212648    1.555    0.357
         8 -10.7926    131.3996      3.3313   6.2900796957e+01   5.0309969014e+01    0.8887085    0.2989623  61.11   0.00351907    2.251    0.556
         9 -11.9548     82.6736      6.7648   7.4003779106e+01   6.0139726055e+01     1.570972     0.811927  23.79  0.008234953    2.256    0.557
        10 -10.4974     71.6216      5.4639   7.6525326383e+01   6.2292798438e+01    0.5932472    0.3456471  38.94  0.003033196    1.384    0.278
        11 -11.6885    145.5334      4.2976   6.1020957949e+01   4.7103267265e+01     1.352848    0.7317096  83.03  0.007046743    1.967    0.492
        12 -11.5039    109.1797      4.5174   6.7223150845e+01   5.4995523555e+01     1.499648    0.5909135  54.33  0.007443422    1.936    0.483
        13 -10.7322    120.7684      3.8365   6.4840948765e+01   5.2582830267e+01    0.6211668    0.3526835  66.23  0.002826781    1.522    0.343
        14 -13.4880    169.1939     12.2081   5.9827883725e+01   4.1061967419e+01      2.16421     1.541205  59.49   0.01244737    1.293    0.227
        15  -9.9359    117.0500     17.8592   6.9807251365e+01   5.2171349595e+01     0.716069    0.2556869 -34.17  0.003177464    3.074    0.675
        16  -9.5906    111.7787     15.9227   7.0296614410e+01   5.3478658258e+01    0.4265841    0.2243691  41.79  0.002242413    1.756    0.430
        17  -9.5335     93.7987     17.5536   7.4969397555e+01   5.7024735702e+01    0.4031823     0.300291  78.68  0.001796512    1.821    0.451
        18  -9.9319    248.6588     14.7871   5.2659926651e+01   2.3796724988e+01    0.3285032    0.2166731 -35.48  0.002137925    1.894    0.472
        19 -10.8090    248.1800      5.4859   5.1084180210e+01   2.4960617359e+01    0.6295686    0.4487869 -69.80   0.00461168    1.080    0.074
        20  -8.2376      8.8308     16.1620   1.0520045859e+02   6.9837850744e+01    0.3582905    0.1488189  -7.33  0.001320825    5.541    0.820
        21  -8.7680     20.2069     14.0605   9.9032908792e+01   6.8986628199e+01    0.4280422    0.1958651 -17.28  0.002250616    2.541    0.606
        22  -9.5696     64.7384     16.6748   8.2919665719e+01   6.2475610135e+01    0.2824717    0.2384554  65.13  0.001914439    1.709    0.415
        23 -11.6916    155.3398     20.9024   6.3924934479e+01   4.3328161148e+01    0.9564611    0.4452814  68.91   0.00415536    1.940    0.485
        24  -8.6467     49.4695      6.8150   8.4123849985e+01   6.5889428887e+01    0.2404201    0.1413311  26.66  0.001269246    1.441    0.306
        25  -9.1468     55.1244      7.8413   8.2591477342e+01   6.4904912945e+01    0.6192739    0.3536098  65.09  0.002837566    4.048    0.753
        26 -10.0424     60.5264      2.1678   7.8545137474e+01   6.4497229446e+01    0.5385979    0.3506578  21.39  0.003114169    1.362    0.266
        27  -8.9257     52.7783      2.0857   8.1017799685e+01   6.5781378382e+01    0.3229691    0.1620778  31.49  0.001901697    1.700    0.412
        28  -8.6823    200.5758      7.7646   5.5370138774e+01   3.4533007216e+01    0.1985755    0.1312496 -53.69 0.0007944143    1.468    0.319
        29  -8.7925    230.1350      6.0798   5.2497247007e+01   2.8478695362e+01    0.1675433    0.1383716  80.36   0.00123648    1.292    0.226
        30  -8.8040     26.9155      3.1964   9.1338338379e+01   6.9393740430e+01    0.2795061    0.2149901   0.02  0.002180813    1.135    0.119
        31  -9.1621     17.3438      2.7097   9.5359624244e+01   7.0577082405e+01     0.291022    0.2296128 -44.03  0.002120585    2.273    0.560
        32  -9.1477    204.1428      4.0451   5.4274823536e+01   3.4141037456e+01    0.1705197    0.1413948  72.01 0.0008395583    1.269    0.212
        33  -7.2757      1.4839      1.5107   1.0252414857e+02   7.2282693864e+01    0.1037146   0.07237557  -5.90  0.000187634    1.012    0.012
        34  -9.2153    228.0954     78.7386   6.7147252039e+01   1.8928358496e+01    0.3118066    0.2670114  16.54  0.001341986    1.825    0.452
        35  -8.5607     93.3560     56.8887   8.8304691983e+01   5.2231752534e+01    0.2328204     0.183285  52.29  0.001126795    1.368    0.269
        36  -9.3375    198.9897     55.3017   6.5955754532e+01   2.8960812103e+01    0.2469601    0.2129005  55.54 0.0005561882    1.317    0.241
        37  -8.7616     66.0958     53.8923   9.6006484075e+01   5.7448860193e+01    0.2997654    0.1715682 -46.55  0.001511505    2.022    0.505
        38  -7.8188     35.2271     52.5890   1.0704338456e+02   6.1791758141e+01    0.1646632    0.1035232   9.43 0.0009429819    1.638    0.390
        39  -8.0371     22.9844     52.0223   1.1180220260e+02   6.3123086784e+01    0.1582353    0.1497692  86.29  0.001130808    1.667    0.400
        40 -10.1556     83.6157     47.9896   8.8287679637e+01   5.5365297637e+01    0.6584197      0.39148  47.33  0.003418365    1.676    0.403
        41  -9.1577     97.5658     43.5172   8.2734986335e+01   5.3325882834e+01    0.2621867    0.1829354  -1.48  0.001400463    1.744    0.427
        42 -10.2520      3.2653     40.6191   1.1661986635e+02   6.6603502488e+01    0.3946249    0.3485031  -3.13  0.002689206    1.330    0.248
        43  -9.3758     11.9322     33.6407   1.1040666632e+02   6.7081982500e+01    0.3777292    0.2078713 -29.67  0.001605524    1.490    0.329
        44 -10.1430    182.8957    246.2196   1.0965839580e+02  -4.7270356283e+00     0.304893    0.1623185  28.89  0.001465531    1.833    0.454
        45 -10.5468    170.7868    242.3581   1.1152762124e+02  -2.1095720176e+00     0.350867    0.1987829  48.18  0.001680999    1.897    0.473
        46  -9.9792    161.1000    241.0090   1.1334076574e+02  -2.7311651804e-01    0.2944158    0.1760905  46.62  0.001453906    1.662    0.398
        47  -8.4733    200.3108    239.6614   1.0505113171e+02  -6.3203591167e+00    0.1196613    0.1050188  73.38  0.000704504    1.689    0.408
        48 -10.3570    199.2384    225.3605   1.0276508620e+02  -3.6629534786e+00    0.4099636    0.1485244  44.13  0.001539956    3.056    0.673
        49  -9.6557     81.9694     38.7858   8.5632429207e+01   5.6915591248e+01    0.3242265    0.3059312 -89.85   0.00215014    1.454    0.312
        50  -9.3688     68.8567     36.3425   8.8924503908e+01   5.9523109230e+01    0.3984039    0.3177701  61.66  0.002427713    1.803    0.445
        51  -9.5715     66.4880     29.3255   8.7138758799e+01   6.0791319343e+01    0.3441259    0.2363881  -7.19  0.001511206    1.498    0.332
        52  -8.5496     38.5602     37.6525   1.0051622866e+02   6.3749036916e+01    0.2098376    0.1805611  23.00  0.001484403    1.353    0.261
        53  -8.7845    196.2574     36.0198   6.1953753956e+01   3.2232437446e+01    0.2670784    0.1313903  46.21  0.001187398    2.713    0.631
        54  -8.4077     27.0243     35.5150   1.0448708525e+02   6.5379258290e+01    0.1646015    0.1006575  21.57 0.0007959716    1.565    0.361
        55  -8.9272     85.9746     31.4623   8.1896129396e+01   5.7071936516e+01    0.2373222    0.1882662 -16.98  0.001283115    1.323    0.244
        56  -9.8892    123.9983    206.0060   1.1586220663e+02   1.3440242433e+01    0.2055039    0.1954009  65.59  0.001158527    1.001    0.001
        57  -8.9823    238.8857    202.8288   9.0949358901e+01  -5.8431518276e+00    0.1688337    0.1540645 -47.83  0.001072083    1.327    0.246
        58 -11.6065     11.3072    140.8932   1.3459045950e+02   4.4860650881e+01    0.6728764    0.4772553 -51.31   0.00408037    1.298    0.230
        59 -12.6464    241.0376    132.5105   7.6527138305e+01   6.7662736916e+00     1.416907      1.11627  53.91   0.00581261    1.474    0.322
        60  -8.9680     94.5009    121.9826   1.0654447129e+02   3.9135166818e+01    0.2393806    0.1430832 -50.14  0.001032093    1.589    0.371
        61 -10.1582     17.5481    126.5629   1.3073987589e+02   4.7816438758e+01    0.2899933     0.186965  77.30  0.001512758    1.991    0.498
        62 -10.3818     11.0519    118.3857   1.3137642195e+02   5.0225716692e+01    0.3285809    0.2486097  32.40  0.002071408    1.603    0.376
        63  -9.0591     40.1996    142.2304   1.2673265544e+02   4.1891438219e+01     0.193149    0.1512232  86.48 0.0008642995    1.367    0.268
        64  -8.3540     22.6540    125.6807   1.2908171537e+02   4.7610331560e+01    0.1394039   0.08223423 -39.10 0.0007049146    1.728    0.421
        65  -8.4890    125.5089     28.9334   7.1445212801e+01   4.9193584213e+01    0.2710556     0.182254  35.91  0.001499366    1.551    0.355
        66  -8.8755    104.5084     26.1288   7.5219148039e+01   5.3990525589e+01    0.3665693    0.2104397  58.36  0.001936589    1.645    0.392
        67  -9.7351     17.9128    106.1398   1.2708606979e+02   5.2549391196e+01    0.5282842    0.3210438  88.83  0.002581696    2.415    0.586
        68  -9.0915     30.1753    102.0474   1.2221258763e+02   5.2446143863e+01    0.2933223    0.1941726 -20.13  0.001592962    1.710    0.415
        69  -7.6856     23.0251     22.7567   1.0134483998e+02   6.7588877485e+01    0.1955996    0.1188866  20.26  0.001021715    1.494    0.330
        70  -8.0542     19.2164     22.3814   1.0289031178e+02   6.8033844614e+01    0.1787201    0.1161469  19.38  0.001036692    1.420    0.296
        71  -8.5445     11.3540     23.1497   1.0678802527e+02   6.8670162361e+01    0.1917667     0.124131   2.57 0.0005465145    1.338    0.253
        72  -9.6140     47.3881     99.5833   1.1586922491e+02   5.1206046865e+01    0.4629488    0.1435123 -54.31  0.001702034    2.800    0.643
        73  -8.0373      4.2030    102.3588   1.3084644796e+02   5.4326584389e+01    0.2399715     0.119308  48.13  0.001131268    2.959    0.662
        74  -7.9836     64.3178     99.3120   1.1017632674e+02   4.9089635098e+01    0.1451713    0.1008085 -21.02 0.0005994919    1.644    0.392
        75 -11.8595     43.2542     82.3437   1.1289504806e+02   5.5348351096e+01     1.090402    0.9076796 -18.11  0.005792404    1.111    0.100
        76  -9.3501     15.8060     63.0201   1.1795724348e+02   6.1736509513e+01    0.3748939    0.2211711 -70.44   0.00178719    2.641    0.621
        77 -10.1704     24.8407     65.4842   1.1509319540e+02   6.0520808729e+01    0.6844108    0.2282851 -43.84  0.002924858    2.411    0.585
        78 -10.9830      4.5558     76.2975   1.2559098861e+02   5.9884796272e+01    0.6710439    0.5435816  70.26   0.00448625    1.803    0.445
        79 -11.3704     14.7547     73.2666   1.2104917279e+02   5.9826224837e+01     0.719447    0.6729032 -70.61   0.00521699    1.363    0.266
        80  -9.2768      2.2487     88.6324   1.2898369844e+02   5.7439624046e+01    0.3961341    0.2071526 -68.91  0.001975693    1.823    0.451
        81  -8.7678    139.0531     78.3971   8.2832784477e+01   3.9074055633e+01    0.2726628    0.2145476 -52.94 0.0008451653    1.345    0.257
        82  -9.6117     74.2796     68.7501   9.8082746275e+01   5.3655507515e+01    0.4030134    0.3154893  16.72  0.002308362    1.263    0.208
        83  -8.7126     83.2044     69.0581   9.5290971603e+01   5.2092527014e+01    0.2774279    0.2305418  62.30  0.001555245    1.564    0.361
        84  -8.0656     34.0968     68.9049   1.1251414137e+02   5.8983136917e+01    0.1777566    0.1679214 -38.18 0.0007975891    1.273    0.214
        85  -8.6205     97.4090     27.9725   7.7593020551e+01   5.5238141887e+01    0.4336272    0.1934744 -11.93  0.001618452    4.260    0.765
        86 -10.1150     76.4003     27.1021   8.3171215915e+01   5.9334305416e+01    0.5921291    0.3065829  45.49  0.003149261    1.719    0.418
        87  -8.2586     44.2834     66.3554   1.0792173401e+02   5.8329961299e+01     0.134684   0.08412144 -20.84 0.0003806089    1.665    0.400
        88  -8.9053     69.2595     60.8823   9.7245075367e+01   5.5815631441e+01     0.287036    0.2103263 -59.84  0.001532237    1.977    0.494
        89  -9.4077     48.6839     61.6392   1.0481256204e+02   5.8634329187e+01    0.4512845    0.2205333  31.40  0.002232982    2.087    0.521
