#   1 NUMBER                 Running object number                                     
#   2 MAG_AUTO               Kron-like elliptical aperture magnitude                    [mag]
#   3 X_IMAGE                Object position along x                                    [pixel]
#   4 Y_IMAGE                Object position along y                                    [pixel]
#   5 X_WORLD                Barycenter position along world x axis                     [deg]
#   6 Y_WORLD                Barycenter position along world y axis                     [deg]
#   7 A_WORLD                Profile RMS along major axis (world units)                 [deg]
#   8 B_WORLD                Profile RMS along minor axis (world units)                 [deg]
#   9 THETA_WORLD            Position angle (CCW/world-x)                               [deg]
#  10 FWHM_WORLD             FWHM assuming a gaussian core                              [deg]
#  11 ELONGATION             A_IMAGE/B_IMAGE                                           
#  12 ELLIPTICITY            1 - B_IMAGE/A_IMAGE                                       
         1 -15.2086     11.0889    144.6789   1.4222901944e+02   4.4015288993e+01     11.90392     5.187042  81.46   0.05011466    3.247    0.692
         2 -13.4381    198.2581     28.5212   6.5853366375e+01   3.2291240565e+01     1.372272     1.215468  55.01  0.007237439    1.255    0.203
         3 -13.4337    214.5273     10.6347   5.9815910710e+01   3.0432774506e+01    0.9419179    0.8022677  60.64  0.005558667    1.331    0.249
         4 -11.4415      2.8631     22.8831   1.2079899951e+02   6.9436774437e+01    0.3327137    0.1182055 -45.43  0.001850405    2.079    0.519
         5 -13.2559      3.6124      6.4589   1.1411970883e+02   7.1808719136e+01     1.886417    0.3247415 -44.07  0.007811496    4.379    0.772
         6 -10.2996     18.3282      4.6829   1.0596207931e+02   7.0826213590e+01    0.1834014   0.08977368 -46.58 0.0009808143    3.140    0.681
         7 -12.2655     36.1426    244.3171   1.4573438553e+02   1.9872723550e+01    0.5954098    0.4423687 -63.32  0.004171693    1.701    0.412
         8 -11.9522    248.8989    247.1287   1.0513343292e+02  -1.4235811853e+01    0.6758364    0.2696844 -36.77  0.003334001    2.686    0.628
         9 -11.3892    123.9293    250.0596   1.2987194847e+02   5.8641493961e+00    0.4282077    0.1478668  42.87  0.001793525    2.333    0.571
        10 -10.0924     65.7422    249.3794   1.4086760300e+02   1.5033802985e+01    0.2230861    0.1642602  71.41 0.0006298505    1.076    0.071
        11 -10.7348     46.2159    248.5947   1.4428656073e+02   1.7799141967e+01    0.3194398    0.1643981  82.00  0.001575872    1.886    0.470
        12 -11.4755     17.5912    249.2156   1.4915118930e+02   2.1083559718e+01    0.3745849    0.1885246  47.66  0.002419518    1.686    0.407
        13 -11.8077      4.3415    248.9638   1.5124907928e+02   2.2533209046e+01    0.7504363    0.2647702  44.98  0.004384624    2.281    0.562
        14 -10.7088      1.9814    241.7693   1.5126719022e+02   2.4116219139e+01    0.3179588     0.116261 -84.35  0.001746631    2.317    0.568
        15 -10.4554    198.6743    246.4651   1.1451217400e+02  -6.3660709893e+00    0.2070305    0.1188671 -39.58  0.001097258    2.034    0.508
        16 -12.5353     11.2884    239.3863   1.4963207624e+02   2.3624553676e+01    0.6824777    0.2703481  63.88  0.002877689    2.132    0.531
        17 -10.3531    185.8488    239.1335   1.1588391796e+02  -3.0506172870e+00    0.1998031    0.1686663  49.41 0.0004981161    1.251    0.201
        18 -10.9573     51.0582    235.7962   1.4241845896e+02   1.9669795426e+01    0.4466818    0.1988318  80.12  0.002029991    2.793    0.642
        19 -10.7699    157.4374    249.8800   1.2320320878e+02   1.5713317601e-01    0.2768453    0.1542391  29.33  0.001344832    1.922    0.480
        20 -11.6891     58.3544    197.4990   1.3724907955e+02   2.6872012747e+01    0.3100369    0.2339806 -64.79 0.0005107839    1.347    0.257
        21 -12.5160      6.0081     51.6240   1.2804512545e+02   6.4299456819e+01    0.5033569    0.3773219  45.41 0.0006809355    1.991    0.498
        22 -12.2746     16.2423    123.5543   1.3827484726e+02   4.8475930634e+01    0.6426306    0.2892754  46.34  0.003158166    2.725    0.633
        23 -11.8201    238.4354    247.9835   1.0718720065e+02  -1.2838532742e+01    0.3424998    0.2369096  -7.75  0.002150552    1.408    0.290
        24 -10.9892    229.3687    229.3533   1.0565558278e+02  -8.8888574167e+00    0.4277381    0.2926027 -65.19   0.00198179    3.377    0.704
        25 -10.2770    137.9987    231.2355   1.2452609534e+02   6.8697394084e+00    0.1924432   0.09960952  42.08 0.0008890382    1.655    0.396
        26 -11.4321      4.4917    228.5001   1.5015861836e+02   2.6431622474e+01    0.4612534    0.3359531  -1.14  0.002847264    3.326    0.699
        27  -9.4250    127.3271    226.6607   1.2611907191e+02   9.6471206698e+00    0.1442009   0.09576797  69.16 0.0007051608    1.731    0.422
        28 -12.4870     45.7979    213.8416   1.4151872056e+02   2.4891209616e+01     0.641531    0.5261616 -85.08   0.00275586    1.174    0.149
        29 -10.7674     76.3873    216.9285   1.3560788965e+02   2.0045728243e+01    0.4035752    0.1299709  49.17  0.001579456    2.803    0.643
        30 -12.5263     10.0394    206.8737   1.4784573684e+02   3.0303632907e+01    0.6451319    0.5187075  28.49  0.002723776    1.758    0.431
        31 -10.1734      6.8022    215.2120   1.4897745167e+02   2.8881341053e+01    0.2051756    0.1322642 -64.17  0.001055041    1.679    0.405
        32  -8.6793    152.5347    212.9699   1.1858556556e+02   7.7128285981e+00    0.1846958    0.1433254 -52.19 0.0003207334    1.445    0.308
        33  -9.3488     34.7553    202.6482   1.4271805822e+02   2.8632857018e+01    0.1773329    0.1351786  50.27 0.0004174957    1.339    0.253
        34  -9.6098    191.8246    192.7697   1.0635165213e+02   3.9847870333e+00    0.5069975    0.2730854 -68.24   0.00132567    6.663    0.850
        35 -11.9451     64.9557    189.2607   1.3480511716e+02   2.7856630214e+01    0.2887907    0.2435878 -55.92 0.0004443786    1.357    0.263
        36 -11.0828      1.8966    183.2393   1.4774253193e+02   3.6088826434e+01    0.4253146     0.120534 -73.86  0.001912566    2.681    0.627
        37 -13.2531     62.0740    174.5463   1.3355545237e+02   3.1690195615e+01    0.5387731    0.2795941 -46.25  0.001741471    2.360    0.576
        38 -10.8946     75.5589    176.5786   1.3060089847e+02   2.9308349350e+01    0.2518744    0.2256653 -89.45 0.0003892278    1.039    0.038
        39  -9.8980     95.2704    172.0085   1.2504382392e+02   2.7282280676e+01    0.3010361    0.1920824  45.61 0.0004277244    1.533    0.348
        40 -11.8071     83.3366    167.5595   1.2728663128e+02   3.0279576881e+01      0.61154     0.600024  52.34  0.003691001    1.178    0.151
        41 -10.0476     96.4048    151.8602   1.2110448594e+02   3.1931526888e+01    0.3051189    0.2713221 -46.48 0.0007672341    1.185    0.156
        42  -9.0945     99.5009    147.8658   1.1948939417e+02   3.2359333443e+01    0.2185315    0.1419829 -54.17  0.000506424    1.490    0.329
        43 -12.0332     84.8779    150.8940   1.2398884044e+02   3.4063380697e+01    0.3124139    0.2518042 -46.37 0.0005204641    1.297    0.229
        44 -12.2368     67.4641    143.6512   1.2737234580e+02   3.8386729054e+01    0.7049062    0.4448792  64.02  0.003317846    1.951    0.487
        45  -9.7704    108.7392    136.9766   1.1467660977e+02   3.3294456817e+01    0.3973995    0.2697415 -20.79  0.001628438    2.247    0.555
        46 -12.7828     30.7236    231.0614   1.4575873210e+02   2.3125053114e+01    0.3048519    0.2436742 -75.57  0.000736309    1.387    0.279
        47 -10.4514     95.6943    134.2931   1.1769677419e+02   3.6283915704e+01    0.2540679    0.2307399 -31.56 0.0004054245    1.187    0.157
        48  -9.8434     75.6264    128.8698   1.2225403150e+02   4.0788112720e+01    0.2453915    0.1968357  52.13 0.0003723252    1.349    0.259
        49  -8.9464    106.1633    123.8215   1.1235973489e+02   3.6877485760e+01    0.2069593    0.1953721 -85.35 0.0003107599    1.093    0.085
        50 -10.2503    167.8571    112.9132   9.3552419686e+01   2.5829641983e+01    0.3318825     0.280663 -86.51 0.0006209097    1.357    0.263
        51  -9.4081    203.4014    111.7563   8.5760049222e+01   1.7568346581e+01    0.2121316    0.1466714 -29.58 0.0006148435    1.609    0.379
        52 -11.2414    242.7167     94.0014   7.4977865218e+01   1.1880679462e+01    0.3599815    0.2330656 -71.03  0.001686866    1.898    0.473
        53  -9.6557     64.0914     80.7976   1.1431105998e+02   5.3191994820e+01    0.2374811    0.1739496  43.24 0.0006431219    1.600    0.375
        54  -9.6823    158.5207     77.4866   8.6066550175e+01   3.4968573942e+01    0.1533938    0.1460677  60.65 7.554278e-05    1.001    0.001
        55  -9.6186     57.2022     75.4891   1.1520450482e+02   5.5160694347e+01    0.2482058    0.1938661  61.36  0.001072285    1.884    0.469
        56 -13.8413     36.2043    224.0611   1.4423180489e+02   2.3908056267e+01    0.7139372    0.5242333  71.25  0.002334735    1.065    0.061
        57  -8.8881     47.8174     69.8775   1.1696739316e+02   5.7383104102e+01    0.1502999    0.1485686  65.35 0.0002652152    1.320    0.242
        58 -11.3492     25.9083    128.5314   1.3632661026e+02   4.6569483868e+01    0.3702669    0.2253356  50.92  0.001831711    1.926    0.481
        59 -11.9494    139.6962    249.3010   1.2665702625e+02   3.3169862839e+00    0.4401941    0.3230735  56.08  0.002624167    1.238    0.192
        60 -12.2628     98.9300    246.5823   1.3435698246e+02   1.0593269834e+01    0.4807431    0.3806724  61.04  0.002594757    1.008    0.007
        61 -11.1854      3.2646     38.3543   1.2555260574e+02   6.6841524919e+01    0.2323087    0.1876348  78.77  0.001617342    2.232    0.552
        62 -10.1775     88.6643    249.3557   1.3661145779e+02   1.1675619125e+01    0.1971733    0.1153257  66.63 0.0006522546    1.641    0.391
        63 -10.7421     11.9714     23.1795   1.1661456898e+02   6.8794637585e+01    0.1901369   0.09559015 -14.82   0.00109786    2.026    0.506
        64 -10.7807     29.0890    248.6211   1.4721999333e+02   1.9890966038e+01    0.2676383    0.1983192  89.76  0.001706983    1.222    0.181
