#   1 NUMBER                 Running object number                                     
#   2 MAG_AUTO               Kron-like elliptical aperture magnitude                    [mag]
#   3 X_IMAGE                Object position along x                                    [pixel]
#   4 Y_IMAGE                Object position along y                                    [pixel]
#   5 X_WORLD                Barycenter position along world x axis                     [deg]
#   6 Y_WORLD                Barycenter position along world y axis                     [deg]
#   7 A_WORLD                Profile RMS along major axis (world units)                 [deg]
#   8 B_WORLD                Profile RMS along minor axis (world units)                 [deg]
#   9 THETA_WORLD            Position angle (CCW/world-x)                               [deg]
#  10 FWHM_WORLD             FWHM assuming a gaussian core                              [deg]
#  11 ELONGATION             A_IMAGE/B_IMAGE                                           
#  12 ELLIPTICITY            1 - B_IMAGE/A_IMAGE                                       
         1 -12.7881    175.2523     36.4091   2.8998973698e+02   6.2992876338e+00   0.04952209   0.03394693 -39.14  0.002287035    1.494    0.330
         2 -13.4203    184.5556     27.8151   2.8983214772e+02   6.3455048363e+00    0.1040311     0.050661 -50.37  0.009381625    1.966    0.491
         3 -13.7143    192.8843     15.2138   2.8966233747e+02   6.4419606170e+00   0.09058712    0.0623134 -22.25  0.002249846    1.676    0.403
         4  -9.5256    164.6392     12.2975   2.8997114040e+02   6.6276583706e+00   0.01023784   0.00736317  60.07 0.0006935161    1.685    0.407
         5 -10.3225     62.0000      5.0118   2.9111437525e+02   7.2634345819e+00   0.02040233   0.01155223 -33.21  0.001915061    2.061    0.515
         6  -9.0326    235.9999      2.1541   2.8908884220e+02   6.3547506697e+00   0.01128066  0.009331011 -60.95 0.0007522999    1.221    0.181
         7  -8.6413    112.0317    210.4581   2.9173317160e+02   4.6815271578e+00  0.009766728  0.006357237  20.43 0.0005093908    1.558    0.358
         8 -12.8826    151.4600    247.3057   2.9149299780e+02   4.0542368574e+00    0.1047701   0.03222415  16.88  0.006127411    5.306    0.812
         9 -12.4891    166.3537    249.8328   2.9133623804e+02   3.9455436110e+00    0.1380205    0.0388331  15.51  0.005542741   11.384    0.912
        10 -10.0005    121.4687    248.8586   2.9184731475e+02   4.1982084339e+00   0.01460162   0.01270331 -50.32  0.001079456    1.130    0.115
        11 -10.3293     94.3295    241.4194   2.9211674611e+02   4.4279662060e+00   0.01703679   0.01358874  88.62  0.001352924    1.486    0.327
        12 -10.1716     96.6957    248.6664   2.9213149558e+02   4.3336085037e+00   0.01845686   0.01193994  54.60  0.001544199    1.868    0.465
        13 -10.7796     90.7554    246.7205   2.9218863808e+02   4.3874596339e+00   0.01925405   0.01515985  81.80 0.0004761964    1.542    0.352
        14  -9.1000     86.6076    250.3553   2.9225747340e+02   4.3688022640e+00   0.01181084  0.007289815  37.08 0.0006671304    1.626    0.385
        15 -13.3389     82.6113    165.6001   2.9181179468e+02   5.3451207671e+00    0.1848219   0.02395665  34.82  0.004982541    5.214    0.808
        16 -13.4106     68.1686    144.7389   2.9185718817e+02   5.6577606304e+00    0.1395784   0.09518905  66.74  0.006052081    1.936    0.484
        17 -12.4020     22.3083    235.2237   2.9291070103e+02   4.8843409317e+00   0.02628545   0.02102535  19.36 0.0004885661    1.249    0.200
        18 -10.0087    181.2676    197.2688   2.9085894714e+02   4.4569244491e+00   0.01067176   0.01024198  66.12  0.000271094    1.121    0.108
        19 -13.3525     11.5222    243.5845   2.9308332507e+02   4.8478996071e+00   0.03380371   0.03029659  21.42   0.00170658    1.110    0.099
        20 -13.9290     54.0410    235.9629   2.9254930301e+02   4.7058429194e+00    0.1101153   0.07216214 -65.66   0.01165751    1.583    0.368
        21 -11.0628     81.5424    185.7299   2.9194104327e+02   5.1240992469e+00   0.02097718   0.01480706 -51.20  0.002004433    1.377    0.274
        22 -11.1674     85.1775    179.6704   2.9186393797e+02   5.1728173252e+00   0.02472813    0.0132395 -44.07 0.0007593766    1.896    0.472
        23  -7.7825     92.2442    186.2721   2.9182079683e+02   5.0604410249e+00  0.006333723  0.004660917 -30.46            0    1.440    0.305
        24  -9.1949      7.5426    184.2217   2.9278579385e+02   5.5382016673e+00    0.0159077   0.01121133  11.50  0.001726034    1.503    0.335
        25 -15.0047     63.6832    214.0850   2.9231143700e+02   4.9005910126e+00     0.386162    0.1454938  39.13   0.01606508    2.680    0.627
        26 -13.0534     70.6485    203.0452   2.9216712951e+02   4.9875662766e+00   0.05378735   0.04017283 -46.84  0.002370775    1.311    0.237
        27 -15.7932     25.6700    244.5140   2.9292568315e+02   4.7616345243e+00     0.155579     0.119515 -27.50   0.01162632    1.374    0.272
        28 -10.4039    230.2501    168.1705   2.9012555672e+02   4.5198147944e+00   0.02099134   0.01236125 -82.73   0.00192146    2.357    0.576
        29  -9.4709    137.6257    172.4624   2.9121736195e+02   4.9716184766e+00   0.01310275  0.007887888 -58.32   0.00103279    1.623    0.384
        30 -10.6524    168.7392    223.3741   2.9115504257e+02   4.2305903157e+00   0.01654393   0.01174623 -63.91  0.001818449    1.439    0.305
        31 -10.8717     97.1168    161.6777   2.9162169264e+02   5.3112668233e+00   0.02830512   0.01580839 -39.54  0.002387012    1.914    0.477
        32 -10.0677      3.0945    161.7104   2.9270669914e+02   5.8156928746e+00   0.01331266   0.01100064  16.34 0.0005005662    1.212    0.175
        33 -10.2768     64.0645    156.6686   2.9197386407e+02   5.5454337573e+00    0.0188348   0.01039235  40.46  0.001158261    1.872    0.466
        34  -9.4276    133.5332    145.0423   2.9110493499e+02   5.3024436807e+00   0.02751585  0.007754949 -69.12  0.001509675    5.978    0.833
        35  -9.8047    108.0328    144.5266   2.9139602436e+02   5.4456644250e+00   0.02646717   0.01119149 -43.29  0.002191574    2.526    0.604
        36 -11.3889     96.7536    145.4203   2.9153133564e+02   5.4963289275e+00   0.01306258   0.01139931  -6.81 0.0005030876    1.167    0.143
        37  -8.9381    126.8318    143.2238   2.9117162281e+02   5.3590462326e+00   0.00889182  0.008508961  34.52 0.0003455345    1.078    0.073
        38  -8.5551    191.5303    133.9099   2.9037157004e+02   5.1146564163e+00  0.009739488  0.008272841  19.43 0.0004521526    1.171    0.146
        39  -9.3990    115.3798    133.4764   2.9124695411e+02   5.5305188016e+00   0.01438302   0.01033575 -37.71 0.0007156461    1.423    0.297
        40 -14.6761     11.3207    209.4508   2.9288826880e+02   5.2336496399e+00    0.3004498    0.1266137 -57.62    0.0123369    2.231    0.552
        41  -9.9230    103.2066    130.3912   2.9136942897e+02   5.6308344060e+00    0.0126053  0.009693134 -35.92  0.000769908    1.320    0.243
        42 -11.0310     38.4766    129.8729   2.9211352325e+02   5.9846944429e+00   0.03134082   0.01059238  26.70  0.001122248    2.836    0.647
        43  -9.5404     39.7234    126.3505   2.9207866101e+02   6.0176777647e+00   0.01028411  0.006419427  27.44 0.0004130539    1.575    0.365
        44  -9.1120    124.0368    128.2327   2.9111655473e+02   5.5429025808e+00   0.01029771  0.008934534 -52.35 0.0002848836    1.137    0.121
        45 -10.1233    192.7040    195.1419   2.9071489026e+02   4.4191407220e+00   0.04785143   0.02298667  87.69  0.002528281    7.574    0.868
        46  -8.9825    119.9059    126.4396   2.9115376148e+02   5.5853574242e+00   0.01396832  0.007313734 -44.24 0.0009551044    1.939    0.484
        47  -9.2346     24.6769    127.1141   2.9225683157e+02   6.0898051891e+00   0.01141187   0.00901942  16.40 0.0004973749    1.275    0.216
        48 -10.2070    237.5625    125.8273   2.8979429845e+02   4.9565703686e+00   0.01187943   0.01025155  25.44 0.0003475295    1.153    0.133
        49  -8.9436    110.7569    121.9157   2.9123296383e+02   5.6855948036e+00   0.01032367  0.008920489  15.48 0.0004597352    1.153    0.133
        50 -10.4951      3.3646    119.0647   2.9245621799e+02   6.2946991078e+00   0.01361425    0.0115475  16.36   0.00163943    1.177    0.150
        51  -8.1720    141.4493    198.9276   2.9132722384e+02   4.6529727230e+00  0.009129332  0.005633892  81.60 0.0008077765    2.525    0.604
        52  -9.1344    168.4892    113.9171   2.9052048228e+02   5.4641442220e+00   0.01363687   0.00913047  52.61 0.0009956524    1.740    0.425
        53  -9.2573     22.9949    113.0156   2.9219435609e+02   6.2576235375e+00  0.009830665  0.009558701 -12.51 0.0004132649    1.014    0.014
        54  -9.7361     66.3142    105.1736   2.9164847142e+02   6.1133144860e+00   0.01158364  0.008940806   4.89  0.001311904    1.371    0.271
        55  -9.7551      6.2947    104.4493   2.9233749830e+02   6.4436164601e+00   0.01237017  0.006479213  17.91  0.001000536    2.059    0.514
        56 -10.2584      2.2469     94.2089   2.9232477129e+02   6.5806216974e+00   0.01951605  0.004625615 -59.55  0.001310632    3.697    0.730
        57  -8.3341    191.7593     63.6059   2.8995839435e+02   5.9042277906e+00  0.008204772  0.005945501  34.08 0.0002841324    1.377    0.274
        58 -10.1739    179.7188    217.5895   2.9099500512e+02   4.2365069633e+00   0.01273326  0.006431356  18.50  0.001038162    2.140    0.533
        59 -10.1506    105.3086    240.9683   2.9198766569e+02   4.3740151017e+00   0.01561194   0.01181908  67.44 0.0006082553    1.618    0.382
        60  -9.7092    213.5989    238.2384   2.9072523195e+02   3.8212787835e+00  0.009604109  0.005615098 -50.19 0.0007958058    1.652    0.395
        61  -8.3177    132.0793     52.2981   2.9058082874e+02   6.3540136786e+00   0.00876693  0.008065868  21.24 0.0005288655    1.083    0.076
        62  -9.5799    246.7969     50.2835   2.8924633901e+02   5.7556962367e+00   0.01148408  0.009812264 -25.58 0.0004341511    1.187    0.158
        63  -9.2623     76.1307     51.4238   2.9122190713e+02   6.6654685050e+00    0.0204286  0.005513862  35.46  0.001452303    3.341    0.701
        64 -10.3440    142.0264     28.7889   2.9032861937e+02   6.5646127020e+00   0.01065304   0.00903402 -54.52 0.0002473632    1.167    0.143
        65  -9.0036     46.3394     14.3229   2.9134983764e+02   7.2429779683e+00  0.007049392  0.004681109 -26.63 0.0005326571    1.721    0.419
        66  -8.3586    167.3562    212.1902   2.9110594238e+02   4.3639712320e+00  0.008974625  0.006206487 -76.57 0.0004400155    1.670    0.401
        67  -8.8562    156.5261    233.0106   2.9135165531e+02   4.1879134165e+00  0.009984829     0.006345 -61.93 0.0006721626    1.581    0.367
