#   1 NUMBER                 Running object number                                     
#   2 MAG_AUTO               Kron-like elliptical aperture magnitude                    [mag]
#   3 X_IMAGE                Object position along x                                    [pixel]
#   4 Y_IMAGE                Object position along y                                    [pixel]
#   5 X_WORLD                Barycenter position along world x axis                     [deg]
#   6 Y_WORLD                Barycenter position along world y axis                     [deg]
#   7 A_WORLD                Profile RMS along major axis (world units)                 [deg]
#   8 B_WORLD                Profile RMS along minor axis (world units)                 [deg]
#   9 THETA_WORLD            Position angle (CCW/world-x)                               [deg]
#  10 FWHM_WORLD             FWHM assuming a gaussian core                              [deg]
#  11 ELONGATION             A_IMAGE/B_IMAGE                                           
#  12 ELLIPTICITY            1 - B_IMAGE/A_IMAGE                                       
         1 -14.7927    129.2380     88.1981   2.9497416258e+01   3.9134442857e+01     2.438125     2.316272  16.42   0.01270428    1.137    0.121
         2  99.0000     45.5882     27.7221   3.8100825158e+01   6.9630437352e+01     3.257452     1.497815  50.75   0.01254123    2.803    0.643
         3  99.0000     30.9653     20.5318   4.3798143017e+01   7.3322224686e+01    0.7844934    0.6015269 -35.98  0.003588672    1.275    0.216
         4 -14.3765     10.1955     67.1556   7.3674877200e+01   6.4262476886e+01      2.80101     1.347001   3.31   0.01231033    2.378    0.579
         5 -13.5746      3.6700     54.6376   7.5492948430e+01   6.7758474933e+01     1.665472    0.6860507 -86.18  0.006761282    2.626    0.619
         6 -14.1601     11.1602     35.8224   6.6018764284e+01   7.2041760406e+01     3.692836     1.876441  88.65   0.01340654    3.136    0.681
         7 -12.7073     25.9733     38.8483   5.6282328741e+01   7.0096856831e+01     1.382667    0.4678049 -52.57  0.004458654    2.569    0.611
         8 -14.4324     49.0170     56.9766   4.9211393207e+01   6.2898761826e+01     2.739151     1.673467  25.21  0.005402726    1.731    0.422
         9 -13.7910     76.4146     22.4000   2.0414623547e+01   6.3930519611e+01     2.113263     1.395069  68.97  0.005904146    1.698    0.411
        10 -14.0820    176.9698     84.1144   1.7932860428e+01   2.8578895745e+01      2.40944     1.468731   7.39  0.008217168    3.886    0.743
        11 -13.2757    189.5119     44.1813   5.2135981075e+00   3.1664192579e+01     1.847372    0.8538592  49.29  0.001462509    2.612    0.617
        12 -12.4157    234.1488     37.0933   3.5924097471e+02   2.2831255538e+01     1.220752    0.3898869 -59.59  0.004180593    4.616    0.783
        13 -13.4061    210.5676     47.4030   3.7477849525e+00   2.6453751230e+01      1.49463    0.8285943 -77.79  0.006367804    2.268    0.559
        14 -12.9993    187.8540     35.0634   2.9021914567e+00   3.3232186925e+01     2.116628    0.7642429  60.10  0.008408916    2.716    0.632
        15 -11.6740    246.3429     52.9876   1.8019547124e+00   1.8606692674e+01    0.8287706    0.2533941 -46.37  0.002409218    2.690    0.628
        16 -10.7958    163.8774     31.4477   4.7105153746e+00   3.9678650732e+01     1.045288     0.186886 -39.18  0.003107927    4.052    0.753
        17 -12.6863    178.5384     38.1631   4.8508904228e+00   3.5112004628e+01    0.7924803    0.5163297 -11.41  0.003713778    2.094    0.523
        18 -12.4445    222.0238     39.4925   7.6136325198e-01   2.5005077542e+01     1.039512    0.5572234 -75.20  0.005123042    2.200    0.545
        19 -12.3793     52.7311     20.6402   3.0003949541e+01   6.9489661534e+01    0.9077486     0.591934  71.00  0.003269992    2.613    0.617
        20 -11.7672    210.7702     21.8894   3.5738637761e+02   2.9476637277e+01    0.5212911    0.4161115  41.10   0.00294213    1.686    0.407
        21 -12.4770    219.3622     28.4912   3.5835151075e+02   2.6865363815e+01    0.7175681    0.4605229  50.98  0.001690112    1.991    0.498
        22 -12.7714    227.0481     22.8200   3.5647729460e+02   2.5891507610e+01     0.411751    0.2535715  86.20 0.0009325312    1.681    0.405
        23 -10.9271    162.3517     20.5981   1.5130642563e+00   4.1355785553e+01    0.5205846    0.3394955  89.78  0.001737464    1.478    0.324
        24 -11.4695    158.9217     26.7128   3.8719070690e+00   4.1547157047e+01    0.5352551    0.2716213 -14.37  0.001990395    2.835    0.647
        25 -11.3201    101.9932     20.8704   1.1901696245e+01   5.7582752542e+01     0.445864    0.2756525 -24.72  0.001141384    1.818    0.450
        26 -11.5581    123.4627     24.1920   8.6104417178e+00   5.1385120780e+01    0.6608922     0.524185   4.59  0.001202142    1.605    0.377
        27 -12.3455    136.1159     19.7978   4.7621067324e+00   4.8450408552e+01    0.5250209    0.3802322  49.25  0.001091118    1.452    0.311
        28 -11.6896    244.3393     22.9016   3.5543968904e+02   2.2456035475e+01    0.5354808    0.2733461  86.76  0.002422556    2.169    0.539
        29 -10.9878    204.4321     16.8790   3.5659355621e+02   3.1446101495e+01    0.4067796    0.1883441  88.30  0.001727178    2.278    0.561
        30  99.0000    229.2337     15.5198   3.5466948577e+02   2.6227463189e+01    0.5626543    0.2273055 -77.46  0.002503851    2.936    0.659
        31 -12.0118    228.2911      9.8458   3.5343104940e+02   2.7007152629e+01    0.5130125    0.3830113 -75.62  0.002286589    1.213    0.176
        32 -11.6495    220.6834     12.0745   3.5436477712e+02   2.8371703109e+01    0.3730511    0.2765792  70.47  0.001348057    1.506    0.336
        33 -11.6917    220.9706      7.3972   3.5325199749e+02   2.8785080064e+01    0.2197525    0.1589672 -50.32  0.000306866    1.109    0.098
        34 -11.9747    237.5126      9.5030   3.5289216614e+02   2.5182521468e+01    0.4059928    0.2025254  72.61  0.001579557    2.162    0.537
        35 -12.4689    249.8395     10.8239   3.5260102976e+02   2.2684314356e+01    0.3935882    0.2240812 -33.86  0.001077125    1.475    0.322
        36 -13.4820    244.0246      8.1095   3.5229002025e+02   2.4055956544e+01    0.8344735    0.3205991 -69.94  0.004017673    2.715    0.632
        37 -10.4500    187.0404     14.4197   3.5728088187e+02   3.5798244136e+01    0.3409176    0.1727071 -23.61  0.001585869    2.155    0.536
        38 -10.7299    109.4756     10.6816   5.7334331657e+00   5.6678457641e+01     0.528213    0.3776729  42.52  0.002676583    1.464    0.317
        39 -12.1837    115.4786      7.0041   3.0814293248e+00   5.5388944952e+01    0.6766212     0.348279 -61.81   0.00276946    2.354    0.575
        40 -11.3443    112.4993      4.4890   2.5094517695e+00   5.6426271665e+01    0.3345849    0.2587225  87.00 0.0009586874    1.198    0.165
        41 -10.7074     93.1387     11.6012   9.7608399174e+00   6.0975834436e+01    0.3250861    0.1994976 -26.28  0.001220614    1.797    0.443
        42 -10.9379    143.0024      7.1987   3.5932521151e+02   4.7870011295e+01    0.3983446    0.1740137 -42.26  0.001414913    2.192    0.544
        43 -10.8130    150.1476     13.3068   5.7935647663e-01   4.5357179447e+01    0.2767334    0.2227695 -64.70 0.0006731981    1.158    0.137
        44  -9.8277    146.7578     12.3482   6.6166405926e-01   4.6361851398e+01    0.2169896    0.1449757 -53.30  0.001085731    1.454    0.312
        45 -11.8633    114.7929     12.7843   5.6286308295e+00   5.5019241644e+01    0.6402339    0.4620582 -73.93  0.001210516    1.473    0.321
        46  -9.1267    156.3328      8.6514   3.5836235240e+02   4.4176513471e+01    0.3833348     0.236439 -12.23  0.001838227    2.074    0.518
        47 -10.4361    124.8420      9.5678   2.6290697365e+00   5.2587978764e+01    0.4062743    0.1674407 -33.73   0.00163586    2.404    0.584
        48 -10.2255    130.8582      9.2491   1.6242732970e+00   5.0974023035e+01    0.3298253    0.1952448  21.69  0.001326781    2.540    0.606
        49 -11.7707     87.4052      1.5426   6.0607279734e+00   6.3433444208e+01     0.492201    0.1482269  58.66 0.0006845406    2.523    0.604
        50 -10.5513     78.5384      9.9758   1.3012934815e+01   6.4929056884e+01    0.3234975    0.1579886  48.38  0.001016608    1.833    0.455
        51 -12.1525     76.1848      5.9187   1.1478231837e+01   6.5940232273e+01    0.6664808    0.3879972  42.01   0.00315462    1.652    0.395
        52  -9.4054     81.7464      8.6307   1.1312781105e+01   6.4251932589e+01    0.2212671    0.1260227  58.10  0.001020337    1.517    0.341
        53  -9.7559     84.7692      6.9723   9.5817636829e+00   6.3635540487e+01    0.2422798    0.1868772 -12.43 0.0006197688    1.483    0.326
        54 -10.5583     26.6379      9.6536   4.0171482588e+01   7.5904693404e+01    0.3548033      0.21003  10.71  0.001465757    2.141    0.533
        55 -12.0704    193.9261      8.1259   3.5506329326e+02   3.4789565798e+01    0.2699998    0.2262341 -81.52 0.0008788675    1.103    0.093
        56 -13.4524    173.3253      5.5692   3.5587447813e+02   4.0080781622e+01    0.5055696    0.3018072 -14.56  0.002491793    2.102    0.524
        57  -9.4139    102.1194      9.5841   6.7287806471e+00   5.8778836801e+01    0.2843338    0.1311103  71.56  0.001138368    2.026    0.506
        58 -11.8109     63.4840      7.7662   1.7057214485e+01   6.8857391390e+01    0.5303189    0.2902673  61.35  0.001722996    1.769    0.435
        59 -12.3183     65.5037      2.9062   1.3241860275e+01   6.8881712585e+01    0.3438086     0.258289  56.66  0.001899421    1.182    0.154
        60 -10.3337     48.3443      7.1940   2.3728944161e+01   7.2315849985e+01    0.3147788    0.2780503  42.27  0.001167911    1.109    0.098
        61 -10.0113     44.2896      8.0756   2.6629510668e+01   7.3033794585e+01    0.2570146    0.1804367  -3.43  0.001353135    1.636    0.389
        62  -9.6507    215.5347      8.4435   3.5379757650e+02   2.9849203607e+01    0.1273935   0.09698647 -59.52 6.473699e-05    1.046    0.044
        63 -10.0343     54.3359      7.9983   2.1228041223e+01   7.0922939330e+01    0.1765692    0.1599419  18.10  0.001063502    1.069    0.065
        64  -9.6333    210.3315      5.9924   3.5349845847e+02   3.1236713264e+01    0.1922547    0.1557172  81.17  0.001154393    1.297    0.229
        65 -10.7853    217.5253      2.4079   3.5225682599e+02   3.0011157700e+01    0.2621257    0.1847629 -89.97  0.001047532    1.357    0.263
        66 -10.5295    213.3207      2.3528   3.5245493168e+02   3.0930325502e+01    0.2733638    0.1787717  41.73  0.001517518    2.275    0.560
        67  -9.7343    102.4352      5.2835   4.6795543373e+00   5.9093580548e+01    0.3259062     0.189962   8.72  0.001404751    2.444    0.591
        68  -9.3838     91.2995      6.6331   7.7469816199e+00   6.1953799283e+01    0.1481655    0.1014868 -63.23 0.0007032802    1.731    0.422
        69 -10.7795      3.9254      5.6656   6.0069263514e+01   7.9131906501e+01    0.3947852     0.174392 -13.71  0.001301059    2.783    0.641
        70 -10.8228    184.0844      3.3250   3.5443732373e+02   3.7619270649e+01    0.2649888    0.2190612 -89.39  0.001065311    1.133    0.117
        71 -10.4813    122.4213      3.3797   5.3068781821e-01   5.3808437772e+01     0.262309    0.2020355 -50.38 0.0008004398    1.337    0.252
        72 -11.1362     56.8155      2.9238   1.6686624541e+01   7.0937336480e+01    0.4110632    0.2876288  36.48  0.002221072    1.327    0.246
        73 -10.9206     46.2073      2.4386   2.1464478550e+01   7.3343758576e+01    0.2455631    0.1925108  14.77 0.0004096253    1.272    0.214
        74 -10.1282    232.9820      1.9028   3.5142999217e+02   2.6836801731e+01    0.2911322    0.1308504 -77.62  0.001514686    2.188    0.543
        75  -9.5351    154.8218      1.8002   3.5628741698e+02   4.5203247920e+01     0.186915    0.1635687  58.80 0.0005429372    1.264    0.209
        76  -9.4391    127.4993      2.5614   3.5952248464e+02   5.2490066005e+01    0.1447643    0.1211515 -83.01 8.986553e-05    1.087    0.080
        77  -9.8136    203.0469      1.0000   3.5266434670e+02   3.3356935419e+01     0.179951   0.06457245  80.71 0.0003846492    2.675    0.626
        78 -10.1429    250.4876     97.5177   1.0853007149e+01   1.2162369271e+01    0.2057399    0.1479718 -31.87 0.0007866258    1.118    0.105
        79 -10.2444    250.4973     93.9322   1.0108811984e+01   1.2636347128e+01    0.2525221    0.1578262 -25.43  0.001037858    1.440    0.306
        80  -9.4761    244.5269     96.9596   1.1404338798e+01   1.3213909937e+01    0.1865206   0.09988735 -33.06 0.0004623476    1.521    0.343
        81 -11.2403     74.4811     95.9821   4.9718530368e+01   4.9072026783e+01    0.3144455    0.2756451 -17.67  0.001562997    1.304    0.233
        82 -10.2268     27.2692     96.9509   6.9917250882e+01   5.5136332517e+01    0.2063271    0.1791149 -75.95 0.0005307316    1.084    0.077
        83  -9.7608    225.3143     96.6543   1.3679890601e+01   1.6615022235e+01    0.1330182   0.08919174 -57.33 0.0007047394    1.715    0.417
        84 -10.0033    158.1662     95.5448   2.4681790020e+01   3.0876820320e+01     0.296877    0.1505801  56.91  0.001147395    2.144    0.534
        85 -10.9646     49.8454     95.1504   5.9649412048e+01   5.3134639198e+01     0.207557    0.1746173 -30.95    0.0002829    1.302    0.232
        86 -11.8055     44.7494     92.9690   6.1407010365e+01   5.4369067067e+01    0.3703405    0.2789862  -5.50  0.001780137    1.606    0.377
        87 -10.9618    227.1899     92.0179   1.2403313744e+01   1.6939348697e+01    0.2071826    0.1876634 -88.85 0.0004024254    1.300    0.231
        88 -12.1612    223.6331     87.2432   1.1769481762e+01   1.8288356381e+01    0.4057541    0.3023881 -17.76  0.002359054    1.425    0.298
        89 -10.0671    173.6259    111.9991   2.5722888192e+01   2.4408529292e+01    0.3288049    0.1722582  32.68  0.001266643    2.545    0.607
        90 -11.3758    207.0582     89.8047   1.4588443482e+01   2.1158444822e+01    0.3443635    0.1597058 -44.07 0.0008694673    1.994    0.499
        91 -11.2251    212.9355     90.0009   1.3810174079e+01   1.9953199361e+01    0.2031426    0.1780411 -40.01 0.0004157721    1.017    0.016
        92 -11.2098    112.8635     75.6220   3.0179885337e+01   4.5640445176e+01     0.365481    0.3152319  -9.06 0.0006576576    1.393    0.282
        93 -12.1507    114.2537     86.4568   3.3196314894e+01   4.3029670310e+01    0.6637921    0.2997251  49.29  0.001875582    2.183    0.542
        94 -12.7661    114.8486     80.8159   3.1264600730e+01   4.4088939079e+01    0.8953797    0.6043124 -21.42  0.003621244    2.061    0.515
        95 -10.1205    248.0433     87.4788   9.0200865208e+00   1.3896386430e+01    0.1529572    0.1391085 -36.47 0.0002956199    1.129    0.115
        96 -11.5320    248.9962     83.1169   8.0018294949e+00   1.4310357086e+01    0.2870148    0.2002896 -45.53  0.001828289    1.242    0.195
        97 -11.9158    236.5140     86.2791   1.0021227983e+01   1.6054008700e+01    0.4190314    0.2916727  88.41  0.002404492    2.023    0.506
        98  -9.8606    155.4620     76.6753   1.9934475126e+01   3.4964910804e+01    0.2824931    0.1842328  67.02  0.001240947    1.675    0.403
        99  -9.7631    151.4158     76.4923   2.0721897801e+01   3.5989808966e+01    0.2562505    0.1905156  69.95 -0.0002444447    1.438    0.304
       100 -11.8361    147.8994     84.6605   2.3887596483e+01   3.5347275993e+01    0.5230159     0.421476  78.66  0.001217835    1.390    0.281
       101 -12.2702    147.3537     79.3297   2.2444569048e+01   3.6472092144e+01    0.3759356    0.3090163 -58.17 0.0001950963    1.253    0.202
       102 -10.0929     51.4799     87.4468   5.7137509632e+01   5.4943494808e+01    0.1488179    0.1449584 -40.23 0.0001789783    1.042    0.040
       103 -11.5117     47.8960     85.1552   5.8199851396e+01   5.6031404725e+01    0.3127322    0.2572667  33.72 0.0003981737    1.228    0.186
       104 -11.4019     42.9897     86.2298   6.0718923948e+01   5.6374699350e+01    0.3202614    0.1878703  39.24 0.0009543037    1.715    0.417
       105 -12.2325    162.3288     83.6469   2.0545760681e+01   3.2076053275e+01    0.9808912    0.4709825  45.68  0.003801384    2.242    0.554
       106  -9.8992     30.0742     86.5450   6.6859799108e+01   5.7686078816e+01     0.208043    0.1414376  22.43 0.0004699784    1.538    0.350
       107 -12.1322     86.3536     63.4854   3.4832493885e+01   5.4329000264e+01    0.4629856     0.388711 -64.49 0.0007366047    1.325    0.245
       108 -13.3334     61.5841     43.9586   3.7475396605e+01   6.3534717374e+01    0.7860582    0.6183532 -87.20  0.000880976    1.846    0.458
       109  -9.9332    238.0297     80.9957   8.6958781772e+00   1.6502386722e+01    0.1796479    0.1459407 -41.00            0    1.032    0.031
       110 -11.8422    230.2115     79.1619   9.1534374174e+00   1.8186867850e+01    0.3474551    0.2589501 -38.04  0.001169319    1.123    0.109
       111 -11.0517     82.0098     79.0394   4.1858281773e+01   5.1783188232e+01    0.3577441    0.2592681  20.23 0.0008606061    1.681    0.405
       112 -11.8605     86.8163     76.3375   3.9152393644e+01   5.1411051205e+01    0.3855225    0.3025203 -48.47 0.0003530299    1.308    0.236
       113 -12.1856     83.0831     71.5138   3.8947022759e+01   5.3287769124e+01    0.5516255    0.3845436  44.75 0.0008171531    1.397    0.284
       114 -11.1819     66.7310     70.2784   4.5301070116e+01   5.6788848527e+01    0.4893896    0.2033774  44.38  0.001340115    2.465    0.594
       115 -12.2002     73.9560     74.9404   4.3754854044e+01   5.4335737656e+01    0.7786911    0.5045943  52.04  0.003116395    1.664    0.399
       116 -11.2635    249.8293     73.8960   5.9707467283e+00   1.5364446928e+01    0.3158826     0.256424 -32.95  0.001146442    1.093    0.085
       117 -10.2048    250.2684     67.8326   4.6449486723e+00   1.6060867296e+01    0.3015723    0.1411077 -32.71  0.001248568    1.731    0.422
       118 -11.3107    241.2268     72.6427   6.5361808155e+00   1.7040512657e+01     0.388857    0.1986364  60.03  0.002079274    2.319    0.569
       119  -9.4407    210.5406    112.0000   1.9231259577e+01   1.7035015529e+01    0.2620912   0.07673662  51.45 0.0009213548    3.827    0.739
       120 -10.8238    127.6796     58.7059   2.0428208321e+01   4.5144975703e+01     0.594553    0.2891735  39.76  0.002078205    2.627    0.619
       121 -10.5963    167.3138     51.7040   1.0382650862e+01   3.6050441185e+01    0.5211733    0.2312945  45.92  0.001927042    2.775    0.640
       122 -11.5751    160.6910     50.7892   1.1168948295e+01   3.7863561761e+01    0.4680189    0.3766881   0.34  0.001676015    1.636    0.389
       123 -11.4716    162.7511     56.9967   1.2711525206e+01   3.6404558900e+01    0.4618407     0.394022  61.49  0.002379549    1.188    0.158
       124 -10.3009    156.9032     54.5980   1.2992266255e+01   3.8257815450e+01    0.4678141    0.2226054  63.18  0.001599886    2.083    0.520
       125 -11.5673    145.2854     52.4705   1.4473270219e+01   4.1590333230e+01     1.088382    0.5762557  24.97  0.003037824    5.207    0.808
       126 -10.6128    142.4850     46.4283   1.3008159688e+01   4.3248634189e+01     1.001954    0.5008248 -15.81  0.003366326    3.439    0.709
       127 -10.7263     71.9926    109.9624   5.4063346887e+01   4.5905628168e+01    0.2288331    0.2204768  63.06  0.001212024    1.002    0.002
       128 -12.0282    172.1701     44.5070   7.5321935446e+00   3.5852384879e+01    0.6150191    0.4390331  62.88 0.0004890646    1.407    0.289
       129 -10.8194    196.2076    107.8682   2.0585654071e+01   2.0469113519e+01    0.3943278    0.2371219 -39.01  0.001919497    1.527    0.345
       130 -12.3095    150.5660     41.4946   9.9109298755e+00   4.1830969670e+01    0.6948158    0.4994647  40.97  0.001317642    1.628    0.386
       131 -11.8464    160.8187     40.5170   7.9652743314e+00   3.9289151787e+01    0.5887464    0.5342593 -79.05  0.003339349    1.004    0.004
       132 -11.3776    161.3358     35.8995   6.4460708710e+00   3.9770000623e+01    0.3024433    0.2545468  79.02 0.0006554098    1.128    0.114
       133 -10.1694    124.3606     53.7306   1.9497686518e+01   4.6856458555e+01     0.299356    0.1856432  70.31  0.001239568    1.767    0.434
       134 -11.5710     63.4116    108.2492   5.6948536295e+01   4.7719617320e+01    0.2840944    0.2518447  71.27 0.0004078977    1.146    0.127
       135 -11.1941    131.2910     51.8991   1.7219756447e+01   4.5346941618e+01      0.31108    0.2392349 -47.20  0.001505083    1.323    0.244
       136 -12.1671    160.7558    105.1043   2.6653592079e+01   2.8484159415e+01    0.3154216    0.2721413 -57.89 0.0002609524    1.222    0.182
       137  -9.4622     89.7813     51.5940   2.8964984178e+01   5.5919600010e+01    0.2020254    0.1444728  60.52  0.000510114    1.459    0.315
       138  -9.6530    249.5064     49.9750   9.0592202541e-01   1.8399001689e+01    0.2489624    0.1525666 -14.02 0.0009692435    2.155    0.536
       139 -11.5688    247.9431     42.6116   3.5944631637e+02   1.9557255113e+01    0.4718775    0.1959592 -54.25  0.001095164    2.269    0.559
       140 -11.2275    126.5654     45.3628   1.5961035375e+01   4.7628832013e+01    0.4360414    0.2803813  78.38  0.001867545    1.756    0.430
       141 -10.3322    135.6627     43.3102   1.3279191185e+01   4.5520697468e+01    0.2780231    0.2003273  89.67 0.0009860933    1.519    0.341
       142 -11.6131    133.4945     39.9879   1.2539015061e+01   4.6583052886e+01    0.4178519    0.3626265  76.44   0.00134532    1.079    0.073
       143 -10.3509     34.0882     49.6506   5.5045296540e+01   6.6670338294e+01    0.2145907    0.1898166 -69.82 0.0006975947    1.232    0.188
       144  -9.5974     99.2198     46.9568   2.3913417813e+01   5.4460327570e+01    0.2050927    0.1276409 -37.86  0.000876327    1.693    0.409
       145 -10.0134     88.2708     46.3941   2.7356460061e+01   5.7236453222e+01    0.2882486    0.1372781  46.82   0.00068118    1.992    0.498
       146 -11.0185    133.0496     46.3190   1.4878388309e+01   4.5762435088e+01    0.4178854    0.3283152 -52.16   0.00134543    1.297    0.229
       147  -9.9388    104.1416     44.5937   2.1461072097e+01   5.3615516128e+01    0.3597333    0.2451997   1.58  0.001460461    2.325    0.570
       148 -11.7409     96.7479     42.3613   2.2796768610e+01   5.5858949146e+01    0.6383806    0.2774285  54.12  0.002355508    2.143    0.533
       149 -10.0894     35.4403     42.1623   5.1338511973e+01   6.8224009130e+01    0.2895772    0.2079231  60.43  0.001342697    1.909    0.476
       150 -11.3895    154.8274     42.9549   9.6757122512e+00   4.0509053549e+01    0.3648902    0.3078334  32.34  0.001255819    1.431    0.301
       151 -10.9321    131.7226     32.7616   1.0268992660e+01   4.8058162249e+01    0.5018314    0.2336796 -45.08  0.001792919    2.219    0.549
       152 -11.2695    161.2853     99.9590   2.5196715294e+01   2.9336570448e+01    0.3002925     0.272564 -16.99 0.0008794167    1.162    0.140
       153 -11.6133    144.5089    103.3145   2.9890126357e+01   3.2492917061e+01    0.3937131    0.3313431  16.48  0.001644752    1.379    0.275
       154  -9.9313     86.2901    107.5581   4.8307500064e+01   4.3992786865e+01    0.3146131    0.1453226  41.37  0.001135736    2.073    0.518
       155  -9.8947    121.8642     33.0814   1.2394948490e+01   5.0675257500e+01    0.2154894    0.1870931 -81.58 0.0005919455    1.151    0.131
       156 -10.1211    111.6944     32.8762   1.4655758714e+01   5.3429819630e+01    0.2632731    0.1942527  53.97 0.0006941804    1.271    0.213
       157 -10.0774    241.3989     30.1106   3.5718363772e+02   2.2222714448e+01    0.2874772    0.1907446 -60.45  0.001824246    1.308    0.235
       158 -10.5768     15.6327    106.5951   7.6130364199e+01   5.3420544363e+01    0.2497628    0.2023415 -69.24 0.0005465253    1.160    0.138
       159 -10.5989    210.4529    105.2377   1.7707047082e+01   1.8105603747e+01    0.3051293    0.2702999  85.65  0.001544083    1.378    0.274
       160 -11.4171    153.3153     25.1476   4.1138465467e+00   4.3211588644e+01    0.4925202    0.2876261 -85.21  0.001592362    1.869    0.465
       161 -10.4510    148.1570     25.1257   4.8307684148e+00   4.4588436164e+01     0.241181    0.2212816 -84.89 0.0009456285    1.038    0.036
       162 -10.9876    103.2438     29.0815   1.5210531614e+01   5.6195263603e+01    0.3952878    0.2864148 -51.10  0.001146867    1.514    0.340
       163 -11.2480     90.6680     34.3455   2.1260916758e+01   5.8668659524e+01    0.8767939    0.3057742  52.53  0.003003303    2.560    0.609
       164 -11.1253     97.7564     22.3344   1.3657607439e+01   5.8525014208e+01    0.2766918     0.259029  24.50 0.0007730504    1.152    0.132
       165  -9.5870    114.4869     28.3800   1.2160115468e+01   5.3290233413e+01    0.1520355    0.1323659  56.38 0.0001524192    1.103    0.093
       166  -9.9593    233.4415     26.5433   3.5690872667e+02   2.4180705667e+01    0.1776393    0.1336142  54.12 0.0005579706    1.710    0.415
       167  -9.7252    234.2343     23.5471   3.5618416647e+02   2.4353907600e+01    0.2644004     0.176183 -84.74  0.001646195    1.515    0.340
       168 -10.3976    134.7767     26.1690   7.3032849111e+00   4.8070607168e+01      0.35698     0.247924   9.68 0.0009084076    2.088    0.521
       169 -11.0983    180.9681    243.9511   4.8530684827e+01   1.8029296605e+00     0.202986    0.1615824 -29.70   0.00113786    1.543    0.352
       170 -10.4921    119.3430     21.9841   8.5383587910e+00   5.2769113634e+01    0.2478874    0.1957352  69.47 0.0004344729    1.148    0.129
       171 -15.3571     66.3742     83.0801   4.9449593146e+01   5.3738080815e+01     4.033846     1.246722  39.48    0.0125556    3.071    0.674
       172 -10.5244    130.4719     19.4555   5.5393059120e+00   5.0024988548e+01    0.3465683    0.2567987  52.79  0.001386233    1.352    0.260
       173 -10.9833    112.8004     23.2062   1.0399665152e+01   5.4397752272e+01    0.4779192    0.3312095  35.11  0.002255958    1.670    0.401
       174 -12.2573     97.8198     55.7440   2.7842139034e+01   5.3212605094e+01     1.911002    0.6933749  42.32  0.005943678    3.057    0.673
       175 -10.2865    243.6350     19.2615   3.5469517382e+02   2.2980529053e+01    0.2048792    0.1328603 -71.05 0.0007036116    1.427    0.299
       176  -8.8506    177.2629     22.9086   5.8299708859e-01   3.7283470226e+01    0.5470808    0.2596468  49.84  0.002035566    2.536    0.606
       177 -11.5589    202.0541     20.8326   3.5778435433e+02   3.1559832322e+01    0.3137597    0.2081204 -41.31 0.0005969523    1.322    0.244
       178  -9.6159    218.5059    239.5142   4.1217227981e+01  -1.9810556282e+00    0.1093742   0.07785968   6.50 0.0001637316    1.030    0.029
       179  -9.6740    170.4228     19.7440   3.5892887804e-01   3.9367647765e+01     0.179442    0.1359724 -10.35 0.0009461734    1.670    0.401
       180  -9.0290    151.2852     20.3251   2.7870840855e+00   4.4304561826e+01    0.1399445    0.1057279  38.59 0.0007005579    1.603    0.376
       181  -9.7527    175.0000     18.7868   3.5960769307e+02   3.8311132739e+01     0.195211   0.07505175 -26.95 0.0004196638    2.645    0.622
       182  -9.7644    194.2059     17.8998   3.5764164235e+02   3.3710171720e+01    0.2136425    0.1441599 -57.02  0.001186128    1.284    0.221
       183 -10.2363     15.9351    238.6479   8.3279783928e+01   2.2336072135e+01    0.1669098    0.1451259  81.09 0.0005999196    1.344    0.256
       184 -13.5270     55.4019     72.0004   5.1050151803e+01   5.8296366015e+01      1.24558    0.9759647  11.65  0.002762043    1.429    0.300
       185 -13.3962     97.8969     74.8044   3.4684445051e+01   4.9316260402e+01     1.520944     1.013744 -73.39  0.004555129    2.228    0.551
       186  -9.8617    236.7332    145.9772   2.2420895156e+01   7.6518455140e+00    0.1674375    0.1304366 -20.28  0.000387313    1.048    0.046
       187  -9.4190    214.0393    127.4998   2.2092419443e+01   1.3992251328e+01    0.1655559    0.1285131  41.65 0.0003269549    1.423    0.297
       188  -9.6538    222.1293    124.8823   2.0287233346e+01   1.3001063411e+01    0.1714207    0.1353641  -7.32 0.0003881185    1.274    0.215
       189 -12.1304     41.2145     47.1881   4.9845549650e+01   6.6303487737e+01    0.5710393    0.2912365 -56.67 0.0002349956    2.034    0.508
       190  -9.4399     73.0318    119.0275   5.5631418250e+01   4.3376251178e+01    0.1808339    0.1723694  58.28            0    1.006    0.006
       191 -13.7133    118.0893     62.9365   2.4379141415e+01   4.6835784903e+01     1.234334    0.8919297 -59.47  0.005039235    1.562    0.360
       192 -12.9012    104.8217     65.6875   2.9257265120e+01   4.9587570768e+01    0.7570179    0.5334607  34.62  0.000562723    1.575    0.365
       193  -9.4019    228.5512    119.0000   1.8107947174e+01   1.2786177978e+01    0.2398776   0.07276569  50.40 0.0009230958    3.841    0.740
       194 -10.5932     94.3636     15.9793   1.1570130964e+01   6.0176839669e+01     0.224868    0.2176638 -70.12 0.0004970887    1.115    0.103
       195 -12.9211     51.4896     44.8556   4.3061770714e+01   6.5202341598e+01     1.253721    0.6282294  14.96  0.001918604    4.531    0.779
       196  -9.5893    159.9934     14.0465   3.5970805033e+02   4.2675945969e+01    0.1634937     0.143861 -66.36 0.0003847938    1.064    0.060
       197 -10.1959    203.7723    116.4801   2.1321616521e+01   1.7593909993e+01    0.3602086    0.2399796  79.47  0.001627714    2.728    0.633
       198 -13.5189     79.0620     50.2312   3.2463999183e+01   5.8638975376e+01    0.9174594    0.7498546  33.67  0.001741123    1.227    0.185
       199 -10.2939     90.9742    104.2750   4.5839680313e+01   4.3910119963e+01    0.2268941    0.2001617  41.96 0.0003707769    1.103    0.093
       200 -11.4547    215.9557    100.0947   1.5727198442e+01   1.7848142434e+01    0.3606309    0.2142321 -28.18  0.001828914    1.598    0.374
       201 -11.8647    169.0323     98.5302   2.3232293654e+01   2.7856886725e+01    0.6997604     0.474094   1.90  0.002892208    2.423    0.587
       202 -10.6994     46.9398    101.9854   6.2303158570e+01   5.1681867766e+01    0.2209113    0.2117468  83.81 0.0003028208    1.009    0.009
       203 -13.1921     79.3366     41.3276   2.8495070081e+01   6.0237499295e+01     1.330341    0.4746653  48.28  0.004537192    2.620    0.618
       204 -14.3186     76.4334     58.9211   3.7027113501e+01   5.7436354812e+01    0.8235122    0.4822537  47.98  0.002171007    1.698    0.411
       205  -9.6788     38.2038     12.5210   3.3555239284e+01   7.3539462142e+01     0.166183    0.1173571  26.19 0.0008898857    1.358    0.264
       206 -12.1347    152.0777     98.0907   2.6711517925e+01   3.1794616511e+01    0.6358339    0.4186611 -60.12  0.002726244    1.849    0.459
       207 -11.5566     83.9978     97.8306   4.6622138867e+01   4.6851572343e+01     0.588855    0.3828935 -36.33   0.00173321    1.821    0.451
       208 -10.2254     87.7960     97.6057   4.5185747313e+01   4.6170581769e+01    0.3763329    0.3460976  -3.00  0.001512029    1.215    0.177
       209 -12.6199    199.4397     96.4521   1.7330963593e+01   2.1670246518e+01    0.5999828    0.2879271 -33.33   0.00161892    1.957    0.489
       210 -12.1952    173.8405     56.9004   1.0894687981e+01   3.3662179891e+01    0.3744226    0.2775525  61.78 0.0003842509    1.372    0.271
       211 -10.9146    172.0764    116.6502   2.7167067251e+01   2.3882617989e+01    0.2684134    0.2339118 -68.00 0.0008192524    1.334    0.251
       212 -14.6265    199.2036     80.7283   1.3499239501e+01   2.4189490304e+01     2.547922     1.527689  41.16    0.0120956    2.045    0.511
       213 -12.4965    168.5885     79.0569   1.8065661784e+01   3.1388427817e+01    0.8296986    0.4321613 -45.37  0.001786997    1.880    0.468
       214 -11.4274    154.2509     63.2314   1.6145058987e+01   3.7559763955e+01    0.6850449    0.3348704 -43.48  0.002719641    2.001    0.500
       215 -13.2598    184.7867     61.4217   1.0538269103e+01   3.0359987783e+01     1.335008      1.01584  52.29  0.003765783    1.432    0.302
       216 -10.8052    125.9558    115.9447   3.7994517767e+01   3.3916869468e+01    0.2345151    0.2271713  31.43            0    1.027    0.026
       217  -9.8545    182.8269    115.1666   2.4703662734e+01   2.1931204759e+01    0.2077461    0.1907319 -66.06 0.0004473585    1.224    0.183
       218 -13.0281    143.3410     66.6127   1.9430783019e+01   3.9753765722e+01     1.618126     1.136047  25.08  0.005853187    1.997    0.499
       219 -11.5663    136.8911     59.4045   1.8517066666e+01   4.2644199024e+01     0.833962    0.3643889 -36.65  0.003061082    2.314    0.568
       220 -11.8456    175.5259     70.4948   1.4468529648e+01   3.1153365881e+01    0.9254909    0.5386658 -87.53  0.003548807    2.811    0.644
       221 -12.3267    163.8024     65.5774   1.5079767177e+01   3.4788234964e+01     1.079556     0.490168  54.04  0.004236285    2.192    0.544
       222 -10.5905     65.5034    114.5002   5.7458624183e+01   4.5750605447e+01    0.1540014    0.1468777  66.61  0.000810679    1.007    0.007
       223 -13.4683    242.8990     60.7238   3.7750256967e+00   1.8273366487e+01     1.085397    0.6176744  64.58  0.001295595    2.076    0.518
       224 -13.6709    205.5004     68.2575   9.5273926700e+00   2.4696161995e+01     1.309769     0.458602  58.63  0.003248293    2.994    0.666
       225 -13.7211    217.2514     69.3247   8.3602642240e+00   2.2087329534e+01     1.089431    0.6592494  70.91  0.005534906    1.943    0.485
       226 -13.1273    201.4909     61.8368   8.4122681995e+00   2.6488063481e+01    0.8536063    0.6872331  68.71  0.004965445    1.332    0.249
       227 -13.8815    215.4225     57.7226   5.7743477594e+00   2.4055630784e+01     1.743866    0.9647074  65.36  0.005926523    1.988    0.497
       228 -11.9035    238.2294     51.3256   2.1087051095e+00   2.0320827107e+01    0.3955211    0.2151094 -53.76  0.001593713    1.681    0.405
       229 -12.6726    231.3942     46.5508   1.6108128198e+00   2.2236911040e+01    0.7552748    0.3979304  51.42  0.003661514    2.412    0.585
       230 -11.4706    105.4821     87.1979   3.6140507143e+01   4.4873481957e+01    0.5683948    0.3862484  20.94  0.002273165    2.052    0.513
       231 -13.0182    102.3010     95.6310   3.9661304101e+01   4.3651019454e+01    0.7756283    0.5648707  54.60  0.002026525    1.411    0.291
       232 -11.6903     95.3238     90.2193   4.0433371475e+01   4.6402557204e+01    0.5283281    0.4407034  55.55   0.00151477    1.205    0.170
       233 -11.6113     56.4457     99.2454   5.7766994159e+01   5.1133743192e+01    0.3498677    0.1599081  42.83  0.001305869    2.194    0.544
       234 -11.8573     11.2474     97.3877   7.7042321470e+01   5.6172703613e+01    0.5221733    0.2520083  83.54  0.002198067    2.185    0.542
