#   1 NUMBER                 Running object number                                     
#   2 MAG_AUTO               Kron-like elliptical aperture magnitude                    [mag]
#   3 X_IMAGE                Object position along x                                    [pixel]
#   4 Y_IMAGE                Object position along y                                    [pixel]
#   5 X_WORLD                Barycenter position along world x axis                     [deg]
#   6 Y_WORLD                Barycenter position along world y axis                     [deg]
#   7 A_WORLD                Profile RMS along major axis (world units)                 [deg]
#   8 B_WORLD                Profile RMS along minor axis (world units)                 [deg]
#   9 THETA_WORLD            Position angle (CCW/world-x)                               [deg]
#  10 FWHM_WORLD             FWHM assuming a gaussian core                              [deg]
#  11 ELONGATION             A_IMAGE/B_IMAGE                                           
#  12 ELLIPTICITY            1 - B_IMAGE/A_IMAGE                                       
         1 -14.6283    220.5296      5.4869   3.9118039981e+01   2.9086539095e+01     2.801724     1.629454  51.96   0.00876683    1.948    0.487
         2 -14.0367    179.4350     49.4701   5.6383076163e+01   3.3991046496e+01     1.797391     1.298024  26.01  0.004654091    1.765    0.433
         3 -13.9718    192.5660     38.1033   5.0978905768e+01   3.2209297713e+01    0.9783337     0.849454 -38.66  0.003647452    1.170    0.146
         4 -14.2519    198.9588     30.8102   4.8048207407e+01   3.1525169210e+01      1.15151     1.058157  39.14  0.001428368    1.236    0.191
         5 -11.1992    189.6400     14.7001   4.4700145420e+01   3.5776110897e+01    0.2664361    0.2228358 -70.83 0.0007512033    1.152    0.132
         6 -10.6738     42.0619    205.9518   1.2238536338e+02   2.6878545257e+01    0.2581989    0.2206454 -34.93  0.001362643    1.905    0.475
         7 -11.1204    249.6117    248.5364   8.8640691432e+01  -1.1488186731e+01    0.2748827   0.09736744 -31.28  0.001401105    3.030    0.670
         8 -19.5156     14.2391    144.3756   1.2303557666e+02   4.3183146969e+01     18.71704     5.285478 -79.05   0.07128888    3.379    0.704
         9  -9.5113     57.0352    211.5434   1.1994964134e+02   2.3920124740e+01    0.1869117    0.1366395 -77.20 -5.10083e-05    1.334    0.250
        10 -13.4426     55.3875    200.7130   1.1930302136e+02   2.6340420641e+01    0.4655736    0.3301064 -75.02   0.00174962    1.344    0.256
        11 -10.6952     37.8730    211.5194   1.2360410192e+02   2.6239623472e+01    0.1474814    0.1085835  64.28 0.0002881932    1.104    0.094
        12 -10.5860    152.3556    210.2271   1.0051524813e+02   9.3034451592e+00    0.1702545    0.1255769 -64.60 0.0009432944    1.685    0.407
        13 -11.0523    143.0708    209.6626   1.0232099840e+02   1.1030022101e+01    0.1897543     0.154202  42.72 0.0005661615    1.082    0.076
        14 -11.8539     66.4751    206.3222   1.1760494673e+02   2.3739684749e+01     0.429352    0.2711826 -39.30 0.0005906969    2.830    0.647
        15 -10.6701     72.3668    202.8591   1.1605941505e+02   2.3645208590e+01    0.3573935    0.2071344  77.86  0.001878205    1.858    0.462
        16 -13.1498     32.4056    206.7183   1.2428845929e+02   2.7816040290e+01    0.3514155    0.1525538  56.83  0.001534461    1.969    0.492
        17 -12.0386    194.1431    196.7964   8.9857962623e+01   4.0659513699e+00     1.266765    0.6602536 -58.84  0.004753808    3.927    0.745
        18 -12.2917    202.8662    198.9457   8.8557039472e+01   2.1580200845e+00     0.449858       0.3317  34.84  0.002573757    1.219    0.180
        19 -10.9310     97.0308    200.9982   1.1071349135e+02   2.0387454143e+01     0.360786    0.2821068  17.09  0.002047566    1.828    0.453
        20  -9.1101     87.5033    202.4656   1.1288744469e+02   2.1543825679e+01    0.1265532    0.1100823  67.94 0.0001311311    1.070    0.065
        21  -9.5336    161.3036    199.9832   9.7041327078e+01   9.5182873903e+00    0.1738197    0.1726293 -10.87 0.0003603308    1.128    0.113
        22 -12.3333    134.1920    198.6880   1.0250990699e+02   1.4638799364e+01    0.3374923    0.2770043 -27.51  0.001927074    1.566    0.361
        23 -12.1451    129.8329    197.9932   1.0333007645e+02   1.5539822400e+01    0.3672818    0.2358711  78.56  0.001620788    2.278    0.561
        24 -12.2342     29.2474    197.0585   1.2419660469e+02   3.0139227973e+01    0.1930446    0.1472747  69.91 0.0005368041    1.083    0.077
        25 -16.0911     70.0658    146.6427   1.0931069058e+02   3.6582152842e+01     12.32413     5.683401  81.55   0.02182337   10.422    0.904
        26 -10.0048    183.3309    205.3285   9.3500798109e+01   4.6216256039e+00    0.1374389   0.09741952   9.21 0.0007051561    1.714    0.416
        27 -11.4003    151.6295    196.0208   9.8395744230e+01   1.2009534408e+01    0.3203055    0.1849353  41.69 0.0009855442    1.556    0.357
        28 -10.0458     82.2066    195.0482   1.1312780506e+02   2.3869781314e+01    0.2188725    0.1717828  52.73 0.0007659699    1.172    0.146
        29 -10.5538     59.0308    193.0358   1.1780950450e+02   2.7494829027e+01    0.2572553    0.1502427  62.92  0.001296441    1.586    0.370
        30 -13.3850     64.9787    187.6130   1.1597009555e+02   2.7882936812e+01    0.7248152    0.6620367 -45.58  0.004386847    1.472    0.321
        31 -10.7351     95.8291    189.8736   1.0952380793e+02   2.2891509946e+01    0.3391811      0.25453  32.07   0.00119878    1.521    0.343
        32 -10.5887     53.9461    231.7047   1.2213956908e+02   2.0428540474e+01    0.2113994    0.1290419  81.20  0.001356176    1.474    0.321
        33  -9.4853     61.9246    220.0970   1.1975076332e+02   2.1605427895e+01    0.2516485    0.1364055  72.16  0.001395233    1.817    0.450
        34 -10.6562    141.4991    188.9814   9.9383396141e+01   1.5217768284e+01    0.2048608    0.1390378 -53.01  0.001039711    1.611    0.379
        35 -10.4342    153.4335    184.6829   9.6056368441e+01   1.3833718512e+01    0.2568443    0.1399482 -53.76  0.001099549    2.094    0.522
        36  -9.1825     72.1830    231.5631   1.1882030616e+02   1.8076054965e+01    0.1153588   0.06905501  79.23 0.0003781133    1.670    0.401
        37 -12.6603    146.0014    182.1321   9.7219519937e+01   1.5738712684e+01    0.5484769    0.4006451 -77.81  0.001480179    1.803    0.445
        38 -11.9314    141.6319    174.8166   9.6871430302e+01   1.8051027486e+01    0.5667753    0.3740275  77.78  0.002114994    2.345    0.574
        39 -11.2083     99.3501    180.8369   1.0746730340e+02   2.4273160972e+01    0.2613029    0.2315164  55.51 0.0005941526    1.104    0.095
        40 -10.6248    204.4574    176.0056   8.3824268471e+01   5.6076433517e+00    0.3241345    0.2630104 -42.80 0.0009679936    1.361    0.265
        41 -10.3800    196.7962    176.1748   8.5371929033e+01   7.0461882968e+00     0.323126    0.2635499  43.45  0.001518572    1.228    0.186
        42 -10.7379     58.6337    176.4002   1.1610271236e+02   3.1191624126e+01    0.2257117    0.1824961  73.71 0.0005081004    1.070    0.066
        43 -10.5187     37.5719    176.4596   1.2076084872e+02   3.3676032192e+01    0.3218258    0.1413691  51.73  0.001606023    2.136    0.532
        44 -10.3357    188.6360    174.8407   8.6751614082e+01   8.8662701182e+00    0.2930865    0.2401029 -64.66  0.001012701    1.579    0.367
        45 -10.5739     29.6285    218.5511   1.2559329005e+02   2.5777920169e+01    0.2122627    0.1579062 -32.41  0.001326983    2.757    0.637
        46 -11.2773     44.7078    172.7389   1.1882025117e+02   3.3707694806e+01    0.5657499    0.2205239  47.26  0.002626468    2.400    0.583
        47 -10.8472    229.9670    165.9988   7.6953832557e+01   2.4659556001e+00    0.2023199    0.1752115 -72.33 0.0009166194    1.704    0.413
        48 -10.4737     64.8758    173.2917   1.1431745117e+02   3.1076335310e+01    0.3967752     0.135466  55.30  0.001386385    3.763    0.734
        49  -8.8171     49.5952    216.9939   1.2181900470e+02   2.3769701088e+01    0.2834766    0.2074664   6.74   0.00162525    2.836    0.647
        50 -12.3930     94.2702    153.2134   1.0425238042e+02   3.1360555570e+01    0.6559004    0.4691046 -29.70  0.002208789    1.993    0.498
        51 -11.5338    133.9265    145.9539   9.2960096631e+01   2.5774298638e+01      1.26886     0.322878 -55.03   0.00297533    5.995    0.833
        52  -9.8033    113.0083    150.8038   9.9117202951e+01   2.8678295648e+01    0.2499104     0.161582  69.19 0.0008214006    2.002    0.500
        53 -10.6848    174.5553    149.0348   8.4241867659e+01   1.6650233814e+01    0.2829933    0.2621836  59.97 0.0008731991    1.143    0.125
        54 -10.4647    143.5947    145.7970   9.0593580222e+01   2.3845239661e+01    0.2198216    0.1444952 -59.45 0.0009552995    1.703    0.413
        55 -10.3626     86.9377    143.7007   1.0443403846e+02   3.4783999418e+01    0.3588025    0.1859833  63.04  0.001363265    2.798    0.643
        56 -11.5230    107.1798    138.8401   9.8207791180e+01   3.2512315671e+01    0.5091364    0.4871446 -30.10  0.002255303    1.170    0.145
        57 -12.4263     94.3209    138.7386   1.0156178203e+02   3.4767353363e+01    0.2791957    0.2672246 -39.39 0.0004696941    1.173    0.147
        58 -11.1292    105.9114    130.7394   9.6824146881e+01   3.4644094680e+01    0.3804678    0.3142276 -68.98  0.001157727    1.207    0.171
        59 -11.1519    135.6167    127.7260   8.8402920359e+01   2.9502465834e+01    0.7512849     0.173213 -49.41  0.001902929    4.622    0.784
        60 -11.0677    114.2425    129.6778   9.4374729829e+01   3.3343916863e+01    0.3401003    0.2869695   7.11 0.0007754123    1.494    0.331
        61  -9.9659    161.0056    128.0010   8.2341295884e+01   2.3927108247e+01    0.2572463    0.1993392 -85.02  0.001145978    1.739    0.425
        62 -11.1239    101.5464    125.6406   9.6881151802e+01   3.6630190766e+01    0.2795303    0.2383317 -21.35 0.0005367695    1.412    0.292
        63 -10.9659    119.6856    123.7041   9.1548888296e+01   3.3668234129e+01    0.4040276    0.2777251 -20.19  0.001655068    2.164    0.538
        64 -10.1291    109.7365    118.9303   9.3084790307e+01   3.6699637521e+01     0.234472    0.2149546  48.79 0.0005014279    1.129    0.114
        65 -10.0386    167.5990    112.4326   7.6866372314e+01   2.5646074772e+01    0.3450494    0.2459001 -74.59  0.001424124    2.011    0.503
        66 -11.3955    118.6470    110.6996   8.8593349495e+01   3.6844873715e+01    0.6655511    0.4133464  65.66  0.002613907    2.311    0.567
        67 -10.2309    205.4673    110.1656   6.8507147126e+01   1.7252339894e+01    0.3184571    0.2170267  41.95 0.0008470519    1.558    0.358
        68  -9.6551    134.6653    106.1058   8.3117403379e+01   3.4484670733e+01    0.3205735    0.1393704 -50.85  0.001087926    2.481    0.597
        69 -10.3471     65.1063    100.0179   1.0174141228e+02   4.8443034911e+01    0.3408271    0.2175235  32.44   0.00135047    1.773    0.436
        70  -9.1846    155.4877     81.4552   7.0906529928e+01   3.4666613230e+01     0.155135    0.1534763   4.90 0.0002212109    1.019    0.018
        71  -9.0278    184.3556     77.3125   6.3642363702e+01   2.8247132416e+01    0.1615065    0.1204015  21.18 0.0007044293    1.736    0.424
        72  -9.8031     66.6874     71.0142   9.3457866572e+01   5.4760153141e+01    0.2043119    0.1868234  46.33 0.0004227851    1.282    0.220
        73 -10.8110     44.0230    210.2770   1.2234793273e+02   2.5773482115e+01    0.2611341    0.1628511 -84.98 0.0009553668    1.423    0.297
        74 -11.2423    158.4418    237.6188   1.0325552166e+02   3.7945912273e+00    0.3299808      0.20272 -48.09  0.001917345    2.009    0.502
        75 -10.4515     43.4274    236.5917   1.2432295154e+02   2.0815173919e+01    0.1190503   0.09935467  72.71 0.0009193565    1.232    0.188
        76  -9.8691    168.9335    235.6429   1.0101159961e+02   2.3711757918e+00    0.1738397    0.1565917  -1.36  0.000468087    1.260    0.206
        77 -11.2396    157.4073     59.5815   6.3725453110e+01   3.8055435067e+01    0.3539651    0.2749293 -86.11 0.0005611609    1.588    0.370
        78 -10.9950    159.8080     53.5240   6.1304766378e+01   3.8414059945e+01    0.2692513     0.261283 -44.30 0.0004050936    1.048    0.045
        79  -9.7135     37.1277    224.5522   1.2464102617e+02   2.3786848315e+01    0.1167007    0.1014735  34.59  0.000442152    1.625    0.385
        80 -11.1994     60.6799    233.2413   1.2104879709e+02   1.9290459639e+01    0.1954302     0.135964  65.68 0.0004490158    1.113    0.102
        81  -9.5790     81.4992     15.5639   6.6812497330e+01   6.1638141899e+01    0.1307489     0.113262  14.47 9.492072e-05    1.028    0.027
