#   1 NUMBER                 Running object number                                     
#   2 MAG_AUTO               Kron-like elliptical aperture magnitude                    [mag]
#   3 X_IMAGE                Object position along x                                    [pixel]
#   4 Y_IMAGE                Object position along y                                    [pixel]
#   5 X_WORLD                Barycenter position along world x axis                     [deg]
#   6 Y_WORLD                Barycenter position along world y axis                     [deg]
#   7 A_WORLD                Profile RMS along major axis (world units)                 [deg]
#   8 B_WORLD                Profile RMS along minor axis (world units)                 [deg]
#   9 THETA_WORLD            Position angle (CCW/world-x)                               [deg]
#  10 FWHM_WORLD             FWHM assuming a gaussian core                              [deg]
#  11 ELONGATION             A_IMAGE/B_IMAGE                                           
#  12 ELLIPTICITY            1 - B_IMAGE/A_IMAGE                                       
         1 -12.0263    213.2197     37.0805   3.7873502994e+01   2.7809863734e+01    0.9135983    0.6749774 -51.45  0.004586011    1.232    0.189
         2 -11.1312    221.0276     29.7446   3.5414302370e+01   2.7007784343e+01    0.5208502    0.4230726  59.27   0.00126057    1.417    0.294
         3 -11.7331    232.0816     19.7496   3.2297146013e+01   2.5837238488e+01    0.6950858    0.5531067 -59.71  0.002960605    1.098    0.089
         4  -9.9549      1.9350      9.0239   8.8957275991e+01   7.3625376294e+01    0.4910589    0.1042392 -45.32  0.002046238    3.643    0.726
         5  -8.8499    250.0579      2.1600   2.7598508837e+01   2.4149204769e+01    0.2210304    0.1469332 -59.94  0.001524134    1.169    0.145
         6 -10.9172      9.7790    244.4298   1.2377940524e+02   2.0799881026e+01    0.4830015    0.2881339  87.30   0.00187103    1.435    0.303
         7 -13.3510     41.8730    248.6623   1.1804926335e+02   1.6524378191e+01     4.370775     1.051042  29.01   0.01360635    6.416    0.844
         8 -13.3176      9.3118    207.7375   1.2188352630e+02   2.8479497565e+01     1.824584    0.9703574 -85.45  0.007875528    1.612    0.380
         9 -11.4471     27.8690    204.2990   1.1767626205e+02   2.7453921394e+01    0.4544363    0.3841412 -36.63 0.0009146954    1.621    0.383
        10 -14.0708     37.8119    193.5391   1.1447447764e+02   2.8889296217e+01     9.522596     3.652278  81.23   0.02844956    5.392    0.815
        11 -10.6630     76.7760    225.5159   1.0884927299e+02   1.6775871768e+01    0.5167341    0.2715755 -85.81  0.002331969    2.550    0.608
        12 -10.2948     76.0785    220.4307   1.0845233944e+02   1.7958500583e+01    0.4509418    0.1945746  53.51  0.001900595    2.429    0.588
        13 -10.5191     22.5879    224.4174   1.2022541624e+02   2.3580181026e+01    0.3913767    0.2002498  60.80  0.002180045    1.705    0.414
        14 -10.4343     57.7764    241.3173   1.1436229741e+02   1.6039371785e+01    0.3385966    0.2480719  85.70 0.0005960692    1.320    0.242
        15  -8.5008     32.8304    222.5933   1.1801121478e+02   2.2878922952e+01    0.1928043    0.1255526 -89.89 0.0006475447    1.393    0.282
        16 -10.6066     14.5607    248.9562   1.2313932711e+02   1.9447477557e+01    0.3794353    0.3237072  79.14  0.001234221    1.237    0.191
        17 -10.9110     84.2822    234.2223   1.0814475576e+02   1.3925349230e+01     0.383746    0.2855849  22.68  0.001556221    1.548    0.354
        18  -9.8780     43.5421    218.7986   1.1545238950e+02   2.2486036516e+01    0.2598893    0.1830179  75.24 0.0004150433    1.274    0.215
        19 -12.1409      3.1062    244.3572   1.2496856442e+02   2.1455759065e+01     1.829273    0.3736047 -79.14  0.007270805    4.482    0.777
        20 -12.0683     11.3416    232.3107   1.2288045712e+02   2.3063973780e+01      1.08454    0.5486433  78.03  0.004673311    1.749    0.428
        21 -10.0037     21.3238    194.5031   1.1836165986e+02   3.0360653960e+01    0.3571392    0.1178858  27.85  0.001428066    3.271    0.694
        22 -10.2104     57.0872    177.6042   1.0792321814e+02   3.0484276061e+01    0.4534072    0.2880763 -34.58  0.001554583    2.179    0.541
        23 -10.1741     62.8201    172.1445   1.0567865406e+02   3.1105885456e+01     0.315928    0.2785349 -25.12 0.0005773872    1.375    0.273
        24 -10.5421    134.7754    230.8907   9.6671777078e+01   6.9371842093e+00    0.4291718    0.2351937 -44.59  0.002083326    2.088    0.521
        25 -10.1182     73.2620    162.6080   1.0138306505e+02   3.2078241217e+01     0.394405    0.2742144 -57.55 0.0006126725    1.372    0.271
        26  -9.8665     83.4905    163.6477   9.8721056742e+01   3.0298808726e+01    0.3867543    0.2347167  59.70  0.001637822    2.005    0.501
        27 -11.6872     59.9631    158.7038   1.0448339287e+02   3.4879023041e+01    0.5440043    0.3135061 -41.17  0.001309049    2.040    0.510
        28 -10.8804     80.9386    155.9157   9.8073479301e+01   3.2645753047e+01    0.7432883    0.4543436 -29.86  0.001607041    2.322    0.569
        29 -10.7634    124.8870    231.4834   9.8930491668e+01   8.3836409590e+00    0.3652747    0.2657254  33.27  0.002057187    1.224    0.183
        30 -11.8656     68.6480    145.4307   9.9751953429e+01   3.7121691746e+01     1.054255    0.6543459 -88.44  0.003826546    2.172    0.540
        31 -10.4023    146.5625    229.0128   9.3810101669e+01   5.4081539988e+00    0.5705093    0.1679958  38.19  0.002051967    2.918    0.657
        32  -8.8792     96.0331    142.5097   9.1074180287e+01   3.3598244185e+01    0.3233936    0.2818258 -32.46 0.0008946836    1.203    0.169
        33  -8.2120     99.1844    139.2211   8.9439434526e+01   3.3873947743e+01    0.2693892    0.1648394 -19.42  0.000950205    2.811    0.644
        34 -10.6029     83.8564    140.7918   9.4315150721e+01   3.6044800251e+01    0.3508851    0.2776121 -48.63 0.0004190456    1.221    0.181
        35 -10.3270     85.5007    221.4856   1.0645431881e+02   1.6397363406e+01     0.413855    0.2989414 -70.25  0.001072902    1.471    0.320
        36  -9.8469     71.2911    132.3968   9.6434838317e+01   4.0089601285e+01    0.3946622     0.265689  71.56  0.001709854    2.055    0.513
        37  -9.0957    107.1786    131.2170   8.5262877517e+01   3.4400647612e+01     0.406644    0.2955381  26.97   0.00151283    1.505    0.336
        38 -10.0662     57.1693    130.3376   1.0047023950e+02   4.2520914270e+01    0.3186471     0.195165 -71.22  0.001441069    1.678    0.404
        39  -9.2180     94.7440    127.4956   8.8095811709e+01   3.7574481007e+01    0.2833991     0.254094 -38.33 0.0004105833    1.094    0.086
        40  -9.0735     12.0005    128.7313   1.1431827543e+02   4.7243584092e+01    0.1721051    0.1578339 -70.38 0.0005063958    1.119    0.106
        41  -7.9116    105.5190    119.5151   8.2874232641e+01   3.7550492384e+01    0.1583507    0.1505086 -24.23  0.000194868    1.038    0.037
        42  -7.8934     52.6593    109.3285   9.7651570382e+01   4.8384450820e+01    0.1453411    0.1096679  72.10 0.0007051529    1.739    0.425
        43  -7.7016     41.2776     91.9887   9.7766548783e+01   5.3877945369e+01    0.1795391    0.1100076 -56.36 0.0005496733    1.449    0.310
        44  -8.5982     52.6953     90.5822   9.3106106851e+01   5.2901203760e+01    0.1851105    0.1325449  37.35 0.0009450777    1.568    0.362
        45 -10.3637      2.2637     70.4532   1.0851533288e+02   6.1765989152e+01    0.5216078    0.2661849 -87.65   0.00232042    3.034    0.670
        46  -9.5859     13.1560     59.7618   1.0121544076e+02   6.3513925053e+01     0.204869    0.1543713 -60.22 0.0006983193    1.323    0.244
        47  -8.2373     32.4773     54.8373   9.0883208927e+01   6.2931120331e+01    0.1892808    0.1135924 -48.19   0.00100399    1.513    0.339
        48  -9.5789      1.6164     48.7890   1.0368588967e+02   6.6451401906e+01    0.3456741    0.1078033 -64.48  0.001395743    3.242    0.692
        49 -11.6964    205.2569     42.0693   3.9961881506e+01   2.8958909526e+01    0.5424556    0.4487118  76.89  0.002093558    1.166    0.142
        50  -8.6403     51.4706    238.6816   1.1542567050e+02   1.7351850761e+01    0.2997316    0.1467451  64.17  0.001098228    2.086    0.521
        51 -10.1417    112.1332    235.8587   1.0229715441e+02   9.5092782782e+00    0.2691249    0.2512782  70.44 0.0009353391    1.139    0.122
        52  -8.2237    130.7928     38.4327   5.1044110707e+01   4.7394616607e+01    0.2587193    0.1326857  63.25 0.0007576288    1.949    0.487
        53  -9.3925      2.3126     37.1957   9.9904575731e+01   6.8718808655e+01     0.251757   0.06260765 -50.86  0.001089857    2.634    0.620
        54 -11.3302    113.8497    231.0306   1.0130476691e+02   1.0187437005e+01    0.4093787    0.3608133  55.89  0.002558666    1.101    0.092
        55 -11.6753    108.7829    228.8258   1.0214217072e+02   1.1403493294e+01    0.5852702    0.4528169   5.74  0.003252068    1.664    0.399
