#   1 NUMBER                 Running object number                                     
#   2 MAG_AUTO               Kron-like elliptical aperture magnitude                    [mag]
#   3 X_IMAGE                Object position along x                                    [pixel]
#   4 Y_IMAGE                Object position along y                                    [pixel]
#   5 X_WORLD                Barycenter position along world x axis                     [deg]
#   6 Y_WORLD                Barycenter position along world y axis                     [deg]
#   7 A_WORLD                Profile RMS along major axis (world units)                 [deg]
#   8 B_WORLD                Profile RMS along minor axis (world units)                 [deg]
#   9 THETA_WORLD            Position angle (CCW/world-x)                               [deg]
#  10 FWHM_WORLD             FWHM assuming a gaussian core                              [deg]
#  11 ELONGATION             A_IMAGE/B_IMAGE                                           
#  12 ELLIPTICITY            1 - B_IMAGE/A_IMAGE                                       
         1 -14.8912     68.3975    144.3089   1.0977562315e+02   3.7312486994e+01      5.27854     2.581848  68.63    0.0102426    3.430    0.708
         2 -14.4832    195.9112     36.5063   5.0457191214e+01   3.1670453842e+01      1.93269     1.459505   9.31  0.006834363    1.792    0.442
         3 -14.6915    206.1548     25.1813   4.5994519174e+01   3.0510444919e+01     1.968052     1.407853  13.18  0.002514341    2.040    0.510
         4 -10.6251     64.4211      8.9839   7.0237478407e+01   6.5660200710e+01    0.2111218    0.1760236  53.37  0.000688053    1.566    0.362
         5 -12.4293    229.7098      2.3373   3.7913371412e+01   2.7339681083e+01    0.7567644    0.2786182  74.58  0.003001069    2.547    0.607
         6 -11.4528     32.5991      4.0403   8.1348750818e+01   7.0993290666e+01    0.2307393    0.1769128 -28.21  0.001600517    1.323    0.244
         7 -11.4981     57.1729      2.8378   6.9878863880e+01   6.7576550015e+01    0.2493769     0.160156  32.29  0.001491262    1.412    0.292
         8 -10.0113     41.3381      2.3245   7.6283319932e+01   7.0059600601e+01    0.1262039    0.0758628   4.23 0.0007051241    1.722    0.419
         9  -9.9489    106.7222    210.0061   1.1015818884e+02   1.7061947635e+01    0.1773654     0.149436  67.37 0.0005091134    1.049    0.046
        10 -10.8760    139.8151    248.7357   1.0840995584e+02   5.1422317283e+00     0.377935     0.177763 -59.88  0.001953795    2.939    0.660
        11 -14.5668     86.3759    228.3152   1.1615558400e+02   1.6686371484e+01     2.190593     1.127683  45.77  0.006209838    1.597    0.374
        12 -16.4974     52.6494    201.4859   1.2020808188e+02   2.6486011312e+01      4.83206     3.613651 -80.13   0.02900012    1.253    0.202
        13  -9.5598     99.4405    186.9895   1.0868910673e+02   2.2909062012e+01    0.2171736    0.1651126  74.98  0.001223759    1.292    0.226
        14  -9.6611    150.4939    187.5374   9.7596024727e+01   1.3844992106e+01    0.2154371    0.1398519 -50.77 0.0007197886    1.691    0.409
        15 -10.4541    147.6074    185.2066   9.7814802186e+01   1.4837026885e+01    0.2657787    0.2087735  79.16 0.0009102544    1.552    0.356
        16 -16.4905     63.5156    247.7910   1.2187325924e+02   1.6344265561e+01     8.406387     2.600971  31.85   0.02626533    7.575    0.868
        17 -10.2527     99.4302    180.6883   1.0779683651e+02   2.4267664523e+01    0.2325496    0.2205313  68.93 0.0005988164    1.139    0.122
        18 -10.1498    114.1620    200.1724   1.0733165568e+02   1.7783495670e+01    0.1852764    0.1392228  68.24 0.0003984227    1.311    0.237
        19 -12.9906     51.4349    147.1019   1.1452145347e+02   3.8800212496e+01     1.309015    0.4596827  31.64   0.00529736    3.229    0.690
        20 -13.0981     84.2404    162.6836   1.0866778421e+02   3.0699213177e+01      1.26709    0.4876412  56.32 0.0004995738    3.664    0.727
        21 -13.8294     72.8199    157.9393   1.1073500067e+02   3.3473662461e+01     0.584951    0.5113388 -45.68  0.001552036    1.369    0.270
        22 -17.8107      6.1621    239.7018   1.3082182419e+02   2.4261590326e+01      11.3199     1.366288 -77.77   0.01857374    6.830    0.854
        23 -10.8051     52.6399    171.0647   1.1718138605e+02   3.3089780420e+01    0.6104472    0.1847004 -64.87  0.002320793    2.838    0.648
        24 -10.9813    209.1503    198.3719   8.7668937982e+01   1.1773445947e+00    0.2354522    0.1924902 -41.57 0.0008945374    1.440    0.305
        25 -13.4383     21.5718    193.4768   1.2569862051e+02   3.1624537459e+01    0.5201658    0.3242653  56.45 0.0004889873    1.380    0.275
        26  -9.6222    204.8740    167.3585   8.2403840454e+01   7.0373277432e+00    0.2826241    0.1230339  34.05  0.001052451    2.627    0.619
        27  -9.6132    162.0541    167.0758   9.1268361441e+01   1.5636218727e+01    0.2215282    0.1769739  82.06 0.0004880358    1.617    0.382
        28  -9.7529    230.3065    166.6317   7.7469973357e+01   2.3307552647e+00    0.1304915    0.1095114 -66.53   0.00070354    1.753    0.430
        29  -9.4720    192.5032    164.9476   8.4370554554e+01   9.9150444472e+00    0.2191506    0.1902587  32.37 0.0006859897    1.099    0.090
        30  -9.7370    170.6810    162.0125   8.8349001760e+01   1.4896713246e+01    0.2657363    0.2068701  72.00  0.001291761    1.637    0.389
        31  -9.0118    156.4310    159.5031   9.0983149472e+01   1.8306951254e+01    0.1462798    0.1417737  53.92 4.138744e-05    1.022    0.021
        32 -12.3507     90.9402    155.5890   1.0590061746e+02   3.1304532321e+01    0.6036533    0.4455328 -29.25   0.00300222    1.941    0.485
        33 -11.2950    134.0000    145.9696   9.3404391940e+01   2.5748261552e+01     0.959686    0.2211924 -51.87  0.002484203    4.829    0.793
        34 -10.8719    133.0000    140.0080   9.2360237763e+01   2.7282265866e+01    0.5330122    0.1942065 -51.28  0.001772827    2.822    0.646
        35  -9.9205     82.0840    194.8579   1.1345795546e+02   2.3900927334e+01    0.2440828    0.1797474  65.09  0.001059436    1.200    0.166
        36 -10.8941    174.3383    148.5232   8.4638357763e+01   1.6814357916e+01    0.3756867    0.2965409 -65.29  0.001558053    1.533    0.348
        37  -9.4134    109.2343    147.2924   9.9821555051e+01   3.0144318551e+01    0.1961954    0.1592496  78.84 0.0003694853    1.314    0.239
        38 -10.5926    143.8548    145.7542   9.0985084978e+01   2.3800152572e+01    0.3032708    0.2062231 -77.76  0.001256671    2.148    0.535
        39 -10.3874     86.5707    145.5520   1.0528596992e+02   3.4357403704e+01    0.2793489    0.2155092  76.95 0.0002630069    1.357    0.263
        40 -10.9039    103.3066    141.3607   1.0017477844e+02   3.2578504655e+01    0.3366937    0.2944913  30.38  0.001388756    1.290    0.225
        41 -10.5259    105.6689    138.6134   9.9010669286e+01   3.2807750857e+01    0.4024537    0.2338621 -54.99   0.00100542    1.665    0.399
        42 -12.4864     91.6646    140.5141   1.0304455495e+02   3.4743188856e+01    0.2854628    0.2507756 -56.78 0.0003939908    1.143    0.125
        43 -11.3217     47.2614    172.9525   1.1859436441e+02   3.3305505071e+01    0.4062262    0.2510698 -63.85  0.001186592    1.541    0.351
        44  -9.7207     38.8658    137.8578   1.1650300464e+02   4.2383898533e+01    0.1844773    0.1499676 -62.43 0.0002732892    1.203    0.169
        45 -10.6423    106.0376    130.8124   9.7277900769e+01   3.4577599594e+01     0.345639    0.3007675 -72.19   0.00122937    1.125    0.111
        46 -10.4241    112.6896    130.5451   9.5455515589e+01   3.3415497141e+01    0.3246989    0.2701683   2.70 0.0007970599    1.574    0.365
        47 -11.2709    135.7828    128.0617   8.8929271264e+01   2.9391682009e+01    0.5433769     0.245961 -46.99  0.001998476    2.191    0.544
        48 -10.1886    135.0000    120.9087   8.7386831337e+01   3.1155882206e+01    0.6925105   0.08753959 -45.57  0.001324425    7.856    0.873
        49 -10.3370    160.2725    127.8692   8.2965203745e+01   2.4132899736e+01     0.425811    0.2818889 -53.47  0.001844378    1.622    0.384
        50 -11.2242     99.9351    127.0005   9.8097057858e+01   3.6563358890e+01    0.3610341    0.2633489 -26.90 0.0008923656    1.811    0.448
        51 -11.5944    119.4847    124.2177   9.2214589513e+01   3.3578013774e+01     0.641212    0.4323997 -26.10  0.002711384    2.036    0.509
        52 -15.4164     10.1114    206.5451   1.2862214837e+02   3.0080868433e+01    0.6864496    0.5413259 -70.64  0.002871064    1.511    0.338
        53 -10.0935    108.7134    119.4132   9.3976256581e+01   3.6761958209e+01    0.2356285    0.2161582 -70.41  0.000338458    1.063    0.060
        54 -11.4941     23.5981    120.0657   1.1825296901e+02   4.8022853148e+01    0.3236781    0.1451279  39.21  0.001323267    2.443    0.591
        55 -10.1510    135.0000    112.1151   8.5145625155e+01   3.3108520547e+01    0.5375465    0.1332035 -44.59  0.001434125    3.981    0.749
        56 -10.2930    134.7495    104.7831   8.3253470288e+01   3.4768994085e+01    0.7179354    0.1966941 -40.74  0.001939829    3.934    0.746
        57  -9.8926    167.5533    112.3747   7.7357633638e+01   2.5696364344e+01    0.3453851    0.2453089 -72.60  0.001209133    1.975    0.494
        58 -12.1043    118.4091    109.0314   8.8739385039e+01   3.7268457325e+01    0.7550055    0.5478332 -50.87  0.003548284    1.340    0.254
        59 -11.7959     20.6004    111.3438   1.1791915947e+02   5.0320360132e+01    0.3971665    0.1690436  39.85  0.001945344    2.628    0.619
        60 -10.1035    205.4149    110.1850   6.8991901717e+01   1.7294607535e+01    0.3251904    0.2155884  41.47  0.001055815    1.610    0.379
        61 -10.4076     59.7634    108.4010   1.0572645006e+02   4.7095231831e+01    0.1728776    0.1359191  10.79 0.0009461603    1.630    0.386
        62 -11.0142     46.7001    110.5037   1.1007919858e+02   4.8117096657e+01     0.257567    0.2359629  61.96  0.001649588    1.214    0.176
        63 -10.4982    241.6096    101.8248   6.0827298444e+01   1.0731976199e+01    0.2116529    0.1174379 -42.86 0.0007240603    1.663    0.399
        64  -9.9783     60.3527     97.3422   1.0314711457e+02   4.9649247303e+01    0.2553853    0.1470326  55.10   0.00114673    2.320    0.569
        65 -11.3730     53.3334     91.3335   1.0404206728e+02   5.1914742591e+01    0.5253163    0.2195395 -56.26  0.002219502    2.003    0.501
        66 -11.2997     41.9375     91.7894   1.0790481179e+02   5.3052268023e+01    0.2607602     0.237166 -28.87 0.0006167935    1.209    0.173
        67  -9.9587     36.3505     83.0143   1.0789069592e+02   5.5625984437e+01    0.1892895    0.1401564 -59.30  0.000459722    1.124    0.111
        68  -9.4104    157.0087     80.5104   7.0788479780e+01   3.4530772606e+01    0.2330789    0.1557592  53.70 0.0004124549    1.516    0.340
        69 -10.2831     61.2426     68.5611   9.5242902088e+01   5.6029210997e+01    0.2718204    0.2243183  62.63 0.0008050279    1.602    0.376
        70 -11.3387    172.9578     60.0025   6.1206724628e+01   3.4121247350e+01    0.3333399    0.2240882 -42.70  0.001507796    1.484    0.326
        71 -11.0962    152.2163     55.3559   6.3984828341e+01   4.0139095457e+01     0.420915    0.2901339 -76.63 0.0007791884    2.090    0.521
        72 -13.6616    186.1640     44.2322   5.4154666953e+01   3.3114069413e+01     1.182526    0.7758209  41.36  0.001007393    1.725    0.420
        73 -11.1712    172.0165    240.2686   1.0142610457e+02   1.2493578196e+00      0.37282    0.2573433  83.16  0.001931443    2.913    0.657
        74  -8.9236    182.4910    241.4853   9.9671274940e+01  -6.0268133641e-01      0.12191   0.09690109  33.41  0.000112313    1.011    0.010
        75 -11.6915     13.6263     43.9942   1.0687762363e+02   6.5850126641e+01    0.2446868    0.1721751 -76.36  0.001514549    1.753    0.430
        76 -10.8521    154.3425     49.3329   6.1566972071e+01   4.0547864860e+01    0.3029144    0.2540793 -88.53 0.0004073323    1.349    0.259
        77  -8.4578    115.4958     31.4218   6.4220980718e+01   5.2557606806e+01    0.1409692     0.131027  27.49 0.0001626132    1.024    0.023
        78  -9.9613     96.8284    190.0526   1.0967961983e+02   2.2674259023e+01    0.2236107    0.1800074 -83.15 0.0006462582    1.216    0.178
        79  -9.6222    189.6678     15.0100   4.5152949381e+01   3.5863487594e+01    0.1898676    0.1753857 -47.67  0.000577154    1.134    0.118
        80 -10.5833    197.5440    222.9671   9.4093553828e+01  -4.7311156696e-01    0.2197506    0.1555641  46.67 0.0005163148    1.429    0.300
        81  -9.5406    111.7407    217.8107   1.1010051864e+02   1.4785112174e+01    0.1738856     0.154431  50.49 0.0004640601    1.145    0.126
        82  -9.8440     97.5828    200.5453   1.1087425243e+02   2.0379333968e+01     0.297408    0.2200329   7.20  0.001373785    2.391    0.582
        83  -9.6258    130.3969    212.9320   1.0572369183e+02   1.2625842458e+01    0.1688069    0.1526155 -89.23 0.0006022767    1.192    0.161
