#   1 NUMBER                 Running object number                                     
#   2 MAG_AUTO               Kron-like elliptical aperture magnitude                    [mag]
#   3 X_IMAGE                Object position along x                                    [pixel]
#   4 Y_IMAGE                Object position along y                                    [pixel]
#   5 X_WORLD                Barycenter position along world x axis                     [deg]
#   6 Y_WORLD                Barycenter position along world y axis                     [deg]
#   7 A_WORLD                Profile RMS along major axis (world units)                 [deg]
#   8 B_WORLD                Profile RMS along minor axis (world units)                 [deg]
#   9 THETA_WORLD            Position angle (CCW/world-x)                               [deg]
#  10 FWHM_WORLD             FWHM assuming a gaussian core                              [deg]
#  11 ELONGATION             A_IMAGE/B_IMAGE                                           
#  12 ELLIPTICITY            1 - B_IMAGE/A_IMAGE                                       
         1 -14.4660    199.1183     63.9149   3.2810302373e+01   2.7547276686e+01     8.195695       3.7736 -35.61   0.03696336    2.113    0.527
         2 -13.8717    236.5075     34.3207   2.2646754870e+01   2.4081662563e+01     2.582625     1.439123 -22.87   0.01262416    2.653    0.623
         3 -14.4430    198.8946     92.8134   3.9568031689e+01   2.2939687324e+01     4.863278     1.070588  48.11   0.01386332    5.807    0.828
         4 -14.1783    234.1005    102.2344   3.6786886141e+01   1.4776310406e+01     3.396299     1.104661 -53.21  0.009942418    4.572    0.781
         5 -12.9289    218.0425     34.8530   2.4239727518e+01   2.7626259974e+01     1.284905    0.6189097 -53.21  0.004636442    1.757    0.431
         6 -12.2299    222.7228     22.6557   2.1276793047e+01   2.8167137764e+01    0.9449648    0.6168629   0.49  0.004555814    3.787    0.736
         7 -13.5353    234.4796     64.8680   2.9048747532e+01   2.0374706206e+01     1.362828     1.012432 -37.31  0.005358346    1.317    0.241
         8 -11.7719    204.2841     46.9786   2.8268052998e+01   2.8885530684e+01    0.8863497    0.4853128 -49.99  0.004671015    1.581    0.367
         9 -14.0343    242.2083    135.9021   4.2427004007e+01   8.0664994661e+00     3.795747     1.361301 -35.24   0.01619938    2.532    0.605
        10 -10.6681    165.4171     20.4295   2.6006165261e+01   4.0934483059e+01    0.7257344    0.3426607 -86.09  0.003092764    2.600    0.615
        11 -10.7160    179.5641     22.6912   2.5045946269e+01   3.7408428351e+01    0.6920637    0.4237001  75.60  0.003849087    1.506    0.336
        12 -13.7208    245.2004     16.2326   1.8541140728e+01   2.4609563781e+01     4.507581          nan -38.51   0.01437976    5.974    0.833
        13  -9.9257    202.5063     17.4722   2.1699608510e+01   3.2936871151e+01    0.5576938    0.2441504 -70.28  0.002569248    2.514    0.602
        14  -8.9247    199.7798     14.6642   2.1280992659e+01   3.3832047729e+01    0.3066875    0.2140431 -16.73  0.001810579    2.045    0.511
        15  -9.0118    189.5401     15.1340   2.2242978991e+01   3.6014335541e+01    0.3260978    0.2219196  64.65  0.001975704    1.523    0.344
        16 -10.4350    120.1633      9.2664   2.8800311011e+01   5.2906978835e+01    0.3289806     0.282939 -49.48  0.001001158    1.260    0.207
        17  -8.8504    181.6492      9.3069   2.1519758417e+01   3.8391544474e+01    0.2298785     0.131483 -84.87  0.000897895    1.622    0.384
        18  -9.6383    181.2334      5.1848   2.0545650441e+01   3.8898997063e+01    0.3119254    0.2627041  34.72  0.001668079    1.676    0.403
        19 -10.2771     93.0185      7.5420   3.3289462770e+01   5.9494585303e+01     0.259326    0.2069086  -9.89 0.0006225657    1.477    0.323
        20  -9.5501    105.4471      3.7409   2.9347038686e+01   5.6908314055e+01    0.2840019    0.1319768 -18.70  0.001320507    2.674    0.626
        21  -9.0089    118.7838      3.1964   2.6952209469e+01   5.3774414745e+01    0.1779583    0.1298101  50.61 0.0004777796    1.350    0.259
        22 -11.8216    223.6093     12.1597   1.9041955144e+01   2.9179585486e+01    0.6617182    0.4428179  26.32  0.002960986    3.421    0.708
        23  -7.6200    210.3071      1.3367   1.7608086617e+01   3.3009748585e+01    0.1020139   0.08586261  49.92 0.0007041678    1.676    0.403
        24  -9.5802    241.1385    182.9784   5.1328643957e+01   8.0355035842e-01    0.1809106    0.1541469  -1.01 0.0004731752    1.173    0.148
        25  -8.6549    141.8328    250.6905   8.0751621283e+01   3.0623831239e+00    0.1725008   0.09092391  36.49 0.0002433076    1.635    0.388
        26 -11.9378     45.4657    248.6193   1.0119415538e+02   1.5704415102e+01    0.5865237    0.3991617  59.88  0.003705143    1.283    0.220
        27 -11.2751    221.8545    175.0874   5.2979402866e+01   4.6509144427e+00    0.4302933    0.3679387 -59.11   0.00124772    1.535    0.349
        28  -9.3883    144.9244    178.1760   6.8896906585e+01   1.6384348336e+01    0.2171459     0.197696 -40.23 0.0002943338    1.110    0.099
        29 -10.5348    238.3487    175.6356   5.0441708476e+01   2.2967617447e+00    0.2803512    0.2187012  64.04  0.000887594    2.180    0.541
        30 -11.1335    212.2924    179.0309   5.5342267217e+01   5.3701070370e+00    0.4415244    0.2926071 -35.51  0.001765508    1.331    0.249
        31  -8.7104    196.6514    176.3264   5.7669814671e+01   8.2003882849e+00    0.1255739    0.1072936 -85.15 3.832356e-05    1.754    0.430
        32  -8.4577    150.9350    175.5107   6.7013089142e+01   1.5916161547e+01    0.2147855    0.1380183  36.90 0.0005158947    1.543    0.352
        33 -11.0736    230.1817    169.5171   5.0593402418e+01   4.3833584505e+00      0.57886    0.3080511 -33.82  0.002623071    1.622    0.383
        34  -8.1818    189.7139    171.3552   5.8039706995e+01   1.0211150478e+01    0.1291101    0.1075446 -74.14 0.0007022104    1.671    0.402
        35  -9.2433    249.5229    168.5184   4.7495732645e+01   1.9329953548e+00    0.2110735   0.09237839 -46.00  0.001030278    2.242    0.554
        36  -8.3680     88.2668    168.0907   8.1638354244e+01   2.8241089706e+01    0.1940774    0.1821105 -82.69 0.0002415202    1.064    0.060
        37  -8.2644    142.4449    167.5270   6.7455015376e+01   1.9107953808e+01    0.1449048    0.1393718  -8.13 3.224741e-05    1.018    0.018
        38  -9.4207    133.8880    248.3411   8.2114548091e+01   4.5029008817e+00    0.3032066    0.1985876  64.14  0.001576905    2.452    0.592
        39 -10.6904     17.2921    246.6630   1.0698371008e+02   1.9097757323e+01    0.3255737    0.2253495 -74.26  0.002155599    1.579    0.367
        40 -10.4367    196.6692    159.5441   5.4402888063e+01   1.1252277911e+01    0.3799869    0.2866202 -19.07  0.001298643    1.377    0.274
        41 -11.3659    191.2825    154.2474   5.4339033029e+01   1.3150997943e+01    0.6266372    0.5657444  84.47  0.003710543    1.405    0.288
        42  -9.3841    124.3271    156.4409   6.9736381831e+01   2.4877546902e+01    0.2896797    0.2359974  89.51 0.0005851106    1.505    0.336
        43 -10.2898    203.9673    152.7576   5.1724697873e+01   1.1275723247e+01    0.4566656    0.3218917 -67.14  0.001776809    2.064    0.516
        44  -8.8010    150.9386    154.8135   6.2899955538e+01   2.0319179687e+01    0.2148119    0.1906335 -11.34  0.000406828    1.194    0.163
        45  -8.8321    167.2822    153.0665   5.8910180731e+01   1.7663989440e+01    0.3297664    0.1678575 -57.57  0.001262934    2.560    0.609
        46 -11.6699      2.7446    148.3037   1.0456152821e+02   4.3327863912e+01    0.8394831    0.3250992 -79.02  0.003520131    2.269    0.559
        47 -12.1943     13.3781    142.1315   1.0070051942e+02   4.4150093462e+01    0.6821772    0.3878551  74.62  0.003212295    1.871    0.465
        48 -10.1803    133.6738    145.1199   6.4987576703e+01   2.5730584712e+01     1.140821      0.27642 -54.47  0.002595478    6.166    0.838
        49  -7.8977    182.2920    150.3105   5.5258139588e+01   1.5487172887e+01    0.1404851    0.1064418  -9.96 0.0006418891    1.586    0.370
        50  -9.6236    173.8600    149.4741   5.6778140760e+01   1.7183211123e+01    0.2499415    0.1947711 -22.91  0.001298251    1.369    0.270
        51  -8.6455    145.6495    147.3366   6.2550857540e+01   2.2940468036e+01    0.1551706    0.1197426  84.53 0.0007046013    1.788    0.441
        52 -11.2175     67.3321    142.4315   8.3401133335e+01   3.7988589579e+01     1.078003    0.6812285 -69.90  0.004029732    1.629    0.386
        53 -12.3895     61.5686    131.6557   8.3272422445e+01   4.1629970514e+01     1.519432     1.331513  28.11  0.008136063    1.207    0.172
        54 -12.5452     40.3610    136.5615   9.1176655259e+01   4.3043297010e+01     1.109643    0.7319276 -68.32    0.0054205    1.411    0.291
        55 -12.3429     32.8718    138.8796   9.3991060957e+01   4.3238893678e+01    0.6770012    0.5170266  -7.80  0.001493438    1.643    0.392
        56  -9.8593    192.4045    144.0095   5.2008708618e+01   1.4883353391e+01     0.275362    0.2089644  35.76 0.0005186346    1.450    0.310
        57  -9.7743    245.5486    244.9106   6.0769001766e+01  -8.2616137569e+00     0.182636    0.1226011  34.00 0.0007946735    1.924    0.480
        58 -13.7865    233.1529     84.4286   3.3234107828e+01   1.7722842100e+01     1.031108    0.5981274 -53.83  0.002799442    1.542    0.352
        59  -9.5238    203.5498    143.4842   4.9905292423e+01   1.3025645379e+01    0.2502657    0.1985063 -63.70 0.0009687809    1.496    0.332
        60  -9.9014    211.2697    135.8642   4.7031126146e+01   1.3061976167e+01     0.424991    0.1618506 -34.85  0.001631722    2.704    0.630
        61  -9.6000    173.1069    134.4985   5.3684683393e+01   2.0326295874e+01    0.3049701    0.1913113 -45.99 0.0009414195    1.504    0.335
        62 -10.6076    155.5654    133.1734   5.7121326502e+01   2.4053836755e+01    0.4148331    0.3629504 -43.92  0.001570997    1.099    0.090
        63  -9.5956    138.6884    135.0618   6.1506187561e+01   2.7014093770e+01    0.2874557    0.2288182  46.00 0.0005237471    1.284    0.221
        64  -9.8978    136.3721    129.4355   6.0776608236e+01   2.8732331691e+01     0.650147     0.146339 -49.96  0.001630714    4.792    0.791
        65  -9.6198    200.9517    139.8969   4.9611173442e+01   1.4131870765e+01    0.3203224     0.215768 -52.70 0.0009861083    1.524    0.344
        66  -9.3615    197.5701    129.6861   4.8028786253e+01   1.6616840454e+01    0.2671977    0.2076212 -83.08  0.001078479    1.741    0.426
        67  -9.7887    223.4876    128.9204   4.3702167997e+01   1.2190792014e+01    0.2585708    0.2060993  29.76 0.0003923826    1.527    0.345
        68  -8.3046    198.2800    135.0556   4.9056345713e+01   1.5497705706e+01    0.1887638    0.1590655 -41.59 0.0002651706    1.067    0.063
        69  -9.6259    160.5928    128.1133   5.4854448804e+01   2.4102314560e+01    0.3621278    0.2700146 -51.39  0.001570509    1.314    0.239
        70 -12.0600     47.9705    135.9655   8.8553509189e+01   4.2301919712e+01    0.8774927    0.5431488 -74.79  0.002408198    1.635    0.388
        71  -8.4814    152.6883    126.8991   5.6317319809e+01   2.5961083555e+01    0.2497776    0.1887372 -27.25  0.001192213    1.495    0.331
        72  -9.3033    201.9387    125.9390   4.6474645696e+01   1.6497440878e+01    0.2097892    0.1797452 -47.67 0.0005170949    1.072    0.067
        73  -8.6780    178.9828    123.4845   5.0044971591e+01   2.1346112528e+01    0.2068619    0.1789776 -45.87 0.0001089556    1.071    0.066
        74  -8.3821    226.1664    123.1480   4.2132544312e+01   1.2713242355e+01    0.1773451    0.1331732 -55.17 0.0004831861    1.322    0.243
        75  -8.6347    205.8015    122.0845   4.5008004932e+01   1.6480684228e+01    0.2032563    0.1651845 -56.57 0.0004851059    1.220    0.180
        76 -10.0941    135.2245    119.5811   5.8699151536e+01   3.1148612140e+01    0.4402872     0.257667 -59.96  0.001345972    2.022    0.505
        77  -8.7724    215.2897    117.6602   4.2584030157e+01   1.5535142381e+01    0.1975386    0.1751492 -84.71 0.0005493039    1.291    0.226
        78  -9.7909    212.9604    114.1407   4.2183559039e+01   1.6562441102e+01    0.2958565    0.2008599 -56.72 0.0004793537    1.498    0.332
        79 -14.2998    247.6962     78.2933   3.0446072674e+01   1.6084596562e+01     1.315172    0.8562586 -30.52   0.00543694    1.610    0.379
        80 -10.0597    219.0488    113.4263   4.1135339417e+01   1.5584806381e+01    0.3000562     0.226498 -73.63 0.0005208513    1.606    0.377
        81 -10.8146    134.6923    111.4917   5.6810982138e+01   3.3020078995e+01    0.5005571    0.3178098 -46.49  0.001699381    1.544    0.352
        82 -11.3230    134.8621    103.6349   5.4738437959e+01   3.4653068380e+01    0.8634682    0.3193717 -42.91  0.002911953    2.700    0.630
        83 -10.1324    125.5961    113.2267   5.9570029244e+01   3.4565501987e+01    0.3168609    0.2408891 -30.91  0.001172991    1.481    0.325
        84 -11.5599    126.4575    107.2480   5.7805216139e+01   3.5695522337e+01     0.796958    0.5233102 -66.30  0.003355345    1.917    0.478
        85 -10.1585     62.5369    113.9899   7.9307345940e+01   4.6047522375e+01    0.2503051     0.212643  32.14 0.0001927042    1.222    0.182
        86 -11.1888    143.7033    108.5759   5.3905251020e+01   3.1703137237e+01    0.7821643    0.2838035  36.94  0.002190627    4.428    0.774
        87 -10.7937     27.7206    242.8432   1.0460823395e+02   1.8797699577e+01    0.2570449     0.166038 -63.10  0.001571586    1.803    0.445
        88 -10.9362    120.7927    111.6990   6.0456803347e+01   3.5910437247e+01    0.4350061    0.3895887 -39.62  0.002251747    1.138    0.122
        89 -10.0980    108.6277    241.7164   8.6758080139e+01   9.0774258264e+00    0.2255961    0.2133428 -23.51 0.0006700283    1.213    0.176
        90  -9.4055    110.0078    107.1788   6.2283474955e+01   3.9160424142e+01    0.4381837    0.2511155 -40.84  0.001589861    1.838    0.456
        91  -8.7060    215.8965    106.7284   4.0161841717e+01   1.7287826713e+01    0.2352831    0.1637733 -33.03  0.001295128    1.389    0.280
        92 -10.3884    150.0102    106.6412   5.1979005345e+01   3.0736764683e+01    0.3503241    0.2693732  42.74   0.00090329    1.382    0.276
        93 -11.0551    144.0715     98.2545   5.1147341364e+01   3.3731161698e+01    0.6939744    0.3124385 -48.46  0.002606338    2.236    0.553
        94 -12.5872     63.6653    233.1492   9.5979921659e+01   1.6665496251e+01     1.206095    0.5690613  38.45  0.005954079    1.736    0.424
        95 -12.9445    249.9916    101.5902   3.4778738582e+01   1.2230800732e+01     1.158474    0.5018076 -45.30 0.0004447963    1.838    0.456
        96  -9.6589    157.8069     85.8656   4.4953451302e+01   3.3027037121e+01      0.46617    0.2214993 -39.02  0.001464112    2.091    0.522
        97  -9.1632    138.0656     86.7819   4.9418583107e+01   3.7335434833e+01    0.2493056    0.2002618 -50.60 0.0003715617    1.227    0.185
        98  -9.5181    142.2954     82.9272   4.7394864660e+01   3.7102545721e+01    0.2608158     0.211005  69.88 0.0003036635    1.276    0.216
        99  -9.2609    132.9970     84.5355   4.9975472339e+01   3.8919970561e+01    0.3816721    0.3439104 -43.70  0.002053645    1.128    0.113
       100  -9.7213    240.1219    229.1756   5.9222735079e+01  -5.6957521576e+00    0.2840281    0.1456105   7.57   0.00155464    2.339    0.572
       101  -9.6532    165.3162     82.1617   4.2552297452e+01   3.1999449804e+01    0.2769195    0.2139167 -54.95 0.0005282841    1.238    0.192
       102 -10.3746    136.6694     68.6661   4.4554966210e+01   4.0975784613e+01    0.4010325    0.2661238 -60.18  0.001651323    1.696    0.410
       103  -9.6353    140.5515     71.5322   4.4550455200e+01   3.9568997749e+01    0.2846794    0.2452434 -75.13 0.0006917276    1.178    0.151
       104 -13.0770    244.7872     63.4043   2.7773470361e+01   1.8713886533e+01    0.6833782    0.4527954 -53.13  0.002327115    1.194    0.162
       105  -8.9311    132.9248    229.9514   7.9928175384e+01   7.8898392295e+00    0.1861014    0.1674036  18.02 0.0003713711    1.039    0.037
       106  -8.7536    126.5443     71.9565   4.7852246404e+01   4.2752667278e+01    0.2241086    0.1441607 -41.87 0.0008822707    1.575    0.365
       107  -8.9310    151.3208     70.9745   4.2194957676e+01   3.7152301251e+01    0.2082866     0.179557 -50.55 0.0005144697    1.136    0.120
       108  -9.5797    169.0372     69.3359   3.8553723827e+01   3.3336859543e+01    0.3310198    0.1723561 -46.84  0.001303097    1.823    0.451
       109  -8.5023    158.7915     69.2075   4.0304173675e+01   3.5714112425e+01    0.1863293    0.1715696  -4.09 0.0007456054    1.342    0.255
       110  -9.6016    163.0164     63.7644   3.8089759883e+01   3.5621221374e+01    0.4859283    0.1993508 -37.11  0.001913106    2.417    0.586
       111  -9.6962    186.4552     62.5350   3.4164519833e+01   3.0497955639e+01    0.3483192    0.2288286 -31.05  0.001231261    1.674    0.403
       112 -10.7663    147.9276     51.8634   3.7400838628e+01   4.1013375139e+01     0.382709    0.2658365 -41.00  0.001302136    1.452    0.312
       113 -10.4006    152.9023     62.0802   3.9411764017e+01   3.8253551069e+01    0.3947889    0.2355625 -47.40 0.0008900693    1.644    0.392
       114 -10.8450    152.7050     56.6123   3.7907409371e+01   3.9158987081e+01    0.5259619    0.2832555 -45.91  0.001341789    1.821    0.451
       115  -9.4980    103.0882     62.8601   5.1129532934e+01   4.9728191799e+01    0.2794119    0.2145295 -43.32   0.00045162    1.347    0.258
       116 -12.7835    177.6945     88.2784   4.1901593066e+01   2.8180895451e+01     1.825437    0.9189454 -26.99  0.006918835    2.870    0.652
       117 -10.1470    144.4202     59.3159   4.0222108653e+01   4.0698969067e+01    0.3003988    0.2448227 -62.79 0.0005596141    1.224    0.183
       118 -10.4880    141.0316     75.4819   4.5577467694e+01   3.8757506624e+01    0.6021801     0.360095 -18.55  0.002301953    2.848    0.649
       119  -8.2253     72.6313     58.2682   5.9459140927e+01   5.6913653511e+01    0.1836276    0.1316202 -32.84 0.0005211252    1.466    0.318
       120  -8.1560    218.1787    228.3554   6.2768366206e+01  -3.1346810962e+00    0.1484933   0.09705169  33.98 0.0007447351    1.680    0.405
       121  -9.4214    178.8811     52.1272   3.2604594256e+01   3.3741727483e+01    0.3010097    0.2099778   7.46   0.00137394    2.772    0.639
       122  -9.4644    131.2897     45.9773   3.8791571477e+01   4.5862608826e+01    0.3135324    0.1712814 -30.42  0.001307694    2.070    0.517
       123 -10.4506    132.8272     41.7381   3.7159107952e+01   4.6092445536e+01    0.3742338    0.2392724  55.52  0.001787693    1.480    0.324
       124 -10.1206    132.9176     37.9743   3.5960356811e+01   4.6581435871e+01     0.272517    0.2356268 -84.36 0.0006640106    1.120    0.107
       125 -10.5869    139.2628     43.0939   3.6368724508e+01   4.4355170262e+01    0.3370503    0.1933609 -31.52   0.00157578    1.919    0.479
       126  -9.2917    125.8396     41.0910   3.8344518978e+01   4.7861834181e+01    0.2102974     0.176883 -72.51 0.0004327025    1.230    0.187
       127  -9.7307    150.7561     39.1255   3.3230122021e+01   4.2134582484e+01    0.2687681    0.2050227  16.51 0.0009985757    1.946    0.486
       128  -9.5025     91.4243     39.4864   4.6231468569e+01   5.6113747367e+01    0.2414633    0.2344695  34.91 0.0005854121    1.052    0.050
       129  -9.1132    182.7661     38.5583   2.8675778930e+01   3.4728545976e+01    0.2071032    0.1956043  25.90 0.0007621545    1.411    0.291
       130  -8.7974     78.0694     41.6204   5.1257476334e+01   5.8672262961e+01    0.2065374    0.1851529 -45.86 0.0003440002    1.230    0.187
       131  -8.2459    164.7902    166.2062   6.2126014191e+01   1.5429931902e+01    0.2214717    0.1563282  88.47 0.0009286896    2.676    0.626
       132 -10.0689    199.3460     28.3740   2.4468887589e+01   3.2343168116e+01    0.4556824    0.2245045 -72.23  0.001412468    2.254    0.556
       133  -9.7996    165.3097     25.8918   2.7488943270e+01   4.0333836451e+01    0.4671806    0.3060273  89.76  0.002544847    1.466    0.318
       134  -9.6858    159.2956     22.8400   2.7399796808e+01   4.2104969403e+01    0.3115462    0.2402376 -49.87  0.001358054    1.273    0.214
       135 -10.1012     74.9893    213.8077   9.1381830133e+01   1.9354098734e+01    0.2287581    0.1914518 -78.39 0.0005983431    1.268    0.211
       136  -9.6460    161.2151     18.6109   2.6001991002e+01   4.2122659528e+01    0.3853312    0.2069977  59.37  0.001958821    1.794    0.443
       137  -8.5411    191.1286    211.8965   6.5051879780e+01   2.8401727523e+00    0.1726192    0.1605345   4.72 0.0002753705    1.211    0.174
       138  -8.6107    250.5080    210.9653   5.4667406453e+01  -4.3507533902e+00    0.1691117   0.08946402 -34.79 0.0004914319    1.575    0.365
       139  -9.0765    206.7681    206.0265   6.1135999447e+01   1.6790742654e+00    0.2320304    0.1657795  45.63 0.0007494215    1.837    0.456
       140  -9.3280    229.6154    207.7206   5.7453518694e+01  -1.4903084369e+00    0.1962713    0.1829397  24.52  0.000654613    1.477    0.323
       141  -7.7664     60.3382    207.2884   9.4292369095e+01   2.2745192158e+01    0.1285785    0.1043042 -21.10 0.0003723207    1.638    0.389
       142  -7.9252    145.6513     14.7131   2.6822438442e+01   4.6239399392e+01    0.1305604   0.08906824  46.65 0.0007022286    1.658    0.397
       143 -10.6838    193.1646    194.9662   6.1750792089e+01   5.4291821613e+00     0.872723    0.4820302 -63.38  0.003198021    4.500    0.778
       144  -8.2102     95.7754    194.5886   8.3740120800e+01   2.0737681004e+01    0.2061603    0.1185324  44.47 0.0009306059    1.653    0.395
       145 -10.4438    210.5057    188.3339   5.7358735188e+01   4.0634700386e+00    0.4717787    0.2284919 -36.39  0.002319797    1.870    0.465
       146 -10.8223    217.4025    182.3834   5.5074215452e+01   4.0772016876e+00    0.5684383    0.2094667  33.17  0.002383376    3.179    0.685
       147 -11.1150    207.0484    180.3115   5.6508722727e+01   5.9216310091e+00    0.4465332    0.3459524 -82.47  0.001283719    2.427    0.588
       148 -10.4269    213.7789    175.7810   5.4478962406e+01   5.7030107715e+00    0.3407538    0.2603443  82.52  0.001374041    2.617    0.618
       149  -8.6134    250.6210    185.8292   5.0402400651e+01  -7.9266091782e-01    0.1600325   0.09040771 -43.01 0.0003783028    1.685    0.406
       150  -9.5314    222.7358    162.6279   5.0489151866e+01   6.5971592121e+00    0.2195766    0.1942225 -42.46 0.0006558896    1.208    0.172
