#   1 NUMBER                 Running object number                                     
#   2 MAG_AUTO               Kron-like elliptical aperture magnitude                    [mag]
#   3 X_IMAGE                Object position along x                                    [pixel]
#   4 Y_IMAGE                Object position along y                                    [pixel]
#   5 X_WORLD                Barycenter position along world x axis                     [deg]
#   6 Y_WORLD                Barycenter position along world y axis                     [deg]
#   7 A_WORLD                Profile RMS along major axis (world units)                 [deg]
#   8 B_WORLD                Profile RMS along minor axis (world units)                 [deg]
#   9 THETA_WORLD            Position angle (CCW/world-x)                               [deg]
#  10 FWHM_WORLD             FWHM assuming a gaussian core                              [deg]
#  11 ELONGATION             A_IMAGE/B_IMAGE                                           
#  12 ELLIPTICITY            1 - B_IMAGE/A_IMAGE                                       
         1 -12.9362      5.6422    133.3458   1.2791659342e+02   4.6401149689e+01     2.623483    0.7549124 -82.00   0.01145825    3.076    0.675
         2 -12.4740    164.3272     54.0886   6.7904183053e+01   3.6963555769e+01     2.130865     1.301657  24.61  0.006305767    2.283    0.562
         3 -12.6330    177.7179     39.4406   6.0709864486e+01   3.5581241978e+01    0.9390392    0.8776745 -66.42  0.003015322    1.110    0.099
         4 -12.2401    182.3996     31.9472   5.7555579013e+01   3.5309462460e+01    0.6733513     0.581013  10.13   0.00157136    1.268    0.211
         5 -13.3309    196.3427      7.4926   4.8091001029e+01   3.4307504993e+01     1.408102    0.9914958  52.34  0.005355004    1.425    0.298
         6  -9.3308    224.1481      1.8433   4.3827423369e+01   2.7720054790e+01    0.1817093     0.156689  43.61 0.0007182364    1.303    0.233
         7  -8.5853     33.5026    181.2911   1.2544105725e+02   3.4148306152e+01    0.1817188    0.1299611  51.59 0.0008128348    1.280    0.219
         8 -10.2100    188.0292    248.1024   1.0414799117e+02   1.9076543407e+00    0.2743148     0.153836 -38.98 0.0007278486    2.400    0.583
         9 -10.9538    140.7868    248.5769   1.1196105757e+02   8.8582569817e+00    0.3669186    0.2116725 -63.93  0.001688439    2.571    0.611
        10 -18.3384     43.1002    240.6593   1.2734925895e+02   2.2800283291e+01     4.087871     3.164649  52.90   0.01778294    1.294    0.227
        11  -9.4499     35.0365    199.4578   1.2636907935e+02   3.0587730324e+01    0.2452623    0.1307915  42.11 0.0007965253    1.688    0.408
        12  -9.2633    232.6578    180.0842   8.6201824082e+01   2.5553958273e+00    0.1942554    0.1509097  37.36 0.0004327353    1.249    0.200
        13  -8.6395    163.5067    203.5374   1.0247513231e+02   1.1422444227e+01    0.2182105    0.1541856  64.99  0.001174076    1.745    0.427
        14  -9.6941      1.6722    177.8975   1.3136515236e+02   3.7731458493e+01    0.1366647    0.1004815  85.94 0.0003286616    1.131    0.116
        15 -10.5332     73.0466    176.2737   1.1693512463e+02   3.0438916303e+01    0.2351981     0.159966  57.49 0.0006555202    1.271    0.213
        16  -8.4268     24.0453    176.5667   1.2697996569e+02   3.6009219017e+01     0.148208   0.09031751  44.94 0.0004148292    1.533    0.348
        17  -9.3774    233.5287    175.2308   8.5146502303e+01   2.9980297229e+00    0.2151852    0.1509883  35.47 0.0003525175    1.268    0.212
        18  -9.8822    246.7190    203.1338   8.8002838220e+01  -2.3178819610e+00    0.2132556    0.1347357  29.76 0.0003492311    1.273    0.215
        19 -10.3502    104.8513    173.5001   1.0986128212e+02   2.6325511141e+01    0.3486266    0.2503417  14.93  0.001846002    2.226    0.551
        20 -10.1853    191.8483    193.8459   9.5763629401e+01   7.8966173036e+00    0.6929877    0.3496501 -59.48  0.002387531    6.054    0.835
        21 -13.0595     11.8519    205.9816   1.3081546001e+02   3.1719399884e+01    0.3994819    0.3196884  47.08  0.003411364    1.440    0.306
        22  -9.0082     22.2614    172.8165   1.2708660667e+02   3.6912647500e+01    0.1876991    0.1160954  54.99  0.001285359    1.374    0.272
        23  -9.2480    141.0412    198.9615   1.0606403010e+02   1.5907674248e+01     0.187851    0.1582497  54.19 0.0005895678    1.072    0.068
        24  -8.6246    121.0274    198.3519   1.0984677206e+02   1.9273021532e+01    0.1704842    0.1295697  48.48 0.0003051926    1.099    0.090
        25  -9.3303    141.8547    171.2908   1.0172830776e+02   2.0442660022e+01    0.2239183     0.152857  61.41  0.001182441    1.579    0.367
        26  -9.0863    233.9793    170.3151   8.4130329927e+01   3.5289984980e+00    0.1780895     0.141171  24.49 0.0003720979    1.084    0.078
        27 -11.1074    202.6000    167.3905   8.9067402272e+01   9.6690794106e+00    0.4671188    0.3495239  18.31 0.0009905641    1.332    0.249
        28 -10.2477    193.8723    167.6451   9.0738305602e+01   1.1285729886e+01    0.3078699    0.2847782 -14.71 0.0006457765    1.170    0.145
        29  -9.4671    189.9883    161.5220   9.0293554511e+01   1.2966629940e+01    0.3060999    0.2246049 -46.60 0.0009559066    1.606    0.377
        30  -9.7777    189.1719    155.9312   8.9341137143e+01   1.4003531239e+01    0.3331905    0.3176386  25.26  0.001384251    1.096    0.088
        31  -8.1910    154.8223    170.2178   9.8879226317e+01   1.8257616825e+01    0.1710773    0.1471687  16.08 0.0003688842    1.291    0.225
        32 -11.7712     33.3664    188.9467   1.2599687009e+02   3.2704485127e+01    0.3467364    0.2110489  55.78 0.0008131457    1.331    0.249
        33  -9.3041     18.2651    168.4461   1.2760378202e+02   3.8145127453e+01    0.2251507    0.1521695  60.81  0.000882862    1.237    0.192
        34 -11.3906     23.9135    206.1174   1.2873913496e+02   3.0539799312e+01    0.3534606    0.1996167  60.68  0.001266177    1.327    0.247
        35  -9.6584     26.2473    166.3237   1.2581965706e+02   3.7823279920e+01    0.2471696    0.1808521  25.69  0.001103959    1.832    0.454
        36  -9.9289     36.8215    162.6463   1.2329312855e+02   3.7508780496e+01     0.273577    0.2384894  35.17  0.001932936    1.463    0.317
        37 -10.1784      1.9256    147.7159   1.2971393689e+02   4.3674029930e+01    0.4012234      0.12447 -77.73  0.001389228    2.534    0.605
        38 -10.2238    243.7884    245.8034   9.5060335384e+01  -5.9058407959e+00    0.1814878    0.1258224  23.24 0.0006052214    1.009    0.009
        39 -11.1047    102.9793    152.6904   1.0718579631e+02   3.0751605624e+01    0.5400587    0.4593652 -14.13  0.002367925    1.671    0.401
        40 -10.2887     13.0349    160.3049   1.2814882801e+02   4.0233073002e+01    0.4341938    0.2498215  74.90  0.001617196    1.434    0.303
        41  -9.9135    133.5865    144.8686   9.8805907425e+01   2.6920054854e+01    0.8215473    0.2259455 -56.16  0.002091578    6.504    0.846
        42  -8.2849    221.5368    150.5862   8.2282149108e+01   8.4445769806e+00    0.1351477    0.1163658  16.40 0.0001459287    1.019    0.019
        43  -8.8291      5.1502    155.8361   1.2951602960e+02   4.1777539459e+01    0.1589889    0.1090369  72.36 0.0002706412    1.147    0.128
        44 -10.2446    111.8524    138.8506   1.0271703936e+02   3.2109625200e+01    0.4567501    0.2708592 -39.74  0.002112188    2.093    0.522
        45 -11.5323    101.0244    138.3927   1.0523900043e+02   3.4053284561e+01     0.252581    0.2472244  73.60 0.0004386737    1.133    0.117
        46  -8.9653    117.6384    129.9138   9.9583339209e+01   3.2933373504e+01    0.2248494    0.1939145  28.05 0.0007283134    1.301    0.231
        47 -10.8725     30.3697    126.6542   1.2125706911e+02   4.5819240871e+01    0.2363295    0.1908114 -70.50  0.001631718    1.179    0.152
        48  -9.6832    105.8206    125.6796   1.0165094638e+02   3.5950347281e+01    0.2476446    0.2226308 -37.74 0.0004538359    1.254    0.203
        49  -8.3278    239.4680    125.4766   7.3778154195e+01   8.4155463653e+00    0.1367615     0.120147   1.31 -1.24302e-05    1.002    0.002
        50 -10.6848     11.2322    153.8969   1.2810810325e+02   4.1685213553e+01    0.3163159    0.2179455  36.21 0.0009053021    1.650    0.394
        51  -8.6171    112.1655    119.1088   9.8672690417e+01   3.6219965968e+01     0.198758    0.1892455 -15.80 0.0003211013    1.198    0.165
        52 -10.1065    244.7265    185.2458   8.5172941973e+01  -6.9366225168e-02    0.2362687    0.1996502 -25.26  0.001057774    1.423    0.297
        53  -9.1587    167.3184    112.8671   8.4160157734e+01   2.6049246471e+01     0.350621    0.2477267 -73.07  0.001512518    2.141    0.533
        54 -11.0354     61.1412    109.1377   1.1042920569e+02   4.6401688069e+01    0.2757997    0.2410768 -54.93   0.00112261    1.175    0.149
        55 -10.0654     98.3811    159.4862   1.0927519637e+02   3.0106092748e+01    0.2241208    0.2108165  81.75 0.0004351171    1.118    0.105
        56  -8.8533     82.0505    107.2469   1.0416711482e+02   4.3906556982e+01    0.1863354    0.1764693  78.43 0.0005407804    1.070    0.066
        57 -13.8394     13.8548    246.8764   1.3208962481e+02   2.4875407568e+01    0.4490154    0.2305374  75.64  0.003299469    1.513    0.339
        58 -10.6114     66.4996    105.2027   1.0816414403e+02   4.6595728532e+01    0.3428343    0.2219417 -26.56  0.001621561    2.429    0.588
        59  -8.6200    164.6700    102.0091   8.1951833993e+01   2.8642089174e+01    0.1991337    0.1897346 -24.81 0.0004126838    1.059    0.055
        60  -9.3279    220.8109     95.9490   6.9690577751e+01   1.6617889456e+01    0.2200238    0.1965422  36.39 0.0004171297    1.129    0.115
        61  -8.3093    108.2563     81.9862   9.0422601606e+01   4.4833731046e+01    0.1965581    0.1744043 -47.67            0    1.089    0.082
        62  -8.0966    150.2848     81.3015   7.9412394735e+01   3.5814579560e+01    0.1525244    0.1201098  10.85 0.0002119831    1.555    0.357
        63 -11.9998     87.9100    153.6656   1.1080341135e+02   3.2908951215e+01    0.3193508    0.2696309 -40.01 0.0009881277    1.511    0.338
        64 -10.4170    122.0357     60.1045   7.9747918790e+01   4.6211372510e+01    0.2339242    0.2153936 -20.18 0.0002722258    1.069    0.065
        65 -10.5317     32.5675    204.2196   1.2710569406e+02   2.9992441258e+01    0.1909086    0.1601544  54.81 0.0003851152    1.328    0.247
        66 -10.0014    168.2590    233.4608   1.0563871425e+02   6.6096371897e+00    0.1950232    0.1729367  47.24 0.0002489613    1.211    0.174
        67  -9.6649    130.7594    214.6010   1.0999371808e+02   1.5120154200e+01    0.2126223    0.1617936  70.91 0.0003505901    1.406    0.289
        68  -8.8116    218.1732     47.7334   5.7143566280e+01   2.4065107389e+01    0.2898788    0.1954508 -14.03 0.0007701531    1.632    0.387
        69 -10.0559     15.3023    214.3466   1.3060135829e+02   2.9951422748e+01    0.1405205    0.1281252  77.02 0.0006369468    1.491    0.329
