#   1 NUMBER                 Running object number                                     
#   2 MAG_AUTO               Kron-like elliptical aperture magnitude                    [mag]
#   3 X_IMAGE                Object position along x                                    [pixel]
#   4 Y_IMAGE                Object position along y                                    [pixel]
#   5 X_WORLD                Barycenter position along world x axis                     [deg]
#   6 Y_WORLD                Barycenter position along world y axis                     [deg]
#   7 A_WORLD                Profile RMS along major axis (world units)                 [deg]
#   8 B_WORLD                Profile RMS along minor axis (world units)                 [deg]
#   9 THETA_WORLD            Position angle (CCW/world-x)                               [deg]
#  10 FWHM_WORLD             FWHM assuming a gaussian core                              [deg]
#  11 ELONGATION             A_IMAGE/B_IMAGE                                           
#  12 ELLIPTICITY            1 - B_IMAGE/A_IMAGE                                       
         1 -14.7886    198.8759     69.9896   1.2762532521e+01   2.6225967636e+01     2.305161    0.9284632  46.26  0.008726338    3.596    0.722
         2 -14.3825     62.7974     56.4415   4.0995008709e+01   6.0584724794e+01     2.911685     1.329674 -31.04  0.008664416    4.374    0.771
         3 -15.0026      6.8313     71.4168   7.4395020319e+01   6.4148430857e+01     1.181455    0.8412614 -67.62  0.005266915    1.256    0.204
         4 -12.5911    120.4820     26.3133   1.1162156369e+01   5.1756374098e+01    0.7465616    0.6030822  69.18  0.003828709    1.163    0.140
         5 -14.7905    119.6113     54.3591   2.1669465562e+01   4.7789406472e+01     1.148652    0.8289616  54.58  0.001916347    1.381    0.276
         6 -13.3017    135.8235     51.2945   1.7166511824e+01   4.4159990016e+01     1.618152    0.4966472 -36.62  0.005297897    3.103    0.678
         7 -14.6819    166.8623     29.4486   5.6002630585e+00   3.9377161772e+01     1.060708    0.8355083  87.85  0.003709007    1.185    0.156
         8 -14.2124    122.2797     36.7937   1.4756695644e+01   4.9870521203e+01     1.079534     0.580153  39.46  0.003334865    2.600    0.615
         9 -14.3293     41.4616      5.2901   2.4019541172e+01   7.3602252467e+01     1.060216    0.6899762  15.17  0.004681772    1.956    0.489
        10 -13.0357      7.8712      2.4911   4.7514069878e+01   7.9662108366e+01     0.553115    0.5020557  25.45  0.003540378    1.223    0.182
        11 -16.0424     11.9389     22.4231   5.6433981302e+01   7.5456700604e+01      2.12983     1.211585 -31.87   0.01054249    1.866    0.464
        12 -14.2008     26.3130     13.1991   3.9221041779e+01   7.5292354653e+01    0.7949235    0.5037482  16.28  0.004050691    1.959    0.490
        13 -15.3780    217.9637     17.1004   3.5814833554e+02   2.9107742776e+01     2.027383    0.8935328 -33.74   0.01029419    1.913    0.477
        14 -13.1480    229.9109      2.3312   3.5420764690e+02   2.8234693538e+01    0.7828574    0.2323012  78.13  0.003523184    3.398    0.706
        15 -14.8798    212.3080     40.7531   4.1883193400e+00   2.7465044018e+01     2.085293    0.6711142  79.00  0.007552993    4.245    0.764
        16 -14.8722    189.5178     20.8162   1.0189844046e+00   3.4963829821e+01     1.783703    0.7354854 -42.80  0.008202048    1.943    0.485
        17 -13.7709    242.4667     34.4505   5.5431559730e-01   2.2276164059e+01    0.7310266    0.5287663 -73.24  0.003158047    1.316    0.240
        18 -14.8962    147.6158     29.6505   8.0551832912e+00   4.4229023599e+01     1.701627    0.7989728  68.51  0.007068892    2.003    0.501
        19 -15.5496     99.6589     11.8652   9.1250521815e+00   5.8898831008e+01     1.683275    0.9727929  62.42  0.003176092    1.544    0.352
        20 -12.7448     85.5337     13.8837   1.3237155952e+01   6.2329174769e+01     0.495586    0.4188138 -45.51  0.001972173    1.254    0.203
        21 -12.0432     71.0824     16.2082   1.8631960044e+01   6.5635101188e+01    0.3968798    0.2583876 -19.48  0.001510751    1.799    0.444
        22 -12.4124     74.5432     10.2995   1.4351147297e+01   6.5469542299e+01     0.434023    0.2774133 -16.84  0.002130947    1.841    0.457
        23 -12.4493     60.0408     15.7637   2.2395261987e+01   6.8270097403e+01    0.5763678    0.3486514  38.18   0.00278828    1.744    0.426
        24 -12.3646     46.7521     12.8762   2.6538252117e+01   7.1542085020e+01    0.3740939    0.2729588  68.42  0.001474849    1.616    0.381
        25 -10.9144    124.1173     11.3301   4.8488682705e+00   5.2498098680e+01    0.2097074    0.1601334  87.56   0.00113746    1.172    0.146
        26 -11.9978    152.7873      8.5322   5.9505198178e-01   4.5294391109e+01    0.2637758    0.2444456  49.55  0.001469081    1.332    0.249
        27 -11.2658     80.3288      6.9284   1.0998637908e+01   6.4367391820e+01     0.221045    0.1621045 -51.79  0.001187516    1.481    0.325
        28 -12.4706    119.9127      3.1024   2.2210132279e+00   5.4385501443e+01    0.5787167    0.2599393 -78.48  0.002261453    2.607    0.616
        29 -10.4673    176.5328      4.4969   3.5750020296e+02   3.9787080007e+01     0.133298    0.1069927 -67.41 6.649123e-05    1.004    0.004
        30 -11.3414     67.6857      2.6836   1.2021665794e+01   6.7904217000e+01    0.3083302    0.1865486  37.83   0.00153288    1.754    0.430
        31 -12.5852     80.2142      1.7740   8.3005579002e+00   6.4863872399e+01    0.7246929    0.1270655  65.10  0.002212976    3.960    0.747
        32 -11.8043     61.1733      1.4876   1.3284794732e+01   6.9582411387e+01    0.4781665     0.118771  64.77  0.001576523    3.632    0.725
        33 -12.7353     48.5532    181.3433   7.1853219526e+01   3.1008810074e+01    0.5461881    0.3397949 -49.89  0.002685126    1.975    0.494
        34 -14.7815     95.3606    234.9423   6.5456326893e+01   1.3712152998e+01      1.40801    0.7726383  59.08   0.00725448    2.228    0.551
        35 -11.8268    109.4942    249.0423   6.3806881263e+01   9.5601884361e+00    0.3500208     0.212281  41.41   0.00215722    1.377    0.274
        36 -12.4879    107.8431    244.1745   6.3675821004e+01   1.0550722842e+01    0.4820828    0.3625921 -20.30   0.00312319    1.729    0.422
        37 -13.1286     57.1740    246.8568   7.4755909389e+01   1.6235488616e+01    0.5257459    0.2926313  26.14  0.002899637    1.622    0.383
        38 -11.9366     41.0589    248.0441   7.8287492153e+01   1.7808544747e+01    0.4468947    0.2007554 -88.76  0.002353701    2.732    0.634
        39 -13.8851     28.0981    246.5762   8.0989355464e+01   1.9435816155e+01     1.038945    0.5503976  72.68  0.006189951    1.874    0.466
        40 -12.1641      2.8271    249.4700   8.6363773117e+01   2.1327993508e+01    0.3507603    0.1808906  43.13  0.001749069    1.319    0.242
        41 -14.1544      9.2841    245.5457   8.4933466304e+01   2.1461640412e+01     1.034276      0.58257  61.17   0.00667898    1.414    0.293
        42 -14.3368     26.1417    226.7849   8.0572233823e+01   2.3455292753e+01     1.167441    0.5106236 -75.19  0.006013054    2.495    0.599
        43 -14.5187     20.8291    224.5658   8.1695543388e+01   2.4442072514e+01     1.046092    0.5612714 -89.79  0.005919857    1.929    0.482
        44 -13.8542     85.0758    179.7868   6.1671928621e+01   2.6352194699e+01     1.095093    0.3188271  46.73  0.003482476    3.499    0.714
        45 -12.6756     84.8283    172.6700   6.0757287898e+01   2.8038750640e+01    0.5191517    0.2762018 -54.36  0.002292872    2.023    0.506
        46 -13.8072    196.9544    178.8233   3.6494741503e+01   8.8159275313e+00    0.6681671    0.4689395 -71.98  0.003254831    3.164    0.684
        47 -13.4171    124.9956    167.9926   4.9560316071e+01   2.2482222943e+01    0.7271116    0.3111526 -54.25  0.002858905    2.539    0.606
        48 -12.3427    131.3514    173.2191   4.8944819009e+01   2.0311038157e+01    0.2929979    0.2620317 -78.11  0.001694617    1.287    0.223
        49 -11.1374    101.9935    160.7711   5.4217907157e+01   2.8037842696e+01    0.2068159    0.1159395  36.68  0.000887233    1.681    0.405
        50 -12.4976     26.6263    158.5575   7.6266442653e+01   3.9186026046e+01    0.5822216   0.07733439  36.63   0.00179017    3.888    0.743
        51 -12.6238     77.3201    156.9286   6.0566856436e+01   3.3003635360e+01    0.5311406    0.3873834  28.53  0.001404443    1.425    0.298
        52 -13.9073     74.0112    153.3023   6.0993335863e+01   3.4423564406e+01    0.8034884    0.6183584  34.53  0.002008377    1.282    0.220
        53 -12.9279    122.6014    154.3225   4.7652028760e+01   2.5865682765e+01    0.6281683    0.3510531 -43.45  0.002707759    1.948    0.487
        54 -12.8221    111.7719    155.4859   5.0667123493e+01   2.7552415679e+01    0.5725912    0.3668672  76.83   0.00232578    2.439    0.590
        55 -12.6651     55.4750    155.3360   6.6953229665e+01   3.6594586281e+01    0.5471001    0.3565145 -22.30  0.002314949    2.526    0.604
        56 -13.0383    208.5237    153.8431   2.9914619076e+01   1.0987866065e+01    0.5738735    0.4479091  26.90  0.003622365    1.362    0.266
        57 -12.4135     85.5315    152.7704   5.7488446386e+01   3.2715627890e+01     0.577407    0.3482363 -42.60  0.002481389    2.023    0.506
        58 -12.5521     13.9781    152.4680   7.9773630333e+01   4.1954954871e+01    0.3014098    0.1826022  43.64  0.001537413    1.465    0.317
        59 -12.8584      8.0471    148.2708   8.1402156307e+01   4.3534237465e+01     0.620145    0.4029413  67.54  0.003291884    1.346    0.257
        60 -12.0237    103.5813    149.5961   5.1785918294e+01   3.0379891013e+01    0.3899123      0.30158 -24.31  0.001523709    1.691    0.408
        61 -12.4446     62.5060    145.9953   6.3439865056e+01   3.8023132861e+01    0.3157185    0.1860237  49.60   0.00139118    1.616    0.381
        62 -10.8569     38.2108    145.7809   7.1311139674e+01   4.1267532515e+01    0.1896334    0.1673988 -43.35 0.0005003971    1.347    0.258
        63 -12.3038     42.7302    138.9698   6.8965864923e+01   4.2541028382e+01    0.4093079    0.2743279  -4.58  0.001643862    2.238    0.553
        64 -12.0771     47.3268    133.0138   6.6558754566e+01   4.3556400304e+01    0.5987856    0.2168028 -70.18  0.002081794    2.741    0.635
        65 -13.0643    246.5523    132.7655   2.0442697870e+01   8.4249911896e+00    0.4467595    0.3178526 -38.64  0.002608106    1.200    0.167
        66 -14.8652    232.4508    127.9736   2.1304525550e+01   1.1202132547e+01     1.237543    0.6766472 -45.81  0.006750218    1.730    0.422
        67 -10.5788     10.8789    133.8926   7.9489777494e+01   4.7107977474e+01    0.1924732     0.137001  57.48 0.0003833429    1.270    0.213
        68 -12.7682    136.7788    131.6841   3.9433164744e+01   2.8097740555e+01    0.6920472    0.3650547  38.82  0.002827998    1.996    0.499
        69 -11.5971     34.2191    129.2697   7.0691607850e+01   4.6151430790e+01    0.2132819    0.1534472  67.72 0.0005059616    1.339    0.253
        70 -14.7787    105.0790    121.7609   4.5544319336e+01   3.6750500856e+01     1.936062     1.230526  37.98  0.008391994    1.619    0.382
        71 -15.0706    105.9948    105.4254   4.1232850001e+01   4.0433548186e+01     1.577831     1.370127  61.83  0.007960604    1.132    0.117
        72 -12.2436    180.9082    120.1683   2.7568661127e+01   2.1524435542e+01    0.2375524    0.1983161  69.43  0.001239876    1.390    0.280
        73 -12.5638      4.4464    119.3670   8.0748389505e+01   5.1464234970e+01    0.5730554    0.3656259  -0.20  0.002823632    1.980    0.495
        74 -11.9372     42.8405     90.0660   6.0403492337e+01   5.5702111030e+01    0.4395507    0.2656883 -65.64 0.0008396294    1.590    0.371
        75 -13.1704     21.3947     86.1527   6.9488775557e+01   5.9159683580e+01    0.8185775    0.5750022  10.13  0.003013788    1.642    0.391
        76 -14.5234     18.3666    110.7936   7.4451532400e+01   5.2751031372e+01     1.026016    0.8539652 -31.75  0.004969619    1.405    0.288
        77 -12.5504     36.8406     92.8185   6.3661789008e+01   5.5737158745e+01    0.5648177    0.3629566  11.15  0.002111472    1.954    0.488
        78 -14.3804     11.0935    102.5977   7.6527912397e+01   5.5549661762e+01    0.9193654    0.8902877   1.83  0.004937028    1.184    0.155
        79 -14.3407     23.7183     95.3220   6.9987375454e+01   5.6479105501e+01     1.418426    0.6611233  20.34  0.005429183    2.357    0.576
        80 -12.6996     29.8261     89.3338   6.6125422630e+01   5.7472188290e+01    0.5511219    0.3331442  78.09  0.001876875    1.994    0.498
        81 -12.3694     78.9897    110.4195   5.1124297518e+01   4.4578829827e+01    0.4368442    0.2615746 -66.10  0.001752518    1.779    0.438
        82 -13.2355     85.0194    115.0857   5.0193344615e+01   4.2281002270e+01     1.026201    0.5619282  24.63  0.003545532    2.593    0.614
        83 -12.2255     88.3567    109.4764   4.7756347562e+01   4.3049751865e+01    0.5300413    0.3438502 -65.63  0.002093023    1.647    0.393
        84 -11.5358    186.0697    116.0514   2.5725606270e+01   2.1248222430e+01    0.2156257    0.1639384 -73.42 0.0006234895    1.660    0.398
        85 -13.8390      2.4228     97.0419   7.9723998552e+01   5.7594749359e+01    0.9736975    0.3859533 -78.48   0.00366321    2.215    0.549
        86 -13.0267    121.4861    111.8991   3.8575876766e+01   3.5636903206e+01    0.4055864    0.3157817  68.15    0.0012268    1.395    0.283
        87 -11.5849     45.9350    110.2910   6.3312489788e+01   4.9876847399e+01    0.5825866    0.3037567 -40.52  0.002228416    2.497    0.600
        88 -10.4717     42.6927    107.3008   6.4042098593e+01   5.1109191932e+01    0.2348843    0.1821575  46.56 0.0004653622    1.271    0.213
        89 -12.1737    177.0640    110.4265   2.5993365967e+01   2.4053769727e+01     0.379248    0.3100529 -11.51  0.002035325    1.472    0.321
        90 -11.8246     63.1451    110.9708   5.6894644266e+01   4.7161823017e+01     1.009981    0.4015562 -71.83  0.003059971    3.522    0.716
        91 -11.0474     64.5364    101.5331   5.4225648664e+01   4.9405097442e+01    0.3539356    0.2651983 -22.63  0.001163454    1.834    0.455
        92 -12.1729     62.0211     98.4389   5.4443608925e+01   5.0626861649e+01    0.5721341    0.3865791  64.68  0.001813554    1.708    0.414
        93 -13.0818    223.7112    128.5474   2.2604452776e+01   1.2496170815e+01     0.675598    0.4146506 -60.27  0.003428797    2.368    0.578
        94 -13.0536    135.2795    102.6380   3.2692907490e+01   3.4616776361e+01    0.9167384    0.3566516  50.55  0.002780718    2.627    0.619
        95 -13.3362    137.3808     95.2262   3.0197352776e+01   3.5672535863e+01    0.5300553    0.4240141 -85.62  0.001243209    1.402    0.287
        96 -12.7541     50.2201     98.6859   5.9223344385e+01   5.2392290535e+01    0.7888138    0.5421352  -0.59  0.003250796    2.144    0.534
        97 -11.9174     48.9013     92.8240   5.8426690322e+01   5.4130812451e+01    0.4457173    0.3053259  79.67  0.001057386    1.754    0.430
        98 -13.4854    248.3128     94.9161   1.2769914307e+01   1.3406472708e+01    0.8470132    0.2771718 -44.29  0.003776586    2.520    0.603
        99 -12.5843    163.6529     97.5056   2.5278773155e+01   2.9286704413e+01     0.381145    0.3241932  63.68 0.0007845744    1.231    0.187
       100 -13.5971     32.3519    112.2689   6.9023542256e+01   5.0987069664e+01    0.8945789    0.3930621 -61.55  0.003584166    2.078    0.519
       101 -13.6668    120.2027    102.2852   3.6406928495e+01   3.8059262494e+01    0.6952507     0.377622  46.06  0.002788317    1.857    0.462
       102 -14.8078    214.1584     77.0882   1.2624432106e+01   2.2034683956e+01     4.183684     1.485185  73.48   0.01280211    6.179    0.838
       103 -13.6570    188.7596     83.8623   1.7586719167e+01   2.6197473296e+01    0.6608709    0.6054705  45.06  0.002424431    1.283    0.221
       104 -11.6191    209.5000    249.5224   4.5170068125e+01  -2.2412606840e+00    0.1047084   0.07617867   5.65 0.0002256348    1.003    0.003
       105 -14.5479    169.5878     76.8578   1.8764332803e+01   3.1632427779e+01    0.8743418    0.7169346  37.30  0.003188122    1.510    0.338
       106 -13.0744     28.3160    122.0588   7.1950331861e+01   4.8743213546e+01    0.5473353    0.3244389 -62.86  0.002548179    1.611    0.379
       107 -10.9253     59.0055    125.0077   6.1155787693e+01   4.4074071955e+01    0.1891089    0.1640791 -80.16 0.0004647808    1.111    0.100
       108 -10.2368     78.6759     87.2704   4.5117050555e+01   5.0401567824e+01    0.1583533    0.1184918  74.71 0.0002346024    1.573    0.364
       109 -11.0583     35.0216     86.4527   6.3119067033e+01   5.7647978812e+01    0.2300033    0.1910852 -67.82 0.0009395145    1.138    0.121
       110 -15.0429    160.5308     80.8577   2.1432636032e+01   3.3036341380e+01     2.250847     1.594882   0.24  0.005800103    2.493    0.599
       111 -12.6528    132.5061     85.5912   2.8613151004e+01   3.8756644527e+01    0.2879165    0.2669604 -69.30 0.0009838549    1.028    0.027
       112 -13.7682    239.6573     81.4100   1.0841629817e+01   1.6707634009e+01    0.7035643    0.4246798 -80.72   0.00375732    2.438    0.590
       113 -12.2971    176.8316    121.1758   2.8539540471e+01   2.2141747820e+01    0.3096507    0.2061573  42.69  0.001544671    1.633    0.388
       114 -12.5198     39.5454     67.5374   5.5987207558e+01   6.1915901603e+01     1.919526    0.5277821  26.38  0.005345644    4.846    0.794
       115 -14.2519    100.9138     49.8596   2.4819426563e+01   5.3267533395e+01     1.034316    0.8783374  84.37  0.005378712    1.183    0.155
       116 -14.6101    170.0533    241.9026   5.1039407736e+01   3.1228511768e+00    0.9933107    0.6198142  16.91  0.006419846    1.395    0.283
       117 -14.0708     88.8826     62.9333   3.3466475968e+01   5.3665187559e+01     1.425102    0.9005731 -16.44  0.005157275    3.053    0.672
       118 -13.1198     70.6838     75.5465   4.4526972574e+01   5.4757279178e+01     0.589823    0.4872771  -7.31  0.001682887    1.597    0.374
       119 -12.7293     77.8075     72.3505   4.0725793947e+01   5.4061038546e+01    0.8110533    0.4671469 -29.87  0.002966567    2.666    0.625
       120 -13.1324     55.0677     81.1223   5.2724519705e+01   5.6194081772e+01    0.6337492    0.4425554 -35.21  0.002557209    1.704    0.413
       121 -13.9014     61.2227     76.0527   4.8564235805e+01   5.6396368245e+01    0.9091275    0.5466356 -40.66  0.001677557    1.880    0.468
       122 -12.0127    114.0501     80.0809   3.1636770635e+01   4.4251684281e+01    0.4812193    0.3738362 -56.53  0.001892136    1.282    0.220
       123 -13.0761    135.2359     79.1731   2.6090913716e+01   3.9365703652e+01    0.8275678    0.4049799  56.66  0.003191917    2.073    0.518
       124 -13.4792    236.9418    230.3537   3.8231698286e+01  -2.8922372207e+00    0.4372007    0.3164256 -24.37  0.003491638    1.355    0.262
       125 -14.2941      6.3555     63.3986   7.3283332150e+01   6.6246036775e+01    0.8246921     0.610613  19.43  0.004333168    1.461    0.316
       126 -11.6165     42.5065     79.4768   5.7934545772e+01   5.8502985931e+01     0.297265    0.2191578 -43.50  0.001030641    1.420    0.296
       127 -11.5103     41.5954     75.7017   5.7344458279e+01   5.9591151777e+01    0.3939372    0.2084263 -60.87 0.0009417784    1.809    0.447
       128 -11.6162     27.5616     76.2152   6.4411464337e+01   6.1175957110e+01    0.3866209    0.2329148  77.13  0.001497413    2.154    0.536
       129 -12.6157    241.8770     71.0993   8.4418429044e+00   1.7727412535e+01    0.4219846    0.2120272 -57.57  0.002182234    2.082    0.520
       130 -13.2407    133.9105     66.0409   2.2344295802e+01   4.2136882929e+01    0.8588114    0.7253736  25.10  0.003779084    1.540    0.351
       131 -12.2256    100.5892     64.1539   3.0197956212e+01   5.0684505145e+01    0.4532261    0.3777556 -12.90  0.002206313    1.566    0.362
       132 -13.1045     79.0264     60.1412   3.5900256283e+01   5.6441370014e+01    0.7919318    0.5219268 -54.63  0.003579708    1.597    0.374
       133 -12.2203     83.4777     54.0312   3.1936742869e+01   5.6668162736e+01    0.8508341    0.4257722 -23.88  0.002516656    4.468    0.776
       134 -14.1074    177.9664     56.6680   1.1999069572e+01   3.2918680256e+01    0.9662876    0.5540147 -48.88  0.002927571    1.562    0.360
       135 -11.9850     38.9276     59.8604   5.3842126846e+01   6.3861868500e+01    0.4613791    0.2666141  64.88  0.001802584    2.785    0.641
       136 -11.5054     34.3742     60.7889   5.6593645464e+01   6.4258143138e+01    0.3908322    0.2512452 -48.05  0.001894883    1.512    0.339
       137 -12.5154     35.6487     54.7414   5.3847109830e+01   6.5525885870e+01    0.3732679    0.2918965 -17.54  0.001098952    1.484    0.326
       138 -12.1439     24.7403     59.5326   6.1609981583e+01   6.5706334846e+01    0.4393079    0.2629252 -49.99  0.001576785    1.574    0.365
       139 -13.3478    147.5925    238.8036   5.4948011855e+01   6.3354555023e+00    0.4803223    0.3216372  66.23  0.002588199    2.912    0.657
       140 -14.1897     68.5099    221.2743   7.0320505171e+01   1.9714991453e+01    0.7333112    0.6450555 -28.25  0.004810422    1.495    0.331
       141 -14.5291     57.6087    202.0688   7.1326250642e+01   2.5111791010e+01     2.598593    0.6440156 -74.36  0.008003303    5.404    0.815
       142 -13.1124    140.4893     21.1697   6.1780672357e+00   4.7115699749e+01    0.6777021    0.3414667  70.40  0.001198073    1.828    0.453
       143 -11.9721    109.5620    183.2952   5.5856932698e+01   2.1778067045e+01    0.2511602    0.1713291  13.76  0.001204783    1.827    0.453
       144 -13.9967    111.8648     40.0466   1.8221893903e+01   5.2096100704e+01    0.9302388    0.5786129  32.60  0.002558616    2.339    0.572
       145 -11.8779     89.7389    169.5902   5.8965424561e+01   2.7993947868e+01     0.292557    0.2245421  10.18  0.001390978    1.628    0.386
       146 -13.2508    131.5329     33.1623   1.1730029959e+01   4.7954692837e+01    0.5254748    0.4683341 -19.96  0.001838497    1.336    0.252
       147 -13.2088    248.2923     52.2263   3.9285329651e+00   1.9052490245e+01    0.6652327    0.3061646 -33.81  0.003574471    1.760    0.432
       148 -10.5551     47.7595     56.5998   4.8110098071e+01   6.3264771208e+01    0.2069252    0.1299993  47.49 0.0006252826    1.678    0.404
       149 -11.4357     17.4928     54.8702   6.4602479386e+01   6.7565501754e+01    0.3252099    0.2078753 -73.98    0.0016312    1.599    0.375
       150 -12.0883    230.9469     54.8836   5.8744395930e+00   2.1885695899e+01    0.3487857    0.2026976  74.79  0.001973029    1.998    0.499
       151 -10.5087     23.5428     49.9679   5.9330507760e+01   6.8144456004e+01    0.1984915    0.1270221 -59.82 0.0004567406    1.486    0.327
       152 -11.7290    201.8452     46.8182   6.6445473311e+00   2.8910101461e+01    0.1907052    0.1762467 -54.51 0.0007966578    1.178    0.151
       153 -12.5105    154.5444     46.5101   1.2405294143e+01   4.0136436144e+01    0.4658993    0.2613708  64.67  0.001803732    1.752    0.429
       154 -13.3204    158.3154     43.1222   1.0808050720e+01   3.9680832882e+01    0.5856411    0.5591801 -26.02  0.002182185    1.259    0.206
       155 -11.5205     38.8844     46.3132   4.8777892336e+01   6.6960252854e+01    0.1988482    0.1804168  18.59  0.001151274    1.119    0.107
       156 -13.3087      6.2624     43.2607   6.8813356285e+01   7.1242086996e+01    0.9637749    0.6111647  11.10  0.004091794    1.686    0.407
       157 -13.8418     95.4919    218.4095   6.3735709730e+01   1.6734567012e+01    0.6368891    0.2623591  31.02  0.002842668    2.080    0.519
       158 -14.2115     64.0676    214.5229   7.0804317334e+01   2.1643271322e+01    0.5202262    0.4473014  31.23  0.002470716    1.182    0.154
       159 -10.5236      5.4880    219.4973   8.5048128015e+01   2.6937307713e+01    0.1227608   0.09141357  53.81 -9.871192e-07    1.009    0.009
       160 -12.5171     85.6010    215.6055   6.5751431641e+01   1.8618150216e+01    0.2655258    0.1993008  49.83  0.001437984    1.182    0.154
       161 -11.9118    181.5023    215.4985   4.5268514280e+01   5.4017652123e+00      0.11832   0.09687797   7.36 2.355311e-05    1.008    0.008
       162 -11.8028    136.7185    210.8987   5.3559715730e+01   1.2309186017e+01    0.2093616    0.1810583 -86.95  0.001112312    1.559    0.359
       163 -11.8065     40.5159    210.9872   7.6288749416e+01   2.5204423600e+01    0.1945907    0.1504401 -36.46  0.001144977    1.835    0.455
       164 -12.8339     46.5549    208.7773   7.4643714730e+01   2.4987385702e+01    0.5299903    0.2192521  65.21  0.002177063    2.853    0.649
       165 -12.8784     36.4805     34.3012   4.4739806423e+01   6.9838584212e+01    0.5735909    0.3152844  15.10  0.002223532    3.103    0.678
       166 -12.1836     40.4580     40.2885   4.5254508983e+01   6.7988632098e+01    0.5350048    0.2927859  38.96   0.00246044    1.818    0.450
       167 -13.0697     32.7946     40.1934   4.9754557472e+01   6.9181532137e+01    0.3940962    0.3057035  21.80  0.000808098    1.335    0.251
       168 -13.2495     74.6255     36.8777   2.7774073215e+01   6.1796623227e+01    0.7735721    0.3638161  57.27  0.002183704    2.150    0.535
       169 -11.3180     50.3701     38.9145   3.9276817069e+01   6.6527686866e+01    0.2162556    0.1869673  55.84 0.0003118839    1.215    0.177
       170 -12.2581      5.3733    209.4607   8.4775979088e+01   2.9075607486e+01    0.2435413    0.1862511 -28.96  0.001499926    1.995    0.499
       171 -12.0918     64.3070     24.9516   2.5811120789e+01   6.6028869575e+01    0.3682966    0.3178055 -19.00  0.001595275    1.266    0.210
       172 -10.8397     87.7849     28.0186   1.9374428642e+01   5.9988994658e+01    0.2199765     0.181001 -72.72 0.0005881882    1.305    0.234
       173 -12.1055     80.6177    208.4629   6.6207512353e+01   2.0735130418e+01    0.2910622    0.1936214  59.20  0.001411817    1.509    0.337
       174 -11.3102     98.1539     26.8605   1.6103281721e+01   5.7518142948e+01    0.2849521    0.2260856  86.25  0.001069799    1.258    0.205
       175 -12.5325     30.9029     25.1451   4.3455062568e+01   7.2476570776e+01    0.4247947    0.2535723  26.35  0.001496065    1.818    0.450
       176 -12.0247     36.1021     22.8656   3.8780881602e+01   7.2033438399e+01    0.3417923    0.2328155 -31.91  0.001157302    1.541    0.351
       177 -13.2493     59.4732    212.5391   7.1753966790e+01   2.2629473275e+01     0.462407    0.2972181 -15.21  0.001100919    2.862    0.651
       178 -13.6843     16.2066    197.1136   8.1617380683e+01   3.0823770151e+01    0.8572972    0.3207159 -55.91  0.003505635    3.516    0.716
       179 -12.6750     48.4433     19.8931   3.0067703091e+01   7.0190790893e+01    0.8070871     0.227767  51.45  0.002707334    3.523    0.716
       180 -12.5085    105.4337     33.5060   1.7142973234e+01   5.4723261020e+01    0.7838727    0.4002363 -23.30  0.003090164    2.536    0.606
       181 -11.1594    151.5489    206.1091   4.9736697229e+01   1.0998393772e+01    0.2647867    0.1537425  16.81  0.001166097    1.984    0.496
       182 -14.1308     40.7337    196.3078   7.5211440126e+01   2.8432706083e+01     0.919479    0.4314997  54.16   0.00413335    1.886    0.470
       183 -14.8001     30.1840    169.0459   7.6042438160e+01   3.6146949651e+01     1.394331     1.188844 -14.74  0.004383291    1.557    0.358
       184 -13.4083     56.3790     27.2039   3.0408467435e+01   6.7408320995e+01     0.798991    0.3417081  51.38  0.001973103    2.271    0.560
       185 -14.2490     22.2948    180.9578   7.9131529812e+01   3.4023762272e+01    0.9194774    0.5391752 -56.53   0.00434437    2.012    0.503
       186 -15.3997      8.3680    183.2291   8.3061099705e+01   3.4772767523e+01     1.335578      1.12142  77.07  0.008609659    1.129    0.114
       187 -15.4375     15.6141    174.9566   8.0652593448e+01   3.6124142654e+01     2.564978    0.9018506  55.64   0.01037699    2.492    0.599
       188 -11.5468    212.8667    199.8797   3.7353440623e+01   3.5868343660e+00    0.1878212     0.132315  -4.64  0.001243565    1.308    0.236
       189 -13.5339    164.4545    194.3213   4.5267949166e+01   1.1100904374e+01    0.5913926    0.3765337 -63.25  0.002953104    2.507    0.601
       190 -12.3095    201.0831    191.2150   3.7909650663e+01   6.3571950923e+00     0.296902    0.2105665  -1.17  0.001380078    1.410    0.291
       191 -11.0123     81.2475    192.6423   6.4294468318e+01   2.4023883264e+01    0.1976522    0.1219669  24.37 0.0009501749    1.685    0.406
       192 -12.9342     46.2453     33.1248   3.8569519041e+01   6.8385953698e+01    0.6011007    0.4358872 -23.12  0.003097855    1.613    0.380
       193 -12.1532    180.1717    196.7026   4.2593905619e+01   8.4291839726e+00    0.2201459    0.1757793 -66.84   0.00132425    1.953    0.488
