#   1 NUMBER                 Running object number                                     
#   2 MAG_AUTO               Kron-like elliptical aperture magnitude                    [mag]
#   3 X_IMAGE                Object position along x                                    [pixel]
#   4 Y_IMAGE                Object position along y                                    [pixel]
#   5 X_WORLD                Barycenter position along world x axis                     [deg]
#   6 Y_WORLD                Barycenter position along world y axis                     [deg]
#   7 A_WORLD                Profile RMS along major axis (world units)                 [deg]
#   8 B_WORLD                Profile RMS along minor axis (world units)                 [deg]
#   9 THETA_WORLD            Position angle (CCW/world-x)                               [deg]
#  10 FWHM_WORLD             FWHM assuming a gaussian core                              [deg]
#  11 ELONGATION             A_IMAGE/B_IMAGE                                           
#  12 ELLIPTICITY            1 - B_IMAGE/A_IMAGE                                       
         1 -12.5080    107.7894     28.9563   5.0519601830e+01   5.3505086733e+01    0.4457831    0.3493985  28.21  0.002601745    1.321    0.243
         2 -11.0134     50.4285     22.3466   6.6113449903e+01   6.5597435425e+01    0.4869567    0.2807724  14.57 0.0002935586    2.025    0.506
         3 -11.0824     28.7038     30.1200   7.9374546999e+01   6.7565246298e+01    0.7274182    0.3837422 -14.66  0.003551355    2.361    0.576
         4 -10.6444     36.9677     26.0822   7.3675877309e+01   6.7113358981e+01    0.4044601    0.2590155 -47.72  0.001460584    2.101    0.524
         5 -10.4168     29.5838     20.5687   7.4775514019e+01   6.8867264697e+01    0.9257533    0.3398864  22.65  0.003583444    3.843    0.740
         6 -10.2662     41.0302     21.3181   6.9701636948e+01   6.7187958999e+01    0.2790987    0.2655094  37.59 0.0004816231    1.514    0.339
         7 -11.2552     41.9559     15.8829   6.6800995964e+01   6.7732987198e+01    0.4372984    0.2090089  26.35  0.001343953    2.152    0.535
         8 -11.0781     19.0423     28.4846   8.3621812373e+01   6.8883892398e+01    0.3854465    0.2175272 -46.05 0.0006367287    1.821    0.451
         9  -9.3935     15.4295     19.2366   8.1601172910e+01   7.0681865336e+01    0.2965298    0.2468669 -46.91  0.001708568    1.681    0.405
        10  -8.9566     75.5521     12.4420   5.2917595949e+01   6.2102258138e+01    0.2409373    0.1731624  19.81 0.0005492829    1.379    0.275
        11  -9.2470     78.8288     11.3680   5.1515302954e+01   6.1542388140e+01    0.2081311    0.1663407  -2.54  0.000598978    1.334    0.250
        12 -10.1519     69.7906     11.4310   5.4276062230e+01   6.3335931011e+01    0.2117082    0.1724391  24.49  0.000233056    1.075    0.070
        13 -11.0783     69.7845     16.3438   5.6357257926e+01   6.2842160649e+01    0.5530587    0.4301737  26.19  0.002857883    1.118    0.106
        14 -11.7098     61.9647     17.0999   5.9366512004e+01   6.4225809405e+01    0.4978786    0.2693481  27.34 0.0003823414    1.903    0.474
        15 -10.0211    131.8477     21.3596   4.3036108328e+01   4.8807289879e+01    0.3510161    0.2521787  -3.04  0.001947073    1.850    0.459
        16 -12.6082    105.2087     20.7598   4.8265370412e+01   5.4978711283e+01    0.3417508    0.2574844  59.05  0.000424187    1.195    0.163
        17 -10.3253    218.8704     18.8459   3.1690391583e+01   2.9322720511e+01    0.4487685    0.2353915 -88.66   0.00243653    1.884    0.469
        18  -9.7946    225.4465     17.8495   3.0954365508e+01   2.8083201177e+01    0.3472303    0.1782699 -27.98  0.001148261    2.488    0.598
        19 -10.7532    182.1040     18.5373   3.5162912527e+01   3.7385153273e+01    0.3168826    0.2111455  58.00  0.001130946    1.513    0.339
        20  -9.7222    184.6277     12.8179   3.3529036734e+01   3.7418698564e+01    0.2748373    0.1733536 -53.71  0.001335107    1.520    0.342
        21 -10.9235    166.2872     18.1319   3.6934871990e+01   4.1067679999e+01     0.300407    0.2558442  16.34  0.001223102    1.585    0.369
        22  -8.8171    143.9041     17.6116   3.9916356410e+01   4.6362233593e+01    0.5729317    0.2296068 -18.04  0.002217145    3.932    0.746
        23 -11.7155    160.8503      2.6568   3.3573226932e+01   4.3815184775e+01    0.4074757    0.2692367  69.74 0.0007462762    1.276    0.216
        24 -10.3390    149.9915     17.4037   3.8946778747e+01   4.4953530558e+01    0.4480324    0.2398745  85.15   0.00211204    2.104    0.525
        25 -10.0915    153.1205      5.6477   3.5283301283e+01   4.5338973682e+01    0.4645294    0.2539366  29.16  0.001799025    3.014    0.668
        26  -9.2343    148.5041     12.4900   3.7781529078e+01   4.5785604919e+01    0.2098003    0.1919534  63.83 0.0006216202    1.135    0.119
        27  -9.3031    145.1356     12.6231   3.8299749726e+01   4.6561329602e+01    0.2718576    0.1631198  49.03 0.0007183307    1.649    0.394
        28  -8.7485    127.0002     18.4706   4.3011494695e+01   5.0232875209e+01    0.4024814    0.2210716  -3.80   0.00179349    2.999    0.667
        29 -11.1036    133.0692     12.5340   4.0127652892e+01   4.9390908076e+01    0.2979403    0.2403828  63.33 0.0002973703    1.066    0.062
        30  -9.9078    128.3357     11.7067   4.0658982412e+01   5.0568763632e+01    0.2492961    0.1893991 -10.24 0.0006315015    1.639    0.390
        31  -9.9816    127.0493      8.2055   3.9784035322e+01   5.1178290409e+01    0.4256938    0.1595414  59.67  0.001358377    2.100    0.524
        32 -10.5698      7.8921     15.4764   8.4194526914e+01   7.1960105395e+01    0.4652948    0.2302094   3.86  0.001191878    2.233    0.552
        33 -11.2243     14.6950     11.3902   7.8347284313e+01   7.1877185566e+01    0.3720856    0.3050928  -2.57  0.001312341    1.183    0.155
        34 -10.4409     14.9732      4.2695   7.4594482682e+01   7.2769357072e+01     0.259569    0.1763085 -18.12 0.0003204033    1.276    0.216
        35  -9.9085     18.6209      1.7321   7.1210938502e+01   7.2634673795e+01    0.2231588    0.1313749  18.92 0.0007269151    1.460    0.315
        36 -11.2681     24.9925      6.9308   7.0534661771e+01   7.1215853264e+01     0.203047    0.1632354   8.30 0.0003145408    1.125    0.111
        37 -10.2947     21.2016      5.8201   7.1959083754e+01   7.1834086986e+01    0.2619334     0.189694  -2.04  0.001404298    1.113    0.101
        38  -9.3748    218.9405     11.4711   3.0176368028e+01   3.0128172378e+01    0.2866744    0.1290153 -56.32  0.001516268    1.980    0.495
        39 -10.9331    208.8604      3.9570   2.9408128624e+01   3.3022833939e+01     0.575994    0.3034128 -60.62  0.002241546    1.703    0.413
        40 -10.3743    211.3211     14.4871   3.1416353467e+01   3.1395453664e+01    0.4323855    0.1864638 -37.16  0.002095039    2.229    0.551
        41  -9.1123    215.1913      7.6374   2.9683269809e+01   3.1315370768e+01    0.2210296    0.1771109  54.13  0.001023019    1.611    0.379
        42 -10.4210    217.8398      3.2002   2.8590246700e+01   3.1224262468e+01    0.2961808    0.2327016 -68.04  0.001779347    1.087    0.080
        43  -9.9383    201.9915      7.3535   3.0680631153e+01   3.4146632840e+01    0.3811516    0.1886148 -72.70   0.00196562    2.070    0.517
        44 -10.1203    191.5658      8.5505   3.1865525909e+01   3.6304632258e+01    0.4809203      0.23477 -34.97   0.00257657    2.123    0.529
        45 -10.6612    195.6385      3.6653   3.0412279662e+01   3.5893449011e+01    0.3856737    0.2485752  83.05  0.001173344    1.313    0.238
        46  -8.9667     51.5105     12.7350   6.1350919531e+01   6.6544898109e+01    0.2529998    0.1094129 -31.88  0.001253435    2.468    0.595
        47  -9.6238     30.7030     12.6544   7.0504455247e+01   6.9759271912e+01    0.3399314    0.2352575   3.20  0.001076589    1.271    0.213
        48 -10.3401    242.8715     14.6473   2.9065040240e+01   2.5003329819e+01    0.2151865    0.1285581 -52.31 0.0007399512    1.356    0.263
        49 -10.7228    230.9490     14.0523   2.9787833042e+01   2.7402680997e+01    0.2873294    0.2207996 -55.65 0.0007913338    1.186    0.157
        50  -9.5342     83.9888     14.6075   5.1354780597e+01   6.0172363473e+01    0.2162474    0.1849066  27.45  0.000808329    1.083    0.077
        51 -10.8154    176.2922     13.1536   3.4496441651e+01   3.9275662629e+01    0.5271717    0.2905502  79.30  0.001979752    1.643    0.391
        52  -9.4192    171.2587     12.6672   3.4941744236e+01   4.0478778540e+01    0.2047754    0.1468252 -59.06 0.0004252281    1.372    0.271
        53 -11.0677     91.6364      2.5875   4.4758013212e+01   5.9597027908e+01    0.2740326    0.2210718 -79.99 0.0009186942    1.589    0.371
        54  -9.6257    101.6673     11.3313   4.5716119686e+01   5.6675095189e+01    0.2639416    0.1897998  84.65  0.001012109    1.680    0.405
        55 -10.8601     97.0893     12.1336   4.7056776526e+01   5.7609840720e+01    0.5019169    0.2965263 -16.81  0.001209942    2.013    0.503
        56  -9.3529     93.2440      8.3575   4.6561994759e+01   5.8779600763e+01     0.336109    0.1627699  56.01  0.001312938    1.695    0.410
        57 -10.3206    236.9402     10.8490   2.8753836913e+01   2.6575436762e+01    0.2016098    0.1819747 -44.65 0.0006335637    1.437    0.304
        58 -11.2191    236.0751      4.8292   2.7679887963e+01   2.7394820034e+01    0.4479849     0.330598 -67.62  0.003273933    1.046    0.044
        59  -9.8424    166.5232      9.4812   3.4680226253e+01   4.1881986771e+01    0.3196594    0.2434827  37.40  0.001968057    1.660    0.398
        60  -9.1090    224.1412      8.6840   2.9229452198e+01   2.9361592627e+01    0.2316914    0.1176636 -39.38  0.001343367    1.867    0.464
        61  -8.8599     56.1252     10.3228   5.8483467224e+01   6.5993026269e+01    0.1882983    0.1401623   8.88 0.0005627908    1.261    0.207
        62 -10.7311      6.8749      8.8931   8.1700668836e+01   7.3004414035e+01    0.2243054    0.1680179 -17.86 0.0005166773    1.127    0.112
        63  -8.9545    120.0177      8.9787   4.1241354567e+01   5.2733366673e+01    0.1918872    0.1690331  56.09 0.0006708027    1.062    0.059
        64  -8.1916     86.4866      9.5860   4.8713195180e+01   6.0116172598e+01    0.1636377    0.1152344   4.14 0.0005833331    1.625    0.385
        65  -9.1720     87.8033      6.4112   4.7142388154e+01   6.0110624360e+01    0.2462019    0.1328231  57.24 0.0009673072    1.571    0.364
        66  -8.9281      1.2469      8.7852   8.5110080023e+01   7.3510878435e+01    0.1859177   0.08718813 -49.60 0.0008194322    2.533    0.605
        67  -9.6970     81.3999      2.7024   4.7302608444e+01   6.1757835103e+01    0.3955996    0.1584018  37.43  0.001786129    2.491    0.598
        68 -11.3829     74.1039      4.5521   5.0057848366e+01   6.3101089703e+01    0.4842751      0.29188  -8.48  0.002344811    1.927    0.481
        69  -9.3394     69.7953      2.1723   5.0304293076e+01   6.4155468933e+01    0.1905412    0.1471042  34.78 0.0006479254    1.064    0.060
        70  -8.9931     49.3626      7.4483   5.9732519661e+01   6.7460878673e+01    0.2729586    0.1691247  16.04  0.001602593    1.609    0.378
        71  -8.9076    183.5307      6.6138   3.2179630759e+01   3.8286822970e+01    0.2449737    0.1379155  45.72  0.001056228    2.297    0.565
        72 -10.2407    106.4723      6.4012   4.2951033320e+01   5.6027714406e+01    0.3923984    0.2932571  65.02  0.001400248    1.185    0.156
        73  -9.2449     62.5760      6.5215   5.4495094605e+01   6.5175728741e+01    0.2712868    0.2075601  76.59  0.001637382    1.978    0.494
        74  -8.9805     65.7248      4.2585   5.2464464134e+01   6.4776170511e+01    0.2080252    0.1239855  43.05 0.0003095963    1.362    0.266
        75 -10.2729    247.9933      4.7698   2.6942432135e+01   2.5122490388e+01    0.2165122    0.1416155  87.23 0.0002061962    1.354    0.262
        76 -10.8960    249.9706      1.5381   2.6256667883e+01   2.5097751862e+01    0.1996363    0.1508746 -74.19 0.0003527812    1.077    0.071
        77 -11.7470    177.4287      3.0946   3.1940662411e+01   3.9993476377e+01    0.4231578    0.1942278  57.98 0.0003138935    2.060    0.515
        78  -8.1237    140.2599      4.3153   3.6608343053e+01   4.8443111142e+01    0.1195574   0.08390622  42.31 0.0002856934    1.538    0.350
        79 -10.2178    127.1847      1.8573   3.7792633566e+01   5.1671591155e+01    0.3855387    0.1603734  50.44  0.001250183    2.124    0.529
        80  -8.7448     38.1246      4.5447   6.3019992825e+01   6.9589354337e+01    0.1614735   0.09636359  37.48 0.0002751911    1.452    0.311
        81 -10.4464     30.7616      2.7851   6.5523490374e+01   7.0880416910e+01    0.2228398     0.182298 -34.43 0.0008982707    1.684    0.406
        82  -9.6121    135.4864      1.5331   3.6466995530e+01   4.9778987306e+01    0.2280929    0.1271315  73.59  0.001222829    1.557    0.358
        83 -10.4135    115.6705      1.9097   3.9700073796e+01   5.4306288431e+01    0.2134545    0.1498334  62.85 0.0002784253    1.176    0.150
        84  -9.2977    245.1164     10.8167   2.8211248013e+01   2.5004877623e+01    0.1814989    0.1134178 -66.20 0.0007847116    1.255    0.203
        85  -8.8872    186.6022      1.2246   3.0648614409e+01   3.8114099844e+01    0.3112589   0.06333014  67.84  0.001164573    3.613    0.723
        86  -9.3836     50.7545      1.5069   5.6363723017e+01   6.7778011853e+01    0.2817795    0.1051311  44.92  0.001371992    2.151    0.535
        87  -9.0930    109.4783      1.5144   4.0682311223e+01   5.5738693263e+01    0.2481747    0.1376775  81.83 0.0007660211    2.104    0.525
        88 -10.7061     44.7448    119.4660   9.8548276180e+01   4.6900979738e+01    0.4094944    0.2833792  21.60  0.001011988    1.613    0.380
        89  -9.7465    201.4708    249.4096   8.1727121534e+01  -6.0715001923e+00    0.2368547    0.1828038   9.61 0.0007176272    1.059    0.056
        90 -10.4801     47.5419    114.8539   9.6660588109e+01   4.7732314510e+01    0.3771059    0.3213634  71.86   0.00142472    1.369    0.270
        91  -8.6130    103.8333    119.1903   7.9393630869e+01   3.7909540752e+01    0.2111556    0.1829574  -9.09 0.0003439553    1.289    0.224
        92  -9.2278     93.5914    119.0259   8.2453666383e+01   3.9835142801e+01     0.283002    0.2191188  13.11 0.0009999287    1.523    0.343
        93  -9.5756     38.2541    117.3963   1.0035837459e+02   4.8121309220e+01    0.3047601    0.1835506 -71.38   0.00143468    1.678    0.404
        94  -9.4699     27.9886    115.4988   1.0353265526e+02   4.9581619141e+01    0.2600582    0.1571625 -50.91 0.0005316142    1.441    0.306
        95  -9.0578     32.6159    118.2053   1.0243157050e+02   4.8478841801e+01    0.3003914   0.09032995 -56.91 0.0007783565    2.574    0.611
        96  -9.6002     33.3180    114.0538   1.0142834467e+02   4.9448579237e+01     0.238668    0.2202088  76.16 0.0006769563    1.207    0.171
        97 -10.0809     31.3185    111.3178   1.0161116970e+02   5.0316976871e+01    0.2740545    0.1741367 -45.94 0.0009672381    1.424    0.298
        98 -10.3775      3.9236    116.4556   1.1180565446e+02   5.1091600368e+01    0.3309658    0.3087409 -17.54  0.001645896    1.243    0.196
        99 -10.9133      4.0535    109.9976   1.1087866007e+02   5.2666448348e+01    0.5249775     0.307728  65.39  0.002629313    2.221    0.550
       100  -8.9118    239.3104    117.0359   4.9921061769e+01   1.0771112552e+01    0.2146817   0.09936046 -24.57 0.0007045332    4.294    0.767
       101  -9.8413     69.9497    116.4951   8.9425523472e+01   4.4338698393e+01    0.3276397    0.2746142  16.36  0.001345881    1.290    0.225
       102  -9.2025     80.4609    115.7819   8.5809741033e+01   4.2867179050e+01    0.2503095    0.2187935 -62.53  0.000597856    1.169    0.144
       103  -8.5477     75.9565    112.0315   8.6367087850e+01   4.4498532671e+01     0.175294    0.1669476 -35.92 0.0003738712    1.007    0.007
       104  -9.3015    233.2345    111.2125   4.9569554264e+01   1.2859362577e+01    0.2213838    0.1402451 -69.09  0.001066464    2.112    0.527
       105  -7.9457    171.7145    111.6957   6.0310669637e+01   2.5247212601e+01    0.1457357    0.1195679  -1.19 0.0002085299    1.562    0.360
       106  -8.5910     76.9659    108.4760   8.5145634590e+01   4.5186483838e+01    0.2053217     0.122984  57.36 0.0004669044    2.374    0.579
       107  -9.8478     57.9572    108.0090   9.1524716185e+01   4.8107398831e+01    0.2115375    0.1931729 -39.77            0    1.012    0.012
       108  -9.9467     33.6804    103.4401   9.9201449945e+01   5.2022041145e+01    0.3806633    0.2268548 -33.35  0.001395046    1.767    0.434
       109  -9.7173     37.4313    106.0174   9.8379186762e+01   5.1020323152e+01    0.3708412    0.2048818 -46.11  0.001365265    1.628    0.386
       110  -9.8719     44.9215    100.0000   9.4320323439e+01   5.1656358553e+01    0.4732591    0.2157639  31.62  0.001644127    2.310    0.567
       111  -9.6254     39.5212    102.5392   9.6875014309e+01   5.1645545414e+01    0.2827765    0.2377598 -39.76  0.001378879    1.084    0.077
       112  -9.9378     40.4485     98.9937   9.5739441093e+01   5.2396092020e+01    0.3353137    0.2375945  -6.51  0.001013224    1.640    0.390
       113  -8.6600     29.7352    107.5811   1.0145801760e+02   5.1383420666e+01    0.1760786    0.1253468  36.30 0.0008426086    1.589    0.371
       114  -9.0674     91.8442    106.1324   7.9699953986e+01   4.3180528739e+01    0.2166149    0.2058332 -84.45 0.0003544347    1.160    0.138
       115  -8.2004     43.3029    106.6272   9.6400162112e+01   5.0242233137e+01    0.1421895    0.1069372  75.80 0.0007030859    1.756    0.430
       116  -9.0852      8.4143    105.3414   1.0866812034e+02   5.3544862342e+01    0.2633027   0.09590187 -63.16  0.001131522    2.106    0.525
       117  -9.8261    108.0260    104.2583   7.4245159650e+01   4.0512843269e+01    0.2613351    0.2113865 -45.79 0.0006353922    1.224    0.183
       118 -10.0503     71.1678    103.8791   8.5931918438e+01   4.7188186293e+01    0.2481422    0.2020244  43.45 0.0007313995    1.332    0.249
       119  -9.4808     66.1213    102.1402   8.7232240074e+01   4.8359558125e+01    0.1935444    0.1748039  80.89 0.0004442632    1.319    0.242
       120  -9.7094    132.1587    104.0350   6.7510252839e+01   3.5508911748e+01    0.2439387    0.2185966  47.36 0.0002604623    1.124    0.110
       121 -10.1703    118.9203    103.1381   7.0818881957e+01   3.8526741939e+01    0.2789761    0.2184052 -35.49 0.0002820948    1.308    0.236
       122  -9.5121    126.9777    102.1530   6.8358367188e+01   3.7025753152e+01    0.2959672    0.2197338  36.65 0.0004640974    1.402    0.287
       123 -10.7797    101.7523    102.3997   7.5614417607e+01   4.2161301546e+01    0.4553849    0.4286367  13.39 0.0009664889    1.073    0.068
       124  -9.9167     85.3632    102.4440   8.0798644075e+01   4.5180981651e+01    0.3898015    0.2873568  32.09  0.001284913    1.398    0.285
       125 -10.3857    112.3522    100.5679   7.1970809325e+01   4.0443246788e+01    0.5549831    0.3267707  70.85  0.001812052    3.588    0.721
       126  -8.4032    111.5282     96.4816   7.1065323196e+01   4.1486076013e+01    0.1505572    0.1481145  -5.32 -1.130236e-05    1.006    0.006
       127  -9.9424     51.6233    101.2771   9.2178231007e+01   5.0545356642e+01    0.3579094    0.2455773 -75.86 0.0008093985    1.822    0.451
       128  -8.1983    177.0033    101.2617   5.6666851509e+01   2.6117746739e+01    0.1734553    0.1283794  54.16 0.0003161053    1.404    0.288
       129  -9.3214     79.3831    100.1561   8.2163636262e+01   4.6727861050e+01    0.4750438    0.3027175 -47.09  0.001789822    1.504    0.335
       130  -8.9442     80.8820     95.3395   8.0337901038e+01   4.7561010496e+01    0.3357581    0.1861338  51.00  0.001354257    2.256    0.557
       131  -9.0451     56.7367    100.9676   9.0260095431e+01   4.9956245939e+01    0.1943355    0.1164615 -53.33 0.0007717289    1.544    0.352
       132 -10.8080      7.4662     97.7020   1.0776809787e+02   5.5440010439e+01    0.5084483    0.4214846  31.89  0.003131276    1.437    0.304
       133  -9.1251     13.4575     95.5233   1.0515010709e+02   5.5582892158e+01    0.1843454    0.1757624  27.31 0.0007565661    1.244    0.196
       134 -10.5869      2.3102     79.7298   1.0653125721e+02   5.9904680612e+01    0.5614415     0.270923 -72.26  0.002205534    2.057    0.514
       135  -9.5267      6.7154     78.0733   1.0439280018e+02   6.0041936596e+01    0.1840734    0.1640706  -9.10 0.0004780321    1.222    0.182
       136  -9.7211      2.1682     92.2139   1.0882388547e+02   5.7029039983e+01    0.2669303    0.1680203 -71.28 0.0003894801    1.426    0.299
       137  -9.6215      1.7308     88.6511   1.0838636861e+02   5.7884058225e+01    0.2375504    0.1243046 -39.49 0.0005160772    1.715    0.417
       138  -9.6312      2.2906     85.3513   1.0758659024e+02   5.8620399081e+01    0.2391694    0.1327503 -47.75 0.0005961116    1.451    0.311
       139  -9.6796     71.2385     99.2627   8.4702876903e+01   4.8251906067e+01    0.3680331     0.309798  74.65   0.00191044    1.521    0.343
       140  -9.6333     16.4850     98.7742   1.0461986863e+02   5.4597177256e+01    0.2960453    0.1770883 -50.37  0.001175828    1.391    0.281
       141 -11.6479    117.6392     97.9558   6.9743840939e+01   3.9900663474e+01    0.2829598    0.2699301  33.82 0.0003044416    1.047    0.045
       142 -10.2225     15.9557    108.1037   1.0645235981e+02   5.2373063041e+01    0.3616453    0.2440222 -44.31  0.001060442    1.343    0.255
       143  -9.0128    149.8934     97.1441   6.1335073874e+01   3.2981973757e+01    0.2254038    0.2001933 -79.76  0.001169228    1.212    0.175
       144  -9.9416    125.5137     97.1211   6.7362149143e+01   3.8392748855e+01    0.2917719    0.2238599  44.95  0.001404816    1.303    0.232
       145  -9.4392     59.1712     97.0165   8.8385012208e+01   5.0551068491e+01    0.2191729    0.1712731 -29.01 0.0002562355    1.272    0.214
       146  -9.1472    154.4101     96.1062   6.0041276229e+01   3.2165982699e+01    0.2550226    0.2014705  40.73 0.0005610114    1.338    0.253
       147  -9.4903     86.6895     96.1475   7.8635130527e+01   4.6363809149e+01    0.2813602    0.2159489  27.50 0.0007070502    1.353    0.261
       148  -9.7270     39.5947     88.1257   9.3459388166e+01   5.5028064221e+01    0.3281178    0.2419131 -18.97  0.001146186    1.412    0.292
       149 -10.5318     23.2222     94.2939   1.0120372896e+02   5.5149147087e+01    0.3232652    0.2763186 -81.93  0.001106268    1.304    0.233
       150 -10.7376     32.2313     93.1284   9.7501708734e+01   5.4623335432e+01    0.5747645    0.2989647 -43.50  0.002051454    1.723    0.420
       151 -11.1246     27.4565     86.8144   9.7911121541e+01   5.6533347568e+01    0.7602575     0.407983 -33.12  0.002475874    1.906    0.475
       152  -9.9323     47.0854     91.9212   9.1546414910e+01   5.3296203235e+01    0.3242814    0.2058084 -47.50  0.001042923    1.410    0.291
       153  -9.5457     44.2287     88.4278   9.1742579945e+01   5.4435689935e+01    0.2777674    0.2374167  62.88 0.0009995714    1.495    0.331
       154  -8.4629    131.6549     95.7012   6.5362807066e+01   3.7341988394e+01    0.1559125    0.1215254   9.21 0.0007035894    1.676    0.403
       155  -8.4904    165.4940     94.5248   5.7262003253e+01   2.9962898496e+01    0.1466785    0.1429026 -65.53 0.0008099554    1.030    0.029
       156  -8.8757    139.6694     92.6756   6.2529587770e+01   3.6161340548e+01    0.1551406    0.1213306   8.42 0.0007050369    1.703    0.413
       157  -9.0638    114.2725     90.7242   6.8635492344e+01   4.2109829401e+01    0.2711712    0.1807967  47.83 0.0006566604    1.511    0.338
       158  -9.0183    104.9126     91.0908   7.1465978447e+01   4.3969005307e+01    0.2734144    0.2027611  47.46  0.001312558    1.379    0.275
       159  -9.5714     68.3599     74.9323   7.8701846897e+01   5.3991432505e+01    0.3787874    0.2726401 -71.84  0.001785527    2.133    0.531
       160 -10.4052     65.1496     76.7588   8.0454733710e+01   5.4127209345e+01    0.6534169    0.4813151 -72.79   0.00211679    2.008    0.502
       161 -10.0485     71.0679     88.5229   8.1799485624e+01   5.0693037028e+01    0.5085095    0.2651094 -57.95  0.001303326    2.246    0.555
       162  -9.7868     66.0054     85.6994   8.2805769796e+01   5.2101188766e+01    0.3542452    0.2631834  10.92  0.001125738    1.485    0.327
       163 -11.4227     80.9138     83.4895   7.6889413955e+01   5.0112499352e+01    0.4262075     0.307208  21.17 -0.0001872987    1.507    0.336
       164 -10.8629     73.9639     79.4604   7.8083540651e+01   5.2143998700e+01    0.5830612    0.3261187 -38.45 0.0009053686    1.783    0.439
       165  -9.7084     70.3128     78.7210   7.9164659335e+01   5.2900352096e+01    0.2037569    0.2007346  22.71 0.0002522792    1.155    0.134
       166  -8.5976     52.5884     90.7643   8.9174786408e+01   5.2872438502e+01    0.1905273    0.1319765 -64.50  0.000934756    1.612    0.380
       167 -10.4892     86.3465     88.8824   7.6666077860e+01   4.8004242206e+01    0.3980066    0.3414269  -9.48  0.001084507    1.219    0.179
       168  -9.4805     86.8766     83.5928   7.4917426371e+01   4.9015640262e+01     0.254697    0.2263059 -52.90 0.0003790333    1.213    0.176
       169 -10.7295     51.6152     82.8133   8.7378804510e+01   5.4777180417e+01     0.379297    0.3533446   4.95   0.00054868    1.111    0.100
       170 -11.0199     44.5552     81.9580   8.9895887936e+01   5.5848554530e+01     1.148832    0.3182381  30.77  0.003993705    3.613    0.723
       171 -13.1485     52.8963     74.4825   8.4447355676e+01   5.6388757549e+01    0.8792057    0.4318236 -60.55  0.001225101    2.741    0.635
       172 -11.3984     45.2045     68.7475   8.5787165511e+01   5.8579832233e+01    0.3055907    0.2150805 -34.06 0.0002272493    1.298    0.229
       173  -9.0441     17.8572     90.6385   1.0251642264e+02   5.6426547917e+01    0.1695149    0.1156912  31.05 0.0009409811    1.688    0.408
       174  -9.9195      7.2588     89.2888   1.0636609780e+02   5.7438022021e+01     0.310866    0.1812668  38.46  0.001216966    2.102    0.524
       175  -8.7746     97.6358     88.7778   7.3010810839e+01   4.5897455436e+01    0.2059231    0.1392668 -54.40 0.0002561486    1.632    0.387
       176  -9.4210     14.3372     87.7959   1.0331339899e+02   5.7339544728e+01    0.3705434    0.1682142 -43.09  0.001747287    1.909    0.476
       177 -10.4611    123.6586     86.6531   6.4883730288e+01   4.0901397183e+01    0.4251018    0.2789503 -33.69  0.001172409    1.634    0.388
       178 -10.2238    119.0300     84.4501   6.5484702590e+01   4.2340460040e+01    0.3973637    0.2405784  36.47    0.0017067    1.776    0.437
       179  -9.4648    104.5051     85.6352   6.9983237148e+01   4.5168876940e+01     0.324793    0.2569058 -27.65  0.001160656    1.333    0.250
       180 -10.3386    155.2772     85.1660   5.6926768333e+01   3.4030698532e+01    0.2799066    0.2631918 -12.63 0.0002810657    1.181    0.153
       181 -10.8170    151.4238     80.5016   5.6480817865e+01   3.5761789668e+01    0.6299821    0.3168865  65.94  0.002333746    2.625    0.619
       182 -10.4256    145.6041     74.9683   5.6203958136e+01   3.8084639475e+01    0.4118918    0.2880905 -46.50  0.001109518    1.458    0.314
       183  -9.0352    146.1971     70.6033   5.4838754337e+01   3.8693963355e+01    0.2260663    0.1413356  56.65 0.0009136508    1.561    0.360
       184 -10.0651    128.9546     85.0678   6.3047890162e+01   4.0036424141e+01    0.4066533    0.3121143  17.47  0.001613601    1.640    0.390
       185  -8.6641    132.6995     82.6565   6.1412815032e+01   3.9652809838e+01    0.2450348    0.1548547 -28.66  0.000376361    1.853    0.460
       186  -9.9958    142.1946     83.5181   5.9382646041e+01   3.7335014242e+01    0.4875924    0.2961405  78.65  0.001053005    2.819    0.645
       187  -9.3580     18.6651     72.0197   9.7956228128e+01   6.0580845022e+01    0.2853468    0.1988387 -54.12  0.001100272    1.276    0.216
       188  -8.6542     18.4704     76.5643   9.9154673239e+01   5.9596001894e+01    0.1646073    0.1174304 -67.70 1.515726e-05    1.473    0.321
       189 -10.0587     19.0218     80.8880   9.9939277282e+01   5.8584572634e+01    0.4050037    0.3424343  29.24  0.002565283    1.385    0.278
       190  -9.2441     12.9263     78.5343   1.0191994986e+02   5.9552680802e+01    0.2547686    0.1332316 -47.99  0.001317709    1.539    0.350
       191  -9.8977    124.0525     79.6276   6.2723820055e+01   4.2154809446e+01    0.3929256    0.2986171  61.05  0.001435084    1.407    0.289
       192  -9.1928    118.4885     75.4554   6.2944750546e+01   4.4154017035e+01    0.3822428      0.25276 -82.90  0.001464048    2.901    0.655
       193  -9.4631     97.0794     63.6943   6.5343328078e+01   5.0805868917e+01      0.26208    0.2288227  25.57 0.0002056673    1.103    0.093
       194  -9.8601    100.4531     61.7772   6.3696916802e+01   5.0435411568e+01    0.5961115    0.2741061 -53.24  0.002106657    3.365    0.703
       195  -9.9916     87.4637     67.6228   6.9683672178e+01   5.2015609380e+01    0.5964702    0.2827609  32.32   0.00141053    2.441    0.590
       196  -9.1781     83.4872     65.0582   7.0154630523e+01   5.3237396344e+01    0.2339414    0.1843771  21.84 0.0007227712    1.272    0.214
       197  -9.1445     82.8007     61.2780   6.9109839326e+01   5.4039709458e+01    0.3478465    0.2231551 -14.17  0.001576355    2.060    0.515
       198 -10.0876     89.3015     72.9622   7.0814205753e+01   5.0666438213e+01    0.5330518    0.3434723 -13.48  0.002288905    2.207    0.547
       199 -10.5946     94.4520     70.9166   6.8510525815e+01   5.0043044218e+01    0.5770658    0.3201989 -48.72  0.002358417    2.005    0.501
       200 -10.1326     93.8489     79.0470   7.1265796679e+01   4.8608683415e+01    0.3383653    0.2688315  14.69   0.00102402    1.382    0.277
       201  -9.2783     89.4542     77.9998   7.2354530902e+01   4.9661180897e+01    0.3150621    0.2649106 -79.80 0.0006523885    1.590    0.371
       202  -9.9418    167.9938     78.4095   5.2570905542e+01   3.2300454346e+01    0.2593359     0.205962 -45.01 0.0003267091    1.241    0.194
       203 -10.3620    169.8933     73.0252   5.0808522560e+01   3.2772671215e+01    0.3755554    0.2111689 -35.14  0.001629209    1.866    0.464
       204  -9.4882    141.5627     75.2322   5.7181076819e+01   3.8973517783e+01    0.2183112    0.1464547 -38.68 0.0004794785    1.531    0.347
       205  -9.4562    137.0425     78.9907   5.9306667727e+01   3.9341862336e+01    0.2247684    0.2145649  86.44 0.0004787142    1.063    0.059
       206  -9.4415    111.0374     77.3572   6.5579049875e+01   4.5416405121e+01    0.3090887    0.2553097 -38.74  0.001612684    1.235    0.191
       207  -9.0756    111.3776     71.1663   6.3570703610e+01   4.6479080817e+01    0.3614396    0.2401201 -10.46  0.001544139    2.221    0.550
       208  -7.9078    231.3098     77.7135   4.2757259204e+01   1.8750360053e+01    0.1316388   0.08653186 -67.45 0.0002294051    1.574    0.365
       209 -10.7261    179.9075     74.9942   4.9548007733e+01   3.0147838485e+01    0.4575796    0.3426701  17.49  0.002213709    2.047    0.511
       210  -9.8728     37.2154     69.2085   8.9256996562e+01   5.9430686284e+01     0.427397    0.3601274  -1.24  0.002629109    1.150    0.131
       211  -9.2268     31.9503     47.6895   8.4593302992e+01   6.4220608884e+01    0.1716656    0.1520903   0.94 0.0005158417    1.161    0.138
       212 -10.6022     14.3982     39.5793   9.0271237255e+01   6.7413251520e+01     0.823494     0.659209  33.66  0.005509154    1.607    0.378
       213  -8.8998     28.7267     74.4299   9.4305434418e+01   5.9190418298e+01    0.5798571    0.2850044 -58.68  0.002719095    1.958    0.489
       214 -10.2933     43.9272     48.4399   7.9479953417e+01   6.2609188274e+01    0.5834229    0.2921552  15.01   0.00251628    2.666    0.625
       215  -9.9301     37.3966     47.4152   8.2001703345e+01   6.3629111471e+01    0.3660015    0.2232374  -1.83  0.001875089    1.914    0.477
       216 -11.6082     24.2390     56.1273   9.0990529656e+01   6.3412785104e+01     1.077948     0.259404 -48.70  0.002333145    3.194    0.687
       217 -10.4454     31.7102     53.3658   8.6667567623e+01   6.3192610099e+01     0.627884    0.3089507  29.13  0.002460211    2.079    0.519
       218 -10.7712     31.7087     66.1855   9.0714914713e+01   6.0647129542e+01     0.648282    0.2976864 -30.02  0.002055503    2.517    0.603
       219 -11.0284     28.1426     63.4965   9.1477364794e+01   6.1557403801e+01    0.3521894    0.2263459 -41.95 0.0002650493    1.338    0.252
       220 -10.4916     32.3005     59.6834   8.8464345158e+01   6.1902631939e+01    0.3533469    0.2343164 -21.31 0.0009456422    1.473    0.321
       221  -9.5579     16.3043     46.6266   9.1716996531e+01   6.5950547334e+01    0.2257526    0.1603063  -5.77 0.0004358344    1.319    0.242
       222 -11.3460     22.5673     46.4324   8.8596554126e+01   6.5426979008e+01    0.4305977    0.3631891 -24.79  0.001443455    1.092    0.084
       223  -6.9278     27.2759     43.8726   8.5425248118e+01   6.5418975628e+01    0.6987118    0.2765683 -51.46  0.003105256    2.664    0.625
       224  -8.5247     37.7129     75.7002   9.0918440214e+01   5.7998253887e+01      0.13852   0.08987639 -26.45 0.0002189088    1.556    0.357
       225  -8.6068     84.4298     72.6688   7.2330765358e+01   5.1642761911e+01    0.1902526    0.1327463 -29.11  0.000922596    1.500    0.333
       226 -10.6124     12.4676     66.8186   9.9350042264e+01   6.2156684470e+01    0.8007153    0.3200355 -29.47  0.003373133    2.842    0.648
       227  -9.6204     15.8991     60.0141   9.5988779136e+01   6.3337079860e+01    0.2591613    0.1755405 -31.78 0.0004487366    1.262    0.207
       228 -12.4352      2.4511     66.3214   1.0367202685e+02   6.2865107772e+01    0.4011754    0.2303852 -63.07 0.0002057622    1.562    0.360
       229 -11.3704      6.1239     60.4159   1.0059599315e+02   6.3916744054e+01    0.5837619    0.5292163  26.14  0.004119334    1.377    0.274
       230 -10.1412     10.5065     50.9895   9.5922875367e+01   6.5552145426e+01    0.7395112    0.1942045 -55.78  0.002947905    3.145    0.682
       231 -10.7217     79.8374     70.0683   7.3052794529e+01   5.2980857698e+01    0.2587735    0.2313932  39.26 0.0004241807    1.174    0.148
       232 -10.3310      6.8203     51.9380   9.7988403362e+01   6.5609800924e+01    0.2754269    0.2368563 -27.32 0.0007348146    1.112    0.100
       233  -7.9917    215.4846     70.4839   4.3175082810e+01   2.3077637762e+01    0.1333641     0.114274 -64.88 7.019331e-05    1.008    0.008
       234  -9.0894    129.4649     70.0409   5.8504570597e+01   4.2652829645e+01    0.2190348    0.1880024  52.09 0.0003098685    1.124    0.110
       235 -10.0133    102.9429     68.5952   6.5178475287e+01   4.8731137365e+01    0.5230139    0.3811949   0.68  0.002482152    1.804    0.446
       236 -10.3119    173.4798     68.7544   4.9059900016e+01   3.2642201073e+01    0.2617538    0.2293854 -84.48 0.0002806007    1.108    0.097
       237  -9.0351    157.4106     68.2998   5.1897008935e+01   3.6456197138e+01    0.2531301     0.141847 -32.27 0.0007758259    1.977    0.494
       238 -10.7407    135.2399     64.8227   5.5586935850e+01   4.2200063684e+01    0.4591105    0.3587508  53.03  0.001295336    1.223    0.182
       239  -9.3745    142.0027     59.5230   5.2540847997e+01   4.1467467372e+01    0.2534107     0.163677  59.12 0.0003871658    1.486    0.327
       240  -9.8970    140.9175     68.2882   5.5326874143e+01   4.0310559012e+01    0.2596886    0.2342556  67.75 0.0003679282    1.083    0.077
       241  -9.6793    143.7954     65.7969   5.3979695463e+01   4.0050443426e+01    0.2691049    0.2230925 -65.03 0.0006392532    1.300    0.231
       242  -9.5048    140.7471     63.0399   5.3836867872e+01   4.1207348158e+01    0.2826427    0.2496801 -10.64 0.0004771836    1.309    0.236
       243  -8.9259     64.1656     69.0802   7.8396898021e+01   5.5825339928e+01    0.2169316    0.1762685   0.02 0.0007842444    1.231    0.188
       244  -9.2802    119.3013     67.4193   6.0266300468e+01   4.5395453563e+01    0.3284808    0.2283997 -11.24  0.001492781    1.970    0.492
       245  -9.1255     75.2220     65.9461   7.3309137483e+01   5.4578939023e+01    0.1998017    0.1915708 -53.59 0.0005300294    1.234    0.190
       246  -8.9244    110.2911     62.9171   6.1259370638e+01   4.8143378886e+01    0.2300067    0.1909195  40.12 0.0005476582    1.150    0.130
       247  -8.9959    114.4381     60.6406   5.9410701712e+01   4.7608078022e+01    0.2367918    0.1608237  45.70  0.000652005    1.394    0.283
       248  -9.6656     64.7219     61.9723   7.5821619494e+01   5.7090592762e+01    0.4936042    0.2160518  34.92  0.002064173    2.286    0.562
       249  -9.9408     72.0524     60.2741   7.2520858424e+01   5.6167880735e+01    0.3943068    0.2406154  38.74  0.001937511    1.605    0.377
       250  -9.4691     48.9286     57.4839   8.0563257862e+01   6.0292920983e+01    0.2627261    0.1244205  32.06 0.0009584965    2.114    0.527
       251 -10.1776     44.7775     54.3157   8.1216981227e+01   6.1439952994e+01    0.5199749    0.2362465  33.15   0.00234834    2.208    0.547
       252  -9.9404     52.6877     53.5827   7.7639740510e+01   6.0470589229e+01    0.4004921    0.1771123 -41.74  0.001425184    2.185    0.542
       253 -11.0581     54.2109     61.2040   7.9669491357e+01   5.8847560413e+01    0.2898891    0.2594504 -65.14   0.00173808    1.465    0.318
       254 -10.5268     56.3353     56.8343   7.7312218287e+01   5.9343454686e+01    0.2877448    0.2194103  12.83  0.000288758    1.279    0.218
       255  -9.6083    193.6767     60.7391   4.3881741548e+01   2.9288806266e+01    0.4114173    0.1695418 -41.90  0.001736289    2.245    0.555
       256  -9.5430    197.4780     59.9776   4.3168665807e+01   2.8556623174e+01    0.2423222    0.2229632  54.52 0.0009694157    1.268    0.211
       257  -9.7668    152.7777     60.4102   5.0612243890e+01   3.8797901748e+01    0.4902881    0.2679312  38.20  0.002032574    2.360    0.576
       258  -9.5870     77.2877     62.0826   7.1277272155e+01   5.4915669867e+01    0.2406816    0.1947099  40.76 0.0003437726    1.259    0.206
       259  -9.5615     39.6194     60.0602   8.5380798310e+01   6.1000046898e+01    0.4108132    0.2207747 -38.34   0.00203659    1.705    0.413
       260 -10.1501    166.3163     60.3023   4.8086877462e+01   3.5634516714e+01    0.3607666    0.2184496  47.43  0.000970258    1.755    0.430
       261 -10.5594    167.4856     56.5034   4.6875303385e+01   3.5932680312e+01    0.4959269    0.3131439 -82.58  0.001754294    2.088    0.521
       262 -10.2958    161.5594     59.8985   4.8823832142e+01   3.6811320415e+01    0.3035823      0.25819  13.27 0.0008220176    1.519    0.342
       263  -9.9677    131.6693     59.9191   5.4934157718e+01   4.3813359721e+01    0.4743801    0.3854353  68.94  0.002548012    1.262    0.208
       264  -9.2804    124.9080     57.1370   5.5666285437e+01   4.5804084614e+01    0.3951897    0.2263586  68.65  0.001244744    2.211    0.548
       265 -11.2943    127.1094     46.9602   5.1975610213e+01   4.6797218553e+01    0.5732887    0.4085189 -69.14  0.002852912    1.833    0.454
       266 -10.5141    122.4332     50.6596   5.4220080200e+01   4.7345465718e+01    0.6542602     0.441909   9.54  0.002985074    2.235    0.553
       267  -9.7953    117.6805     52.0607   5.5823358017e+01   4.8219656489e+01    0.3096524    0.2612031 -25.82 0.0004268313    1.281    0.219
       268  -9.3591    136.8377     55.4856   5.2449091414e+01   4.3293582575e+01    0.3481499    0.2006717 -28.60  0.001403966    2.006    0.501
       269  -8.8706     65.0074     56.4884   7.3809834461e+01   5.8034635303e+01    0.1965216    0.1692878 -20.78 0.0003453764    1.108    0.097
       270  -9.5653     93.1148     55.1307   6.3673602925e+01   5.3047527049e+01    0.4183931    0.2957561  29.19  0.001662234    1.446    0.308
       271 -10.4511     92.9827     51.0219   6.2290592156e+01   5.3723279602e+01    0.3085449    0.2418617  29.38 0.0003581297    1.232    0.188
       272 -11.0792     68.1916     48.4027   6.9689262151e+01   5.8859559453e+01    0.7228236    0.5307587  84.35  0.003285275    3.012    0.668
       273 -12.3676     62.1529     44.2916   7.0423928664e+01   6.0546837369e+01    0.4825695    0.2827221  36.41 0.0004780251    1.615    0.381
       274  -9.7810    145.9540     52.2348   4.9616179622e+01   4.1631404595e+01    0.3282517    0.2485393 -74.95   0.00103237    1.528    0.346
       275  -8.7113    106.7998     53.1257   5.9014145248e+01   5.0474243940e+01    0.1937682    0.1530597  26.94 0.0003597264    1.314    0.239
       276  -9.3328     83.7495     51.3343   6.5326426520e+01   5.5519445393e+01    0.3172725    0.2020041 -39.37  0.001285905    1.661    0.398
       277  -9.2415     87.3054     48.9955   6.3342710846e+01   5.5184364741e+01    0.2912679    0.1775695  43.86 0.0007909861    1.531    0.347
       278  -9.4076     61.5322     52.3842   7.3674422710e+01   5.9316409967e+01    0.2355747    0.2059268   3.54   0.00079038    1.012    0.012
       279  -8.7281     14.5918     53.2355   9.4628589240e+01   6.4806914420e+01    0.1770869     0.090778 -43.49 0.0007286762    1.591    0.371
       280  -8.9642    192.4956     52.5427   4.2078307818e+01   3.0753630506e+01    0.1343872    0.1166747 -77.37 0.0001020699    1.021    0.020
       281 -10.9036    152.9929     47.5438   4.6953137625e+01   4.0633037718e+01    0.4663058    0.4116486  62.87  0.001419278    1.078    0.073
       282  -9.9203    145.9123     46.1895   4.7872113620e+01   4.2494181495e+01    0.2580577    0.2094696 -88.03 0.0005105979    1.300    0.231
       283  -9.7022    174.9619     50.0487   4.3984380845e+01   3.5120538077e+01    0.3202475    0.2564544  14.01  0.001155414    1.801    0.445
       284  -9.8306    165.0455     50.4954   4.5681686115e+01   3.7376089712e+01    0.2678663    0.1908046  84.81 0.0009214474    1.487    0.328
       285  -9.1761    159.9305     50.5030   4.6550832363e+01   3.8579328687e+01    0.3295157    0.1228493  58.46  0.001239365    2.457    0.593
       286  -9.8646    164.0650     46.1394   4.4673448953e+01   3.8212467040e+01    0.4214118    0.2599506  -8.36  0.001806647    2.888    0.654
       287  -9.9560     79.5359     54.2818   6.7786886725e+01   5.5845873649e+01    0.2572774    0.2353629  11.23 0.0004344992    1.023    0.023
       288  -9.6223    201.9464     47.0372   3.9569794751e+01   2.9421219802e+01    0.1978658    0.1821465 -49.30 0.0003821503    1.216    0.178
       289  -8.3490    196.7943     48.4376   4.0536868078e+01   3.0368373806e+01    0.1785955    0.1124977  55.04 0.0009336324    1.688    0.408
       290 -10.0518    114.8915     46.5617   5.4727120076e+01   4.9647409727e+01    0.3196677    0.2350945  26.19  0.001271048    1.538    0.350
       291  -9.1650    234.8759     47.0134   3.6010475643e+01   2.2538092439e+01    0.1798098    0.1407457 -66.05 0.0003310639    1.037    0.036
       292  -8.6179     68.4855     54.9258   7.1951129485e+01   5.7721502499e+01    0.1900492    0.1294937 -37.78 0.0004108359    1.479    0.324
       293  -9.6712    245.0010     44.7722   3.4636595687e+01   2.0876210138e+01    0.2104919     0.148762 -50.45 0.0008358788    1.195    0.163
       294  -8.6929    131.7415     45.1946   5.0417333851e+01   4.5963887280e+01    0.1878882     0.154728  33.06 0.0007320665    1.308    0.235
       295 -10.9252    106.6238     43.6112   5.5853373345e+01   5.1902148509e+01    0.4392618    0.3255405  39.19 0.0004716046    1.276    0.216
       296  -9.8281     94.8570     35.7957   5.6315990790e+01   5.5492147659e+01    0.4069498    0.2806839  30.10  0.002177577    1.473    0.321
       297  -9.0947     94.4424     44.5626   5.9579295344e+01   5.4384056882e+01    0.2703458    0.2031955  22.89 0.0004756868    1.393    0.282
       298  -9.8166     91.2632     41.4986   5.9426150976e+01   5.5478684110e+01    0.3868089    0.2201827 -41.96  0.001860494    1.990    0.497
       299 -10.6486     79.5770     42.9479   6.3654492156e+01   5.7607550076e+01    0.4016171    0.2886842  61.42  0.001351801    1.775    0.437
       300  -9.4276    249.8009     43.8250   3.4040801614e+01   2.0097633213e+01    0.1679118    0.1063278 -62.58 0.0004286348    1.319    0.242
       301  -8.6629    185.5148     44.4642   4.1062560598e+01   3.3456732218e+01     0.132099    0.1168604 -84.56  0.000165578    1.018    0.017
       302  -9.4668    178.2576     43.7670   4.1895094775e+01   3.5218730690e+01    0.2598444    0.1816386 -83.80 0.0008571959    1.495    0.331
       303  -8.6254    202.3276     42.9976   3.8597341469e+01   2.9883943031e+01    0.1802843    0.1478169 -68.29  0.000484606    1.067    0.063
       304  -9.3679      3.1645     43.2434   9.7249451282e+01   6.7537818370e+01    0.2699218    0.2026752  66.55  0.001130965    2.355    0.575
       305  -9.1482     71.2440     42.7043   6.6441501603e+01   5.9203921184e+01    0.2748806    0.1736538   7.04  0.001204316    2.099    0.524
       306 -10.5774    234.4223     30.1117   3.2667203896e+01   2.4819936593e+01    0.3430809    0.2107558  54.94  0.001199811    2.036    0.509
       307 -10.8068    222.6253     40.7587   3.5914133131e+01   2.5851140161e+01    0.2465355    0.1990258 -70.75 0.0002929291    1.017    0.017
       308  -9.5181    223.6100     34.7640   3.4565490634e+01   2.6422598036e+01    0.2583302    0.1717677 -56.34 0.0009044521    1.283    0.220
       309 -10.8229    228.0484     40.1933   3.5269622340e+01   2.4815125461e+01    0.4816356    0.3145025 -25.43  0.001376106    2.037    0.509
       310  -9.7949    227.2495     33.4381   3.3957647690e+01   2.5845430083e+01    0.2706226    0.1643064 -75.59  0.001098935    1.574    0.365
       311  -8.5350    191.6306     42.2188   3.9718961304e+01   3.2368924464e+01    0.1643343    0.1239941 -26.00 0.0005858893    1.617    0.382
       312  -9.8963    112.9858     41.3274   5.3464220539e+01   5.0796545272e+01    0.2248071    0.1982499 -20.44 0.0001706432    1.236    0.191
       313 -10.0166     34.5201     41.7129   8.1200277104e+01   6.4973867666e+01     0.335795    0.1831163  14.44  0.001061737    2.020    0.505
       314 -11.6033     40.1422     39.5012   7.7768328564e+01   6.4629132611e+01    0.2533341    0.1847664  -7.25 -0.0004788897    1.281    0.219
       315  -8.6946    143.9977     41.5225   4.6871676513e+01   4.3572818652e+01    0.2147205    0.1254709  63.10  0.001028835    1.588    0.370
       316  -9.5517    127.5712     39.6227   4.9571005885e+01   4.7677814880e+01     0.291517    0.2356053  61.18  0.001043282    1.137    0.120
       317  -9.3322    131.2253     35.9614   4.7670814778e+01   4.7288759656e+01    0.3796843    0.2607644 -67.30  0.001837031    1.850    0.459
       318  -9.7604    133.8178     29.4479   4.5160052485e+01   4.7459249027e+01    0.5012338    0.3221699  21.34  0.002419275    2.267    0.559
       319  -9.0985     12.0962     32.3208   8.8822208412e+01   6.8886604065e+01    0.3843369    0.2448512 -16.76  0.001795831    1.392    0.282
       320  -9.4117      7.5169     39.4916   9.3797397682e+01   6.7959880872e+01    0.2482575    0.1700696  -3.17  0.001060617    1.370    0.270
       321 -10.8205      4.5835     36.2286   9.4245424539e+01   6.8759502695e+01    0.6091874     0.331825 -32.93  0.002621539    1.503    0.334
       322  -8.5332    215.4380     39.2564   3.6321486543e+01   2.7550395346e+01    0.1696588   0.09919756 -50.89 0.0006047671    1.512    0.339
       323  -8.3433    203.3840     39.2051   3.7611810444e+01   3.0151971105e+01    0.1760054    0.1008502 -49.82  0.000541784    1.600    0.375
       324  -9.1347    182.0684     48.4255   4.2522404666e+01   3.3704623033e+01    0.2314518    0.1956367 -13.13 0.0009797971    1.546    0.353
       325  -8.8284    165.2668     36.3831   4.1875563466e+01   3.9206801424e+01    0.5144515     0.129965  68.31   0.00148681    4.877    0.795
       326  -9.4645    158.2162     39.0496   4.3695408604e+01   4.0530015448e+01    0.2371224    0.1784791  74.10  0.001325242    1.237    0.192
       327  -9.3380    120.8322     38.8614   5.0805366310e+01   4.9334720746e+01    0.2877811    0.1803235 -49.46  0.001118926    1.878    0.467
       328 -10.3849    103.8061     38.2980   5.4765492175e+01   5.3236864941e+01    0.3004811    0.2166959 -28.24 0.0008907235    1.513    0.339
       329 -10.0475    249.2743     36.7400   3.2738441090e+01   2.1119061067e+01    0.2891428    0.1210606 -49.01  0.001527251    1.894    0.472
       330 -10.5745    178.4122     37.0623   4.0182983089e+01   3.6057065161e+01    0.3008341    0.2962126  37.19  0.000649074    1.256    0.204
       331  -7.9622    150.6599     38.2426   4.4731723513e+01   4.2419755695e+01    0.1347434    0.0968439 -83.62 0.0001819426    1.558    0.358
       332  -9.5931    136.6344     37.8000   4.7164925164e+01   4.5789068983e+01      0.26722    0.1780456  60.82 0.0002366043    1.359    0.264
       333 -10.2460    141.5430     32.6568   4.4711713381e+01   4.5263906886e+01     0.549605    0.3436775  27.03  0.002185949    2.314    0.568
       334  -9.9842    146.2549     29.0365   4.2840500492e+01   4.4575726039e+01    0.2869304    0.2356284  74.52 0.0008191168    1.099    0.090
       335  -8.5929     93.8340     30.1088   5.4526421142e+01   5.6418060465e+01    0.3600487     0.169119  53.94 0.0009391232    1.939    0.484
       336  -9.6565     86.2674     36.3575   5.9051958389e+01   5.7202954273e+01    0.4593311    0.2480181  19.25  0.001839704    3.008    0.668
       337 -10.1578     88.4837     33.0499   5.7148708415e+01   5.7177595266e+01    0.4468742    0.3238177  13.32  0.002463873    1.545    0.353
       338  -9.3161     75.0326     22.9946   5.7393785765e+01   6.1094902817e+01    0.1911834    0.1646512   1.36 0.0003233744    1.159    0.137
       339  -9.4675     72.8976     36.4937   6.3471608534e+01   5.9796047564e+01    0.5551538    0.3444307  17.04  0.001491422    1.942    0.485
       340 -10.8129     79.5656     30.8416   5.9049717870e+01   5.9260318207e+01    0.5714306     0.452269  81.70  0.002465106    1.907    0.476
       341 -10.1774     72.0450     29.6208   6.1053323564e+01   6.0869893633e+01    0.4104661    0.2767442  43.39  0.001508417    1.352    0.260
       342  -8.8801    238.5616     37.1741   3.3710206404e+01   2.3113958066e+01    0.1789158      0.13028  75.00  0.000913979    1.403    0.287
       343  -8.9550    186.1854     36.4388   3.9014750049e+01   3.4352561132e+01    0.2705655    0.1376081 -52.49  0.001294379    1.968    0.492
       344 -11.4380    116.8057     33.4684   4.9948688975e+01   5.0932117015e+01    0.4263279    0.3033062  24.29 0.0005028269    1.666    0.400
       345  -9.9300     56.5275     35.4837   6.9175859122e+01   6.2814657549e+01    0.2607211    0.2120867 -44.07 1.232421e-05    1.531    0.347
       346  -9.0673     49.7847     33.8967   7.1297102117e+01   6.4117249190e+01    0.4110853     0.292465  20.36  0.002451604    1.281    0.219
       347  -9.5589    209.1532     33.4640   3.5707465759e+01   2.9632130441e+01    0.2837726    0.1980685 -41.59  0.001712485    1.424    0.298
       348  -8.8772    203.0743     35.1168   3.6720872172e+01   3.0744072743e+01    0.1761664    0.1531962  74.91 0.0003305305    1.203    0.169
       349  -9.8143     61.7276     32.7254   6.6030766113e+01   6.2329928996e+01    0.4879296    0.2564468 -22.22  0.002334007    2.209    0.547
       350  -8.2428    146.4417     34.2028   4.4301654164e+01   4.3919898315e+01    0.1752778    0.1186166 -49.96 0.0009134178    1.588    0.370
       351 -10.4316    115.7681    248.2540   9.9302276932e+01   6.3302499380e+00    0.2424079    0.2319053 -26.36 0.0007974529    1.205    0.170
       352  -9.9564    101.0336     26.4883   5.1310044600e+01   5.5283453321e+01    0.3991417    0.1630364  58.81  0.001674535    2.320    0.569
       353  -9.8139     42.4295     31.0078   7.3289413920e+01   6.5634214185e+01    0.3858487    0.2239732 -45.52   0.00205563    2.089    0.521
       354  -8.1594     57.2204    248.7482   1.1177136877e+02   1.4250046437e+01    0.1143238   0.07553889  63.48            0    1.380    0.275
       355  -9.5801     34.7727     31.6996   7.7099639158e+01   6.6570357578e+01    0.2462979    0.1534505  20.40  0.001419769    1.509    0.337
       356  -8.9852    163.4920    246.4888   8.8913777769e+01  -3.5256395156e-01    0.1289925    0.1087113  16.85 0.0008105309    1.006    0.006
       357  -8.5440    219.5033    245.5225   7.7695612617e+01  -7.8042882804e+00    0.1227598   0.09363383  -0.83 0.0001546671    1.046    0.044
       358  -8.8303      1.4570    244.4556   1.2247069015e+02   2.1231463203e+01    0.1146177   0.08383578  68.16 9.106965e-05    1.026    0.025
       359  -9.3552    146.1693    242.7886   9.2035488769e+01   2.8374068901e+00    0.1813101    0.1448583   0.50 0.0008955353    1.332    0.249
       360  -9.1993    245.1926    242.0038   7.2528687822e+01  -1.0356716840e+01    0.1620684    0.1214264  -6.79 0.0006553252    1.007    0.007
       361 -10.2266    248.3780     30.4898   3.1630803571e+01   2.2075224111e+01    0.2764744    0.2009264 -22.33  0.001343279    2.029    0.507
       362  -9.5991    183.8215     31.9068   3.8206527828e+01   3.5455132743e+01    0.2814495    0.1900144  77.49  0.001131401    1.361    0.265
       363  -9.1828    183.0323     27.0700   3.7123561670e+01   3.6212926641e+01     0.231578    0.1623124 -53.35  0.001353616    1.376    0.273
       364  -8.8003    152.8587     31.6963   4.2517813059e+01   4.2704127475e+01    0.2624962    0.1498241 -60.11  0.001230965    2.115    0.527
       365 -10.3928    161.5207     27.3573   4.0012374565e+01   4.1169282228e+01    0.3511899    0.2518938 -16.42 0.0006078895    1.829    0.453
       366  -9.0017    188.9936    239.7373   8.2655117223e+01  -2.8818111991e+00    0.1673289   0.09741604  29.70 0.0008908574    1.544    0.352
       367  -8.9995    222.2484    236.7786   7.5756649617e+01  -6.8729990118e+00    0.3218873    0.1529144   6.78  0.001258383    3.772    0.735
       368  -9.6475     19.7026     18.0059   7.8712375302e+01   7.0408335847e+01    0.2496069    0.2213656  38.35   0.00178638    1.713    0.416
       369  -9.0656    126.0723     29.1293   4.6563377713e+01   4.9306168385e+01    0.1936619    0.1563939  44.10 0.0002860636    1.200    0.167
       370  -9.0812    189.7690     28.2721   3.6625476166e+01   3.4542770311e+01    0.1855372    0.1471411 -77.93  0.000716827    1.112    0.101
       371  -8.7048    115.9108     28.3046   4.8432812262e+01   5.1743573144e+01    0.1942534   0.09831751  50.27 0.0009063451    1.728    0.421
       372  -9.8063    222.4650     26.6931   3.2999309882e+01   2.7657263001e+01    0.2136676    0.1869064 -84.76 0.0007714925    1.172    0.147
       373 -10.0875    173.5587     23.3881   3.7366788364e+01   3.8811483026e+01    0.2696615     0.252017  80.00  0.001814795    1.156    0.135
       374  -8.6647    169.5103     23.0723   3.7799632514e+01   3.9785173237e+01    0.1711199    0.1245607 -36.57 0.0003592902    1.498    0.332
       375  -8.2278     52.6823     27.7116   6.7508811196e+01   6.4531344076e+01    0.1290211   0.08490316  10.37 0.0004840312    1.594    0.373
       376 -10.1201    213.1369     25.8537   3.3667388869e+01   2.9710412908e+01     0.243204    0.1737706  65.62 0.0006802043    1.447    0.309
       377  -9.5517    221.7445    233.5385   7.5308665135e+01  -6.3253762036e+00    0.2851071    0.1400086  29.74   0.00149263    1.946    0.486
       378  -8.8754    167.6746    237.3060   8.6650963280e+01   6.0348815243e-01    0.1237244    0.0995982  57.02 0.0003968667    1.647    0.393
       379  -8.8569    139.8728    236.6310   9.2515642042e+01   4.9130425887e+00    0.1929725    0.1071819  42.13 0.0004745509    1.679    0.404
       380  -9.0272    188.3168    235.3161   8.2079535705e+01  -2.0652496880e+00    0.1332751   0.08865327  -3.21 0.0003128547    1.650    0.394
       381 -10.7175     62.2327     22.4060   6.1548896888e+01   6.3568669598e+01    0.5282473    0.2963188  20.87  0.001778973    2.070    0.517
       382  -8.8404     32.0103    232.6441   1.1574963428e+02   2.0573857586e+01     0.168544    0.1353083  58.54 0.0004554781    1.077    0.072
       383 -10.7751      2.0667     25.3490   9.1711100091e+01   7.0842218860e+01    0.1959331    0.1428376 -30.13 0.0002801409    1.098    0.089
       384  -9.9839    233.2398     23.9290   3.1544557894e+01   2.5805454370e+01    0.4121176    0.1923782 -80.66  0.001665038    2.442    0.590
       385  -9.6905    204.9358     24.5355   3.4165533174e+01   3.1626652363e+01    0.1874482    0.1736905 -26.53 0.0003668994    1.421    0.296
       386  -9.6344    186.6846    230.6452   8.1645782483e+01  -1.0506620809e+00    0.2100102    0.1390402  -3.68 0.0009720557    1.707    0.414
       387  -9.3109     85.7022     22.6297   5.4001304779e+01   5.8985538141e+01    0.3833603    0.2040332  22.57  0.001696584    2.599    0.615
       388  -9.4421     84.0083     20.0077   5.3469667504e+01   5.9619047555e+01    0.2169268    0.1761149  -3.45  0.001356179    1.309    0.236
       389 -10.2191    153.6405     22.7696   3.9907904362e+01   4.3533312489e+01    0.2482248    0.2216046  37.93 0.0003058396    1.297    0.229
       390 -10.0724    117.1360     21.8142   4.6012202396e+01   5.2170776812e+01    0.2839714    0.2016596  -4.03  0.000617685    1.790    0.441
       391  -9.0110    177.9198    231.0000   8.3507342711e+01   1.7693832803e-01     0.218553   0.06775373  34.71  0.000805859    2.966    0.663
       392  -8.6799     11.2454     23.1377   8.5621294675e+01   7.0479918093e+01    0.1509693    0.1156007 -19.58  0.001052523    1.062    0.058
       393  -9.3214    247.4987     22.4949   3.0203017905e+01   2.3211835449e+01    0.1150663   0.08669871 -67.65 0.0008106743    1.003    0.003
       394  -8.5792     80.2682     21.6102   5.5204896630e+01   6.0209174890e+01    0.3138217   0.09554002 -34.03  0.001226929    3.489    0.713
       395  -8.9327    162.4978    225.5247   8.5885916125e+01   3.4997312396e+00    0.3643351    0.2542861 -78.69  0.001693141    2.707    0.631
       396  -9.0499    224.0267    225.0592   7.3444562324e+01  -5.3287286299e+00    0.1882258    0.1519428  -3.54 0.0005477577    1.025    0.025
       397  -9.4336    193.2297     20.0526   3.4331222265e+01   3.4714249204e+01    0.1759003    0.1689336  -4.49 0.0003331234    1.413    0.292
       398  -9.4797    199.6132     18.1922   3.3275107527e+01   3.3511101135e+01    0.2664912    0.1816137 -21.85  0.001557123    1.975    0.494
       399  -9.1764    196.0430     16.5055   3.3241295354e+01   3.4481450418e+01    0.2602283    0.1533702  69.35  0.001476072    1.538    0.350
       400  -8.4960    142.8667    225.7133   9.0229109541e+01   6.5346757930e+00    0.2848734    0.1152929  29.16  0.001087108    2.598    0.615
       401  -8.8470    132.1468    225.2074   9.2560720163e+01   8.3191336372e+00    0.1841751    0.1543763  59.52 0.0004521186    1.327    0.246
       402  -8.0380    125.3111    225.3213   9.4128351726e+01   9.3664048496e+00    0.1363733    0.1041631  -8.31 0.0003502113    1.649    0.394
       403  -9.1637    196.9879    221.9958   7.8104366957e+01  -1.0868791640e+00    0.2202193    0.1435515  -5.25  0.001139782    1.739    0.425
       404  -9.5051     89.1088    220.6930   1.0186419663e+02   1.5847442875e+01    0.2647636    0.2297993  19.25 0.0009380227    1.279    0.218
       405  -9.1122    242.6796    210.1662   6.7510142657e+01  -5.4402904845e+00    0.2084065    0.1655737 -43.31   0.00085355    1.525    0.344
       406  -8.0212    230.5199    209.5509   6.9530060717e+01  -3.7502291909e+00    0.1286012    0.1016572 -10.99 0.0002926739    1.052    0.050
       407  -8.6222    193.8175    209.4227   7.6524991448e+01   1.5819313624e+00    0.1938254    0.1188684  21.09  0.000954615    1.710    0.415
       408  -9.7702    123.9970    205.9882   9.1482355603e+01   1.3655591268e+01    0.2009548    0.1906387  26.18            0    1.025    0.024
       409  -8.4174    139.6022     18.7598   4.0931618165e+01   4.7256507492e+01    0.1647992    0.1155692 -45.49 0.0005451284    1.559    0.359
       410  -8.7986     35.0653    201.4797   1.1251813834e+02   2.7277177499e+01     0.185278    0.1228897  34.26  0.001018557    1.550    0.355
       411  -9.2527      7.5235    194.9514   1.1839729382e+02   3.1512762092e+01     0.361873    0.1680593  51.93  0.001821796    2.008    0.502
       412  -8.6762     95.9972    195.5108   9.6719601535e+01   2.0556453732e+01    0.2145906    0.1378578  34.65 0.0005251884    1.518    0.341
       413  -8.5127    241.9574    193.7596   6.4650809533e+01  -2.7520738195e+00    0.1446061     0.101143  26.89 0.0004045595    1.536    0.349
       414 -10.0813     18.2919    174.4531   1.1411228804e+02   3.5525834503e+01    0.2730859    0.1836166 -36.13  0.001172018    1.915    0.478
       415 -10.3682     24.1892    162.8172   1.1135690656e+02   3.7905665702e+01    0.2037546    0.1638184  81.00 0.0008442999    1.165    0.141
       416 -10.0960     10.0087    158.2781   1.1473709490e+02   4.0242095377e+01    0.2658265     0.181104  73.56  0.001133613    1.444    0.307
       417 -10.8707     15.2604    165.1332   1.1400281246e+02   3.8107792046e+01    0.3195503    0.2379477   7.35 0.0002141552    1.747    0.427
       418 -10.6435      7.4953    165.9791   1.1611771601e+02   3.8519505587e+01    0.3869582    0.2352024  29.79  0.001589298    1.831    0.454
       419  -9.9626      8.0566    161.7388   1.1558763072e+02   3.9527976449e+01    0.1999477    0.1612571 -78.22 0.0003715501    1.051    0.049
       420 -10.3535      3.3695    146.3101   1.1539246383e+02   4.3703695454e+01    0.3485239     0.336515  52.26  0.002415949    1.225    0.184
       421 -10.4591     21.1922    140.1389   1.0948044537e+02   4.3934454035e+01    0.3778292    0.2337115 -55.05  0.001969933    1.444    0.308
       422 -12.2304     12.9217    150.7347   1.1315808750e+02   4.1912210282e+01     2.592808    0.2374104  23.25  0.006893915    7.683    0.870
       423 -11.1352     15.0173    143.7139   1.1176272892e+02   4.3523649729e+01    0.6750082      0.30962 -34.72  0.002779904    3.007    0.667
       424 -11.4430     40.5844    161.6862   1.0667013614e+02   3.6543024117e+01    0.5953684    0.3592467  72.02  0.002251132    1.963    0.490
       425 -12.5736     35.8095    158.8107   1.0764080729e+02   3.7788434464e+01     1.015076    0.4550246  54.87  0.004016832    2.758    0.637
       426 -10.6693      2.1125    156.0096   1.1664932125e+02   4.1376689556e+01    0.4899009    0.1874514 -77.04  0.001673691    2.203    0.546
       427  -9.3132    249.0101    153.9702   5.5921195013e+01   2.8616784358e+00    0.2005979    0.1407296 -13.17 0.0005838314    1.646    0.392
       428  -9.5888    116.8771     15.3106   4.3907735466e+01   5.2878505395e+01    0.2317197    0.1826877  36.53 0.0006696153    1.286    0.222
       429  -8.3871     53.2403     16.4059   6.2337830410e+01   6.5842751784e+01    0.1257302    0.0803277   7.42 0.0006919333    1.689    0.408
       430  -9.2283     45.8699    151.6348   1.0372525687e+02   3.8536610777e+01     0.232063    0.1728575 -58.15 0.0003065861    1.239    0.193
       431  -8.4507     63.0524    149.0187   9.8187835013e+01   3.7068929955e+01    0.1699401    0.1604291 -72.04            0    1.013    0.012
       432  -9.7062     39.0752    143.3055   1.0450046764e+02   4.1432451328e+01    0.3854523     0.176376  28.17  0.001331828    2.354    0.575
       433  -8.7392      7.7267    141.9975   1.1369714705e+02   4.4489182396e+01    0.1835877    0.1448424 -75.86 0.0004176057    1.058    0.055
       434  -8.4955    111.6326     15.0459   4.4876446572e+01   5.4098938515e+01    0.1668806    0.1474392  48.42 0.0004785953    1.056    0.053
       435 -10.8689      7.4472    122.8071   1.1149389606e+02   4.9308263772e+01    0.3841138    0.2717906 -27.29  0.001290316    1.602    0.376
       436 -10.1562      6.0767    127.7927   1.1255534698e+02   4.8153166748e+01    0.2014871    0.1589467  79.94 0.0005039446    1.297    0.229
       437  -9.4764      2.7684    130.1926   1.1385795887e+02   4.7758487264e+01    0.2167029    0.1898853 -16.77 0.0007012584    1.358    0.264
       438  -9.7821      1.4803    139.5597   1.1525240917e+02   4.5505624588e+01    0.3725538    0.1407062 -72.02  0.001134676    2.112    0.527
       439 -10.8149      4.4755    133.8463   1.1375465869e+02   4.6743575291e+01     0.564117    0.2917445   5.37   0.00204721    2.607    0.616
       440  -8.5166    246.2857    139.6508   5.3501436140e+01   5.7218846185e+00    0.1290746   0.09103046 -60.00  0.000265176    1.656    0.396
       441 -10.1451     41.4263    138.5558   1.0303091698e+02   4.2403342179e+01    0.3431683    0.2262809  57.51   0.00130705    1.760    0.432
       442 -10.9274     41.5271    132.8586   1.0205411238e+02   4.3854726089e+01    0.6254737    0.2823446 -49.78    0.0022011    2.036    0.509
       443 -10.2447     35.1023    135.3037   1.0449150246e+02   4.3896383292e+01    0.4635475    0.1926274 -48.34  0.001870083    2.290    0.563
       444 -10.1787     12.3258    136.4937   1.1169854248e+02   4.5548926147e+01    0.3885289    0.1117576 -69.98   0.00143488    2.812    0.644
       445  -9.6390     15.3773    135.3046   1.1062237343e+02   4.5623331286e+01     0.267369    0.1515277 -29.30  0.001269662    2.244    0.554
       446  -8.7916    235.8164    136.6218   5.4463475244e+01   7.9706788268e+00    0.1661353    0.1283826  64.21  0.000829262    1.675    0.403
       447  -8.3835     83.0267    135.9545   8.9595756733e+01   3.7454998704e+01    0.1822821    0.1748149 -57.06 0.0004914497    1.003    0.003
       448  -8.6172     58.5526    135.2889   9.7078682033e+01   4.1199315255e+01    0.2967539    0.1607555 -49.46 0.0008792531    1.735    0.424
       449 -10.2322     61.0665    130.9451   9.5438266612e+01   4.1976159877e+01    0.4183897    0.2619754  43.09   0.00136431    1.722    0.419
       450  -8.8186    248.9826    134.0313   5.1993229139e+01   6.2459131554e+00    0.1652056    0.1232582 -39.86  0.000489968    1.098    0.089
       451  -9.0941    230.7069    136.9807   5.5335719245e+01   8.7807228402e+00    0.1926633    0.1570595 -38.85   0.00056735    1.049    0.047
       452  -9.3634     20.6400    131.4288   1.0846863768e+02   4.6192241555e+01    0.2439485    0.1773049 -61.18 0.0009147248    1.178    0.151
       453  -8.9591     28.9983    132.3110   1.0595605308e+02   4.5246036699e+01    0.1761614    0.1706206  83.57  0.000444938    1.122    0.109
       454  -9.7936     18.2760    127.1285   1.0861021422e+02   4.7466253820e+01    0.4339592     0.161421 -50.34  0.001788237    2.348    0.574
       455  -9.4156     50.7540    126.9110   9.7991056285e+01   4.4318168081e+01      0.20319    0.1765562 -59.00 0.0004946428    1.051    0.048
       456  -9.2923     12.3765    126.8158   1.1044910166e+02   4.7979262898e+01    0.2038695    0.1768895  50.97 0.0007137553    1.302    0.232
       457 -10.2802     44.7861    125.7162   9.9726768099e+01   4.5317436477e+01    0.2608754    0.2531359  34.50 0.0004371989    1.135    0.119
       458 -10.8498     61.6355    121.1723   9.3232181629e+01   4.4367136369e+01    0.5240648    0.2479327 -45.36 0.0004307474    2.060    0.515
       459  -8.9352    241.1799    123.9964   5.1083128219e+01   9.2535646773e+00    0.2234253    0.1296801 -58.02  0.001080578    1.985    0.496
       460 -10.4553     38.3609    123.5145   1.0145250410e+02   4.6569657125e+01    0.3501523    0.2411592  -4.57  0.001742765    1.844    0.458
       461  -9.4214     71.0595    123.0514   9.0551879051e+01   4.2550831920e+01    0.2269859    0.2118761 -43.17 0.0004584448    1.024    0.024
       462  -9.9667     29.0016    120.7276   1.0409265742e+02   4.8181085457e+01    0.2779338    0.1839527  55.10 0.0008929863    1.822    0.451
       463  -9.7994     11.0075    116.0008   1.0938803693e+02   5.0767390897e+01    0.3505184     0.177121 -76.57  0.001649466    1.879    0.468
       464 -11.4951     21.4170    119.8170   1.0648302419e+02   4.9056748677e+01    0.5449116    0.3933997  67.02  0.002966341    1.639    0.390
       465 -10.4622     13.8992    113.3944   1.0801769028e+02   5.1216234646e+01    0.2605564    0.2343637  64.59 0.0005433867    1.265    0.210
       466 -11.3019     20.9910    107.5851   1.0457933547e+02   5.2123108048e+01    0.7716622    0.3507109 -68.97  0.003396142    2.047    0.512
       467  -9.1595    236.7899    121.3938   5.1180718381e+01   1.0464059884e+01    0.1730963    0.1243787  36.55 0.0009581037    1.753    0.429
       468  -9.8122    221.7056    119.2428   5.3006182198e+01   1.3586413128e+01    0.3176819    0.2454484  39.03  0.001161701    1.536    0.349
       469 -10.6569     62.6465    112.4435   9.0941169379e+01   4.6386997848e+01    0.5689019    0.2341145 -54.45  0.002164677    2.211    0.548
       470  -9.7001     52.8027    113.2129   9.4494862752e+01   4.7501783714e+01    0.4497466    0.2360698  35.89  0.001971876    2.023    0.506
       471  -9.6929     52.8456    108.2337   9.3369127460e+01   4.8716850439e+01    0.2867836     0.168742 -41.95  0.001020823    1.640    0.390
