#   1 NUMBER                 Running object number                                     
#   2 MAG_AUTO               Kron-like elliptical aperture magnitude                    [mag]
#   3 X_IMAGE                Object position along x                                    [pixel]
#   4 Y_IMAGE                Object position along y                                    [pixel]
#   5 X_WORLD                Barycenter position along world x axis                     [deg]
#   6 Y_WORLD                Barycenter position along world y axis                     [deg]
#   7 A_WORLD                Profile RMS along major axis (world units)                 [deg]
#   8 B_WORLD                Profile RMS along minor axis (world units)                 [deg]
#   9 THETA_WORLD            Position angle (CCW/world-x)                               [deg]
#  10 FWHM_WORLD             FWHM assuming a gaussian core                              [deg]
#  11 ELONGATION             A_IMAGE/B_IMAGE                                           
#  12 ELLIPTICITY            1 - B_IMAGE/A_IMAGE                                       
         1 -12.0060     15.2685     33.4203   5.1903191159e+01   7.2460993469e+01    0.4577127    0.1513868  37.25   0.00170656    3.261    0.693
         2 -12.6953     72.1262      8.4946   6.6817975039e+00   6.5782106918e+01    0.4763582    0.2150553 -24.86  0.001034364    2.488    0.598
         3 -10.8234     92.3399      8.1826   1.4388104307e+00   6.0689694990e+01    0.1877757    0.1198367 -37.57 0.0009453802    1.692    0.409
         4 -11.0716     83.0760      7.0798   3.0039619594e+00   6.3170534853e+01    0.2045257    0.1795451  71.75 0.0003816613    1.034    0.032
         5 -11.7179    111.3795      1.8692   3.5543243248e+02   5.6272741643e+01    0.3391151    0.1599328  68.71 0.0005709822    1.785    0.440
         6 -12.8286     36.6750      4.6174   1.9141448952e+01   7.4247083764e+01    0.2570304    0.2113678  41.23 0.0004954461    1.095    0.087
         7 -10.9577     25.1771      1.8633   2.4634363454e+01   7.6775992711e+01    0.1735978    0.1631251  22.07 0.0003752841    1.186    0.157
         8 -11.1151     68.1160    246.6076   6.5611393524e+01   1.4234556324e+01    0.1961568    0.1527725  72.63  0.001300223    1.472    0.321
         9 -12.5070    238.4577    250.4510   3.2500418153e+01  -5.0600758027e+00     0.167327   0.09997693  17.60  0.001269391    1.430    0.301
        10 -12.5191    140.0130    248.7138   5.0063411963e+01   5.4158244014e+00      0.31028    0.2879167  58.96  0.001845962    1.540    0.351
        11 -10.9534    125.0594    249.4969   5.3287904407e+01   7.0638204943e+00    0.1651076    0.1475739   1.59 0.0005354671    1.202    0.168
        12 -10.6026    107.0516    251.0000   5.7318899163e+01   8.9571131601e+00    0.2111822   0.05469979  28.65 0.0008086801    2.986    0.665
        13 -11.4095     36.1972    250.6094   7.3018600661e+01   1.6894864726e+01    0.1848583    0.1648042  -1.34 0.0005682362    1.433    0.302
        14 -12.0299     36.6717    247.3093   7.2753187544e+01   1.7459187711e+01    0.2658154    0.1498089  33.22  0.001018824    1.346    0.257
        15 -14.1612     37.7415    228.1061   7.1483522059e+01   2.1106688878e+01    0.7429555    0.4473025 -44.34  0.003987857    2.323    0.570
        16 -14.4636     15.4810    228.4453   7.6788362599e+01   2.3187211102e+01     1.060219    0.6107194  85.09  0.006167232    1.795    0.443
        17 -13.6485     24.7517    242.0513   7.5191827986e+01   1.9622060415e+01    0.6359698    0.4334028  15.36  0.003111739    1.584    0.369
        18 -14.4765     10.2718    239.5666   7.8349342409e+01   2.1425915970e+01    0.5135154    0.4427161 -15.17  0.002442681    1.609    0.379
        19 -13.2182     17.6409    237.5433   7.6624817330e+01   2.1163239340e+01    0.2607907    0.1975137  43.61 0.0008433149    1.031    0.030
        20 -15.3025      4.5462    247.1588   7.9804820608e+01   2.0464905481e+01     1.100123    0.4130338  25.42  0.003795424    2.198    0.545
        21 -14.6643      5.0148    235.6904   7.9415313817e+01   2.2639258270e+01    0.5893028    0.4970261 -62.76  0.004170678    1.552    0.356
        22 -10.5232    246.1784    245.1869   3.0605792522e+01  -5.1613604502e+00     0.119789   0.09053415  -8.46 0.0002582465    1.283    0.221
        23 -10.2488    147.2493    245.3468   4.8169968116e+01   5.0674265150e+00    0.1158363   0.07730626  -7.76 0.0002265291    1.581    0.368
        24 -11.4004    131.7741    244.8518   5.1337495169e+01   6.9899678688e+00    0.2221775    0.1937298  67.36  0.001536036    1.651    0.394
        25 -11.3508    127.9638    243.0034   5.1936510968e+01   7.7442504785e+00    0.2546723    0.1313541  41.10 0.0004512721    1.878    0.467
        26 -11.3556    205.8116    244.0121   3.6920031597e+01  -1.2411545951e+00    0.1461153    0.1027626  29.57 0.0007257455    1.604    0.376
        27 -11.5473    153.0724    243.7899   4.6790649960e+01   4.6119476770e+00    0.1774299    0.1501965  -3.93 0.0003072253    1.175    0.149
        28 -11.5825    143.6821    242.6382   4.8572528902e+01   5.9014500160e+00    0.2582567    0.1826559 -27.69  0.001666381    1.539    0.350
        29 -11.2514    222.7118    242.9421   3.3941488238e+01  -2.7809803348e+00    0.1436681     0.102678  -9.24   0.00029945    1.102    0.092
        30 -10.7279     94.4590    242.9394   5.9327553210e+01   1.1821262937e+01    0.1523338    0.1258013 -67.29 0.0006503409    1.551    0.355
        31 -11.3308     53.3699    243.0994   6.8730612216e+01   1.6509294272e+01    0.4055522    0.1456723  17.78   0.00152121    3.637    0.725
        32 -11.7469    117.4078    241.4517   5.4054128538e+01   9.2868625117e+00    0.2249155    0.1868091  32.01 0.0009041509    1.143    0.125
        33 -10.6828     76.1251    242.5984   6.3471625512e+01   1.4048390161e+01    0.1612775    0.1010809  18.04 0.0002674857    1.532    0.347
        34 -10.9595    184.4881    240.4456   4.0244484843e+01   1.4842431655e+00    0.2106262    0.1020383 -38.69  0.001208358    2.163    0.538
        35 -11.3719     99.6717    246.6866   5.8519886083e+01   1.0551123423e+01    0.2039142    0.1560479  11.65    0.0005706    1.258    0.205
        36 -10.8817    167.7812    241.5975   4.3582050937e+01   3.2145706918e+00    0.1654475   0.08918143  33.06 0.0009542573    1.678    0.404
        37 -12.1054     67.4506    240.4314   6.5297072601e+01   1.5446183333e+01    0.4252416    0.1506435  26.77  0.001853905    2.324    0.570
        38 -10.9753    207.7656    236.3994   3.5511911184e+01  -4.9268598022e-01    0.1505028    0.0831708  14.59 0.0003631621    1.579    0.367
        39 -11.0618    137.8064    236.1757   4.9007772986e+01   7.6319977744e+00    0.1813889    0.1443665  31.81 0.0006530996    1.217    0.178
        40 -12.1012     70.2497    234.2510   6.4149807920e+01   1.6293776114e+01    0.5043526    0.3197759   6.74   0.00268788    1.924    0.480
        41 -11.4405     73.1445    229.0749   6.3018855763e+01   1.6955016965e+01    0.2367019    0.2299048  -6.24  0.001065546    1.231    0.188
        42 -11.9731    165.7115    234.3398   4.3013118556e+01   4.5081712141e+00    0.2163271    0.1743826  17.91 0.0002470188    1.145    0.127
        43 -11.0180     47.5039    235.4634   6.9606239518e+01   1.8606718799e+01    0.1280647   0.09681468  42.95 5.669023e-05    1.047    0.045
        44 -11.6746    158.4597    233.5477   4.4361451076e+01   5.5013411494e+00    0.2009691    0.1657902   5.23 0.0005272584    1.072    0.067
        45 -11.7400    101.5399    234.0436   5.6817984093e+01   1.2536212365e+01    0.2529517    0.1361513  39.07 0.0006466336    1.573    0.364
        46 -10.8080     51.5667    234.1878   6.8565439856e+01   1.8418456653e+01    0.1495858    0.1131566 -54.44 0.0005207998    1.659    0.397
        47 -11.8649     57.1109    232.1395   6.7105527044e+01   1.8209103901e+01    0.3894349    0.1978328 -58.71  0.002020527    2.342    0.573
        48 -11.6984     29.1740    226.5344   7.3456637027e+01   2.2291879225e+01    0.2851579   0.07936829  31.75  0.001191908    2.475    0.596
        49 -11.7928     25.2103    232.5048   7.4677795009e+01   2.1458406933e+01    0.2264344    0.1653223  84.39  0.001030005    1.446    0.309
        50 -11.0921     25.4638    228.0548   7.4416073256e+01   2.2338879310e+01    0.1681453    0.1146325 -89.69  0.001025672    1.576    0.366
        51 -11.1273    216.5187    231.0666   3.3256649167e+01  -7.2949574414e-01    0.1579868    0.1140999   3.78 0.0003688215    1.079    0.073
        52 -11.8829    181.1221    229.9508   3.9404303570e+01   3.3217592756e+00    0.2704015    0.1553827 -54.15  0.001288373    2.871    0.652
        53 -12.6144    152.0291    230.0537   4.5211208008e+01   6.8354640875e+00    0.3783009    0.2736288  51.36  0.002252592    1.942    0.485
        54 -12.8166    147.9537    224.2590   4.5277027923e+01   8.2851573671e+00    0.2558832    0.2414289  21.31 0.0004453529    1.283    0.221
        55 -12.5587    145.5785    216.3992   4.4682854704e+01   9.9142396899e+00    0.4752241     0.303229 -52.64  0.002532184    1.927    0.481
        56 -11.9823    141.9635    212.4841   4.4911415451e+01   1.1082530974e+01    0.2746506    0.2209125  22.26  0.001042311    1.076    0.071
        57 -12.1285    140.0137    207.9996   4.4689342790e+01   1.2151135338e+01    0.3031121    0.2525792  82.27  0.001770798    1.838    0.456
        58 -11.8941    194.3090    228.5908   3.6758764590e+01   1.9945992545e+00    0.2447239    0.1835227   3.03  0.001081357    1.030    0.029
        59 -11.2957    138.2127    227.7558   4.7841652096e+01   8.9600199138e+00    0.1829477     0.170994 -56.58 0.0007198835    1.423    0.297
        60 -13.1853    115.7886    224.5592   5.2454419948e+01   1.2430185645e+01    0.4960541     0.308658 -77.09  0.002287009    2.707    0.631
        61 -12.6667    105.4016    226.7217   5.5118760108e+01   1.3382518893e+01    0.3152714    0.2685591 -57.06  0.002040301    1.430    0.301
        62 -12.3902     80.7002    226.7392   6.0987025207e+01   1.6496126204e+01    0.3108487    0.2345237  74.00    0.0018565    1.585    0.369
        63 -13.6011     22.2264    196.1816   7.3617036219e+01   2.9655270980e+01    0.4864895    0.4157644  51.23   0.00182706    1.037    0.036
        64 -12.9024     22.3708    188.3624   7.3125474794e+01   3.1498853315e+01    0.8077507   0.08698636  31.92  0.002544974    3.948    0.747
        65 -13.3003     26.1037    183.3473   7.1750144580e+01   3.2365382177e+01    0.4437019    0.2993254  39.61  0.002396823    1.287    0.223
        66 -13.4008      9.7527    190.5673   7.6716952720e+01   3.2073618466e+01    0.8744888    0.3695292   4.12  0.003279002    3.822    0.738
        67 -14.2340      2.2544    219.0949   7.9609584667e+01   2.6270736988e+01    0.8873333    0.4080995 -77.71  0.003381939    2.303    0.566
        68 -12.8098      4.5026    207.0910   7.8706136402e+01   2.8698560554e+01    0.3518954    0.2002257  87.00  0.001046749    1.719    0.418
        69 -14.1308      3.2174    201.6787   7.8857383911e+01   3.0017955488e+01    0.7239182    0.5475489 -55.10  0.003438273    1.641    0.391
        70 -13.2110    160.9349    222.7612   4.2354902148e+01   6.8648811898e+00    0.4039939    0.2783315  27.17  0.001065044    1.274    0.215
        71 -11.6530     92.2438    224.4976   5.7986837779e+01   1.5487155178e+01    0.2392857    0.1981468 -10.72 0.0007740625    1.389    0.280
        72 -11.0380    101.2583    224.0414   5.5789019903e+01   1.4417867694e+01    0.1751494     0.154217  32.39 0.0003709509    1.082    0.076
        73 -12.3369     52.7513    223.2823   6.7513575018e+01   2.0486692319e+01    0.3082613     0.183938 -70.58  0.001402596    1.930    0.482
        74 -13.4698     50.4902    216.7684   6.7592643770e+01   2.2107613635e+01    0.6708449    0.4013148 -54.49   0.00355866    2.008    0.502
        75 -13.0612    124.7847    221.8807   5.0058889813e+01   1.1728120560e+01    0.4036346    0.2727709  34.59  0.001468923    1.296    0.228
        76 -13.1205    127.7613    214.7610   4.8433435601e+01   1.2614904923e+01    0.5076183    0.3466643  64.56  0.001872541    2.334    0.572
        77 -11.2857    122.0047    217.4901   5.0124671088e+01   1.2895555604e+01    0.2625533    0.1050033  34.16  0.001142733    2.078    0.519
        78 -11.3506     61.1420    231.1767   6.6070588300e+01   1.7943473979e+01    0.2301981    0.1531635  32.47 0.0005994561    1.211    0.174
        79 -11.8718     34.0164    223.2747   7.2111289718e+01   2.2486941801e+01    0.1812292    0.1353466  35.55 0.0005836394    1.127    0.113
        80 -12.8025    173.5709    220.2977   3.9455893398e+01   5.6570804965e+00    0.2872524    0.2226372 -44.61  0.001014918    1.602    0.376
        81 -11.8545    239.6877    220.3052   2.7958257264e+01  -1.7386609656e+00    0.1710375    0.1371856  -9.98 0.0008690651    1.274    0.215
        82 -13.0571     13.9333    216.9959   7.6724006038e+01   2.5730673876e+01    0.5702846     0.303353  43.77  0.003151253    1.447    0.309
        83 -12.6981     14.0913    209.9113   7.6400689544e+01   2.7263386482e+01    0.3014711    0.2254249  57.98 0.0003911657    1.114    0.102
        84 -12.2485     27.1330    220.6228   7.3653670702e+01   2.3729186466e+01    0.2579024    0.2185646 -75.06 0.0006690855    1.379    0.275
        85 -12.4731     30.0693    216.0079   7.2682073395e+01   2.4429624925e+01    0.4478731    0.2426774  29.72  0.002010278    1.556    0.357
        86 -12.9732     22.7772    215.6312   7.4482771875e+01   2.5217109995e+01    0.5269666    0.3083055  81.20  0.002900402    1.749    0.428
        87 -12.8418     26.8466    208.1253   7.3063742458e+01   2.6480465144e+01    0.5221828    0.2428398 -68.77   0.00178347    2.307    0.567
        88 -10.2322    197.2750    220.2729   3.4981600780e+01   2.8051799736e+00    0.1143681   0.07262907  -4.48 0.0006887817    1.487    0.328
        89 -11.8342     77.1099    219.0859   6.1123239851e+01   1.8466785663e+01    0.4556802    0.1938234  24.89  0.001396432    2.162    0.537
        90 -13.2194     31.3852    239.7170   7.3582095244e+01   1.9431759802e+01    0.6176026    0.3142803  35.19  0.003008077    1.467    0.318
        91 -11.6892     92.6672    217.2808   5.7097845827e+01   1.6845783976e+01     0.331275    0.1723377  31.78  0.001220046    1.584    0.369
        92 -11.6808    193.8222    216.8382   3.5083617750e+01   3.6974530585e+00    0.2024671    0.1341765 -23.28 0.0004257364    1.373    0.271
        93 -13.3098    194.0775    211.9126   3.4270875290e+01   4.3792852306e+00    0.2604384    0.2039988  -8.27  0.000618815    1.058    0.055
        94 -11.5078    161.2088    216.5754   4.1396369540e+01   7.8184138462e+00    0.2011324    0.1578519 -29.26 0.0002534574    1.311    0.237
        95 -10.9061    138.4836    217.4990   4.6394588886e+01   1.0674873905e+01    0.1296867    0.1081279  15.73 4.783133e-05    1.001    0.001
        96 -11.4414     65.4590    216.9458   6.3833162437e+01   2.0333555939e+01    0.2209183    0.1658962   2.85 0.0007733564    1.579    0.367
        97 -11.1713    250.6617    215.7766   2.5645939833e+01  -2.2578110199e+00     0.132855   0.07721155 -33.70 0.0002917998    1.592    0.372
        98 -12.4613    107.9706    214.0370   5.2993628676e+01   1.5447284557e+01    0.3418973    0.2428592 -65.14  0.001270105    1.755    0.430
        99 -11.4610     84.4248    214.5523   5.8837380483e+01   1.8466628012e+01    0.3833848    0.2049631  41.39  0.001883345    1.613    0.380
       100 -11.8599    156.8821    214.0301   4.1919706611e+01   8.8052234475e+00    0.1885077    0.1598306   5.78 0.0004109921    1.039    0.037
       101 -10.6329    153.2738    213.3184   4.2577622227e+01   9.4062727230e+00    0.1272599    0.0872261  -7.50 0.0001929385    1.567    0.362
       102 -11.6163     41.5336    211.8293   6.9515639836e+01   2.4157782845e+01    0.3034317    0.2048272 -35.69  0.001611862    2.053    0.513
       103 -13.2148     36.9764    206.9420   7.0362976676e+01   2.5724333069e+01     0.485305    0.3694656  81.09 0.0003300863    1.336    0.251
       104 -11.0448     72.9661    212.4636   6.1511443306e+01   2.0357743671e+01    0.2007767    0.1153089  28.63 0.0003672857    1.500    0.333
       105 -13.3157    180.1963    207.7763   3.6236129074e+01   6.7473365155e+00    0.3441846    0.2298235 -17.95 0.0008134455    1.458    0.314
       106 -11.2480    172.5178    211.1186   3.8272079098e+01   7.2187152989e+00     0.175692    0.1132744 -35.96  0.001021738    1.565    0.361
       107 -10.9641     97.0613    209.2374   5.5073018259e+01   1.7882335133e+01    0.3513121     0.177713 -77.15   0.00141469    3.357    0.702
       108 -12.1737    119.6956    213.7864   5.0173516482e+01   1.3897861087e+01    0.2901569    0.1826669  45.21 0.0008200996    1.634    0.388
       109 -13.1492     91.4135    198.4174   5.5168091648e+01   2.0930446592e+01    0.7984076    0.2948333 -52.44  0.002684396    2.919    0.657
       110 -12.9353     83.7266    199.8896   5.7359375014e+01   2.1663682896e+01    0.6227967    0.4896879 -42.84  0.002822502    1.472    0.321
       111 -11.2562     20.9880    204.0948   7.4366975412e+01   2.7945296983e+01    0.2663958    0.1678851  82.72 0.0009642474    1.581    0.368
       112 -11.4048     16.5987    204.8142   7.5539669541e+01   2.8181851251e+01    0.2911392     0.138659  62.57 0.0008173808    1.934    0.483
       113 -12.4339    160.9712    207.3724   4.0049183133e+01   9.3671817836e+00    0.2295505    0.1750843 -35.95 0.0001144721    1.375    0.273
       114 -10.6915    172.2756    201.6220   3.6814899686e+01   8.7845319822e+00     0.111358     0.102507  79.17 0.0003985491    1.701    0.412
       115 -11.9417    136.5319    200.0963   4.4290728345e+01   1.4103344125e+01    0.3682502    0.2350343 -80.06  0.001371036    3.448    0.710
       116 -11.1299    103.6045    205.4809   5.2970765222e+01   1.7749819653e+01    0.1921016    0.1344713 -58.56 0.0005569134    1.654    0.395
       117 -12.5257    145.5537    201.6990   4.2494795509e+01   1.2508438406e+01    0.3995966    0.3265447 -78.61  0.001825978    1.865    0.464
       118 -12.7761    172.7616    195.8603   3.5769360514e+01   9.6728384098e+00    0.2515933    0.2028335 -26.57 0.0004546343    1.202    0.168
       119 -13.2395    121.9062    196.3442   4.7183078826e+01   1.6972876023e+01    0.4329643    0.2808641  28.15  0.002224964    1.386    0.278
       120 -12.8269     36.0160    195.9484   6.9856340688e+01   2.8346453242e+01    0.6117804    0.2521189  36.09  0.002702382    1.932    0.482
       121 -11.3436    138.9925    197.0000   4.3244093184e+01   1.4328104500e+01    0.2268451   0.06950946  32.88 0.0008036414    2.951    0.661
       122 -12.5791    193.1456    194.1297   3.1541000555e+01   7.1780679428e+00    0.2556933     0.181231 -29.19 0.0008016126    1.294    0.227
       123 -11.3162     86.7953    193.3711   5.5744074383e+01   2.2680307533e+01    0.2515059    0.1645692  22.73   0.00066675    1.486    0.327
       124 -11.8089    164.5048    191.9605   3.6812428957e+01   1.1513752361e+01    0.2303533     0.171582  42.77 0.0007555481    1.525    0.344
       125 -12.4321    133.4638    190.8341   4.3553056186e+01   1.6339917712e+01    0.3491756     0.225283 -25.42  0.001704717    1.858    0.462
       126 -11.8124    111.3540    191.6765   4.9107215190e+01   1.9495474819e+01    0.2501679    0.1463754  45.28 0.0006994206    1.713    0.416
       127 -12.9640    110.5046    188.0355   4.8779199578e+01   2.0394583707e+01    0.2860933    0.2657231  57.35 0.0008655741    1.171    0.146
       128 -10.2068     52.7181    192.6285   6.4977184346e+01   2.7267296376e+01    0.1481621    0.1225531  49.35 0.0003037552    1.060    0.056
       129 -10.6826     50.4093    190.4954   6.5422457851e+01   2.8042433034e+01    0.1377352    0.1216513  50.51 7.722605e-05    1.020    0.020
       130 -10.6522    188.7603    191.6288   3.1933046333e+01   8.1594212838e+00    0.1602678    0.1088341  36.94 0.0004435675    1.592    0.372
       131 -10.3802    141.2370    191.3415   4.1821752854e+01   1.5069193286e+01    0.1337062   0.09650382 -15.66 0.0002107372    1.552    0.356
       132 -11.1764    174.9804    188.5201   3.4076634495e+01   1.0595555397e+01    0.1943355    0.1171362  28.87  0.001027811    1.589    0.370
       133 -12.7443    119.2558    188.2564   4.6598766990e+01   1.9020612421e+01    0.4403376    0.1834402  28.66  0.001713188    2.350    0.574
       134 -12.5384    226.7806    186.7169   2.4541931475e+01   4.0208398316e+00    0.2260007    0.1879103   9.94 0.0003945296    1.242    0.195
       135 -11.1374    186.6772    187.0203   3.1531263794e+01   9.1883272774e+00    0.1781659    0.1425007 -18.64 0.0005400672    1.111    0.100
       136 -11.6607    165.4230    186.2192   3.5636993110e+01   1.2389942712e+01    0.2755681    0.2079968 -83.58  0.001000133    2.633    0.620
       137 -12.6963    127.8026    185.9125   4.4116017446e+01   1.8190765361e+01    0.3585162     0.218081  36.70  0.001502477    1.516    0.340
       138 -12.7283      8.1381    184.6509   7.6904128383e+01   3.3621529394e+01    0.5222242    0.2375552 -50.28  0.002260502    2.837    0.647
       139 -12.7660      7.9252    176.0125   7.6574840535e+01   3.5755210407e+01    0.3114769    0.2795981  -4.85  0.001947793    1.358    0.264
       140 -12.6195      2.4520    184.4650   7.8471626980e+01   3.4103229523e+01    0.2838013    0.2116731  68.30 0.0005163331    1.156    0.135
       141 -13.0810      1.7316    176.7432   7.8386486266e+01   3.6035380849e+01    0.8251011    0.1761948 -82.50   0.00263385    4.423    0.774
       142 -12.2680      4.1806    168.5025   7.7332007544e+01   3.7915203231e+01    0.4654131    0.1793219  29.61  0.002015161    2.232    0.552
       143 -11.5814    156.2259    184.3675   3.7282327073e+01   1.4108705302e+01    0.2179411    0.1741652 -68.82  0.001196266    1.795    0.443
       144 -12.5428     32.8598    183.5363   6.9822361534e+01   3.1649740605e+01    0.3767768    0.1751764  53.35 0.0008513679    2.012    0.503
       145 -12.0631     15.6337    183.7878   7.4759193886e+01   3.3210691389e+01    0.2932395     0.194689 -48.18 0.0009981747    1.849    0.459
       146 -12.6238    105.1443    183.0188   4.9411158261e+01   2.2296948789e+01    0.2873756    0.2066697 -55.47 0.0006147079    1.522    0.343
       147 -10.9953     54.5335    184.5013   6.3669736667e+01   2.8988032734e+01    0.1416501    0.1256862  48.40 2.163207e-05    1.009    0.008
       148 -10.2249    205.5283    183.5034   2.7488457722e+01   7.1731821764e+00    0.1220101    0.1006488 -11.61 0.0001217242    1.029    0.029
       149 -12.3126     94.6206    180.4741   5.1856539522e+01   2.4461046207e+01    0.4399653     0.260568 -61.33   0.00186329    1.871    0.466
       150 -11.4326     48.6138    180.0495   6.4937299310e+01   3.0780837367e+01    0.3582513    0.2116613 -32.08  0.001398031    2.485    0.598
       151 -13.1401    116.8230    178.2239   4.5602203001e+01   2.1526106383e+01    0.4836504    0.2335663  24.71  0.001906374    2.286    0.563
       152 -13.3543     13.4081    194.7676   7.5917734662e+01   3.0775896140e+01     0.360684    0.2852118  55.75 0.0005621996    1.048    0.045
       153 -11.0776     55.7985    177.7818   6.2589433524e+01   3.0474646173e+01    0.2341801    0.1611372  28.88 0.0007064195    1.364    0.267
       154 -12.0640    138.5616    177.4789   4.0096893313e+01   1.8203581447e+01    0.2947676    0.1297769  34.67  0.001201582    2.136    0.532
       155 -13.9777    128.6048    175.6164   4.2183573218e+01   2.0191168056e+01    0.5211082     0.485003 -74.50  0.001615549    1.267    0.211
       156 -12.4295     63.0194    176.7789   6.0349283942e+01   2.9802831672e+01    0.3183203    0.2378492   9.26 0.0007794593    1.540    0.350
       157 -13.0356     30.9212    175.6743   6.9780815380e+01   3.3798320447e+01    0.4185387    0.2523669 -64.54  0.001286202    1.727    0.421
       158 -10.7226    216.0516    176.0078   2.4387528259e+01   6.9127921190e+00    0.1456275    0.1162617 -16.17 0.0003787075    1.013    0.013
       159 -12.5618    106.6787    175.4897   4.7817820601e+01   2.3735226131e+01    0.2758394    0.2354794  46.47 0.0007047363    1.155    0.134
       160 -12.1432     23.9278    167.2654   7.1254569891e+01   3.6612613456e+01    0.3380243    0.2094703  77.95  0.001110619    1.597    0.374
       161 -13.8633     19.9552    174.1256   7.2936343738e+01   3.5227053284e+01    0.6340146    0.5087718  13.56  0.003635865    1.387    0.279
       162 -12.8011      6.6296    159.0408   7.6121216602e+01   4.0161358628e+01    0.3794489    0.2014132  49.34    0.0011899    1.672    0.402
       163 -11.6777      7.5093    163.0784   7.6059725479e+01   3.9055399014e+01    0.2279231    0.1801698  34.68 0.0005220931    1.226    0.184
       164 -11.7924      3.1359    163.5082   7.7422652218e+01   3.9257304403e+01    0.2884742    0.1727206  27.44  0.001485019    1.607    0.378
       165 -11.3398     19.1928    164.9470   7.2553951588e+01   3.7635205132e+01    0.3645401    0.1736352 -78.36  0.001528593    2.041    0.510
       166 -13.2584     14.9317    166.3485   7.3962100480e+01   3.7635703146e+01    0.5832099    0.3416309 -88.42   0.00145435    1.649    0.393
       167 -11.6439     12.2162    161.3780   7.4499960415e+01   3.9136212884e+01    0.2848901     0.203819  43.68 0.0005407456    1.263    0.208
       168 -13.1414    145.9961    173.8158   3.7702276539e+01   1.7734565674e+01    0.5608063    0.2235623  38.93   0.00217992    2.409    0.585
       169 -13.3086     90.7367    171.1983   5.1538382319e+01   2.7210323323e+01    0.4865273    0.3789153 -61.58  0.001673725    1.384    0.277
       170 -12.3937     78.4863    173.0145   5.5331585058e+01   2.8596673043e+01    0.5034235      0.25681  35.85  0.001888723    1.742    0.426
       171 -11.0453     50.4796    174.0299   6.3765252863e+01   3.2057265341e+01    0.2041781    0.1396028 -76.90 0.0003785076    1.530    0.346
       172 -12.4918    197.4060    170.4217   2.6557980305e+01   1.0361497903e+01    0.2980853    0.2157236  32.07 0.0006993099    1.447    0.309
       173 -12.1215    157.2271    171.5810   3.4763623911e+01   1.6349756881e+01    0.3146929     0.127003  35.42  0.001178829    2.437    0.590
       174 -11.5136    153.2029    170.1903   3.5396203069e+01   1.7270406922e+01    0.2232075    0.1906583  47.01 0.0007532749    1.318    0.241
       175 -11.5194     53.4111    170.0491   6.2437746846e+01   3.2704042264e+01    0.3575186    0.1644341 -64.92  0.001467276    2.200    0.545
       176 -11.0067     62.9027    170.3091   5.9589085015e+01   3.1423018013e+01    0.2016582    0.1747774  35.32 0.0003147452    1.091    0.083
       177 -11.9389     38.7132    168.7960   6.6818351316e+01   3.4731414843e+01    0.3166156    0.1322004  48.09 0.0006894919    2.234    0.552
       178 -11.7851     31.2672    168.2518   6.9067399532e+01   3.5650140284e+01    0.3089156    0.1913823  41.64  0.001020105    1.435    0.303
       179 -12.5828    122.7941    164.8153   4.1720063111e+01   2.3469491378e+01     0.338316    0.2059797 -50.54  0.001542976    1.719    0.418
       180 -12.1901    127.6541    166.3559   4.0762830090e+01   2.2313655818e+01    0.2819763    0.2453741   3.47  0.000883134    1.177    0.150
       181 -12.4870     83.7649    166.8957   5.2889043251e+01   2.9305470497e+01    0.3048079    0.1640143  52.42  0.001018199    2.060    0.515
       182 -12.6390     65.5995    166.3974   5.8261983129e+01   3.2043768382e+01    0.4124627    0.1851679  42.79  0.001623731    2.042    0.510
       183 -12.4129    153.3618    165.3867   3.4452348493e+01   1.8179752053e+01    0.3992251    0.2501015  55.31  0.001805876    2.190    0.543
       184 -12.7519    103.8453    165.3996   4.6903803040e+01   2.6497412515e+01    0.3562955    0.2401581  29.24  0.001675717    1.433    0.302
       185 -11.1414    218.0815    164.7974   2.2023364766e+01   8.3239456602e+00    0.1685604    0.1456086 -27.75 0.0004636802    1.186    0.157
       186 -12.6019    110.3118    164.8963   4.5041033484e+01   2.5547499414e+01    0.3968548    0.2498922  29.54  0.001081983    1.548    0.354
       187 -12.0489    112.8414    161.1503   4.3679862406e+01   2.5978046050e+01    0.2037065    0.1991715  13.99            0    1.037    0.036
       188 -13.1930     93.0371    163.0792   4.9573916413e+01   2.8791688290e+01     0.460076    0.2756231  48.93  0.002003607    1.714    0.417
       189 -10.8369     46.2154    163.9857   6.3984013617e+01   3.5123740106e+01    0.2218076    0.1710485 -29.33 0.0004449038    1.611    0.379
       190 -11.3121     48.8474    160.9396   6.2802254505e+01   3.5601296955e+01    0.2163265    0.2035717  60.67 0.0002624059    1.038    0.037
       191 -12.3316     31.5874    157.8119   6.8029196729e+01   3.8336222862e+01    0.2557898    0.2118494 -30.86 0.0007348604    1.449    0.310
       192 -12.6505     36.5879    160.6229   6.6688862221e+01   3.7078379024e+01    0.4286532    0.1949101  35.24  0.001233486    1.930    0.482
       193 -11.8158     75.7212    161.0476   5.4403175050e+01   3.1954638182e+01    0.2030942    0.1963131  83.40 0.0003700221    1.068    0.064
       194 -12.6234     25.0961    159.8264   7.0302473353e+01   3.8436030160e+01     0.371772    0.2293004  33.50  0.001824073    1.499    0.333
       195 -12.6028    104.1070    157.6402   4.5454687142e+01   2.8272432159e+01    0.4145187    0.2912913  75.79  0.001745731    1.997    0.499
       196 -11.1839    250.2610    158.0553   1.6142910536e+01   5.1319203117e+00    0.1612873    0.1136135 -27.53 0.0005228927    1.084    0.078
       197 -10.6427    151.9429    158.6360   3.3457107254e+01   1.9753728944e+01    0.2318556    0.1080317  56.32 0.0007038265    4.465    0.776
       198 -12.4657    133.5225    156.4831   3.7406770596e+01   2.3421333517e+01    0.4412978    0.3356966 -66.28  0.001385229    1.608    0.378
       199 -13.1092    119.0057    157.2530   4.1294205077e+01   2.5801993119e+01    0.4616177    0.3171748  29.14  0.001364965    1.448    0.310
       200 -11.3942    212.8710    156.8276   2.1362417605e+01   1.0283384152e+01    0.1582884    0.1418252 -44.13 0.0006207268    1.328    0.247
       201 -11.3372    190.6951    156.3470   2.5083461912e+01   1.3725972568e+01    0.2279139    0.1479829 -48.01 0.0007557045    1.646    0.392
       202 -11.3769    141.2771    155.9296   3.5403027688e+01   2.2168698592e+01    0.1967337    0.1793999 -30.85 0.0003048184    1.093    0.086
       203 -12.1678     60.8549    155.8419   5.8298072766e+01   3.5393010561e+01    0.2272582    0.2069992 -22.78 0.0008438419    1.257    0.204
       204 -11.2177     42.7938    155.3902   6.4113850434e+01   3.7769894522e+01    0.1964891    0.1398262  10.52 0.0004958165    1.619    0.382
       205 -11.2796     13.3156    154.9504   7.3740865671e+01   4.0729097424e+01    0.1932758    0.1638894  86.23 0.0003835151    1.102    0.092
       206 -13.2178      4.1269    150.0452   7.6445356261e+01   4.2684529346e+01    0.4103747    0.3543199  23.07  0.001320779    1.249    0.200
       207 -13.8560     10.7396    144.7525   7.3906813129e+01   4.3632339559e+01      0.65876       0.3908 -65.46  0.002780344    1.642    0.391
       208 -10.7898    195.1689    154.2049   2.3854008201e+01   1.3383615933e+01    0.1610618    0.1461645 -47.25 0.0003126067    1.282    0.220
       209 -12.5126    172.7813    152.3914   2.7736122716e+01   1.7372986149e+01    0.5708187    0.1328733 -38.71  0.001611989    4.820    0.793
       210 -13.5662     74.7483    150.7815   5.3077672159e+01   3.4709046953e+01    0.6057391    0.3020973  37.25  0.001814789    1.843    0.457
       211 -12.7887     81.4925    152.9940   5.1332451779e+01   3.3105823360e+01     0.375956    0.2887064 -60.53  0.001849046    1.355    0.262
       212 -12.3787     84.3212    150.0002   4.9938359319e+01   3.3411816363e+01    0.3067321    0.2289703  30.58 0.0007791276    1.309    0.236
       213 -11.6261     67.5009    153.5150   5.5825068160e+01   3.5072207108e+01    0.1495538    0.1429548  49.34 5.140296e-05    1.034    0.033
       214 -12.6768     27.5730    150.5578   6.8669279616e+01   4.0658181366e+01    0.3709768    0.2665147  -9.74 0.0009749847    1.774    0.436
       215 -12.1247    135.9983    150.0891   3.5503530299e+01   2.4348707780e+01    0.2161004    0.2128924  16.03 0.0004159528    1.054    0.051
       216 -12.1573    109.3380    149.3813   4.2411209319e+01   2.9315544908e+01    0.3512216    0.2720343  48.29  0.001141604    1.297    0.229
       217 -12.3851     95.8211    148.9742   4.6252894001e+01   3.1762940898e+01    0.2744116    0.2151503  36.04 0.0006724852    1.219    0.180
       218 -10.9388    146.7715    148.0709   3.2495526199e+01   2.2812273671e+01    0.1898636    0.1183095 -46.91 0.0007307097    1.614    0.380
       219 -10.9656     20.1664    148.1619   7.0957888586e+01   4.1971576180e+01     0.201928    0.1440366  55.13 0.0003992179    1.304    0.233
       220 -11.1533    182.0698    145.3122   2.4462501622e+01   1.7076820610e+01    0.1770179    0.1665971   4.30 0.0002896449    1.091    0.084
       221 -10.8100    170.5347    145.4882   2.6766048855e+01   1.9048139318e+01    0.1381429    0.1278053 -19.58 0.0002615774    1.015    0.015
       222 -10.6038    158.0220    145.2236   2.9351190965e+01   2.1339890696e+01    0.1829207    0.1158287  39.06  0.000403562    1.610    0.379
       223 -10.9252    121.7859    145.2357   3.8151948611e+01   2.8022495264e+01    0.2008413    0.1739229 -10.92 0.0003941284    1.279    0.218
       224 -12.9871    103.1271    143.4988   4.3022831531e+01   3.1822127771e+01    0.4250628    0.3220563  75.85 0.0007018292    1.674    0.403
       225 -11.5930    142.9524    143.8429   3.2503021852e+01   2.4394479073e+01    0.2732101    0.2314555   5.94 0.0007517341    1.283    0.221
       226 -11.0863    196.2919    143.0731   2.1419347831e+01   1.5083408210e+01    0.1805473    0.1484767 -32.45 0.0002421533    1.086    0.079
       227 -13.7956     50.7929    141.6952   5.9635518578e+01   4.0464713059e+01    0.5660779    0.4477637  36.82   0.00252475    1.217    0.178
       228 -11.5118     37.8314    143.0414   6.4337324219e+01   4.1634074650e+01    0.2283588    0.1811885  65.28 0.0003804152    1.222    0.182
       229 -11.9042     29.9834    142.5498   6.7031771002e+01   4.2583084119e+01     0.237743    0.1835143 -80.25 0.0005848889    1.253    0.202
       230 -12.1106     77.8868    141.9482   5.0535240772e+01   3.6496656239e+01    0.2308652    0.2107611 -17.97 0.0004286548    1.229    0.186
       231 -11.1023    165.0986    141.1280   2.6962147373e+01   2.0851325970e+01    0.2114979    0.1847738  -6.27 0.0005669339    1.169    0.145
       232 -10.6563    150.5529    141.4987   3.0223818431e+01   2.3462473959e+01    0.1450764    0.1361777 -11.96 4.780594e-05    1.036    0.035
       233 -12.2943    206.4317    139.1509   1.8920930603e+01   1.4089764455e+01      0.21968    0.1975953 -14.65 0.0002358094    1.075    0.070
       234 -12.8917     72.8422    139.1678   5.1691604828e+01   3.8013392184e+01    0.3437833    0.2873177 -80.32 0.0003715648    1.253    0.202
       235 -13.8283     68.5689    137.2167   5.2781132863e+01   3.9182032678e+01     0.559453    0.3930713 -70.21 0.0005451206    1.486    0.327
       236 -12.5246     60.4277    139.5800   5.5974225803e+01   3.9742745763e+01    0.2771858    0.2713112  76.12 0.0004595864    1.047    0.045
       237 -11.9268      1.5083    138.8264   7.6718061671e+01   4.5826304882e+01    0.3643917    0.1235818 -82.13  0.001355387    2.700    0.630
       238 -10.4510    159.5361    139.4448   2.7781556563e+01   2.2201635213e+01    0.1414788    0.1340109 -16.55 0.0001284704    1.004    0.004
       239 -12.3504     41.2888    137.7812   6.2441610560e+01   4.2676117820e+01    0.3678889    0.2460823  50.89  0.001725767    1.465    0.318
       240 -12.2107     19.4344    138.5247   7.0368783993e+01   4.4636845316e+01    0.2942746     0.227004 -39.61 0.0006655352    1.477    0.323
       241 -10.8207    179.6610    138.6989   2.3530486440e+01   1.8688271701e+01    0.1397729    0.1031724  -1.72  0.000703679    1.667    0.400
       242 -11.8184    133.1204    136.9073   3.3409022067e+01   2.7741482900e+01    0.4817719    0.3073051 -18.95  0.001916855    2.399    0.583
       243 -11.6818     83.7734    145.4064   4.9283402028e+01   3.4662232076e+01    0.2085677    0.1475065  21.76 0.0004184743    1.532    0.347
       244 -11.2525    110.8640    135.8754   3.9180990471e+01   3.2226739006e+01    0.2125922    0.1823817  70.90 0.0003668177    1.301    0.232
       245 -10.9909     32.0684    136.3431   6.5585066818e+01   4.4066260107e+01    0.2010935    0.1830174  35.08 0.0005515952    1.120    0.107
       246 -13.5408    125.7255    133.6704   3.4598711026e+01   2.9888714698e+01    0.6877643    0.5481557  78.47  0.003289504    1.602    0.376
       247 -10.9814    196.7550    134.5633   1.9575057057e+01   1.6448406382e+01    0.1661404    0.1294523  59.48 0.0009432771    1.642    0.391
       248 -13.7642     80.9170    131.3694   4.7500923615e+01   3.8731942556e+01    0.7954809     0.518143  -0.84  0.003036316    2.503    0.601
       249 -13.0903     19.2295    131.6859   6.9794876650e+01   4.6521859964e+01    0.5297008    0.2734805  37.50 0.0009765443    1.826    0.452
       250 -10.6844    160.8282    132.1802   2.5899574843e+01   2.3385736833e+01    0.1908927    0.1616001  -5.84 0.0002728996    1.298    0.230
       251 -12.1232    108.0151    132.2806   3.9215779264e+01   3.3618825370e+01    0.2256376     0.196301  40.07 0.0005638667    1.123    0.110
       252 -12.5308     49.9374    130.3968   5.8211918205e+01   4.3635734748e+01     0.444068    0.2443982  12.46  0.001455418    2.335    0.572
       253 -13.3942     57.0301    127.7159   5.5157140798e+01   4.3408429687e+01    0.5786927    0.3742565 -14.65   0.00231565    2.328    0.570
       254 -11.5710     44.8818    133.8876   6.0597275724e+01   4.3314904887e+01     0.228048    0.2062691 -34.11 0.0007286993    1.228    0.186
       255 -11.1944    109.5304    127.9807   3.7804000928e+01   3.4352138238e+01    0.2338002    0.1541045 -52.22   0.00049358    1.546    0.353
       256 -11.3306    101.3149    128.6764   4.0411103248e+01   3.5754678743e+01    0.1619437    0.1220337  74.02 0.0002539383    1.663    0.399
       257 -11.0671     41.4919    127.8932   6.0963588652e+01   4.5358236401e+01    0.2196178    0.1442281 -71.17 0.0004008674    1.493    0.330
       258 -11.9574    176.4363    127.0654   2.1603777125e+01   2.1401499670e+01    0.2401959    0.2033056  39.96 0.0003100469    1.266    0.210
       259 -11.0279    116.0198    126.2564   3.5545153283e+01   3.3485985414e+01    0.2226339    0.1995949  39.65 0.0006921994    1.103    0.094
       260 -10.8328     35.5567    126.5054   6.3014375926e+01   4.6405121508e+01    0.1471086    0.1400043 -88.64 0.0002305198    1.031    0.030
       261 -11.4453     27.0020    125.6348   6.6184161432e+01   4.7505655379e+01    0.2008926     0.182159  34.38 0.0004237016    1.132    0.117
       262 -13.4038     82.8122    119.3758   4.4278982875e+01   4.1486113897e+01    0.8014301    0.4240042  17.96  0.001768135    3.048    0.672
       263 -12.4721     82.3320    116.2791   4.3729860383e+01   4.2362970734e+01    0.4331383    0.2744249  17.43  0.001707623    2.099    0.524
       264 -14.3381     74.2318    114.2663   4.6128449359e+01   4.4305178491e+01     1.134481     0.581499 -70.49  0.001998633    2.532    0.605
       265 -12.2367     77.6893    113.0669   4.4606799090e+01   4.4013740245e+01    0.3656589    0.2595533 -74.22  0.000268398    1.615    0.381
       266 -10.8703     49.4084    123.8442   5.7317920874e+01   4.5491085537e+01    0.2004751     0.134866 -53.54 0.0001998216    1.498    0.332
       267 -12.7253      4.0729    121.2715   7.4650190146e+01   5.0426051673e+01    0.4252984    0.1902868 -81.67 0.0006430218    2.052    0.513
       268 -13.6892     14.6980    119.8424   7.0349895045e+01   5.0131323517e+01    0.6061904    0.4490356 -34.81  0.003128737    1.516    0.340
       269 -12.0908      9.9251    117.9786   7.2071505355e+01   5.0973385424e+01    0.3023432    0.1893109  35.28 0.0006741151    1.586    0.370
       270 -11.3476    193.4702    121.5364   1.7327676711e+01   1.9244647558e+01    0.1343036    0.1192957 -34.39 8.049147e-05    1.008    0.008
       271 -11.5310    105.0571    121.3185   3.7573195375e+01   3.6814024074e+01     0.227878    0.1964305  45.73 0.0005379273    1.140    0.123
       272 -11.2783     28.7507    120.9785   6.4903481113e+01   4.8626090309e+01    0.2632867    0.1776413  50.35 -0.0006383859    1.482    0.325
       273 -11.2436     95.6849    119.3585   4.0017095255e+01   3.9107929846e+01    0.2632867    0.1954902  60.42 0.0008462063    1.497    0.332
       274 -12.0983     93.4994    116.4672   4.0028698637e+01   4.0239377888e+01    0.3091568    0.2630358  41.59  0.001076188    1.153    0.133
       275 -12.1480     96.6781    115.7038   3.8818080848e+01   3.9813374336e+01    0.2981156    0.2419675 -18.37 0.0006168848    1.520    0.342
       276 -10.4398    232.2948    118.3216   1.0958977543e+01   1.3247994921e+01    0.1184767   0.08535542 -10.56 0.0002490095    1.615    0.381
       277 -11.2052    121.9851    118.0147   3.1909260554e+01   3.4163886548e+01    0.2243899    0.2205216  73.15            0    1.015    0.015
       278 -10.8439    211.2315    118.9796   1.3983780855e+01   1.6555751352e+01    0.1738842    0.0926035 -37.91  0.000377805    1.596    0.373
       279 -12.2051    201.7596    114.2377   1.4387516136e+01   1.8977159201e+01    0.2304213    0.2020975 -43.62 0.0002789151    1.069    0.064
       280 -11.2003    109.8550    113.8279   3.4299214749e+01   3.7623153939e+01    0.2163761    0.1853427  76.40  0.000285361    1.299    0.230
       281 -13.2847     62.2514    111.3672   4.9952652959e+01   4.7028383581e+01      0.63943    0.4071789 -52.91  0.002789359    1.566    0.361
       282 -11.5922     82.5712    111.0712   4.2401629210e+01   4.3642754373e+01    0.4646402    0.2313882 -41.75   0.00141152    2.343    0.573
       283 -11.4462     11.4899    112.5366   7.0904183585e+01   5.2368303153e+01    0.1412037    0.1306016 -83.09 -3.527641e-05    1.020    0.020
       284 -11.7983     68.4067    115.2226   4.8475675661e+01   4.5027899730e+01    0.2550582    0.1798525  39.96   0.00045388    1.383    0.277
       285 -11.2039    165.0000    111.0126   2.0089091477e+01   2.6641496405e+01    0.2431514   0.07818044 -41.12 0.0006585415    2.931    0.659
       286 -12.3818     68.5982    109.8798   4.7196421186e+01   4.6399709972e+01    0.3685127    0.2919887 -23.81 0.0007589306    1.522    0.343
       287 -11.6539    100.4463    109.4100   3.6037169719e+01   4.0586251492e+01    0.4479594    0.2795424  78.60 0.0009330608    3.004    0.667
       288 -12.3641      8.3762    110.2772   7.1977089774e+01   5.3187242522e+01     0.249348    0.1756997 -10.63 0.0006722533    1.659    0.397
       289 -12.2526      2.0745    108.6418   7.4476043443e+01   5.3980988535e+01    0.2943547    0.1893492 -69.73  0.001483372    1.409    0.290
       290 -11.0851    139.6452    107.4295   2.4712133568e+01   3.2708614292e+01    0.2729254    0.2216465  77.84 0.0009240322    1.448    0.309
       291 -10.4559     87.2910    108.3153   4.0079738141e+01   4.3448192443e+01    0.1577596    0.1257754 -16.52 0.0002728379    1.594    0.373
       292 -12.1883     62.0737    101.5042   4.7742220733e+01   4.9658514219e+01    0.2711896    0.2146036 -77.32  0.000768878    1.364    0.267
       293 -10.8660    104.8352    102.1429   3.2737798575e+01   4.1385519252e+01    0.2381407    0.2106384  81.56 0.0003425127    1.218    0.179
       294 -11.8262     78.7209    102.1140   4.1512202967e+01   4.6612375709e+01    0.2962881    0.2097009  48.32  0.001320599    1.423    0.297
       295 -11.4928     56.0069    101.3045   5.0161923675e+01   5.0655290385e+01    0.2690933    0.2232097 -77.15 0.0004542061    1.254    0.203
       296 -11.8047     57.8919     97.6196   4.8496766462e+01   5.1336648122e+01    0.3023859    0.2629519  30.90  0.001001946    1.161    0.139
       297 -12.6172      5.3282    100.2212   7.2298340303e+01   5.6115701534e+01     0.520166    0.2446861  21.18  0.002257162    2.188    0.543
       298 -12.2248     94.2465     98.5788   3.5134191063e+01   4.4431035410e+01    0.3586623    0.2755468  56.44 0.0008088756    1.353    0.261
       299 -11.6192      5.6277     94.6011   7.1564582377e+01   5.7632228176e+01     0.314617    0.1824265   1.70  0.001464835    1.969    0.492
       300 -12.5129    121.5599     90.9555   2.4767082081e+01   4.0165330469e+01    0.7333983    0.4848668   0.09  0.002246767    3.292    0.696
       301 -12.7771     82.0542     93.6502   3.7983217469e+01   4.8065059316e+01     0.397503    0.2713694  56.47 0.0009291584    1.615    0.381
       302 -10.6119    104.1931     96.6180   3.1395573553e+01   4.2789437385e+01    0.2130421    0.1483091  33.36 9.926443e-05    1.577    0.366
       303 -11.3966     57.8145     91.6735   4.7013521546e+01   5.2892438966e+01    0.2430854    0.2037729 -44.32 0.0003711843    1.218    0.179
       304 -11.1886     25.7890     91.8680   6.1617850283e+01   5.6914653820e+01    0.4561589    0.1939686  23.05  0.001767692    2.371    0.578
       305 -13.3294     74.0768     90.1120   3.9963960211e+01   5.0458058146e+01    0.4408858    0.3834832  48.77  0.001336319    1.140    0.123
       306 -10.6236     41.3383     91.7109   5.4312625284e+01   5.5242727441e+01    0.1574502    0.1101076  59.75 0.0004600412    1.639    0.390
       307 -11.7436      2.8901     87.7901   7.2111228289e+01   5.9610921009e+01    0.4001331    0.1853967 -83.99  0.001659997    2.091    0.522
       308 -11.5566      7.7503     87.6899   6.9712418703e+01   5.9392772843e+01    0.3667694    0.1802049  44.57  0.001244706    2.182    0.542
       309 -11.0720     11.7574     87.0282   6.7638556942e+01   5.9332519344e+01     0.193818    0.1682822 -72.03 0.0003091665    1.073    0.068
       310 -10.9268    142.7570     87.0019   1.8480190483e+01   3.6080322575e+01    0.2044164    0.1880981 -52.82  0.001097108    1.058    0.055
       311 -11.2370     52.3202     86.3261   4.7985816811e+01   5.5121748153e+01    0.2879474    0.2091288 -55.39 0.0008460714    1.356    0.263
       312 -12.1950     55.7114     84.7625   4.6045801702e+01   5.4991683147e+01    0.5327454    0.4006256 -70.54  0.002529335    1.445    0.308
       313 -11.9663    164.1688     84.6676   1.3547825440e+01   3.1637030088e+01    0.2537489    0.1810966 -50.66 0.0005265005    1.335    0.251
       314 -11.3045     10.3663     81.9760   6.7581811797e+01   6.0778869098e+01    0.2419915    0.1785771  89.97  0.001262415    1.374    0.272
       315 -11.3443      9.6677     77.4360   6.7232045599e+01   6.2032179164e+01    0.2690774    0.2120465  81.74  0.001463977    1.332    0.249
       316 -11.3771     65.7786     81.5825   4.0773688635e+01   5.4066506166e+01    0.3057396    0.1520785  32.01  0.001144542    2.135    0.532
       317 -11.6635    108.1546     78.7748   2.4826783917e+01   4.5785334857e+01    0.2680852    0.2212542 -42.20 0.0005373568    1.252    0.201
       318 -12.0333    111.2801     78.6849   2.3894373826e+01   4.5077332052e+01     0.261281    0.2433131  62.22 0.0001747625    1.046    0.044
       319 -11.8545     89.2670     79.3554   3.1059885964e+01   4.9901294474e+01    0.3097433    0.2875079  25.49  0.001602991    1.143    0.125
       320 -11.0360      5.1551     80.0260   7.0003252534e+01   6.1587266244e+01    0.2404193    0.1390965  68.34    0.0010901    1.981    0.495
       321 -13.3511     94.6774     83.5516   3.0552466937e+01   4.7796267641e+01    0.3715847     0.352851 -74.14 0.0005498616    1.065    0.061
       322 -11.3073    104.8930     73.1366   2.3966221789e+01   4.7696336009e+01    0.2472821    0.2138534  88.43  0.001135657    1.247    0.198
       323 -10.3762     45.6686     73.3747   4.7415904983e+01   5.9382681364e+01     0.159514     0.113773  68.85 0.0007024407    1.844    0.458
       324 -11.5275      1.8008     72.9326   7.0831096788e+01   6.3618932563e+01    0.2309061    0.1598845 -47.17  0.001226108    1.340    0.254
       325 -11.8182     71.7261     69.2005   3.4249793373e+01   5.5816088057e+01     0.620916    0.3686234 -19.78  0.002121504    3.258    0.693
       326 -11.8596     52.4202     71.6949   4.3625853272e+01   5.8751925885e+01    0.3021302    0.2531201 -17.01 0.0006727863    1.328    0.247
       327 -11.7216    154.3167     67.9166   1.0712714132e+01   3.6777397722e+01    0.2389296     0.205704  59.93 0.0003304155    1.205    0.170
       328 -12.4096     60.2857     67.1138   3.8435692806e+01   5.8474934544e+01    0.3095564    0.2678889  81.59 0.0009596184    1.355    0.262
       329 -10.7874    124.9415     66.7309   1.6482433533e+01   4.4103301159e+01    0.2119282    0.1893539  67.01 0.0003345392    1.085    0.079
       330 -13.1157     48.4009     65.5918   4.3567638897e+01   6.0852430663e+01    0.4858533    0.3799481  76.15  0.001292849    1.656    0.396
       331 -12.8038     18.2945     61.2577   5.8963955570e+01   6.5612568112e+01    0.4685081    0.3112465  14.71    0.0014549    1.560    0.359
       332 -12.0511     12.6145     59.9163   6.2103202211e+01   6.6391594140e+01    0.2500788    0.2421828 -56.24 0.0004799864    1.070    0.065
       333 -12.1784     33.4708     58.3313   4.9114455317e+01   6.4716108675e+01    0.4408327    0.3084877  67.87   0.00108124    1.997    0.499
       334 -12.8229     37.5270     54.2431   4.5352905235e+01   6.5126468522e+01    0.4151879    0.2502786 -51.10  0.001274657    1.628    0.386
       335 -11.3030     27.6480     60.3044   5.3124742796e+01   6.4933234180e+01       0.2168    0.1827753  31.33  0.001194695    1.222    0.181
       336 -10.5934    153.4349     57.4708   7.8228306005e+00   3.8672034078e+01    0.1437441     0.131654 -72.26 0.0002090651    1.017    0.017
       337 -11.4736     96.9345     56.4824   2.0542561872e+01   5.2794286485e+01    0.2242315    0.2071733 -48.04 0.0004365754    1.128    0.114
       338 -11.2010    179.8251     56.1265   3.4979669074e+00   3.2680052840e+01     0.204703     0.159608 -62.45  0.000332753    1.172    0.147
       339 -13.1317    109.9952     50.9360   1.4796578946e+01   5.0553318435e+01     0.569984    0.2444362  56.62 0.0003281095    2.198    0.545
       340 -11.1832    135.5081     59.4714   1.1802387868e+01   4.2753797242e+01    0.1496929    0.1379531 -83.35 -2.211633e-05    1.012    0.012
       341 -11.4823    195.4677     52.4540   6.7192880048e-01   2.9755548113e+01    0.2175766    0.1839048 -58.78 0.0002939705    1.007    0.007
       342 -11.2136    151.4825     51.1045   6.2494564428e+00   4.0119456273e+01    0.2105357    0.1368972 -36.89 0.0004724763    1.530    0.346
       343 -11.7796    106.0635     51.0156   1.5866519618e+01   5.1521018335e+01    0.2255219     0.211336  68.02 0.0003126876    1.024    0.023
       344 -13.4182     30.4102     49.6488   4.7867016549e+01   6.7133794209e+01    0.4989086    0.3200348 -16.05  0.002295076    1.951    0.487
       345 -11.8634     16.8681     49.7924   5.6629054610e+01   6.8553083978e+01    0.3733813    0.2163941   0.58 0.0008917007    1.963    0.491
       346 -12.6047     96.8766     46.7990   1.6855595191e+01   5.4499249409e+01    0.6355386    0.3749725 -77.18  0.002214669    3.270    0.694
       347 -11.2910     41.4894     47.1125   4.0288187735e+01   6.6113412252e+01    0.5158272    0.1855178  47.25  0.001642248    3.766    0.734
       348 -11.2942      3.2006     45.0511   6.4810000736e+01   7.0631974983e+01    0.4153016    0.1226482 -54.43    0.0016229    2.574    0.612
       349 -11.5529    142.2915     46.0026   6.2258883872e+00   4.3156402680e+01    0.2019052    0.1782969 -58.23 0.0003770672    1.094    0.086
       350 -11.7145     49.5978     43.9368   3.4484115727e+01   6.5392534455e+01    0.2418453    0.1950748  41.86  0.000349496    1.220    0.180
       351 -13.7378     33.6204     40.3768   4.2082924909e+01   6.8736324667e+01    0.5817045    0.3710023  31.13  0.002463344    1.524    0.344
       352 -12.4213     93.6723     40.4631   1.5257486360e+01   5.6312012620e+01    0.2960235     0.237861  22.46 0.0005589224    1.512    0.338
       353 -10.8600    120.9690     39.4900   8.0840356608e+00   4.9529382446e+01    0.2134685     0.135841  64.33 0.0009909343    1.469    0.319
       354 -12.3219     80.3621     37.9807   1.8463757852e+01   5.9932824141e+01    0.4044713     0.255444 -40.31  0.001883875    1.686    0.407
       355 -12.3273      9.8980     36.8248   5.7363580167e+01   7.2159889494e+01    0.2406648    0.2031625   5.34 0.0003427717    1.169    0.145
       356 -11.3099     52.8220     35.8280   2.9021865473e+01   6.6322759511e+01    0.1815109    0.1676367  79.87 0.0002485937    1.283    0.221
       357 -12.3283     42.1023     34.1144   3.3967597488e+01   6.8628631903e+01    0.3192033    0.2518102  10.98  0.001128753    1.344    0.256
       358 -11.6139    114.2006    248.2434   5.5485648034e+01   8.5573426915e+00    0.2262022    0.2002697 -70.55 0.0008368221    1.540    0.351
       359 -12.4400     31.2046     31.7518   3.9575919914e+01   7.0845808685e+01    0.2763115    0.1803196  22.43  0.001088801    1.547    0.353
       360 -11.1237     96.7639     30.5860   1.0278545867e+01   5.6981007224e+01    0.2043337    0.1328816  74.13 0.0009400237    1.594    0.373
       361 -10.9091     72.9150     31.3141   1.8071700989e+01   6.2721767384e+01    0.2048886    0.1725536  49.57   0.00059567    1.093    0.085
       362 -11.0554      2.0392     30.5031   6.1580794625e+01   7.4108968708e+01    0.1822685    0.1200856   5.68 0.0004023066    1.511    0.338
       363 -10.7255    137.6944     29.7032   1.6689670825e+00   4.6530452318e+01    0.1372988    0.1048303  40.35 0.0002598914    1.586    0.370
       364 -11.6537     67.8698     29.1814   1.8963983610e+01   6.4207910255e+01    0.2111735     0.193688 -82.97 0.0006913899    1.237    0.192
       365 -11.7271     60.8350     29.6031   2.2111880387e+01   6.5711711035e+01    0.1944411    0.1297047  58.78  0.000387699    1.574    0.365
       366 -10.5243    116.5259     26.4380   4.1607858662e+00   5.2415292079e+01    0.1438883    0.1282932  81.35 7.346542e-05    1.009    0.009
       367 -11.6117     45.1369     25.2860   2.7554512637e+01   6.9629399399e+01     0.250089    0.1840887 -68.73   0.00108138    2.105    0.525
       368 -12.4021     77.6456     30.7553   1.6114573941e+01   6.1687744160e+01    0.2852848    0.2686558 -31.23 0.0004592601    1.154    0.133
       369 -11.2716    127.8210     32.1868   4.1618195875e+00   4.8757263616e+01    0.2111314    0.1789073 -77.95 0.0004228757    1.116    0.104
       370 -10.9304     98.4879     24.5629   7.2939156249e+00   5.7322938081e+01     0.144232     0.129057  69.84 7.869425e-05    1.011    0.011
       371 -12.2298     86.7226     23.9009   1.0078951710e+01   6.0397449755e+01    0.5499808    0.1829165  59.43  0.001954658    2.624    0.619
       372 -10.9401     19.4932     24.0551   4.4137263290e+01   7.3949834331e+01    0.1834035    0.1278559 -53.85  0.001000205    1.556    0.357
       373 -10.9502    113.4757     23.4741   3.6137037467e+00   5.3567260053e+01    0.1436149    0.1278239  83.53 6.527756e-05    1.009    0.009
       374 -10.7958     54.1298     21.7933   2.0983979027e+01   6.8341972756e+01    0.1843956    0.1498502  20.96  0.000322999    1.272    0.214
       375 -11.4635     70.7758     20.9059   1.3681433497e+01   6.4688011030e+01    0.2089623    0.1804109  30.21 0.0005501992    1.185    0.156
       376 -11.4418     98.7564     20.0524   5.3035515496e+00   5.7792612985e+01    0.2454493    0.1872021  69.27 0.0004817164    1.180    0.153
       377 -10.8479    141.3607     18.9485   3.5758541579e+02   4.6848638923e+01    0.1838708    0.1646811 -67.45 0.0004201331    1.086    0.080
       378 -11.5481    132.5069     17.0032   3.5810837895e+02   4.9335942700e+01    0.2123396    0.1666014  78.48 0.0004434512    1.141    0.124
       379 -10.5944     65.2995     16.3245   1.3237025894e+01   6.6560476766e+01    0.1431194   0.09821273  28.80 0.0003206354    1.631    0.387
       380 -11.6049     50.7151    248.5773   6.9673081579e+01   1.5776018245e+01    0.3937822    0.1903474  36.10  0.002170875    1.508    0.337
       381 -12.7876     29.9752    247.4262   7.4251651574e+01   1.8098432663e+01    0.3334866    0.2234724  42.03  0.001206126    1.110    0.099
       382 -12.8042    162.4990    247.4731   4.5377876281e+01   2.9896726209e+00    0.2117766    0.1647061  14.20 0.0002071468    1.071    0.066
       383 -11.5522     58.2478    248.0611   6.7945000666e+01   1.5061940477e+01    0.2052151    0.1350528  32.94 0.0003415575    1.170    0.145
       384 -11.9094    178.4955    246.4676   4.2175098128e+01   1.3370178196e+00    0.2047146    0.1963853 -65.92  0.001262849    1.831    0.454
