#   1 NUMBER                 Running object number                                     
#   2 MAG_AUTO               Kron-like elliptical aperture magnitude                    [mag]
#   3 X_IMAGE                Object position along x                                    [pixel]
#   4 Y_IMAGE                Object position along y                                    [pixel]
#   5 X_WORLD                Barycenter position along world x axis                     [deg]
#   6 Y_WORLD                Barycenter position along world y axis                     [deg]
#   7 A_WORLD                Profile RMS along major axis (world units)                 [deg]
#   8 B_WORLD                Profile RMS along minor axis (world units)                 [deg]
#   9 THETA_WORLD            Position angle (CCW/world-x)                               [deg]
#  10 FWHM_WORLD             FWHM assuming a gaussian core                              [deg]
#  11 ELONGATION             A_IMAGE/B_IMAGE                                           
#  12 ELLIPTICITY            1 - B_IMAGE/A_IMAGE                                       
         1 -10.9737      4.9214     22.9639   2.9202454348e+02   7.4886281260e+00   0.03793329   0.03023061  -7.99  0.004205026    1.359    0.264
         2 -10.9901     50.4080      4.5992   2.9135541908e+02   7.4433579346e+00   0.06308211   0.02624953  32.44  0.005251321    2.119    0.528
         3 -11.7967     19.1251     30.0581   2.9188522945e+02   7.3256008349e+00    0.0462147   0.02923894  31.47  0.001982168    1.453    0.312
         4 -11.3480     41.4402     62.4516   2.9178174466e+02   6.8223628872e+00    0.0690899   0.06091132 -10.84  0.008140408    1.178    0.151
         5 -11.1377     37.3999     55.0271   2.9179201231e+02   6.9316303683e+00    0.0943958   0.04194882 -75.40  0.002510432    3.049    0.672
         6 -10.4248     19.5937     11.1820   2.9177692309e+02   7.5421641649e+00   0.05249756    0.0190014  49.13  0.003480852    3.753    0.734
         7 -10.5185     26.8593     20.8348   2.9173837184e+02   7.3887886730e+00    0.0351238   0.02219353 -41.17  0.002467968    1.729    0.422
         8 -12.2887     29.5181      6.2936   2.9162612716e+02   7.5425298428e+00   0.08073428   0.04644007  14.78  0.003528034    1.831    0.454
         9 -11.3813     26.0184     48.0340   2.9189646920e+02   7.0775940555e+00   0.05551961   0.02917273 -76.09    0.0022738    2.392    0.582
        10  -9.5417      1.8564     15.0692   2.9202009677e+02   7.5977009515e+00   0.01361313   0.01136245 -41.78 0.0008722655    1.258    0.205
        11 -11.8290      5.9255      5.3463   2.9191638838e+02   7.6875128980e+00   0.05158477   0.04305838   5.83   0.00591088    1.209    0.173
        12 -10.8355     74.3605     52.8379   2.9131789283e+02   6.7466120315e+00   0.04183225   0.03004812  47.56  0.004269778    1.422    0.297
        13  -9.7192    105.1406     22.2789   2.9076688732e+02   6.9258851206e+00   0.01910805   0.01825535 -42.75 0.0008310648    1.101    0.092
        14 -10.5067    109.8768     15.9714   2.9067333702e+02   6.9720475954e+00   0.04715482   0.01839267 -58.69  0.003808748    2.529    0.605
        15 -10.2811    244.4101     23.1013   2.8903280189e+02   6.1174199997e+00   0.02707291   0.02371998 -69.05  0.003143309    1.228    0.186
        16 -10.4786     68.5051     22.8288   2.9122806343e+02   7.1285927998e+00    0.0367846   0.02544499  57.18  0.002277054    1.636    0.389
        17 -10.5199     71.0526     10.7165   2.9113033204e+02   7.2547115328e+00   0.03367075    0.0209254 -41.21  0.002004123    1.764    0.433
        18  -9.2425     63.5974     13.8259   2.9124052014e+02   7.2611065379e+00   0.01928025   0.01564255  74.77  0.001220935    1.418    0.295
        19  -9.1289     76.8495      3.9106   2.9102077763e+02   7.3006605491e+00   0.02469957   0.01451876  82.58  0.002118208    2.575    0.612
        20  -9.6228     77.8598     22.3526   2.9110845299e+02   7.0807802662e+00   0.02465861   0.01921988 -10.52  0.001596618    1.417    0.295
        21 -10.8957     83.7177     17.7904   2.9101036863e+02   7.1003362448e+00   0.04732231    0.0303355  70.78  0.003054076    2.087    0.521
        22  -9.9986     79.6467     10.6058   2.9102220855e+02   7.2069796183e+00    0.0270956   0.01458358  14.75  0.001481509    2.005    0.501
        23  -9.8630     81.8870      6.8972   2.9097400414e+02   7.2372508974e+00    0.0186713   0.01358987 -57.34 0.0003404214    1.433    0.302
        24  -9.1356    114.0408     15.6672   2.9061962024e+02   6.9517732448e+00   0.01327049   0.01300332 -15.46  0.000634805    1.062    0.059
        25  -9.2717    140.3539     14.3407   2.9028351584e+02   6.8165928179e+00   0.01786003   0.01062852  42.27  0.001720097    1.645    0.392
        26  -8.1688    153.8978     10.4670   2.9009318724e+02   6.7839503366e+00   0.01182437  0.009478148  64.92  0.001302965    1.398    0.285
        27  -9.0190    201.7020      8.4213   2.8948519263e+02   6.5333172550e+00   0.01716264   0.01549206  -9.55  0.001139021    1.140    0.123
        28  -8.4927    203.8992      3.0806   2.8942862657e+02   6.5826338669e+00   0.01752107  0.008631035 -58.94  0.001266384    2.064    0.516
        29  -7.6968    132.3080      9.6675   2.9035860005e+02   6.9169025709e+00    0.0072125  0.004908546  56.88 0.0005247481    1.668    0.400
        30 -10.3025    171.5281      6.0055   2.8984865839e+02   6.7346097806e+00   0.02032159    0.0148649  -0.82  0.001371529    1.519    0.341
        31  -8.4323    154.8735      2.3163   2.9003655714e+02   6.8729337259e+00   0.01148834  0.009649537  84.06  0.001116967    1.355    0.262
        32  -7.6052    140.3669      1.7243   2.9021459087e+02   6.9629338054e+00   0.00974803  0.005954666 -51.51  0.000944125    1.693    0.409
        33  -8.4691    224.3297      4.3538   2.8918073869e+02   6.4503827008e+00   0.01478094    0.0113794 -75.00   0.00110009    1.447    0.309
        34  -8.1512     70.0363      1.4276   2.9109251929e+02   7.3683389305e+00   0.01039791    0.0063535  23.84 0.0005320415    1.541    0.351
        35 -11.0761    195.2694    201.6283   2.9061669696e+02   4.3257842039e+00    0.0246883   0.02318306 -68.97  0.001109411    1.141    0.124
        36  -7.3681    201.4997    250.4900   2.9080398176e+02   3.7220994227e+00  0.006828737  0.006416414  13.66 0.0004288238    1.029    0.028
        37 -10.0226    178.6592    249.3357   2.9108203298e+02   3.8660853212e+00   0.01787271   0.01312288 -14.72  0.001150992    1.571    0.364
        38 -11.3445     12.1003    206.8639   2.9292880641e+02   5.3091203204e+00   0.04543228   0.03144082   2.32  0.003741235    1.617    0.382
        39  -8.5257     76.6088    208.3735   2.9213224629e+02   4.9248470166e+00   0.01227041   0.01092438 -26.59 0.0007199115    1.178    0.151
        40  -9.5944    235.4280    209.2167   2.9015796842e+02   4.0076363733e+00   0.02299855   0.01345184  71.12  0.001966186    2.536    0.606
        41  -8.5190     46.4309    208.0038   2.9250666793e+02   5.1008623951e+00    0.0123983  0.009320712   0.15 0.0005427394    1.445    0.308
        42  -9.2810     50.6800    204.0437   2.9243229712e+02   5.1227866988e+00   0.01621959   0.01393782 -77.53  0.001176984    1.276    0.217
        43  -8.7397    213.0872    205.1688   2.9041404789e+02   4.1826302631e+00   0.01057278  0.008912263 -17.06 0.0004702063    1.268    0.211
        44  -7.9952    218.4973    204.4387   2.9034273858e+02   4.1601381950e+00   0.00684868  0.006348562  27.54 4.358194e-05    1.017    0.017
        45  -9.3632      6.4688    208.4894   2.9300781752e+02   5.3221497193e+00   0.01199033   0.01134779  79.72 0.0007230989    1.136    0.120
        46 -12.1415    247.4183    195.9632   2.8993681406e+02   4.0929351771e+00   0.02148104   0.01923054 -58.14  0.001042564    1.181    0.153
        47  -9.7825    230.6898    195.0272   2.9013988723e+02   4.1996814306e+00     0.023197   0.01575828 -85.30  0.001550838    1.818    0.450
        48  -8.6124    174.4594    196.0006   2.9084540141e+02   4.5102790321e+00   0.02007226  0.007371901  16.29  0.001337635    3.481    0.713
        49  -7.9670     60.8995    194.1622   2.9225145812e+02   5.1796432211e+00   0.00920678   0.00766515 -14.55 0.0004128811    1.288    0.224
        50  -8.4412    170.0509    193.2382   2.9088535541e+02   4.5676155919e+00   0.01015347  0.008734776  -2.88 0.0004041643    1.200    0.167
        51  -7.6411     87.3415    191.3323   2.9190628711e+02   5.0619960907e+00   0.01094463  0.007527592 -22.17  0.001080347    1.734    0.423
        52  -9.2964    220.8331    189.7534   2.9023393947e+02   4.3174468716e+00   0.01384221    0.0113181  17.20 0.0003788116    1.178    0.151
        53  -7.3244    227.2839    188.2979   2.9014573346e+02   4.2974025227e+00  0.006856901  0.005042185 -25.05 0.0002114269    1.547    0.353
        54  -7.5865     25.1743    185.8487   2.9265239129e+02   5.4794819332e+00  0.009424604  0.007678983 -20.06 0.0003998089    1.333    0.250
        55  -8.4054     75.0863    182.3847   2.9201081120e+02   5.2359237818e+00   0.01168414  0.008928245 -40.44 0.0004938527    1.393    0.282
        56  -8.2883    188.9180    182.0698   2.9058969662e+02   4.5895290060e+00   0.01019014  0.009496693  14.87 0.0004149771    1.031    0.030
        57  -7.7319    126.6585    180.9228   2.9135955117e+02   4.9588219934e+00  0.009093797  0.008554085 -53.91 0.0003836342    1.124    0.111
        58  -8.0105     21.4174    180.2047   2.9266883890e+02   5.5664984332e+00  0.009317296  0.006678884 -87.24 0.0009476769    1.687    0.407
        59  -7.2964    147.3607    179.2706   2.9109245314e+02   4.8597761582e+00     0.007082  0.005048141 -17.62 0.0006997986    1.650    0.394
        60  -8.7536    209.3452    177.5991   2.9031098002e+02   4.5245296689e+00   0.01271546   0.01087145 -11.64 0.0001748665    1.235    0.190
        61  -8.5893     15.8120    174.1593   2.9270620020e+02   5.6686717051e+00  0.009293959  0.007714302 -23.78 0.0003674484    1.295    0.228
        62  -8.2923    129.0452    168.4371   2.9126213811e+02   5.0904249596e+00  0.009765018  0.009301216 -59.88  0.000478796    1.117    0.105
        63  -9.1941    243.4833    163.8235   2.8981110073e+02   4.4889303582e+00   0.01701456  0.007261406 -78.26  0.001181641    3.703    0.730
        64  -8.7840      4.9935    165.0166   2.9279195689e+02   5.8364502722e+00   0.01133569  0.007856411 -24.15  0.000931651    1.698    0.411
        65  -7.5534    181.3659    162.7868   2.9057913484e+02   4.8569493947e+00  0.009080269  0.006092939 -51.14 0.0002977737    1.547    0.354
        66  -7.3671    250.4457    161.4993   2.8971181467e+02   4.4759904856e+00  0.006788873  0.006415518  19.28 0.0004493593    1.012    0.012
        67  -9.6683    234.1637    160.4972   2.8990902172e+02   4.5810318471e+00   0.02267735   0.01355864 -20.83  0.002003111    2.270    0.559
        68  -7.9153     25.0824    161.4556   2.9252190075e+02   5.7638672270e+00   0.01024511  0.006432312  22.58 0.0005088587    1.514    0.340
        69  -7.9714    209.2763    160.2479   2.9021758581e+02   4.7266040842e+00  0.009591968  0.008733456  -5.85 0.0004983951    1.119    0.106
        70  -7.4731    142.7655    158.0365   2.9103462225e+02   5.1329948669e+00  0.008466935  0.005823217 -66.52 0.0003065972    1.564    0.361
        71  -9.6235      5.5082    157.3916   2.9274439616e+02   5.9222593096e+00   0.02627866   0.01101157  43.67  0.002090737    2.453    0.592
        72  -9.5526    163.6031    156.4612   2.9076622368e+02   5.0321525013e+00   0.01498229   0.01229996  37.14 0.0009067975    1.159    0.137
        73  -7.9397    227.0723    156.5138   2.8997565677e+02   4.6679850621e+00   0.01045275  0.006428496  24.02 0.0004034475    1.532    0.347
        74  -9.6704    103.2577    151.9718   2.9149466436e+02   5.4291585538e+00   0.01681611   0.01212284 -20.53  0.001122382    1.612    0.380
        75  -8.8290    237.6412    151.8488   2.8981870239e+02   4.6615711641e+00   0.01162998  0.009000354   8.96  0.000602183    1.320    0.242
        76  -7.5160    135.5710    151.4878   2.9108884652e+02   5.2502737675e+00   0.00677943  0.006397713   2.77 4.697643e-05    1.054    0.051
        77 -11.2852    200.2502    195.6483   2.9052222488e+02   4.3667971908e+00   0.02046428   0.01712557  -2.67 0.0008322814    1.248    0.199
        78  -9.2531      4.9791    148.4114   2.9270254569e+02   6.0297543443e+00   0.01555066   0.00913116 -74.86   0.00144744    2.011    0.503
        79  -8.6147    249.6073    145.1942   2.8963355049e+02   4.6702173173e+00  0.009970857  0.005958298 -50.84 0.0009542537    1.732    0.423
        80  -8.1828     25.7227    144.3145   2.9242132511e+02   5.9596773554e+00  0.009846685  0.007856469 -24.43 0.0005680516    1.369    0.270
        81 -10.2621    239.8012    139.7370   2.8972592520e+02   4.7898927131e+00   0.02903352   0.01332028 -52.40  0.002500122    2.207    0.547
        82  -8.5346    128.0140    139.0448   2.9111563933e+02   5.4381626140e+00   0.01020257  0.009550221   3.99 0.0003141087    1.058    0.055
        83 -10.9339     34.7368    135.9595   2.9226357365e+02   6.0056649511e+00   0.03190165   0.02889762 -47.64  0.003802489    1.158    0.136
        84  -8.5026     41.6965    131.9829   2.9215513045e+02   6.0123616200e+00   0.01281214   0.01023239  19.80 0.0003444247    1.193    0.162
        85  -8.2345     10.5027    139.0626   2.9258307622e+02   6.1071909916e+00  0.009819118  0.006809062 -64.22 0.0006969196    1.531    0.347
        86  -8.2136    208.0547    134.8661   2.9009483796e+02   5.0285918142e+00   0.01082401  0.008615899  46.50 0.0006877248    1.260    0.206
        87  -8.9556     11.9729    131.7710   2.9252532325e+02   6.1836806041e+00   0.02356985   0.01237229 -32.61  0.001961036    2.514    0.602
        88  -7.7150     53.2339    131.9922   2.9201106372e+02   5.9466243288e+00  0.008757774  0.005790885 -65.30 0.0005266942    1.615    0.381
        89  -8.7244      4.5713    128.0008   2.9259743785e+02   6.2695367480e+00   0.01235447   0.01167497  22.29 0.0003385733    1.007    0.007
        90 -10.4090    246.9114    125.7198   2.8956111854e+02   4.9119018764e+00   0.01863643   0.01350521  15.37 0.0007874919    1.371    0.271
        91 -10.3562     40.3627    136.6639   2.9219710758e+02   5.9654893280e+00   0.02867814   0.02140312  79.18  0.002610924    1.628    0.386
        92 -10.2638    103.6627    123.5325   2.9133545543e+02   5.7576216368e+00   0.01686586   0.01288873 -16.77  0.000709511    1.472    0.321
        93  -9.0342    222.9364    123.6456   2.8984839634e+02   5.0736130489e+00   0.01241593   0.01096286  13.36  0.000391702    1.097    0.088
        94  -7.3797    174.5570    122.4191   2.9044473894e+02   5.3652113860e+00  0.006783673  0.006335648  14.10 0.0001051189    1.032    0.031
        95  -9.4981    239.7781    120.2641   2.8962023247e+02   5.0162284512e+00   0.01492334   0.01070786  19.54  0.001048653    1.345    0.256
        96  -7.5208     82.9605    118.9985   2.9156939575e+02   5.9284438909e+00  0.008239402  0.007370254  23.75 0.0003252935    1.048    0.046
        97  -9.1774      2.5084    118.5081   2.9257193546e+02   6.3916661763e+00   0.03462988   0.01232298 -41.91  0.002338796    3.715    0.731
        98  -9.3661      1.6763    115.3326   2.9256517727e+02   6.4333232647e+00   0.02051308   0.01280194 -22.98  0.001899304    2.045    0.511
        99  -8.0478     55.1762    117.8229   2.9191009862e+02   6.1003888099e+00  0.009517937  0.007831131 -16.72  0.000633025    1.313    0.238
       100  -9.2467     16.4857    118.0000   2.9239451001e+02   6.3182637285e+00   0.01466877  0.008972103   3.21   0.00110886    1.962    0.490
       101  -9.1674     18.0173    114.7428   2.9235775797e+02   6.3474552868e+00   0.01802946   0.01081795  64.82  0.001612437    2.240    0.553
       102  -8.7379     14.3226    114.3176   2.9240163468e+02   6.3733765565e+00   0.01153427    0.0068576  19.07 0.0006213439    1.662    0.398
       103  -8.6969     19.3122    111.6864   2.9232504569e+02   6.3756534312e+00   0.01079099  0.008542117  23.04 0.0006965908    1.189    0.159
       104  -8.6819    189.1890    117.0868   2.9023329675e+02   5.3433535400e+00   0.01029081  0.008890995 -23.38 0.0003604442    1.226    0.185
       105  -9.6448    245.6607    108.6243   2.8948360039e+02   5.1176333667e+00   0.02039623   0.01392548 -27.09  0.001550757    1.723    0.420
       106  -9.3896    240.9569    106.6589   2.8953146969e+02   5.1674764461e+00   0.01472454   0.01290057 -87.34  0.000893637    1.266    0.210
       107  -7.8177    208.7881    111.2340   2.8995714554e+02   5.2989835265e+00   0.01224988  0.006277021  59.28 0.0009576906    2.796    0.642
       108 -10.5616     10.5250    105.4833   2.9240133385e+02   6.4976838301e+00   0.03307765   0.01684393 -76.65  0.002787699    2.528    0.604
       109  -8.5660      1.8743    108.5136   2.9252585141e+02   6.5115160526e+00   0.01093798  0.008975847  52.77 0.0009447663    1.269    0.212
       110  -8.2727    142.1727    106.8238   2.9076401838e+02   5.7318535614e+00  0.009753151  0.007951471 -18.66 0.0009121063    1.333    0.250
       111  -7.0258    226.6800    104.2981   2.8969644401e+02   5.2768786182e+00  0.007160145   0.00486999  54.03 0.0002885613    1.618    0.382
       112  -9.0418     66.1984     97.5827   2.9166271697e+02   6.2730128939e+00   0.02459094    0.0149278  47.17  0.002370922    1.713    0.416
       113 -10.1510     59.2993     98.3232   2.9175294605e+02   6.3036931286e+00   0.02490589   0.02163786 -31.88  0.002909989    1.213    0.175
       114 -10.1295    244.2989     99.0959   2.8944865437e+02   5.2361060389e+00   0.02942236   0.01762267  86.94  0.002599603    2.412    0.585
       115  -8.1130    102.3478     98.5778   2.9121648468e+02   6.0552971526e+00   0.01249839  0.008086241 -20.85  0.001141232    1.940    0.484
       116  -7.4207     79.3260     98.6725   2.9150459311e+02   6.1855309564e+00  0.007313469   0.00486447  55.66 0.0002487124    1.699    0.411
       117  -7.3594    165.2832     93.6919   2.9040423073e+02   5.7521955787e+00  0.006955474  0.004953895  56.86 0.0004385577    1.565    0.361
       118 -10.3113      4.8248     89.9975   2.9238884194e+02   6.7101174246e+00   0.03045779   0.02071709  84.62   0.00300811    1.900    0.474
       119  -9.6115      1.8115     82.3599   2.9238520457e+02   6.8160163117e+00   0.01867064   0.01167419 -66.59   0.00117585    1.724    0.420
       120  -8.4049    221.4652     92.6865   2.8969818525e+02   5.4416820654e+00   0.01244106  0.005981141  24.18 0.0009428237    1.966    0.491
       121  -7.8868    190.7716     92.0051   2.9007710625e+02   5.6257177890e+00  0.008951349  0.005743713 -65.04 0.0008817267    1.664    0.399
       122  -8.5308     66.4151     91.9138   2.9162927347e+02   6.3376944448e+00   0.01338091  0.009871107  12.24 0.0007719252    1.369    0.270
       123  -7.4278     72.2735     90.3434   2.9154754393e+02   6.3225728453e+00  0.007043166  0.004959864 -29.62 0.0003971876    1.618    0.382
       124  -8.8131     62.4710     87.9738   2.9165720355e+02   6.4059696028e+00   0.02218455   0.00855967 -43.06  0.001619086    3.136    0.681
       125  -9.6414     65.4348     81.1913   2.9158337546e+02   6.4679402609e+00   0.02541766   0.01296159 -52.11  0.001437991    2.002    0.501
       126  -8.3044     61.4770     80.0993   2.9162692509e+02   6.5031791135e+00   0.01274516   0.01006766 -19.54 0.0008113942    1.396    0.284
       127  -8.1449     78.8612     87.3096   2.9144876330e+02   6.3202937670e+00  0.009220703  0.008211593   7.42 0.0003526887    1.108    0.097
       128  -9.9665    241.6762     84.0867   2.8939953226e+02   5.4254491488e+00   0.02122463   0.01220551 -62.55  0.002027097    1.823    0.451
       129  -7.2636    198.6884     83.2869   2.8993091941e+02   5.6815836953e+00  0.007062608  0.004874142  53.45 0.0002225874    1.578    0.366
       130  -8.6252     33.5403    248.6907   2.9288664644e+02   4.7006167018e+00   0.01419001   0.00999629 -43.13  0.001004061    1.512    0.339
       131  -7.8445     43.1745    248.0013   2.9276284494e+02   4.6539020312e+00  0.008995838  0.008735715  22.50 0.0003260571    1.036    0.034
       132 -10.3475     31.3843     35.6194   2.9176198416e+02   7.1913377761e+00   0.04153038   0.02001632  39.17  0.003649594    1.956    0.489
       133  -7.9858      9.6372    248.1327   2.9318160427e+02   4.8427927701e+00  0.009213734  0.008261482 -47.14 0.0004346458    1.169    0.145
       134  -7.6923    232.7952    244.8502   2.9038405120e+02   3.6086161733e+00  0.009326495  0.007616248  56.02 0.0004723422    1.301    0.231
       135  -7.7247    146.0269    245.4965   2.9146762867e+02   4.0971218188e+00   0.01017438  0.006427546  23.92 0.0004269224    1.490    0.329
       136  -7.6745    126.4794    245.5758   2.9171156699e+02   4.2077534556e+00  0.006822246  0.006344972  12.05 5.127355e-05    1.041    0.040
       137  -9.8959     18.6751     46.3313   2.9197911625e+02   7.1390928895e+00   0.02021608   0.01589729  38.14 0.0007793337    1.214    0.176
       138  -8.1757      2.9592    245.0924   2.9324850596e+02   4.9160496735e+00   0.01029902  0.009518144  -3.10 0.0006172811    1.091    0.083
       139  -8.0836     50.0883    242.4812   2.9264692739e+02   4.6788410478e+00  0.009509577  0.009205594 -36.15 0.0006215218    1.084    0.077
       140 -10.0448    250.3101    239.6194   2.9013785910e+02   3.5691291538e+00   0.01261544  0.009540037 -65.41  0.001053657    1.414    0.293
       141 -10.5566     31.0336     43.7082   2.9181025911e+02   7.0993542435e+00   0.01728688   0.01629516 -56.02 0.0006100246    1.124    0.110
       142 -12.4422    229.8470    236.2995   2.9037435540e+02   3.7248579181e+00   0.02735122   0.02188164   0.50  0.001440394    1.317    0.241
       143  -9.1731     89.4446    240.0630   2.9214330315e+02   4.4830083096e+00   0.01824849   0.01196945 -25.15  0.001299243    1.853    0.460
       144  -8.1138    214.3825     80.9353   2.8972244931e+02   5.6188222732e+00   0.01645192  0.006380531  40.63  0.001276901    2.472    0.595
       145  -8.3254    103.9758     80.3256   2.9109704419e+02   6.2581798203e+00   0.01504197  0.009452537  59.72   0.00126306    1.940    0.485
       146  -9.1662    247.3086     76.8681   2.8929003425e+02   5.4768765372e+00   0.01084442  0.008645703  76.52  0.001183644    1.461    0.315
       147  -8.0329    226.6379     75.5653   2.8954044666e+02   5.6107945301e+00   0.01260245  0.008917757 -70.41  0.001313891    1.554    0.357
       148  -7.3842    185.3021     76.6785   2.9006189110e+02   5.8351287718e+00  0.007136726  0.004924219  56.59 0.0004570035    1.630    0.387
       149  -8.5835    240.5359     73.7918   2.8935762071e+02   5.5515199650e+00    0.0153919  0.007128394 -79.07  0.001148573    3.211    0.689
       150 -10.1230    195.4643     72.0120   2.8990972419e+02   5.8310361430e+00   0.02107742   0.01373698 -55.75  0.002145208    1.586    0.370
       151  -8.9581    235.0444     70.1954   2.8940642851e+02   5.6248328808e+00   0.01408416   0.01048384  29.73 0.0008195332    1.247    0.198
       152  -9.3063     93.5042     70.5045   2.9117454536e+02   6.4321075353e+00    0.0235803   0.01260868  23.58  0.002157696    1.772    0.436
       153  -8.9731     96.4058     66.4383   2.9111619579e+02   6.4628009692e+00   0.02481413   0.01290372 -63.61  0.002255082    2.023    0.506
       154  -8.4082    244.3482     68.5322   2.8928145711e+02   5.5906571917e+00   0.01134149  0.006509368 -64.84 0.0005705834    1.858    0.462
       155  -9.4696    204.4982     67.2816   2.8977129432e+02   5.8341225576e+00   0.02466645   0.01486485  79.32  0.002162113    2.450    0.592
       156  -8.1029    228.8295     68.3787   2.8947396530e+02   5.6816384270e+00  0.009370155  0.006308827  11.76 0.0004777214    1.552    0.356
       157  -9.9785    224.7962     53.9028   2.8944530801e+02   5.8728546410e+00   0.02777654   0.01182986  22.42  0.002240385    2.302    0.566
       158  -9.3377    223.9996     66.5011   2.8952392350e+02   5.7311873463e+00   0.02391129   0.01100739 -70.04  0.001972707    2.535    0.606
       159 -10.3703    225.6839     59.0121   2.8946210424e+02   5.8084475247e+00   0.02611662   0.01184785 -62.70   0.00222794    2.287    0.563
       160  -7.8371    147.5377     67.4660   2.9048305676e+02   6.1585387703e+00  0.006841102  0.006366546  -0.18 0.0001331365    1.076    0.070
       161  -7.9043    127.0057     66.7194   2.9073540649e+02   6.2846956863e+00   0.00975104  0.008361995  26.28 0.0003628399    1.090    0.083
       162  -8.2987     82.6390     66.9871   2.9129123969e+02   6.5349783999e+00   0.00905101  0.008652792 -55.66 0.0004849333    1.110    0.099
       163  -7.8536     76.5649     66.2518   2.9136317450e+02   6.5781625051e+00  0.009180391  0.006247621 -50.19 0.0007214331    1.529    0.346
       164  -8.7010    119.1529     64.0219   2.9081883538e+02   6.3609370192e+00   0.01231283   0.01090456 -77.48 0.0005302914    1.232    0.189
       165  -8.0104    175.0000     62.5256   2.9011336429e+02   6.0585877373e+00    0.0146503  0.003946127 -64.99 0.0009379023    3.960    0.747
       166  -9.2595    210.2507     59.0972   2.8965496228e+02   5.8961201647e+00   0.01345638   0.01145687  -2.45  0.001541743    1.218    0.179
       167  -7.4232    128.7334     59.9654   2.9067709356e+02   6.3532856159e+00  0.008292044  0.006006916 -62.80 0.0006613773    1.461    0.315
       168  -9.7658     82.9887     56.4198   2.9122947463e+02   6.6557865731e+00   0.02475464  0.009328122 -54.08  0.001957663    2.602    0.616
       169  -8.7553    236.5062     58.4768   2.8932431974e+02   5.7524544312e+00  0.009447176  0.006838707 -84.73 -3.924217e-05    1.648    0.393
       170 -10.0459    233.2829     55.2933   2.8934712206e+02   5.8079335215e+00   0.01837385   0.01471903  -8.16  0.001451301    1.356    0.263
       171  -8.3646    206.1087     57.5865   2.8969837757e+02   5.9374446686e+00   0.01118391  0.008239249 -53.35  0.001196147    1.413    0.292
       172 -11.3353    210.9006    231.0394   2.9058158280e+02   3.8944248579e+00   0.04771328   0.03751392 -81.63  0.004377658    1.448    0.309
       173  -9.6429     64.1179     49.8871   2.9142994834e+02   6.8392757543e+00   0.01937613   0.01513245  19.42  0.001067544    1.224    0.183
       174  -9.8668     66.1872     45.9458   2.9138266601e+02   6.8732791576e+00   0.01737993   0.01583881   6.57 0.0007043154    1.080    0.074
       175 -10.4825     61.3924     44.8610   2.9143674170e+02   6.9132013391e+00   0.02532475   0.01824779 -26.93 0.0003676323    1.582    0.368
       176  -9.5116     99.7044     55.1291   2.9101351516e+02   6.5753812494e+00   0.03469549   0.01328113 -65.20  0.002694753    2.796    0.642
       177  -9.1746     95.5592     50.6900   2.9104119847e+02   6.6506242878e+00   0.02037471   0.01149284  33.30  0.001144465    1.618    0.382
       178  -9.6327     84.0417     35.0912   2.9110040047e+02   6.8975674281e+00    0.0425129   0.01696726  37.98  0.003348991    2.294    0.564
       179 -10.5547     87.3492     48.5542   2.9113222421e+02   6.7222988451e+00   0.03391999   0.02688601  21.68  0.002158324    1.193    0.162
       180  -9.7082     86.8534     41.1736   2.9109830704e+02   6.8108704429e+00   0.02213827   0.01118499 -48.52  0.001279207    2.072    0.517
       181  -8.4397    248.7298     56.1832   2.8915953009e+02   5.7087784557e+00   0.01149661  0.008501758  33.93 0.0004639244    1.261    0.207
       182  -8.7130     55.3291     54.0379   2.9156239588e+02   6.8411016944e+00   0.02217788  0.009158913 -66.25  0.001771974    2.640    0.621
       183 -10.0339    124.0537     54.2523   2.9070447777e+02   6.4464222038e+00   0.01421067   0.01375497 -21.32 0.0005652763    1.072    0.067
       184  -9.8139    245.3120     50.8600   2.8917306369e+02   5.7902080992e+00   0.02327457   0.01443869   4.59 0.0007907394    1.901    0.474
       185  -8.2577    214.0186     52.7919   2.8957361026e+02   5.9476760830e+00   0.01135348   0.00742136 -11.22  0.001025235    1.932    0.482
       186  -9.4904    207.2334     46.1901   2.8962222618e+02   6.0632840719e+00   0.02010396   0.01434966 -29.62  0.001110083    1.591    0.372
       187  -8.3061    223.7412     48.7342   2.8943027326e+02   5.9389071777e+00   0.01372017   0.01050067  52.13  0.001478837    1.371    0.271
       188  -8.5095    129.1839     46.4887   2.9059814311e+02   6.5072601286e+00   0.01104233   0.00952375 -67.05  0.000283457    1.244    0.196
       189  -8.7734     39.9655     46.9705   2.9171621320e+02   7.0106600073e+00   0.01529687   0.01088802   8.51 0.0003694056    1.476    0.323
       190  -9.3572     37.7808     43.7804   2.9172623479e+02   7.0601526254e+00   0.02295147   0.01184324 -47.76  0.001497429    2.041    0.510
       191  -7.8154     73.7227     43.9105   2.9127737225e+02   6.8539733092e+00  0.009002881  0.008792031 -83.69 0.0005565617    1.098    0.089
       192  -7.4720    180.8064     42.8143   2.8993352021e+02   6.2541751178e+00  0.009194629  0.007442466  48.42 0.0004107649    1.253    0.202
       193  -8.9864      1.5793     32.4917   2.9211804121e+02   7.3969138939e+00   0.01536899   0.01367996  76.27  0.001054549    1.237    0.192
       194 -10.0320      8.7064     39.3152   2.9206582633e+02   7.2772068385e+00    0.0251458   0.01771995  84.05  0.002549587    1.791    0.442
       195  -9.3809      4.9987     36.0276   2.9209440947e+02   7.3364393693e+00   0.02106125   0.01246422 -49.60  0.001517997    1.755    0.430
       196  -8.6033    239.3528     38.9129   2.8918212387e+02   5.9631067179e+00   0.02519777   0.01276955 -86.27  0.001920542    3.230    0.690
       197  -7.9474    141.3183     52.6685   2.9048019803e+02   6.3660387756e+00  0.007279482  0.004885379  56.30 0.0007047897    1.690    0.408
       198  -9.8405     20.4377     40.1586   2.9192358882e+02   7.2008043697e+00   0.01726289   0.01364999  15.62 0.0006603312    1.231    0.188
       199  -8.2861    112.9670     40.2998   2.9076711334e+02   6.6718792393e+00   0.01010839  0.008573948  26.60   0.00075187    1.102    0.092
       200  -7.9836    190.1293     36.6102   2.8978336231e+02   6.2726952156e+00   0.01124393  0.007861036 -57.64 0.0007677767    1.490    0.329
       201  -8.4814     53.5314     36.1986   2.9148802889e+02   7.0586086820e+00   0.01556536  0.009078821  53.73  0.001422187    1.993    0.498
       202  -7.7188    232.4931     36.0035   2.8925173596e+02   6.0363182390e+00  0.009833002  0.005729073  76.55 0.0008105343    2.646    0.622
       203  -9.9452    107.0322     31.6909   2.9079445588e+02   6.8057816665e+00   0.02948859   0.02462205  53.44  0.002371512    1.248    0.199
       204  -9.6638    108.8923     26.0962   2.9074075771e+02   6.8601203529e+00   0.01984053    0.0171865  66.68  0.001744076    1.260    0.207
       205  -9.0265     61.1974    238.7429   2.9248829170e+02   4.6591664525e+00   0.01252539   0.01016324 -33.55 0.0005016134    1.319    0.242
       206  -8.2545    138.8760    237.6478   2.9151426432e+02   4.2292323379e+00    0.0107244  0.009113617 -41.60 0.0004196584    1.236    0.191
       207  -8.5493    128.7762     33.8356   2.9053436720e+02   6.6565416041e+00   0.01961773   0.01072439 -49.43  0.001501969    1.903    0.474
       208  -9.4746    143.6631     30.6292   2.9033091128e+02   6.6085550725e+00   0.02211756    0.0145524 -89.59  0.002132704    1.970    0.492
       209 -10.0002    144.5549     24.1624   2.9028454339e+02   6.6785238522e+00   0.01738837   0.01307491 -65.68 0.0009933629    1.424    0.298
       210  -9.3123     99.9750     31.0221   2.9087904454e+02   6.8538674398e+00    0.0198404   0.01739414 -48.76  0.001536761    1.196    0.164
       211  -8.9533     96.1074     27.7975   2.9090985954e+02   6.9134049188e+00   0.01790667   0.01086562 -47.37  0.001211626    1.734    0.423
       212  -8.2874    231.2797     29.6561   2.8923222134e+02   6.1169378431e+00   0.01118963    0.0096664  50.45 0.0005152563    1.181    0.153
       213  -9.2348     73.8476     28.7965   2.9119367378e+02   7.0288269888e+00    0.0152371    0.0109862  19.85 0.0004383605    1.332    0.249
       214  -8.2709    219.8046     28.4042   2.8936844802e+02   6.1974487304e+00    0.0101731  0.006368853   9.27 0.0009569871    1.768    0.434
       215  -7.7873     99.1015    238.1551   2.9201264198e+02   4.4501872598e+00  0.009968537  0.008626333 -17.75 0.0003737812    1.221    0.181
       216  -8.2730    174.0084     25.8062   2.8992566714e+02   6.4906077070e+00   0.01214497   0.01026549 -67.08  0.001050745    1.270    0.213
       217  -8.7628     94.1577     22.2119   2.9090385306e+02   6.9893997656e+00   0.04929195   0.01965028   8.44  0.002897698    4.849    0.794
       218  -7.9341     39.7974    236.2335   2.9274156708e+02   4.8100393477e+00  0.009472855  0.007676048 -22.90 0.0005612769    1.342    0.255
       219  -8.8414    120.8730    233.5771   2.9171657747e+02   4.3793141790e+00   0.01172108   0.01053175 -46.94 0.0004834209    1.167    0.143
       220  -7.8537    135.4494    233.4791   2.9153441370e+02   4.2972793831e+00  0.006794881  0.006412202  16.87 0.0001113139    1.018    0.018
       221  -7.3550    153.5660    229.5332   2.9128735548e+02   4.2397322096e+00  0.006774283  0.006399681  21.01 0.0001767957    1.009    0.009
       222  -8.1368    142.8593    228.8480   2.9141703797e+02   4.3088460539e+00   0.01049264  0.008782783 -23.24 0.0005824417    1.281    0.219
       223  -9.3028    124.0495    226.5911   2.9163922496e+02   4.4424607226e+00   0.01929399   0.01302571  -3.99  0.001364727    1.761    0.432
       224  -8.2806    168.0322    225.0111   2.9108267058e+02   4.2096690012e+00  0.008140069   0.00788853  20.91 0.0004582289    1.034    0.032
       225  -9.1506     16.8959    222.2492   2.9295183816e+02   5.1028453538e+00   0.01404944   0.01087849  -1.14 0.0005358812    1.390    0.281
       226  -8.8075    166.5521     26.6946   2.9002360420e+02   6.5230624402e+00   0.01201516   0.01050418  42.84 0.0003646993    1.124    0.111
       227  -8.6306    182.6579     25.1637   2.8981419222e+02   6.4484326123e+00   0.02196154  0.008461135  30.33  0.001752531    2.272    0.560
       228  -7.1514    237.3004    222.2526   2.9020542922e+02   3.8454234808e+00  0.006690394  0.005057808 -17.61 0.0001815108    1.499    0.333
       229  -7.1016    211.7064     23.2783   2.8944146763e+02   6.3034695862e+00  0.006906011  0.004892113  53.63 0.0002558636    1.529    0.346
       230  -9.1045    154.9208     22.5887   2.9014648136e+02   6.6374011402e+00   0.01745503   0.01240455   8.57  0.001099185    1.483    0.326
       231  -8.1265    173.9219     19.0278   2.8988978902e+02   6.5697721830e+00   0.01064528  0.009906307  16.00 0.0006644242    1.029    0.028
       232  -9.5848    148.7960     19.2109   2.9020458062e+02   6.7117052563e+00   0.01550919  0.009646401  23.56  0.001229214    1.518    0.341
       233  -7.9528    182.3184     18.2883   2.8978093505e+02   6.5301687459e+00   0.01102954  0.008128301 -43.20 0.0006160967    1.440    0.305
       234  -8.6088    178.8017     17.1179   2.8981845236e+02   6.5639349592e+00   0.01559918  0.009242794  30.01 0.0006241194    1.544    0.352
       235  -7.8011    129.0082     17.9607   2.9044502057e+02   6.8395285267e+00   0.01258633  0.005711251 -43.27  0.001012358    2.521    0.603
       236  -8.0724    229.8095     15.0137   2.8917062151e+02   6.2952369257e+00    0.0107194  0.006624849  43.46 0.0007053685    1.601    0.376
       237  -8.5031    189.6776     14.8836   2.8967050858e+02   6.5274238514e+00   0.01214557  0.009343149   4.62  0.001309331    1.366    0.268
       238  -9.0295    177.5475    221.4015   2.9094460377e+02   4.1972511306e+00   0.01306915   0.01111852 -14.79 0.0002311872    1.249    0.199
       239  -7.5736    185.3174    220.7285   2.9084419186e+02   4.1606463289e+00  0.007041818  0.004835343  51.78 0.0006968344    1.561    0.360
       240  -7.8874    142.3489    218.8162   2.9136911474e+02   4.4284458222e+00  0.009941757  0.005824751 -51.71 0.0005885975    1.760    0.432
       241  -9.8398    230.8545    212.8563   2.9023463239e+02   3.9915356432e+00   0.04300681    0.0254819 -52.05  0.004185317    1.739    0.425
       242  -8.0125    204.6611    214.0790   2.9056728454e+02   4.1272878091e+00  0.009252847   0.00864753 -55.23 0.0004620312    1.132    0.117
       243  -8.0970    168.3375    212.7058   2.9101221418e+02   4.3510239531e+00  0.009678352  0.008275147  79.07  0.001100877    1.315    0.240
       244  -7.3260     98.5863    213.4257   2.9188547321e+02   4.7408457587e+00    0.0067262  0.006346659  16.61 8.966956e-05    1.019    0.018
       245 -11.5501    209.5336    190.4469   2.9037839061e+02   4.3741082395e+00     0.140478   0.03249753 -44.72   0.00706015    6.668    0.850
       246 -11.0286    189.3626    203.8553   2.9070234182e+02   4.3336918688e+00   0.01847731   0.01711762 -26.88 0.0006573299    1.122    0.109
