#   1 NUMBER                 Running object number                                     
#   2 MAG_AUTO               Kron-like elliptical aperture magnitude                    [mag]
#   3 X_IMAGE                Object position along x                                    [pixel]
#   4 Y_IMAGE                Object position along y                                    [pixel]
#   5 X_WORLD                Barycenter position along world x axis                     [deg]
#   6 Y_WORLD                Barycenter position along world y axis                     [deg]
#   7 A_WORLD                Profile RMS along major axis (world units)                 [deg]
#   8 B_WORLD                Profile RMS along minor axis (world units)                 [deg]
#   9 THETA_WORLD            Position angle (CCW/world-x)                               [deg]
#  10 FWHM_WORLD             FWHM assuming a gaussian core                              [deg]
#  11 ELONGATION             A_IMAGE/B_IMAGE                                           
#  12 ELLIPTICITY            1 - B_IMAGE/A_IMAGE                                       
         1 -12.6427    182.8923     25.2393   3.5172429748e+02   3.6830317966e+01    0.8541943    0.4520019 -60.56  0.004553284    1.671    0.402
         2 -11.6501    205.7361     23.3491   3.4953181427e+02   3.2358471533e+01    0.4548214    0.3650981 -42.24  0.003184367    1.269    0.212
         3 -14.2741    167.9567      7.7820   3.4841847806e+02   4.2034245160e+01      1.78755    0.8582824 -84.68  0.008948134    2.012    0.503
         4 -12.3071    240.7933      6.9795   3.4428218430e+02   2.7715664018e+01    0.6682343    0.3297941 -36.06  0.004283564    1.677    0.404
         5 -11.1538    247.4278      5.2984   3.4371319511e+02   2.6773620266e+01     0.449253    0.1813708 -43.96  0.002803321    1.629    0.386
         6 -11.6270      4.3183     16.6546   4.5697949516e+01   7.6640229677e+01    0.4430034    0.2346145 -27.32  0.002120149    2.113    0.527
         7 -13.2240    201.2404      7.4537   3.4620882650e+02   3.4996585009e+01       1.5563    0.7347279 -67.71  0.008613545    1.845    0.458
         8 -12.4096    180.6860      4.2822   3.4664638658e+02   3.9589970703e+01    0.7731792    0.4245586 -22.91   0.00421286    2.209    0.547
         9 -12.0911      3.1847      9.6006   4.2740602113e+01   7.8074547829e+01     0.324495    0.2304702 -53.37   0.00151151    1.547    0.354
        10 -12.4770    127.5132      8.2486   3.5239105506e+02   5.1509741395e+01    0.3799691    0.2150609 -71.93  0.001901795    1.765    0.433
        11 -10.6736     31.3713      7.1651   1.8382485511e+01   7.4199962452e+01    0.3028902     0.153557 -30.53  0.001489716    2.203    0.546
        12 -11.1003      8.9812      7.2947   3.5522197731e+01   7.7806725657e+01    0.1795524    0.1464785  14.12 0.0009618968    1.086    0.079
        13 -11.9108    236.4922     17.9503   3.4661375989e+02   2.7284120140e+01    0.4732588     0.358683  -2.48  0.003165551    2.376    0.579
        14 -12.3638    229.5347      9.6909   3.4528940861e+02   2.9398421951e+01     1.553538    0.1458146 -39.40  0.006369698    3.551    0.718
        15 -12.1916    115.7425      2.6574   3.5187811366e+02   5.4921174285e+01    0.4233007    0.2159238  82.82  0.002053499    1.786    0.440
        16 -10.3076     80.4961      1.5045   3.5712072063e+02   6.3735651326e+01    0.1308991    0.1129368  74.18 0.0008106686    1.001    0.001
        17 -11.2359      7.1681    125.0113   6.7949695916e+01   4.9140721476e+01    0.5269066    0.1779869  43.83  0.001880849    2.857    0.650
        18 -12.5677    160.9140    120.7650   1.8533952993e+01   2.5972986245e+01    0.4485225    0.3469759  66.34  0.002384082    1.544    0.352
        19 -11.6457     11.3136    116.5865   6.5453049112e+01   5.1207730941e+01    0.7664751    0.2384745 -80.28   0.00246992    3.256    0.693
        20 -10.7693    196.0123    120.5101   1.2323323372e+01   1.9764113733e+01     0.176511    0.1308252  50.10  0.001034201    1.595    0.373
        21 -11.7739    159.7084    110.7769   1.6468260214e+01   2.8150268656e+01    0.3965594    0.2336466 -54.34  0.001819051    1.718    0.418
        22 -10.6046    141.1736    106.3167   1.9241597597e+01   3.2754326205e+01      0.26662    0.1975582 -36.96  0.001318677    1.389    0.280
        23 -11.0027    175.9805    101.1963   1.1285114843e+01   2.6772164412e+01    0.2136187    0.1613748  17.20  0.001094383    1.995    0.499
        24 -11.1866    153.1234     97.6573   1.4577088768e+01   3.2002681471e+01    0.2696168    0.1863381 -53.64  0.001337344    1.376    0.274
        25 -10.2730     82.2797     95.5595   3.2803031528e+01   4.7240322998e+01     0.285311    0.1893753 -34.33  0.001205978    1.839    0.456
        26 -10.9696      3.2879     94.6599   6.6496715943e+01   5.7790308281e+01     0.319625    0.1997005  54.01  0.001185823    1.707    0.414
        27 -11.3491    193.8267     94.1716   6.9388956167e+00   2.4611490860e+01    0.1765187    0.1520374 -21.87  0.001018311    1.339    0.253
        28  -9.9143     20.6645     93.3168   5.8025113337e+01   5.6898400911e+01    0.1558959    0.1026334  58.47 0.0007048082    1.696    0.410
        29 -11.1863    176.7920     92.2215   9.0452006469e+00   2.8195950335e+01    0.2121727    0.1602724   2.60  0.001062111    2.145    0.534
        30 -11.8771      5.9427     89.6079   6.4568051171e+01   5.9014397308e+01    0.5195049     0.274536  83.30  0.002199916    2.140    0.533
        31 -11.7745    200.1251     84.9886   4.0413443537e+00   2.4934010675e+01    0.3455718    0.1791276  69.30  0.001668801    2.525    0.604
        32  -9.8211    172.7550     83.9836   7.7006555249e+00   3.0426891001e+01    0.1894456    0.1050033 -41.12 0.0008915914    1.620    0.383
        33 -10.4012    152.8249     71.7021   7.8594792491e+00   3.6784225348e+01    0.2186907    0.1820177  40.77  0.001200196    1.477    0.323
        34 -11.0208    226.5078     71.5046   3.5821961737e+02   2.2273563990e+01    0.1207903   0.09231138 -50.00 -3.902526e-05    1.002    0.002
        35 -10.3778     24.3403     69.3093   5.0913703490e+01   6.2843250168e+01    0.1526813     0.100873 -29.23  0.000704425    1.690    0.408
        36 -10.2577     32.6643     59.3188   4.3333403182e+01   6.4262883393e+01    0.1458194    0.1080574  63.75 0.0007049112    1.701    0.412
        37 -11.5750     15.5554     57.6382   5.2843125313e+01   6.6603568509e+01    0.3945186    0.2455309 -39.69  0.001943279    1.587    0.370
        38 -11.9355      3.2577     50.5886   5.8960488739e+01   6.9252614847e+01    0.6206312    0.3546034 -54.96  0.003134388    1.557    0.358
        39 -10.8571    194.9858     51.9858   3.5706614750e+02   3.0853691729e+01    0.2191198     0.122621 -62.14  0.001142927    1.723    0.420
        40 -10.8835    209.2850     56.2781   3.5661699250e+02   2.7479704398e+01    0.3504913    0.2087698 -25.85  0.001877519    2.030    0.507
        41 -10.9635    211.0196     45.7710   3.5413289104e+02   2.8566310098e+01    0.2730095    0.1612421  73.22  0.001614204    1.862    0.463
        42 -11.9766    183.8958     44.8774   3.5651958239e+02   3.4114216103e+01    0.3209283     0.214105  82.31  0.001843139    1.528    0.346
        43 -10.0677    144.4325     47.2217   2.3338892462e+00   4.2618322481e+01    0.2040048    0.1132505 -49.03 0.0009503029    1.686    0.407
        44 -11.8958    194.3522     40.9373   3.5451760897e+02   3.2473061690e+01    0.3431635    0.2093504 -36.73  0.001951282    1.519    0.341
        45 -10.5873    123.7290     42.4722   4.4831707607e+00   4.8269090319e+01    0.3194697    0.2434651  51.52  0.001706277    1.410    0.291
        46 -10.1601    224.1630     41.1667   3.5209927354e+02   2.6732156586e+01    0.1747492    0.1040791 -57.67  0.001086279    1.350    0.259
        47 -11.9464    178.9316     37.6199   3.5522097532e+02   3.6140599330e+01    0.5140342    0.2857707 -35.43  0.002694566    1.713    0.416
        48 -10.9497    230.0035     38.0167   3.5103493164e+02   2.6085242384e+01    0.1863203    0.1328307 -54.99 0.0009447088    1.034    0.033
        49 -10.5363    226.4229     34.3382   3.5051622048e+02   2.7167516706e+01    0.2019013    0.1635107 -62.58  0.001493382    1.127    0.112
        50 -11.5177     32.6667     34.6588   3.3457385181e+01   6.9530961893e+01     0.344754    0.2135871   8.21  0.001527641    2.368    0.578
        51 -10.1459     34.2380    226.0050   6.6974733665e+01   2.0942442788e+01     0.153869    0.1046683 -82.88 0.0008790906    1.608    0.378
        52  -9.7578      1.5259    221.5021   7.4812793823e+01   2.4846426141e+01    0.1263358    0.1001601  51.42 0.0008101183    1.003    0.003
        53  -9.6988     12.5165    203.4853   7.1321965529e+01   2.8063742858e+01    0.1333891    0.1104813  53.93 6.543779e-05    1.009    0.009
        54 -10.9377    220.7310    186.6220   2.0818900917e+01   5.5228258346e+00    0.1779708    0.1467011  29.02  0.001234631    1.485    0.326
        55 -10.0838     31.3524    180.3163   6.4530294784e+01   3.2054074848e+01    0.2220941    0.1564861 -37.65  0.001106715    1.752    0.429
        56 -10.3918    190.6050     21.3128   3.5014087193e+02   3.5659051269e+01     0.202196     0.176158 -59.20  0.001021782    1.181    0.154
        57 -10.6827    250.0955     19.6442   3.4629953662e+02   2.4814674922e+01    0.2076791    0.1269621 -37.27  0.001462456    1.416    0.294
        58 -11.6951    199.4195    157.4825   1.9099771705e+01   1.2879431784e+01    0.3224764    0.2550317  49.37  0.002034848    1.615    0.381
        59 -10.4014      4.4874    155.5699   7.1144155670e+01   4.0909383555e+01    0.2946386     0.127473 -81.24  0.001207901    2.157    0.536
        60 -10.5393    184.5084    151.9647   2.0620552417e+01   1.6046233880e+01    0.2078179    0.1145869 -41.88  0.001036549    1.601    0.376
        61 -11.8425    151.5975    145.0990   2.5739230286e+01   2.2755062366e+01     0.570794    0.2727225  40.31  0.002416912    2.217    0.549
        62 -11.6442     20.3297    141.2439   6.4569930351e+01   4.3598262588e+01    0.4921981    0.2505408 -89.18  0.002019467    2.041    0.510
        63 -10.8585    125.9520    142.1965   3.1133477585e+01   2.7904349453e+01    0.2450321    0.1764174   3.11  0.001093371    1.974    0.493
        64 -13.3715    173.6655    136.9966   1.9599321407e+01   2.0564898865e+01    0.5473516    0.3933144 -55.18  0.002954302    1.439    0.305
        65 -10.7421    139.3172    136.3481   2.6649029752e+01   2.6777089021e+01    0.2306526    0.1747543 -10.57  0.001105626    1.737    0.424
        66 -11.2723      9.9047    138.2649   6.8057580816e+01   4.5262157109e+01    0.3975154    0.2650811 -47.39  0.001945262    1.617    0.382
        67 -11.9333    181.0856    124.7806   1.5678154401e+01   2.1559460227e+01    0.3610134    0.2652382 -81.86  0.001867998    1.979    0.495
