#   1 NUMBER                 Running object number                                     
#   2 MAG_AUTO               Kron-like elliptical aperture magnitude                    [mag]
#   3 X_IMAGE                Object position along x                                    [pixel]
#   4 Y_IMAGE                Object position along y                                    [pixel]
#   5 X_WORLD                Barycenter position along world x axis                     [deg]
#   6 Y_WORLD                Barycenter position along world y axis                     [deg]
#   7 A_WORLD                Profile RMS along major axis (world units)                 [deg]
#   8 B_WORLD                Profile RMS along minor axis (world units)                 [deg]
#   9 THETA_WORLD            Position angle (CCW/world-x)                               [deg]
#  10 FWHM_WORLD             FWHM assuming a gaussian core                              [deg]
#  11 ELONGATION             A_IMAGE/B_IMAGE                                           
#  12 ELLIPTICITY            1 - B_IMAGE/A_IMAGE                                       
         1 -14.3722    158.2481     52.5892   8.2605107131e+01   3.9018409342e+01     1.524354     1.198577   9.44   0.00392252    1.376    0.273
         2 -14.5234    170.4325     36.7160   7.4757899047e+01   3.8178330316e+01     1.276415     1.009069   1.83  0.004026993    1.319    0.242
         3 -11.7710    189.8325     15.0773   6.4420605934e+01   3.5568370149e+01    0.3458528    0.2483068 -39.11  0.001010484    1.406    0.289
         4 -14.0094    186.4450      5.1962   6.1581721218e+01   3.7394430427e+01     1.024701    0.8126133  64.84  0.004049019    1.237    0.191
         5 -10.9726     93.1857      4.6758   7.9184965537e+01   6.0919722592e+01    0.2636119    0.1352599  64.67  0.001088743    2.649    0.622
         6 -19.2876     54.4685     88.6281   1.2241488756e+02   5.1232170670e+01     18.95083     1.310717 -61.29   0.03291265   13.787    0.927
         7 -19.1412     74.3268    243.2018   1.3542927758e+02   1.9471569582e+01      5.68128     3.830626  48.32   0.04131741    1.147    0.128
         8 -11.0732    180.0559    192.2973   1.1149377378e+02   1.1611565703e+01    0.1885238    0.1819505 -44.65 0.0005499047    1.340    0.254
         9 -11.6885    167.1711    191.5177   1.1374359381e+02   1.3853555050e+01    0.3116285    0.1856741  26.13  0.001691045    1.801    0.445
        10 -11.3177      7.9472    218.5576   1.4464518440e+02   2.9867650595e+01    0.1723154   0.09762353 -52.69  0.001201139    3.043    0.671
        11 -10.6935    176.5673    188.2264   1.1148992865e+02   1.2752484648e+01    0.1981664    0.1211765 -44.30 0.0008219249    1.991    0.498
        12 -10.9281    184.3508    186.8437   1.0983464624e+02   1.1630523989e+01    0.1673932    0.1627562 -76.17 0.0006483092    1.384    0.277
        13  99.0000     26.0612    206.6010   1.4121972736e+02   3.0187693450e+01    0.2680568    0.1746978  67.77   0.00215098    1.142    0.124
        14 -12.9945    206.5536    180.0544   1.0466784492e+02   8.7329429676e+00    0.7775254    0.3360777  34.01  0.002901708    2.141    0.533
        15 -12.7252    196.7056    172.5076   1.0508519686e+02   1.1445194333e+01    0.6667429    0.3834582 -46.51   0.00267912    2.320    0.569
        16 -13.4775    137.2105    171.5348   1.1649600535e+02   2.1953814333e+01    0.7244596    0.3569379  47.80   0.00316337    1.875    0.467
        17 -10.9233    223.9762    164.4252   9.8693652074e+01   7.6623234426e+00    0.2130653    0.1712413 -36.50 0.0005834988    1.557    0.358
        18 -10.8464     25.1410    165.6223   1.3905684396e+02   3.7625705714e+01    0.1937278    0.1662114  15.91  0.001005059    1.692    0.409
        19 -12.0620     24.6874    156.7833   1.3853971745e+02   3.9391698718e+01    0.4767336    0.2405403  48.83  0.002031269    1.769    0.435
        20 -11.2095     28.7258    151.8158   1.3731041736e+02   4.0025260686e+01    0.2841496    0.1325548  71.64  0.001038082    2.212    0.548
        21 -11.3702    237.2369    159.2110   9.5415861910e+01   5.9656818651e+00    0.1595413     0.150322  13.08  0.001068637    1.364    0.267
        22 -10.6529    179.0985    206.1179   1.1374541676e+02   9.9537402766e+00    0.1712235    0.1309609  25.30  0.001162036    1.157    0.136
        23 -11.7476    162.6727    154.5637   1.0834378377e+02   2.0350212356e+01    0.3830183    0.3021013  80.99  0.002077767    1.830    0.454
        24  -9.5287    144.3001    156.6217   1.1254416654e+02   2.3319376772e+01    0.1321203      0.10164  81.14 0.0007025175    1.763    0.433
        25 -13.6201    133.2537    145.3885   1.1289793089e+02   2.7306814313e+01    0.9107056    0.5014585 -59.25  0.004117536    2.235    0.553
        26 -10.7282     16.5241    150.1079   1.3979392236e+02   4.1407049637e+01    0.1894816    0.1285272  54.62 0.0007183776    1.347    0.258
        27 -10.8526    174.6599    148.9155   1.0480273952e+02   1.9025511625e+01    0.2349944    0.2157473  78.60   0.00079473    1.373    0.272
        28 -12.3926    144.4767    145.5867   1.1047036321e+02   2.5256124487e+01    0.3953114    0.2790158  63.25   0.00203368    1.714    0.417
        29 -12.9015    105.0364    138.5355   1.1812964538e+02   3.3379685284e+01    0.4523482    0.2788273  57.56  0.001160604    1.781    0.438
        30 -11.6799      4.1570    140.2094   1.4181843613e+02   4.4326627813e+01    0.2166967    0.1555822 -70.36 0.0007352904    1.347    0.258
        31 -12.6409    115.0027    138.4643   1.1577999620e+02   3.1777152768e+01    0.4845304    0.3192807 -36.94  0.002476469    1.832    0.454
        32 -10.8627     32.5362    206.4405   1.4011389501e+02   2.9596771077e+01    0.1714492   0.08210681  44.18 0.0006044665    1.689    0.408
        33 -12.2598    106.0286    130.8405   1.1651602425e+02   3.4793173649e+01    0.3646019    0.3113518 -76.97    0.0013183    1.201    0.167
        34 -11.4476    108.3285    125.3931   1.1491626104e+02   3.5541422855e+01    0.2635171    0.2322228 -31.53 0.0006910555    1.272    0.214
        35 -11.6886     30.8477    133.1632   1.3519815805e+02   4.3695025082e+01    0.1802652    0.1309672  75.28 0.0006718796    1.215    0.177
        36 -12.3754    119.2850    129.5227   1.1307266715e+02   3.2837482796e+01    0.3917122     0.339021 -47.32  0.001204501    1.189    0.159
        37 -12.7654    125.4339    127.3278   1.1116398033e+02   3.2189246784e+01    0.6351726    0.4092315  82.46  0.002607944    2.899    0.655
        38 -12.8856      3.0091    126.5280   1.4120753787e+02   4.7221489065e+01    0.6854382    0.1975686 -83.26  0.003079711    3.011    0.668
        39 -12.6960    135.5948    122.4824   1.0772543592e+02   3.1264195786e+01    0.7507058    0.2576306 -50.06  0.002586461    3.234    0.691
        40 -11.3729    160.6142    127.9791   1.0329349418e+02   2.5337298381e+01    0.3751182    0.2456502 -54.01  0.001589264    1.860    0.462
        41 -11.3819    113.6328    118.6233   1.1221921236e+02   3.6042801857e+01    0.2459923    0.2270514  74.36 0.0004778176    1.112    0.101
        42 -12.4577     27.3385    118.3102   1.3454535798e+02   4.7196150784e+01     0.379203    0.2294988 -20.99   0.00199943    3.046    0.672
        43 -12.2539      2.4532    112.6686   1.4034449258e+02   5.0192668458e+01    0.4709485    0.1485534 -74.91  0.002312845    2.368    0.578
        44 -11.6536      8.9182    111.4404   1.3859924600e+02   5.0055695889e+01    0.3717708    0.1904584  -0.55  0.001910866    3.717    0.731
        45 -11.3243    167.8309    113.3432   9.8283532114e+01   2.6442377396e+01    0.3690849    0.3066647  83.99  0.001346306    1.641    0.391
        46 -11.3168    134.7213    106.1513   1.0411033133e+02   3.4640836438e+01    0.4715291     0.128743 -43.99   0.00143803    3.655    0.726
        47 -12.9160     85.4731    109.2325   1.1761086261e+02   4.2580941790e+01    0.4594279     0.292965 -55.66  0.002387153    1.466    0.318
        48 -10.9173    205.4634    110.1618   8.9964223896e+01   1.8839213896e+01    0.3214604    0.1964447  38.14  0.001018985    1.606    0.377
        49 -10.1961    121.4879     79.4633   1.0027459410e+02   4.2605727848e+01    0.1469221    0.1411677 -31.64 7.690796e-05    1.033    0.032
        50 -11.6346     13.2993    245.3887   1.4471290967e+02   2.5388687546e+01    0.3115253   0.06321447 -71.21  0.001701343    4.695    0.787
        51 -12.2310    137.9734    198.1350   1.2013339331e+02   1.7550076811e+01     0.552511    0.2616943  58.06  0.002530182    2.879    0.653
        52 -12.9522    174.1496     29.5730   7.1647231066e+01   3.8104452258e+01    0.5145105    0.3848056   6.84  0.001283793    1.446    0.309
        53 -11.0331     14.1339     59.1514   1.3026232377e+02   6.1397186846e+01    0.2886201    0.1790741 -37.96  0.001519762    1.682    0.405
        54 -10.6600      5.0278    199.3068   1.4443528500e+02   3.3250899976e+01    0.1183908    0.0822208  55.20 0.0009993756    1.212    0.175
        55 -10.6078    133.0726     29.5020   7.9791143811e+01   4.8602765866e+01     0.329373     0.157771  65.77  0.001190639    2.707    0.631
        56 -12.7305    159.0026    235.7735   1.2097947517e+02   9.3352570309e+00    0.3141039    0.2252006  29.97  0.001377383    1.244    0.196
        57 -10.7434    175.1756    194.2228   1.1268207543e+02   1.2157026690e+01    0.1923026    0.1561794 -88.27 0.0006710648    1.973    0.493
