#   1 NUMBER                 Running object number                                     
#   2 MAG_AUTO               Kron-like elliptical aperture magnitude                    [mag]
#   3 X_IMAGE                Object position along x                                    [pixel]
#   4 Y_IMAGE                Object position along y                                    [pixel]
#   5 X_WORLD                Barycenter position along world x axis                     [deg]
#   6 Y_WORLD                Barycenter position along world y axis                     [deg]
#   7 A_WORLD                Profile RMS along major axis (world units)                 [deg]
#   8 B_WORLD                Profile RMS along minor axis (world units)                 [deg]
#   9 THETA_WORLD            Position angle (CCW/world-x)                               [deg]
#  10 FWHM_WORLD             FWHM assuming a gaussian core                              [deg]
#  11 ELONGATION             A_IMAGE/B_IMAGE                                           
#  12 ELLIPTICITY            1 - B_IMAGE/A_IMAGE                                       
         1 -16.3891    190.7893    153.3053   4.8123558250e+01   1.4930107529e+01     11.72072     7.646719 -80.31   0.05095383    3.163    0.684
         2 -16.7591    175.1809     86.9524   3.7307173231e+01   2.9691718991e+01      3.64198     2.255216 -54.19   0.01960743    1.515    0.340
         3 -15.8918    248.1603     62.3550   2.4464629168e+01   2.0710418498e+01     2.364943     1.123988 -29.35   0.01108494    4.180    0.761
         4 -16.4092    234.3247     58.8029   2.4986293683e+01   2.3318886133e+01     3.191245     1.556202 -53.54   0.01988818    1.600    0.375
         5 -17.4489    248.3490     23.9897   1.8317333277e+01   2.5343038278e+01      13.3302     2.059716 -36.74   0.03797036   10.956    0.909
         6 -15.9139    237.3897      4.1903   1.5769845168e+01   2.9181939117e+01     2.519234    0.9768346  62.91   0.01537307    3.119    0.679
         7 -17.0440    242.3807     73.7673   2.6830992022e+01   2.0043471894e+01     5.230977       1.4969  50.07   0.02052366    6.612    0.849
         8 -11.0861    155.1495     14.6593   2.3702032007e+01   4.3553056239e+01    0.2296802    0.1659599 -26.27 0.0007073787    1.855    0.461
         9 -10.7443    133.0000    142.9800   5.8279330760e+01   2.6811790044e+01    0.4246726     0.188676 -53.06  0.001384351    2.328    0.570
        10 -12.1039    147.0065    143.4788   5.5030318626e+01   2.4187843012e+01    0.2836277    0.2062268 -65.23  0.001303986    1.604    0.377
        11 -12.1591    209.4364    142.2966   4.2977618523e+01   1.4161048302e+01    0.2579093    0.2109861 -31.88 0.0009616067    1.177    0.150
        12 -12.6380    224.0845    128.2964   3.8342219048e+01   1.4433500308e+01    0.3743506    0.2161427 -55.66  0.002134969    1.642    0.391
        13 -14.2457     15.4793    145.8546   9.6919191249e+01   4.3022880338e+01      1.23874    0.5971775 -82.42  0.004856423    2.315    0.568
        14 -13.0227    205.7583    151.3781   4.5222619974e+01   1.3070788299e+01    0.4580063    0.3455889 -89.83  0.002592393    2.080    0.519
        15 -11.3256    218.9893    122.5406   3.7988271327e+01   1.6142942269e+01    0.1567728    0.1199687  53.89  0.001029024    1.588    0.370
        16 -13.0217    183.9240    212.1035   5.9885356216e+01   4.6895856060e+00    0.5383645    0.2176757  15.52  0.001894174    4.258    0.765
        17 -12.0735    164.5332    149.7281   5.2484282220e+01   1.9840645476e+01    0.2510808    0.2289162  76.29 0.0008229939    1.294    0.227
        18 -11.0378    206.5392    103.5095   3.6117213055e+01   2.1278928908e+01    0.2130363    0.1482696 -20.25  0.001162265    2.202    0.546
        19 -13.1868    204.5321    110.2501   3.7683642030e+01   2.0491263034e+01    0.4427327    0.3355522  50.83  0.002503644    1.557    0.358
        20 -12.4053    201.1518    106.1705   3.7373305571e+01   2.1744671660e+01    0.2765606    0.2290786  73.94  0.001140508    1.337    0.252
        21 -10.3260    109.1848    109.6184   5.6920443665e+01   3.8732012437e+01    0.2099266    0.1396849  31.60  0.000539471    1.629    0.386
        22 -10.5258    132.4480    138.4883   5.7449395773e+01   2.7914357761e+01    0.3064273    0.1432012 -50.00 0.0009897995    2.105    0.525
        23 -14.5692      4.5424    152.5058   1.0150435924e+02   4.1964148453e+01     1.201797    0.6355082 -71.67  0.004363612    1.734    0.423
        24 -13.7104     65.4775    137.9814   7.7532358745e+01   3.9559906124e+01     2.142711       1.5531  64.06  0.009534969    1.749    0.428
        25 -13.6187     50.4263    138.6093   8.3026739609e+01   4.1451604922e+01    0.7601227    0.5345172 -72.94  0.001980755    1.569    0.363
        26 -12.7141    181.9581     65.7087   3.1794111981e+01   3.1676987327e+01    0.4467123    0.2009268 -45.44  0.001262493    2.015    0.504
        27 -11.8382    181.5920     59.7822   3.0589657649e+01   3.2601142007e+01    0.2242658    0.1721776 -68.48 0.0005738485    1.136    0.120
        28 -12.2710    158.2266     65.7788   3.5248078054e+01   3.6474949605e+01    0.3022448    0.2198579 -32.74 0.0008584901    1.637    0.389
        29 -11.2512    209.8981     62.3181   2.7877672113e+01   2.6955148096e+01    0.2873304    0.1424849 -44.08  0.001631467    1.756    0.431
        30 -14.0619     34.9326    142.5287   8.9362870912e+01   4.2181030554e+01    0.9378611    0.5032073  13.62  0.001435185    2.024    0.506
        31 -12.5646    193.4577     58.7779   2.8962696912e+01   3.0453272006e+01    0.3944687    0.2957896  71.23  0.002640299    1.351    0.260
        32 -11.7756    216.1400     57.7767   2.6419401160e+01   2.6483136186e+01    0.3026381    0.1505409 -43.42  0.001374279    1.756    0.431
        33 -10.9284    215.7174     53.3159   2.5641915513e+01   2.7150224551e+01    0.1803461    0.1459954  89.97 0.0005355863    1.208    0.172
        34 -11.4475    199.0942     46.6854   2.5971150514e+01   3.1013128161e+01    0.2882392    0.1631755 -59.46  0.001743206    1.541    0.351
        35 -11.3384    181.6396     42.2724   2.6898878708e+01   3.4938916527e+01    0.3735912    0.1988043 -28.02  0.001204857    2.729    0.634
        36 -11.3465    204.9538     46.1002   2.5294382951e+01   3.0007205366e+01    0.3140021    0.1845533 -64.08  0.001073756    1.487    0.328
        37 -14.5076     43.3270    139.7191   8.5818771196e+01   4.2017216009e+01     1.593317     1.020313  30.69  0.002871229    1.545    0.353
        38 -12.3642    159.4307     37.7216   2.8541194978e+01   4.0064344343e+01    0.2362596    0.2225121  33.35 0.0009463534    1.471    0.320
        39 -11.2462    134.0000    148.5164   5.9200473233e+01   2.5389940872e+01     0.490276    0.2014897 -52.02  0.001775167    2.458    0.593
        40 -10.8213    190.3790     36.0802   2.4727769281e+01   3.3995980613e+01    0.2295718    0.1572406  86.21  0.001190711    1.294    0.227
        41 -12.5172    147.4294     36.1643   2.9797442195e+01   4.2826389773e+01    0.2395468    0.1822167  50.29   0.00125545    1.501    0.334
        42 -13.0003    143.7085     27.9999   2.8301646351e+01   4.4593431777e+01    0.4755571    0.1690082 -36.75  0.002159725    2.928    0.658
        43 -11.9810    125.6496     26.3397   3.0574644171e+01   4.8770870626e+01    0.2251733    0.1923828  64.74 0.0005862223    1.147    0.128
        44 -10.3234    194.0116     18.7350   2.0992459005e+01   3.5288399009e+01    0.1495089    0.1090182 -81.90  0.001090424    1.079    0.073
        45 -12.3812    217.6784    144.2072   4.2084485363e+01   1.2643121058e+01     0.450023    0.2960358 -82.51  0.002226908    2.957    0.662
        46 -10.4618    189.7915     15.1293   2.0623014346e+01   3.6480871257e+01    0.1726265    0.1154354 -71.06 0.0008523381    1.195    0.163
