#   1 NUMBER                 Running object number                                     
#   2 MAG_AUTO               Kron-like elliptical aperture magnitude                    [mag]
#   3 X_IMAGE                Object position along x                                    [pixel]
#   4 Y_IMAGE                Object position along y                                    [pixel]
#   5 X_WORLD                Barycenter position along world x axis                     [deg]
#   6 Y_WORLD                Barycenter position along world y axis                     [deg]
#   7 A_WORLD                Profile RMS along major axis (world units)                 [deg]
#   8 B_WORLD                Profile RMS along minor axis (world units)                 [deg]
#   9 THETA_WORLD            Position angle (CCW/world-x)                               [deg]
#  10 FWHM_WORLD             FWHM assuming a gaussian core                              [deg]
#  11 ELONGATION             A_IMAGE/B_IMAGE                                           
#  12 ELLIPTICITY            1 - B_IMAGE/A_IMAGE                                       
         1 -15.1641    174.3632     71.3768   7.6295025518e+01   3.2084856623e+01      7.98793     4.381813 -63.77   0.01444185    3.677    0.728
         2 -15.4206    243.0899    123.1481   7.7567932111e+01   8.7638377451e+00     9.873113      5.08118 -29.80   0.04673679    1.864    0.463
         3 -15.4100    211.8801     67.9278   6.8558789330e+01   2.3320543902e+01     6.619114     3.191292 -55.42   0.02200837    3.454    0.710
         4 -14.5624    240.2985     82.4231   6.8136449207e+01   1.4679628386e+01     2.758179     1.605134 -37.23   0.01295437    1.672    0.402
         5 -16.3217    240.5658     25.6261   5.3010974754e+01   2.1519825121e+01     6.481647     1.589115  55.56   0.02154521    3.685    0.729
         6 -13.9311    249.2752      3.2070   4.6321580665e+01   2.1685764143e+01    0.7125697    0.4840914  10.80  0.003698934    1.872    0.466
         7 -14.7486    232.4298      5.8339   4.8389243716e+01   2.5517795434e+01     1.494611     1.353703  -9.79  0.008849483    1.164    0.141
         8 -12.7933    215.5708      9.7042   5.1091561182e+01   2.9421598921e+01     1.100845    0.7152822 -13.35  0.003535822    1.645    0.392
         9 -12.9541    207.9134      5.4089   5.0609784411e+01   3.1824154384e+01     1.997642    0.9117543  15.44  0.001613329    4.222    0.763
        10 -10.9667    159.1680     27.2879   6.4792390169e+01   4.2414174889e+01     0.697386    0.3696185 -37.93  0.002886901    1.907    0.476
        11 -11.7784    133.7184     17.7584   6.6283125083e+01   5.0069365747e+01    0.7319921    0.6006542  27.24  0.002521021    1.199    0.166
        12  -9.9623    159.7220     14.0576   5.9911498701e+01   4.3805922068e+01     0.311367    0.2361731 -27.44 0.0006863071    1.335    0.251
        13  -9.7047    115.7929     12.4255   6.8172785990e+01   5.5014345043e+01    0.3327258    0.2351365  52.52  0.001333276    1.400    0.286
        14 -11.3051    120.2410      8.9560   6.5623275813e+01   5.4361204182e+01    0.5929315    0.4438193 -27.83  0.001809398    1.342    0.255
        15  -9.2954    195.4574     10.6285   5.3627324431e+01   3.4615307434e+01    0.3466889    0.1952982 -53.31  0.001475801    2.005    0.501
        16  -9.4050    129.0401      8.7955   6.3624834110e+01   5.2241303187e+01    0.4406764    0.1833822 -21.06  0.001692141    2.442    0.591
        17 -10.8938    188.8972      6.5368   5.3113795789e+01   3.6761672210e+01    0.3969599    0.2329952 -26.73 0.0007139731    1.690    0.408
        18 -10.2742    182.8054      4.4006   5.3166934018e+01   3.8593279912e+01    0.5661244    0.2872864  64.65  0.001843729    1.833    0.454
        19  -9.7819    172.0292      2.4731   5.3913103715e+01   4.1660526105e+01    0.3408485    0.1868472 -29.85  0.001227136    1.817    0.450
        20  -8.9970    135.5158      2.2951   5.9652425582e+01   5.1269602329e+01    0.2385458    0.1970882  14.12 0.0006704066    1.199    0.166
        21  -8.5091    166.5578    159.4593   9.9001204956e+01   1.8766180448e+01    0.1319325    0.1175645  41.04 8.088015e-05    1.003    0.003
        22 -10.8659    213.4844    167.2604   9.1757861839e+01   8.7497831049e+00    0.5468982    0.3076248  64.20  0.002266985    3.389    0.705
        23 -11.9169    239.1498    244.3086   9.9898344945e+01  -3.4911773761e+00    0.1945596     0.150895  32.25 0.0001674382    1.252    0.202
        24 -10.0975    151.3331    221.4612   1.1095165897e+02   1.2217829675e+01    0.1973515    0.1587555  42.12 0.0003048621    1.089    0.082
        25 -10.8188     36.7157    214.7374   1.2974653549e+02   2.8483988281e+01    0.3062498    0.1272552  33.59  0.001789785    2.818    0.645
        26  -9.9928    194.9730    198.6992   1.0036336011e+02   8.0247114813e+00    0.3279265    0.2665415  53.49  0.001635469    1.345    0.257
        27 -13.7366    249.3131     46.8113   5.7707843322e+01   1.7068413353e+01    0.8609051    0.7566642 -87.64  0.002645402    1.284    0.221
        28 -13.5521    248.1159     38.5167   5.5660926528e+01   1.8301342547e+01    0.5190507    0.4218217 -42.02 0.0006952574    1.170    0.146
        29  -9.5815    191.7312    192.6064   9.9970840118e+01   9.3543229443e+00    0.4147335    0.2470091 -63.20  0.001889991    3.774    0.735
        30  -9.1857    159.7142    158.5191   1.0018554766e+02   2.0212217367e+01    0.2245265    0.1657854 -74.02  0.001193492    1.887    0.470
        31 -10.0934    213.4137    155.1146   8.9413106188e+01   1.0378486037e+01    0.2277322    0.2060886  24.97 0.0003631014    1.096    0.088
        32 -10.6674    191.8578    152.0467   9.2718219368e+01   1.5022893869e+01    0.4879646    0.2731419 -54.45  0.002134837    2.738    0.635
        33  -9.7146    203.6953    152.4484   9.0614638144e+01   1.2636932032e+01    0.2395161    0.2146589 -39.21 0.0009553121    1.310    0.237
        34 -10.4473    133.6888    145.7479   1.0327380852e+02   2.7302223312e+01    0.9471766    0.2409002 -54.68  0.002690275    5.761    0.826
        35  -9.4762    151.9397    149.5546   1.0011869704e+02   2.3214220239e+01    0.2229428     0.194775 -64.22 0.0004154839    1.280    0.219
        36  -8.5547    219.2441    149.2260   8.7198779426e+01   1.0046095636e+01     0.163699    0.1499185  55.39 0.0003484317    1.326    0.246
        37 -11.4947    178.8632    144.5153   9.3693503582e+01   1.8785894282e+01     0.588052    0.3993877 -60.75  0.002874058    2.075    0.518
        38 -10.5991    174.1529    137.6056   9.3194796252e+01   2.0877122358e+01    0.3560811    0.2444891 -56.52  0.001420378    1.837    0.456
        39 -13.4644     12.0140    187.6966   1.3252758846e+02   3.5443120911e+01    0.7750774    0.5148604  71.12  0.003687632    1.075    0.070
        40  -9.1031    222.4541    145.3271   8.5833535650e+01   9.9430568700e+00    0.1960556    0.1592845  64.94 0.0002914642    1.621    0.383
        41 -10.7446    198.8102    144.4628   8.9874791964e+01   1.4772728768e+01    0.2662556    0.2487283  47.58  0.001635372    1.172    0.147
        42 -11.6388    188.6179    138.8268   9.0610326669e+01   1.7711372334e+01    0.4656015    0.4049256  37.42  0.001743992    1.060    0.057
        43 -11.5634    157.4192    140.6193   9.7245551383e+01   2.3724956199e+01    0.8703406    0.5339052  82.14   0.00313188    3.930    0.746
        44 -10.1233    149.9996    140.5254   9.8788281112e+01   2.5193550761e+01    0.2725124    0.2072367  74.78 0.0008273471    1.616    0.381
        45 -10.4273    145.8070    136.2242   9.8828218917e+01   2.6792112830e+01    0.4397539    0.2667336 -78.60  0.001665502    3.451    0.710
        46  -8.3939    142.6444    141.7078   1.0058958127e+02   2.6388064827e+01    0.1354455    0.1060569  12.90 0.0004694342    1.686    0.407
        47 -10.1160    192.0312    144.0688   9.1062558957e+01   1.6200477622e+01     0.272772    0.1852319  51.61 0.0004739215    1.466    0.318
        48 -11.3342    166.5484    136.3420   9.4474040916e+01   2.2642075066e+01    0.5640117    0.2838636 -47.73  0.001410989    2.239    0.553
        49 -10.3249    160.8454    136.3601   9.5659076478e+01   2.3792204916e+01    0.3404407    0.1886567 -43.87  0.001329094    1.936    0.483
        50 -11.2888    159.8660    128.9853   9.4295385518e+01   2.5299281571e+01    0.5176849    0.3917935 -14.64  0.002633692    1.681    0.405
        51 -10.9993    135.5555    125.4994   9.8888776270e+01   3.0806152153e+01    0.9722587    0.3086306 -52.88  0.003126163    3.904    0.744
        52  -9.9661    131.7166    119.5513   9.8494042955e+01   3.2708194130e+01    0.4040587    0.2411943 -66.18   0.00168628    2.285    0.562
        53 -10.2583    152.2713    125.4175   9.5147647670e+01   2.7500496934e+01    0.6927512    0.2757992 -53.17  0.002398075    3.375    0.704
        54  -8.6066    146.4839    128.4861   9.7078476809e+01   2.8095879989e+01     0.140153    0.1306611  67.99 0.0003224784    1.078    0.072
        55 -10.3079    211.0431    123.8037   8.3092450750e+01   1.5304158346e+01    0.3365734    0.2220189  -9.46  0.001444519    1.789    0.441
        56 -10.0052    140.4809    121.2141   9.6844140804e+01   3.0666477944e+01    0.3855639    0.2426912  82.45  0.001478095    3.101    0.677
        57 -11.5670    167.1928    114.1459   8.9343096938e+01   2.6395285830e+01    0.5523058    0.4936698 -33.80  0.000935402    1.155    0.134
        58 -10.4134    157.4400    113.7198   9.1337005259e+01   2.8573389911e+01    0.5662754    0.3418139 -66.79  0.002200719    2.811    0.644
        59  -9.4113      4.6635    116.7038   1.2966679453e+02   4.9791982847e+01    0.1033424    0.0689548 -54.52 0.0003426435    1.651    0.394
        60 -10.7619    134.9935    108.8690   9.5287796015e+01   3.4162817128e+01     1.041025    0.2754352 -44.11  0.003181429    3.859    0.741
        61  -9.9657    126.6930    110.6190   9.7681391364e+01   3.5453847411e+01    0.4303898    0.2294276 -54.78  0.001705565    2.030    0.507
        62  -9.5215    204.5147    189.8610   9.7308274263e+01   7.4826020033e+00    0.2478429    0.1483771  56.64  0.001312773    2.051    0.512
        63 -12.3252     34.7540    182.6463   1.2816241253e+02   3.4194165552e+01    0.8037037    0.3683339  64.36   0.00485475    1.921    0.479
        64  -9.3977    141.4431    104.6585   9.2747910989e+01   3.3659626443e+01    0.2402883    0.1698892  28.04 0.0006823625    1.688    0.407
        65 -10.6149    124.8470    103.0333   9.6338246064e+01   3.7337214208e+01    0.5372444    0.3390501  62.83  0.002414565    1.959    0.490
        66 -10.1305    147.7230    100.6181   9.0272857977e+01   3.3098211299e+01    0.3181063     0.296575  73.07 0.0006200949    1.130    0.115
        67 -11.8434      4.2611     95.0074   1.2782142692e+02   5.4413624690e+01    0.4952216    0.3683888 -61.80  0.003659963    1.286    0.222
        68 -10.0838    133.6941     96.0880   9.2420984304e+01   3.6937908864e+01    0.4857486    0.2389389 -56.34  0.001429743    2.626    0.619
        69 -11.0350    157.5816     93.7293   8.6230628318e+01   3.2198316668e+01    0.6032128    0.5772045  32.03  0.003361152    1.030    0.029
        70 -12.0564    155.7267     84.1208   8.3984700772e+01   3.4357390699e+01    0.5444934    0.4149204  50.84 0.0007485017    1.315    0.239
        71 -11.9580      6.4155     81.9871   1.2575726721e+02   5.7092588940e+01    0.4850884    0.3600569 -30.93  0.003449311    1.732    0.423
        72 -10.4360    141.1243     90.4524   8.9129954904e+01   3.6453125517e+01    0.3819939    0.2877521 -39.42 0.0007077963    1.328    0.247
        73 -12.8388    192.5694     71.9992   7.3007183188e+01   2.7488477178e+01     1.091023    0.7512015  39.11  0.004519066    1.500    0.333
        74  -8.8460    125.7343     76.5842   8.9011247762e+01   4.2401693380e+01    0.2056695     0.141743  59.78  0.000950011    1.658    0.397
        75 -11.9707     28.9119    174.2434   1.2869441119e+02   3.6321431664e+01    0.3708954    0.2627986  67.65  0.002420027    1.102    0.093
        76 -10.1403    151.8810     72.3525   8.1392086217e+01   3.7343666627e+01    0.4656737    0.2834506 -49.68  0.001976433    1.831    0.454
        77  -8.2758    116.1800     73.1649   9.0513923784e+01   4.5029349900e+01    0.1852861    0.1656703 -74.20 0.0002977331    1.241    0.194
        78 -11.7309      8.8233     68.3760   1.2314391658e+02   5.9904261594e+01    0.3569619    0.2831596 -37.51  0.002618978    1.445    0.308
        79 -11.3530    107.1728     57.9161   8.8195497333e+01   4.9758650761e+01     0.463914    0.3045948  32.21   0.00218802    1.751    0.429
        80 -10.5714     97.9103     60.1554   9.1644555874e+01   5.1096745299e+01    0.3507734     0.298794 -78.46  0.001168778    1.430    0.301
        81  -8.3143    100.5554    162.9719   1.1309606824e+02   2.9587358099e+01    0.1515077    0.1155718 -64.71 8.921086e-05    1.370    0.270
        82  -8.6363     72.5641     58.1055   9.8998542945e+01   5.5715648077e+01    0.1994135    0.1188029 -50.67 0.0006367295    1.509    0.337
        83 -10.5956      2.4859     54.5074   1.2312531021e+02   6.3234576298e+01    0.2494953   0.08483268 -70.38  0.001220831    2.201    0.546
        84  -8.8035     82.8491     51.2973   9.3397566299e+01   5.5462106939e+01    0.2411786    0.1685764 -51.74 0.0007035025    1.413    0.292
        85 -10.4812    106.8969     36.2697   8.0435512455e+01   5.3626797969e+01    0.2540619    0.1863894 -41.36 0.0006799583    1.368    0.269
        86 -11.9190     24.9898    167.5097   1.2899670633e+02   3.7960927263e+01    0.4368478     0.292965  89.14   0.00323164    1.200    0.166
        87 -10.4299    132.9994     24.2085   6.8995286019e+01   4.9438794250e+01    0.3350402    0.2602211 -52.21  0.001681774    1.493    0.330
        88 -10.9763    223.1749    174.4943   9.1444159538e+01   6.0782870376e+00    0.6384656    0.2937849 -24.04  0.003005034    2.594    0.614
        89  -9.6542    108.5441     22.0034   7.4157988910e+01   5.5424448816e+01     0.218631    0.1331245 -27.11 0.0006003922    1.578    0.366
        90  -8.1835    190.6495     15.2822   5.5726491034e+01   3.5424935583e+01    0.1537597    0.1067551 -63.35 0.0007015734    1.652    0.395
        91 -10.3475    228.2512    172.5735   9.0239660634e+01   5.4046585555e+00    0.3527021    0.1400212  39.91  0.001281668    2.183    0.542
        92  -8.6262    101.0157    175.9873   1.1469644947e+02   2.7113545395e+01    0.1595234    0.1342937  63.48  0.001091868    1.020    0.020
        93 -10.6210    235.4314    174.3931   8.9394869831e+01   3.9264844667e+00    0.3230129     0.219236  44.05  0.001140293    1.420    0.296
        94  -9.5055    201.1159    173.6909   9.5116828717e+01   1.0178787608e+01    0.2894722    0.2077964  14.44  0.001612661    1.507    0.337
        95 -11.7378     68.5873    146.9631   1.1791638739e+02   3.7236456923e+01     1.356777    0.9679551 -55.33  0.006284274    1.544    0.352
        96 -12.6911     43.2959    167.8587   1.2542080440e+02   3.6060654746e+01    0.5749959    0.4055423  84.90  0.001673887    1.170    0.145
        97 -12.5483     49.9129    163.7633   1.2372783790e+02   3.6125765362e+01    0.6862544    0.4385776  78.30  0.002548337    1.393    0.282
        98 -12.4450     55.2832    159.4545   1.2220262150e+02   3.6355640863e+01    0.6632626    0.4063654  78.28  0.001658262    1.555    0.357
        99 -10.8415    230.6765    167.5737   8.8895576699e+01   5.5695955971e+00    0.2989933     0.241519 -20.02  0.001557562    1.310    0.236
