#   1 NUMBER                 Running object number                                     
#   2 MAG_AUTO               Kron-like elliptical aperture magnitude                    [mag]
#   3 X_IMAGE                Object position along x                                    [pixel]
#   4 Y_IMAGE                Object position along y                                    [pixel]
#   5 X_WORLD                Barycenter position along world x axis                     [deg]
#   6 Y_WORLD                Barycenter position along world y axis                     [deg]
#   7 A_WORLD                Profile RMS along major axis (world units)                 [deg]
#   8 B_WORLD                Profile RMS along minor axis (world units)                 [deg]
#   9 THETA_WORLD            Position angle (CCW/world-x)                               [deg]
#  10 FWHM_WORLD             FWHM assuming a gaussian core                              [deg]
#  11 ELONGATION             A_IMAGE/B_IMAGE                                           
#  12 ELLIPTICITY            1 - B_IMAGE/A_IMAGE                                       
         1 -11.5651      6.2672     36.7719   1.2984001980e+02   6.7908062564e+01     2.218394     1.187938  70.95  0.007539331    7.995    0.875
         2 -11.7736     46.3002     61.4394   1.2052565892e+02   5.9591887494e+01     2.185849    0.4655014 -52.75  0.007364498    3.710    0.730
         3 -13.0787     21.5677     31.3581   1.2107091110e+02   6.7897497418e+01    0.9510258    0.6963498  27.19  0.001985858    1.641    0.391
         4 -11.7833     50.4631      5.0058   9.5964657195e+01   6.8655904162e+01    0.8305716    0.5841032  46.26  0.003443388    1.726    0.421
         5 -10.9378     39.6452      4.2143   1.0030514482e+02   7.0296592448e+01    0.5149527    0.3251741 -11.76  0.002180425    1.476    0.323
         6 -12.6935      6.5919      5.8601   1.1834938968e+02   7.3448266570e+01     1.000987    0.7680846 -13.54   0.00775505    1.176    0.150
         7 -13.0131     28.2600      6.5687   1.0704171113e+02   7.1368119291e+01     1.037369    0.6100284 -28.89   0.00151358    1.408    0.290
         8 -11.6903     18.9384     10.6278   1.1384361718e+02   7.1692371026e+01    0.7427402    0.5471275  67.75  0.002707787    3.747    0.733
         9 -12.0287     26.0819     48.9383   1.2480332489e+02   6.4122681702e+01    0.6598501    0.4475355 -74.60 0.0006396064    1.834    0.455
        10 -11.0510     87.0909     41.1470   9.8708963881e+01   5.7307808599e+01     1.278507    0.4777855 -33.04  0.004055432    2.780    0.640
        11  -9.7368     82.7093      3.9622   8.3901725517e+01   6.3071892597e+01    0.5479508    0.2607804 -19.55  0.002094004    2.147    0.534
        12  -9.8976     96.5552     27.5786   9.0244840126e+01   5.7475573341e+01    0.4692055    0.3271162   1.49  0.001545814    1.631    0.387
        13 -12.1743     84.3297     18.2468   8.9996861278e+01   6.1155146134e+01     1.375806    0.9672623 -62.57  0.004716486    2.449    0.592
        14 -11.3999     71.4704     23.2625   9.6622220723e+01   6.2854218469e+01    0.9530711    0.3614139  41.94  0.004048376    2.637    0.621
        15 -10.7559     65.2902     17.1509   9.6102835721e+01   6.4746595369e+01     0.497015    0.4365312  -7.61  0.001963811    1.104    0.094
        16 -10.9496    113.8803     31.4815   8.6969994639e+01   5.3171917137e+01     1.355908    0.5995784 -17.86  0.004817931    3.204    0.688
        17 -11.0927    105.7942     22.8090   8.5651178834e+01   5.6113955183e+01    0.9286416    0.5990985 -54.78   0.00310404    2.199    0.545
        18 -11.1419    109.8779     16.1587   8.1851296005e+01   5.5976942750e+01    0.9843287    0.3730878 -22.51  0.003784624    2.881    0.653
        19 -10.0979    114.0576     15.6696   8.0628489324e+01   5.5068478628e+01    0.3271447    0.2612481 -16.93 0.0009093632    1.294    0.227
        20 -12.1085      5.7733     22.5417   1.2556428213e+02   7.0630580092e+01     0.668667    0.4517742 -35.94   0.00474764    1.154    0.133
        21 -10.2680    148.3062     18.3223   7.4513854095e+01   4.6337613499e+01    0.3966002    0.3133032   0.44  0.001427549    1.444    0.307
        22 -10.4607    144.4814     24.0825   7.7257219162e+01   4.6667925772e+01    0.4456026    0.3461939  -8.94 0.0009125273    1.437    0.304
        23  -9.2147    129.3209     17.7745   7.8017133083e+01   5.1185881631e+01    0.4733087    0.2604793  28.19   0.00199912    2.256    0.557
        24 -10.2243    188.2974     13.1276   6.6885775102e+01   3.6394112317e+01    0.6656096    0.3169107 -47.01  0.002813401    2.179    0.541
        25 -11.0948    176.6798      7.5050   6.6647405691e+01   4.0014313877e+01    0.3359954    0.3219065 -62.26  0.000538441    1.107    0.096
        26  -9.9200    139.8379     13.7879   7.4446244006e+01   4.8980267462e+01    0.5672083    0.3002225  89.31  0.002114804    3.054    0.673
        27  -8.8689    133.2271     10.7023   7.4559876615e+01   5.0950305457e+01    0.4331144    0.2596324 -67.70  0.001851036    2.521    0.603
        28  -9.0713    228.9832     10.4902   6.1947640258e+01   2.6311086628e+01    0.3167883    0.1675685 -80.94  0.001439748    2.063    0.515
        29  -9.8308    154.5838      9.9018   7.0551083619e+01   4.5575558815e+01    0.4556598    0.2737063  87.78  0.001672042    1.949    0.487
        30 -10.0853    202.2616      7.5760   6.3732520420e+01   3.3331843534e+01    0.5146772    0.3770025  17.02  0.002655143    1.859    0.462
        31  -8.7808     69.0665      9.9782   9.1288523777e+01   6.5001482066e+01    0.1908815    0.1602691   2.77 0.0003736063    1.026    0.025
        32  -9.8707    245.3378      4.0431   5.9097933233e+01   2.3111296975e+01    0.4358476    0.2589141  46.06  0.002216534    2.238    0.553
        33  -9.0740    224.6203      4.7567   6.0896589611e+01   2.7984661016e+01    0.3234785    0.2504724 -29.71  0.001437421    1.393    0.282
        34 -10.7164    172.2380     13.9042   6.9232060649e+01   4.0544070630e+01    0.3276321    0.3129564 -53.93 0.0006488936    1.109    0.099
        35  -8.7834    155.3396      1.6975   6.7663730003e+01   4.6126772894e+01    0.2145402     0.189118 -75.86 0.0008469146    1.182    0.154
        36  -8.8160    239.9747      1.9980   5.9015495490e+01   2.4575956501e+01    0.2014104    0.1658884 -70.18 0.0006428597    1.020    0.020
        37  -8.1214    139.7679      1.7713   7.0093430670e+01   5.0115484792e+01    0.1887316    0.1555344 -67.99  0.001063034    1.375    0.273
        38  -9.2688    158.8321      3.1698   6.7657411037e+01   4.5091333495e+01    0.3516431    0.2748874  38.80   0.00148723    1.324    0.245
        39  -8.9323     99.7443    214.5148   1.3342581213e+02   1.8598544878e+01    0.3156734    0.1429659  53.71  0.001547046    1.951    0.487
        40  -8.5257     96.8355    250.1832   1.3744459692e+02   1.2958305525e+01    0.1681434    0.1148808  61.31 0.0004264634    1.148    0.129
        41 -10.0701     79.5726    212.4806   1.3711122444e+02   2.1982389873e+01    0.2377244     0.196564  84.28 0.0006159535    1.154    0.133
        42  -9.7640    166.5161    241.7191   1.2424037926e+02   3.3192762942e+00    0.3261365    0.2039272  40.29  0.002005158    1.254    0.203
        43  -9.3451    118.2539    212.5992   1.2958573746e+02   1.5985502678e+01    0.2410086    0.1561803  67.59 0.0009137131    1.609    0.378
        44 -10.5629      6.4687    208.5195   1.5024253749e+02   3.1355060722e+01    0.2807253    0.1875011  62.94 0.0008392049    1.169    0.145
        45 -11.9534     10.6711    207.0685   1.4944159324e+02   3.1233542539e+01    0.6131352    0.4227113  72.62  0.002801133    1.031    0.030
        46  -9.2996    121.6823    209.8565   1.2856183377e+02   1.5909873052e+01    0.2884828    0.1568383  48.03  0.001500918    1.540    0.351
        47 -10.2665    124.0033    206.0052   1.2759331188e+02   1.6218127146e+01    0.1847893    0.1535846  57.79  0.001161272    1.007    0.007
        48  -9.3735     46.2178    201.7789   1.4257250183e+02   2.8450308373e+01     0.436373    0.2674505 -33.36  0.001929864    4.899    0.796
        49 -11.4910    209.0120    200.3223   1.1010980077e+02   1.8395112634e+00    0.8481501    0.3756306 -38.56  0.003910986    2.526    0.604
        50  -8.8732    247.5111    201.3195   1.0352856373e+02  -4.8580113688e+00    0.2053654    0.1773134 -19.60 0.0006710826    1.309    0.236
        51  -8.3348    164.1005    201.8563   1.1896549531e+02   9.8127040043e+00    0.1937052    0.1643435  61.40  0.000459471    1.216    0.178
        52  -7.9066    233.4600    201.0972   1.0588025999e+02  -2.5177396382e+00    0.1631521    0.1164601 -25.61 0.0003017538    1.454    0.312
        53  -8.2524    114.0171    200.9722   1.2894674492e+02   1.8838698537e+01    0.1916993    0.1629637  61.66 0.0004696428    1.024    0.023
        54  -8.5672    139.0149    199.0149   1.2356609274e+02   1.4872101035e+01    0.1891416    0.1618578  55.91            0    1.024    0.024
        55  -9.6936    132.7456    198.8050   1.2481555563e+02   1.6026066132e+01    0.2670339    0.1852954  49.17            0    1.239    0.193
        56  -9.9668    175.4791    193.6101   1.1534059005e+02   9.0732030107e+00    0.6052949     0.365831 -58.82  0.002891722    2.311    0.567
        57  -8.9858    100.6196    196.9194   1.3117677078e+02   2.1810652740e+01    0.2076434    0.1665492  35.87 0.0004769763    1.417    0.294
        58  -8.8841    226.9653    193.3489   1.0559856461e+02  -3.6522453603e-01    0.1858851    0.1453017  29.37  0.000949033    1.121    0.108
        59  -7.9253     36.5528    193.5298   1.4379429176e+02   3.1220677142e+01    0.1149359   0.08885386  78.89 0.0003895477    1.049    0.046
        60  -8.9784    229.7180    189.9517   1.0447572401e+02  -3.8044374270e-01    0.3683932    0.2085864  50.21  0.001843041    1.976    0.494
        61 -10.3101    217.2023    188.6424   1.0647418164e+02   2.0494862689e+00    0.3652398     0.185917 -33.38  0.001746487    2.110    0.526
        62 -10.5518    211.5843    189.2256   1.0761584763e+02   2.9938262834e+00    0.2584828    0.2160278  28.85  0.000736678    1.052    0.049
        63  -8.5434    116.1527    189.8608   1.2697751234e+02   2.0631461478e+01    0.1987122    0.1602115  69.91 0.0004278059    1.154    0.134
        64  -9.3518     22.2083    188.5145   1.4621816983e+02   3.3755322968e+01    0.2182285    0.1970569 -43.07  0.001669045    1.735    0.423
        65  -9.2435    222.9934    188.0230   1.0530822915e+02   1.0885504129e+00    0.1878972     0.162057  17.34            0    1.012    0.012
        66 -11.0526    205.3843    183.2115   1.0763976802e+02   5.0697816300e+00    0.3278781     0.277536  15.09 0.0004812395    1.124    0.111
        67 -11.2471    208.4223    178.0607   1.0607082418e+02   5.2953283570e+00    0.3780128    0.3294212  59.05 0.0004672433    1.357    0.263
        68 -10.1025     61.7725    184.9112   1.3790170881e+02   2.9943061990e+01    0.2503585    0.2480738 -21.23 0.0007630352    1.475    0.322
        69  -7.4743     89.7320    185.3134   1.3200056236e+02   2.5867286212e+01     0.131724   0.08666436  73.79 0.0002014154    1.548    0.354
        70  -8.5128    190.7546    184.1512   1.1063080086e+02   7.7222903439e+00    0.2651938    0.1642636  21.76  0.001221654    2.027    0.507
        71  -9.1187    139.2935    184.0469   1.2116378921e+02   1.7622716667e+01    0.2387237    0.1783342  50.59 0.0003007552    1.194    0.163
        72  -9.4015     75.2104    182.2404   1.3474545620e+02   2.8665873428e+01    0.2105168    0.2001743  78.92 0.0004530775    1.275    0.216
        73  -8.0927    185.6865    182.3188   1.1128641166e+02   9.0087465185e+00    0.2300489    0.1300938  46.78 0.0008400169    1.633    0.388
        74  -8.8578    185.0449    178.9178   1.1077348030e+02   9.7102957706e+00    0.2341183     0.201221 -44.38  0.000436218    1.302    0.232
        75  -7.6534    111.2836    181.7030   1.2683605169e+02   2.3106616937e+01    0.1358558   0.09425914  72.95 0.0002941882    1.544    0.352
        76  -9.5552    193.7695    176.2199   1.0852832207e+02   8.4466322714e+00    0.3616201    0.2521529 -51.79  0.001184179    1.744    0.427
        77  -9.6848    218.6667    176.5556   1.0387112437e+02   3.5763647876e+00    0.4249795    0.1964048  38.61  0.001864879    2.052    0.513
        78  -9.5608    245.2978    174.6837   9.8816511733e+01  -1.0140159966e+00    0.3517849    0.2103938 -18.91  0.001822702    1.736    0.424
        79 -11.0545    235.4876    171.2963   9.9812733140e+01   1.2237102878e+00    0.8030611    0.4363972   6.92  0.003056343    3.450    0.710
        80  -9.0672    101.0019    175.9941   1.2826200974e+02   2.6021828098e+01    0.1900834      0.16494  71.23            0    1.004    0.004
        81  -7.9238    217.6429    172.3102   1.0321058720e+02   4.4210650647e+00    0.1296349    0.1105342  86.11 0.0007042867    1.734    0.423
        82  -9.2513    212.2103    171.6134   1.0407806102e+02   5.5790974037e+00    0.2355038    0.2028396  14.01 0.0003623187    1.090    0.083
        83  -8.2401    167.9536    172.2247   1.1299183788e+02   1.4299313806e+01    0.2722542    0.1832254  30.38   0.00131251    1.604    0.377
        84 -10.4237     13.4486    168.2406   1.4655558757e+02   3.8789055066e+01    0.5141233    0.2613627 -56.40  0.002958984    2.232    0.552
        85  -9.1749     45.7218    170.9890   1.3990954461e+02   3.4905524293e+01    0.1793643    0.1349233 -88.95  0.000585141    1.105    0.095
        86  -9.4884    249.1966    168.8352   9.6986653874e+01  -8.9184446717e-01    0.2846298    0.1934498 -48.25  0.001516907    1.954    0.488
        87  -8.3153    215.1221    165.1109   1.0220497120e+02   6.0415452251e+00    0.2035036    0.1704916  12.80 0.0003738844    1.159    0.137
        88  -9.6019    157.8716    164.6810   1.1368344621e+02   1.7762849470e+01    0.2439084    0.2029316 -31.16 0.0009844981    1.373    0.272
        89  -9.5275     23.8664    163.2377   1.4395021460e+02   3.8902681850e+01    0.2693299    0.2222241  -5.54  0.001494429    2.006    0.501
        90  -9.7482    180.9747    162.7988   1.0841913546e+02   1.3372642072e+01    0.2567564    0.2328296  41.05 0.0003017686    1.036    0.035
        91  -8.3402    151.9819    161.0133   1.1425404472e+02   1.9679225269e+01    0.1781021    0.1573756  49.75 0.0003969329    1.055    0.052
        92  -8.7394    237.7802    158.9681   9.6866770393e+01   2.6077796713e+00    0.2155076    0.1672935   2.95 0.0008065663    1.290    0.225
        93  -8.2862     32.4922    159.4785   1.4170043401e+02   3.8870140889e+01    0.1205508   0.09587904  88.65 4.609641e-05    1.033    0.032
        94 -10.5432      5.1441    157.4522   1.4753898561e+02   4.1775829269e+01    0.3140692    0.2714663  73.69   0.00186231    1.243    0.196
        95  -8.8543    222.5223    155.4502   9.8805957732e+01   6.1130731810e+00    0.2395992    0.2075716  29.50 0.0001929937    1.103    0.093
        96  -8.5732    158.0166    156.4937   1.1201658658e+02   1.9340213887e+01    0.2102754    0.1250869  24.45 0.0007440124    2.517    0.603
        97  -9.0552    126.0967    153.2782   1.1865830545e+02   2.6412513196e+01    0.3972683    0.2674076  87.78  0.001571605    2.084    0.520
        98  -8.0416    108.7277    151.9227   1.2254877439e+02   2.9921427169e+01    0.1929656    0.1717532 -79.41 0.0003791942    1.086    0.079
        99  -8.6976     84.3878    151.0555   1.2832805383e+02   3.4157936464e+01    0.1922863    0.1841952  63.62 0.0003882681    1.186    0.157
       100  -9.5943    237.1128    147.3621   9.4486486888e+01   4.4917038308e+00    0.3925658    0.3227686 -50.21  0.001702919    1.449    0.310
       101  -8.3079    209.9405    148.7744   9.9678851587e+01   9.7825633577e+00    0.2652676    0.1893246 -64.33  0.001154007    2.055    0.513
       102  -9.8029     37.5026    148.5911   1.3940065899e+02   4.0777880556e+01    0.2199691    0.1517884 -77.95 0.0006146138    1.211    0.174
       103  -9.8061     15.0052    148.2104   1.4463148099e+02   4.2980608909e+01    0.2105805    0.1360188 -79.48 0.0006924936    1.225    0.184
       104  -7.7040    185.2245    146.9699   1.0416414687e+02   1.5380730931e+01    0.1840714    0.1223299 -40.52 0.0002976074    1.562    0.360
       105  -9.7409    179.5199    144.3654   1.0477160069e+02   1.7108806016e+01     0.306788    0.2237509 -48.29   0.00148266    1.463    0.316
       106  -9.8502     27.3294    143.7385   1.4130933821e+02   4.2882082957e+01    0.2912895    0.2001607   0.96  0.001671935    2.528    0.604
       107  -9.4298     15.5826    144.0809   1.4412987482e+02   4.3844036887e+01    0.1954472    0.1557291 -21.35 0.0009287628    1.941    0.485
       108  -9.1126      4.8316    142.0650   1.4645473053e+02   4.5126354684e+01    0.1700765    0.1502746  83.57 0.0002624758    1.225    0.184
       109  -9.1105    188.8810    140.6440   1.0198861837e+02   1.5753071244e+01    0.2528025    0.2099552 -18.78  0.001036793    1.304    0.233
       110  -9.1071     41.1778    132.3611   1.3648212286e+02   4.4096379724e+01     0.229506    0.1873657 -42.36  0.001455044    1.493    0.330
       111 -10.4103     38.5422    139.8876   1.3812359536e+02   4.2645044726e+01     0.377593    0.3131032  -5.84  0.001436119    1.808    0.447
       112 -11.1849     33.8715    135.5600   1.3876768317e+02   4.4107769855e+01    0.5659818    0.3609169 -66.92   0.00336915    1.339    0.253
       113  -9.4046     11.0395    139.3548   1.4477329356e+02   4.5255524936e+01    0.2168214      0.13514 -87.35 0.0004470048    1.277    0.217
       114  -9.5082    241.4997    138.0175   9.1683891259e+01   5.0639206811e+00      0.27093    0.2142716 -57.31  0.001272714    1.609    0.379
       115 -10.7851    245.7067    130.5191   8.9314124438e+01   5.3790134713e+00    0.3820517    0.3042714  -2.00 0.0005773316    1.295    0.228
       116 -10.5896    248.3837    125.3472   8.7717198109e+01   5.6354078710e+00    0.3182927    0.3087764  -4.12 0.0005687483    1.112    0.101
       117  -8.1835    140.3553    133.6932   1.1116777502e+02   2.7754634989e+01    0.1582163    0.1179754  82.16 0.0007041793    1.720    0.419
       118  -8.3186    220.0256    131.9820   9.4000973586e+01   1.0471105992e+01    0.2287268    0.1677411  14.89 0.0004512406    1.624    0.384
       119  -8.3942    169.6768    132.6903   1.0420293251e+02   2.1550926933e+01    0.1549444    0.1209657  10.13 0.0004122234    1.651    0.394
       120  -7.6221     79.4674    132.4583   1.2641080764e+02   3.9183373020e+01    0.1372974     0.124275 -79.43 0.0008080132    1.037    0.036
       121  -9.1407      8.4862    131.9591   1.4471421886e+02   4.7088720825e+01    0.2865078    0.1241597  79.16  0.001365482    2.562    0.610
       122  -9.5265      4.7677    128.3650   1.4529901895e+02   4.8149134316e+01    0.2098043    0.1520755 -82.03 0.0002687209    1.049    0.047
       123  -9.7190    236.1990    126.6058   8.9962709051e+01   7.9247403352e+00    0.3909388     0.179724 -32.18  0.001494213    2.092    0.522
       124  -9.9756    207.9729    130.1056   9.5777434574e+01   1.3423556279e+01    0.4610124    0.3051855  64.98  0.001475533    1.908    0.476
       125 -10.0170     12.2289    127.8087   1.4337945354e+02   4.7739419369e+01    0.2951084    0.2130428  87.51  0.001012357    1.154    0.133
       126  -8.9712    114.2846    127.7955   1.1633439732e+02   3.4305567185e+01    0.2619237    0.2075051  38.00 0.0005585732    1.342    0.255
       127  -9.7417     27.8360    128.4174   1.3944395478e+02   4.6311845286e+01    0.1927207    0.1626109  21.16  0.001007011    1.563    0.360
       128  -8.3567    126.9571    139.9582   1.1577609824e+02   2.9137474495e+01    0.2333475     0.186698   6.59   0.00112335    1.765    0.433
       129 -10.5285    222.7464    124.1976   9.1687857841e+01   1.1182547535e+01    0.3262296    0.2855397 -25.13 0.0004850677    1.097    0.089
       130  -9.9188    102.9942    124.8326   1.1864188166e+02   3.7067957762e+01    0.3505898    0.2886857  -3.31  0.001620439    1.691    0.409
       131 -10.1904    189.8014    123.7090   9.7788398344e+01   1.8690983916e+01    0.4149337    0.3498471 -78.01  0.001338971    1.441    0.306
       132 -10.0066    187.8356    117.9746   9.6765343658e+01   2.0217288363e+01    0.5372204     0.340596  23.78  0.001333197    2.253    0.556
       133  -9.6600    238.7831    118.9339   8.7752273502e+01   8.6007453350e+00    0.2334497    0.1498895 -54.22 0.0009603692    1.922    0.480
       134  -9.5156     14.1407    118.2210   1.4184639252e+02   4.9757561847e+01    0.3744566    0.2332405  28.81  0.001728913    1.969    0.492
       135 -10.6295     18.2972    113.9577   1.4020294974e+02   5.0411623229e+01    0.6192458    0.2066614 -63.46  0.002877791    2.229    0.551
       136  -9.3114     14.3276    114.3095   1.4133736033e+02   5.0628990981e+01    0.1853298    0.1435723 -65.00  0.000640504    1.166    0.142
       137  -8.8145     29.7845    118.0086   1.3756842637e+02   4.8524251454e+01    0.1814279    0.1646715 -85.98 0.0003348644    1.139    0.122
       138  -8.6395      1.9931    108.5279   1.4406162613e+02   5.2739789640e+01     0.195894    0.1366059 -80.37 0.0007919642    1.104    0.094
       139  -9.7810      1.7510    115.1634   1.4481230307e+02   5.1277318640e+01    0.2557974    0.1533519 -71.69 0.0006272576    1.274    0.215
       140  -9.2794      3.6448    112.3129   1.4401471024e+02   5.1796233493e+01    0.2573347     0.144451  72.96 0.0009636643    1.847    0.459
       141 -10.4890    248.1587    110.5661   8.4334807243e+01   7.9467584179e+00    0.5461085    0.4774578 -83.90  0.003142124    1.410    0.291
       142 -11.4527    233.4453     74.8474   7.7764710125e+01   1.6715206538e+01    0.9906899    0.5750996  -5.52  0.003687424    3.112    0.679
       143 -11.7153    240.5432     75.7481   7.7013194929e+01   1.4938952536e+01    0.7143047    0.4479416 -25.82  0.002598613    1.631    0.387
       144 -11.7974    244.7216     96.7858   8.1569271387e+01   1.0799441106e+01     1.166869    0.7529903 -13.85  0.005426328    1.882    0.469
       145 -10.6355    246.7136     89.5575   7.9544134981e+01   1.1473335676e+01     0.559868    0.3789201 -79.88  0.000972084    2.142    0.533
       146 -10.8012    245.6193     82.6239   7.8014425862e+01   1.2763198201e+01    0.6682727    0.3545579  47.33  0.002439753    2.105    0.525
       147 -11.0663    240.1388    108.5973   8.5090170642e+01   9.9455133270e+00    0.5950046     0.348587 -23.96  0.001822066    1.791    0.441
       148 -10.6027    249.2697     74.8623   7.5650392688e+01   1.3109047975e+01    0.6148506    0.3769659 -35.30  0.001759062    1.466    0.318
       149 -10.9986    244.7405     70.3786   7.5136920246e+01   1.4780848015e+01    0.5622652    0.3197197 -36.94  0.002236363    1.578    0.366
       150  -9.4255    227.7052    114.4361   8.8498705857e+01   1.1711370483e+01    0.2541326    0.2393208 -18.01   0.00044114    1.004    0.004
       151  -9.4328    209.2051    110.4275   9.0743646025e+01   1.6582530715e+01    0.4499387    0.4132383  49.91  0.001588802    1.115    0.103
       152  -8.9345    158.9919    108.0041   1.0043296396e+02   2.8951558354e+01    0.2422693    0.1930952   9.74 0.0004958871    1.614    0.381
       153  -8.5034    141.4650    107.4959   1.0447700176e+02   3.3086613705e+01    0.1541997    0.1503119 -86.78 0.0001448331    1.018    0.018
       154  -7.7573    129.9886    107.0181   1.0724797254e+02   3.5709310921e+01    0.1723464    0.1684957 -80.47 0.0009238427    1.001    0.001
       155  -8.1383    250.6432    104.7502   8.2604544204e+01   8.3204801533e+00    0.1917109    0.1156983 -39.81 0.0002938971    1.524    0.344
       156  -7.8372    226.8647    103.9197   8.6066785407e+01   1.3624300324e+01    0.1918996    0.1657705 -63.40  0.000330004    1.281    0.219
       157  -7.8705     15.9800    103.9924   1.3955228978e+02   5.2847996605e+01    0.1453376     0.109984 -73.45 0.0003633897    1.040    0.038
       158  -9.8530      8.2217    102.7564   1.4163994265e+02   5.3650686637e+01    0.3585688    0.1841358  33.23  0.002088662    2.280    0.561
       159 -10.2030    208.9711    101.3109   8.8467270887e+01   1.8216162809e+01    0.4428518    0.2646589  41.61 0.0009215177    1.813    0.449
       160  -8.3901     50.9738     99.5306   1.2823567738e+02   5.0642042903e+01      0.22215    0.1525664 -63.09 0.0007031301    1.258    0.205
       161  -9.2695     66.8867     98.4682   1.2309740968e+02   4.8887466156e+01     0.352139    0.3338923  -5.03  0.002195708    1.216    0.178
       162  -8.8448     13.0170     97.5219   1.3953199486e+02   5.4516127909e+01    0.1418238    0.1201989  20.24 0.0004475814    1.522    0.343
       163  -9.8575    237.3166     94.7380   8.2163606487e+01   1.2746704084e+01    0.4632761    0.2578898  44.80  0.002055541    1.979    0.495
       164  -7.6237    139.6803     96.6428   1.0196622432e+02   3.5742834969e+01    0.1612632    0.1250964   2.96  0.000704505    1.759    0.432
       165  -8.4411    107.4046     96.0473   1.1042522299e+02   4.2715616104e+01    0.2416692    0.2031655  27.63 0.0006632461    1.326    0.246
       166  -8.6040     61.6461     95.6624   1.2408582490e+02   5.0228387986e+01    0.2307198    0.1835792 -40.48 0.0009304222    1.279    0.218
       167  -9.4072     66.0823     91.9639   1.2182504782e+02   5.0479767374e+01    0.4893904    0.2827928  29.91  0.002365969    2.034    0.508
       168  -8.2586     73.5119     94.5331   1.2012254903e+02   4.8844573467e+01    0.2665742    0.1705533 -69.98 0.0009713786    1.752    0.429
       169  -8.0661     72.5666     90.7875   1.1948783852e+02   4.9828274137e+01    0.2957279    0.1696528 -62.54  0.001361294    1.782    0.439
       170  -8.0268    228.1591     94.6994   8.3561854417e+01   1.4827651583e+01    0.2049093    0.1257275  47.18 0.0005693689    1.725    0.420
       171  -8.4168    164.4257     93.7189   9.5300975807e+01   3.0456383280e+01    0.2189518    0.1534212 -26.28 0.0009465635    1.610    0.379
       172  -8.2554     78.6922     94.6518   1.1855481196e+02   4.8036949765e+01    0.1762562    0.1460432   8.19 0.0006323914    1.495    0.331
       173  -9.6388     78.5202     90.9968   1.1767829337e+02   4.8884427931e+01    0.2408041    0.2254622 -54.06 0.0003666775    1.023    0.023
       174  -8.6080    145.5291     93.4767   9.9628084426e+01   3.5032949133e+01     0.154629    0.1522228 -83.85 4.721829e-05    1.015    0.014
       175  -8.4315     41.1104     92.9590   1.3000897934e+02   5.3212800429e+01    0.1848927    0.1543208 -89.04 0.0003694892    1.237    0.192
       176  -8.9190    190.1242     92.1418   8.9536803929e+01   2.4402855342e+01    0.2405078    0.2169078  22.07 0.0009946116    1.204    0.169
       177 -10.2682      3.0577     76.4897   1.3956631619e+02   5.9774769757e+01    0.4348307    0.2111902  40.73  0.002452988    2.558    0.609
       178  -9.4739      4.6199     89.8049   1.4102128737e+02   5.6758172912e+01    0.3556902    0.1625703 -82.45  0.001829433    2.066    0.516
       179 -11.4187      2.0719     83.3509   1.4092087614e+02   5.8321475665e+01    0.7296368    0.4774249  73.83  0.004656146    1.723    0.420
       180  -8.7251    225.5544     90.7457   8.2975142330e+01   1.6068242810e+01    0.2293495    0.1698992 -67.08 0.0007140651    1.623    0.384
       181  -9.8729    228.7151     87.4561   8.1650820672e+01   1.5858356166e+01    0.3365876    0.2571675  60.21 0.0008762513    1.389    0.280
       182  -8.1009    128.1992     90.9351   1.0329103089e+02   3.9491719680e+01     0.197195    0.1872085 -36.32  0.001044725    1.056    0.053
       183  -7.8227     50.8535     90.8795   1.2644381252e+02   5.2637217347e+01    0.1710945    0.1409477 -86.32 0.0002530077    1.290    0.225
       184 -10.2340     15.6542     90.6055   1.3768798090e+02   5.5893915337e+01    0.2270938    0.1728881 -62.60 0.0003976268    1.077    0.072
       185  -9.2623    185.6404     89.2061   8.9603190639e+01   2.6040530761e+01    0.4605498    0.1493003 -34.85  0.001402139    3.156    0.683
       186 -10.1616    238.8432    113.9507   8.6567112627e+01   9.3767613097e+00    0.3353708    0.2477612  52.79 0.0006382536    1.458    0.314
       187  -8.9942    176.6692     84.3522   9.0034361456e+01   2.9157376596e+01    0.3856767    0.2288005  24.43  0.001352469    2.826    0.646
       188  -9.1270     14.3034     83.9724   1.3704473813e+02   5.7468031080e+01     0.175851    0.1234683 -65.71 0.0005651884    1.113    0.101
       189  -9.6428    222.9001     82.7197   8.1334961956e+01   1.7981345967e+01    0.2904945    0.2564277  63.76 0.0004760786    1.184    0.155
       190  -8.5468    181.5273    249.0961   1.2255139792e+02  -7.9817802942e-02    0.1719481    0.1227175  38.66 0.0003763724    1.065    0.061
       191 -10.8361     38.3655     45.3081   1.1857866482e+02   6.3693131540e+01    0.4597749    0.3794206 -60.07  0.003015909    1.341    0.254
       192 -10.7395     20.4272     40.2244   1.2456163948e+02   6.6301999379e+01    0.3867521    0.3122328  32.24 0.0006276936    1.562    0.360
       193  -8.3535    198.0506    247.8509   1.1952642598e+02  -2.5509137834e+00    0.1690808    0.1359303  45.56  0.001205946    1.272    0.214
       194  -8.9614    152.1132    247.8955   1.2755864445e+02   4.7990415576e+00    0.1819026    0.1281686  53.94 0.0004521451    1.247    0.198
       195  -8.3989      6.9527    244.6485   1.5169846905e+02   2.4888582212e+01       0.1494    0.1138173 -82.48 0.0007359438    1.531    0.347
       196  -8.9163    108.8423    242.1151   1.3460890075e+02   1.2460347821e+01     0.237087    0.1442158 -76.16  0.001363262    2.011    0.503
       197  -8.5851     51.7709    243.5785   1.4455034693e+02   2.0099486353e+01    0.1630075   0.06815891  51.51  0.000961344    1.743    0.426
       198 -10.6508     18.5836     46.3931   1.2719805931e+02   6.5215873443e+01    0.3103179     0.243299 -53.81 0.0006312939    1.110    0.099
       199 -13.7046    230.4670    236.8437   1.1238920384e+02  -6.3328852399e+00    0.5131696    0.3043918  18.36  0.001549271    1.651    0.394
       200 -11.9112    125.8821    236.1104   1.3091263490e+02   1.0766292000e+01    0.4078987    0.2993155  58.38 0.0005866856    1.152    0.132
       201 -10.6233    130.0690    226.8618   1.2906426088e+02   1.1582737119e+01     0.410729    0.3578817   7.79   0.00173682    1.602    0.376
       202  -8.4872    149.3762     82.1996   9.5409413046e+01   3.6319602269e+01    0.2315505    0.1420497 -47.87  0.000955373    1.700    0.412
       203  -9.6894     65.4891     79.0236   1.1870479036e+02   5.3441678962e+01    0.4115371    0.2899929 -59.93  0.001293846    1.368    0.269
       204  -8.4342    103.1611     79.9199   1.0703262891e+02   4.6974956895e+01    0.2197423    0.1923529 -63.74  0.000454444    1.217    0.178
       205  -8.4028    117.5924     78.1340   1.0233929557e+02   4.4394713737e+01    0.2448704    0.2029343  57.39 0.0005459891    1.287    0.223
       206  -7.7076    205.7507     77.6245   8.2752285722e+01   2.2991111854e+01    0.1511574    0.1181013   6.93 0.0006952278    1.640    0.390
       207  -9.2055    185.2599     76.5181   8.6102089177e+01   2.8352778270e+01    0.3273886    0.1992438 -17.24  0.001277781    2.200    0.545
       208  -7.8219    127.9646     76.7707   9.9103838092e+01   4.2383505163e+01    0.2010138    0.1262339  48.18 0.0006263719    1.603    0.376
       209 -11.2905     31.0593     44.0866   1.2122217063e+02   6.4649792711e+01    0.3570106    0.2860906   8.94  0.001272773    1.392    0.282
       210 -10.3608    189.9374     71.9767   8.3936320477e+01   2.7919816786e+01    0.4055512    0.2914517  33.33  0.001399206    1.644    0.392
       211  -9.5521    199.1937     71.3956   8.2146124005e+01   2.5653841406e+01    0.2854882    0.2569048 -88.83 0.0008606443    1.145    0.127
       212  -9.8705    195.4697     69.4891   8.2249864511e+01   2.6910493440e+01    0.3731672    0.2498179  46.97  0.001097332    1.554    0.357
       213  -9.0059    120.8676     70.3918   9.8984509300e+01   4.5192655074e+01    0.2935381    0.2168357 -29.75 0.0007342492    1.405    0.288
       214  -9.0966    226.5020     63.5041   7.5821545478e+01   2.0074148407e+01    0.3135257    0.2377887 -70.60  0.001570059    1.433    0.302
       215 -10.3443    224.9843     68.9983   7.7463641256e+01   1.9617337455e+01    0.5737642    0.2502943  56.55  0.002260277    2.309    0.567
       216  -9.2045    223.4882     65.5483   7.6776272562e+01   2.0501571526e+01      0.29188      0.23717  68.40  0.001037128    1.271    0.213
       217 -10.2572    225.9870     58.2738   7.4530364900e+01   2.0966267617e+01    0.3704112    0.3474903  26.46  0.001658465    1.219    0.179
       218 -11.0125    225.6765     54.1184   7.3487587312e+01   2.1639224064e+01    0.5932058    0.3927859 -44.15  0.002730022    1.414    0.293
       219  -9.6251    126.2812     66.5463   9.6274939579e+01   4.4695117632e+01    0.3900129    0.2753476  52.80 0.0007085897    1.444    0.308
       220  -9.8338     96.2810     65.8573   1.0466966673e+02   5.1125833934e+01    0.4092986     0.316967  51.09   0.00167065    1.418    0.295
       221  -9.1971     82.8640     66.8487   1.0928813606e+02   5.3338637271e+01    0.2509028    0.2446339  17.44 0.0008368058    1.104    0.094
       222 -10.1055    204.3361     65.8671   7.9756465901e+01   2.5225149289e+01    0.3640989    0.2867211  76.70  0.001202365    1.339    0.253
       223  -9.3032    200.1141     64.8231   8.0151167660e+01   2.6463738798e+01     0.307853    0.1968466 -49.35  0.000830337    1.603    0.376
       224  -8.3644     76.9853     66.0495   1.1099078760e+02   5.4467674325e+01    0.2130608    0.1901633 -33.58 0.0006246402    1.022    0.021
       225  -9.1209    120.3686     64.4070   9.7153564342e+01   4.6419292957e+01    0.2807492    0.2442208 -11.16  0.000614325    1.218    0.179
       226  -8.6689     38.0465     64.7423   1.2453853218e+02   5.9763968395e+01    0.2060446     0.153665 -52.17 0.0004287834    1.118    0.106
       227  -8.7871    174.5295     62.3853   8.3988247247e+01   3.3463114722e+01    0.3310324     0.151409 -33.28  0.001221459    2.209    0.547
       228 -10.4056    208.4913     58.6707   7.7120913319e+01   2.5267883834e+01    0.6308035    0.4409552  26.94  0.002856515    1.919    0.479
       229 -10.6177    207.5549     46.7670   7.3964823159e+01   2.7226730374e+01    0.8426312    0.3376291 -31.17  0.002981972    2.455    0.593
       230  -9.1225    100.6056     53.2297   9.8969313062e+01   5.2624324902e+01    0.3636209    0.2422695 -50.46  0.001647221    1.682    0.405
       231 -10.0797     95.6734     50.6840   9.9566240397e+01   5.4050096662e+01    0.4534461    0.3391731 -15.12  0.001553742    1.452    0.311
       232 -11.0763     76.8606     54.2754   1.0707432961e+02   5.6792269903e+01    0.8563678    0.5724344 -37.03  0.003176542    1.385    0.278
       233  -8.8776     88.9222    240.7936   1.3800350168e+02   1.5613405731e+01    0.1746532    0.1431205  83.12 0.0006054864    1.235    0.190
       234 -10.1462     82.9864     55.0290   1.0525309568e+02   5.5612644808e+01    0.4675345    0.3190119 -30.95  0.001504884    1.433    0.302
       235  -9.8447     90.1706     51.7185   1.0169555038e+02   5.4919850482e+01     0.410634    0.2787687  -4.75  0.001228279    1.985    0.496
       236 -11.3343     86.3747     49.0642   1.0196170432e+02   5.6091890464e+01    0.7063277    0.5123484   2.25  0.001926906    1.678    0.404
       237  -8.4487     59.5386     57.7946   1.1447118913e+02   5.8703521187e+01    0.3310895    0.1201008 -51.85 0.0008902347    2.631    0.620
       238  -8.8589    147.6140     67.5452   9.1303113994e+01   3.9436035187e+01    0.3247812    0.2696325 -27.59  0.001170725    1.250    0.200
       239 -10.0163    248.8787     56.4171   7.1229325782e+01   1.5836802414e+01    0.2838541    0.2482624  52.19 0.0008577972    1.293    0.227
       240  -8.3007    164.5186     56.9827   8.4286762535e+01   3.6920812918e+01    0.2150352    0.1376535   1.45 0.0008099972    2.518    0.603
       241  -8.5182     55.5043     55.9828   1.1537849182e+02   5.9596999185e+01    0.2633393    0.1816971 -21.10  0.001090124    1.610    0.379
       242  -8.3600     55.6890     52.3424   1.1409775352e+02   6.0291190583e+01    0.2305004    0.1718666 -53.72  0.001337035    1.354    0.262
       243 -10.5346    124.2965     54.1433   9.2595796225e+01   4.7329064842e+01    0.3478899    0.3182575  23.10  0.000765087    1.092    0.084
       244  -8.1999    141.5171     53.9820   8.8285939803e+01   4.3233453396e+01    0.2296764    0.1504544 -31.00  0.001024368    1.573    0.364
       245  -9.0324    128.6808     60.3790   9.3594768366e+01   4.5244590714e+01    0.2819528    0.2553615  15.32 0.0006628254    1.147    0.128
       246  -9.7819     69.0680     48.8087   1.0787417328e+02   5.9055415505e+01    0.4144972     0.330299 -70.06  0.001757253    1.752    0.429
       247 -11.2853     61.5301     46.9137   1.0997302144e+02   6.0526713926e+01    0.7823225    0.4275448 -52.77  0.001805815    1.994    0.498
       248  -9.7761     66.2246     41.6605   1.0623691570e+02   6.0780408213e+01    0.4841572    0.2522426 -22.42  0.002046816    2.616    0.618
       249 -10.1649    248.1019     50.3348   6.9843274080e+01   1.6849823802e+01     0.453928    0.3362901  36.42  0.002385508    1.735    0.424
       250 -11.1123     37.6128     54.9449   1.2193737965e+02   6.1850176287e+01     1.153344     0.522435 -28.06  0.004690547    3.362    0.703
       251  -9.0118    172.0221     49.9787   8.0645783877e+01   3.6041263945e+01    0.2122497    0.2046473  77.81  0.001154252    1.004    0.004
       252  -8.9616    135.9769     50.0155   8.8238617378e+01   4.5225855584e+01    0.2356127    0.1761388  20.22  0.000435962    1.587    0.370
       253  -9.4802    129.1306     46.4696   8.8659638232e+01   4.7431387816e+01    0.2530892    0.2389335  -3.38  0.000338381    1.061    0.057
       254  -8.4898    142.6497     43.2884   8.4377422544e+01   4.4597526842e+01    0.3389832    0.2025367 -54.53  0.001399959    2.121    0.528
       255  -9.6485    127.3484     33.8955   8.4522297407e+01   4.9688216592e+01    0.6022745    0.3642245  84.33  0.001846143    2.833    0.647
       256 -11.8428    209.6860    230.2879   1.1494342140e+02  -2.2845805300e+00    0.7974849    0.6158036  15.67  0.003340044    1.208    0.172
       257 -10.1599     73.9997     28.7135   9.8099486816e+01   6.1621233971e+01    0.4141652    0.2656597  27.91 0.0005836815    1.624    0.384
       258 -10.0517    120.2921     31.0039   8.5148427751e+01   5.1754506654e+01    0.3914965    0.3297275  75.57 0.0003668525    1.370    0.270
       259  -9.7594    100.7372     30.1568   9.0072923183e+01   5.6243995752e+01    0.5962737    0.3271649 -20.64  0.002033134    2.022    0.505
       260  -8.0803     20.7155    233.9738   1.4909285033e+02   2.5308445813e+01     0.142478   0.09701313  75.49 0.0004374209    1.079    0.073
       261  -7.8355     58.7185    242.6837   1.4333539607e+02   1.9381009269e+01   0.08678836   0.08257619  81.43 0.0003362831    1.578    0.366
       262  -8.2618     61.7554    232.3260   1.4208143461e+02   2.0778769702e+01    0.1602788    0.1231354 -63.40 0.0005782839    1.695    0.410
       263  -7.9256      6.7258    232.9552   1.5127624153e+02   2.6902867265e+01     0.119611   0.06723008 -89.10 0.0007240993    1.454    0.312
       264  -7.3413      1.6892    233.6511   1.5208926299e+02   2.7265091744e+01   0.08453364   0.06770741 -72.34 0.0007045279    1.714    0.417
       265 -10.0515    106.9060     31.6077   8.8903062389e+01   5.4712621065e+01    0.5771052    0.3199713 -36.51  0.002355968    1.839    0.456
       266  -9.1122    153.6913    231.9636   1.2530563901e+02   6.8493675981e+00    0.2138295    0.1462107  39.79 0.0004366022    1.219    0.180
       267  -9.4133    194.4374    230.7693   1.1771856763e+02   1.6804843689e-01    0.1927402     0.160166  32.33 0.0005404805    1.055    0.052
       268  -9.0492     35.4957    227.3071   1.4628099779e+02   2.4873439176e+01    0.1780395    0.1553806  66.79  0.000689831    1.392    0.282
       269  -8.9169    203.4562     42.2296   7.3271931892e+01   2.8907467629e+01     0.287286    0.2208409 -47.51 0.0006097796    1.269    0.212
       270  -7.6128    180.9457     43.0048   7.6933228357e+01   3.4696441562e+01    0.1760338    0.1668266  80.94 0.0004039441    1.009    0.009
       271  -9.6540    244.5117     40.5628   6.7854982033e+01   1.8981463043e+01    0.2756808    0.2317118  82.55 0.0005535779    1.201    0.168
       272  -8.4732     75.2328     41.0641   1.0272779303e+02   5.9432811289e+01    0.1970164    0.1623752 -10.39 0.0004731731    1.159    0.137
       273  -9.6961     22.6974    227.1329   1.4842580912e+02   2.6310306089e+01    0.2290456    0.1792269  42.91  0.000884135    1.583    0.368
       274 -10.1410    233.6275     36.7704   6.8077362558e+01   2.2056408323e+01    0.4658846    0.3682393 -44.16  0.002405233    1.176    0.149
       275  -8.3910    224.3093     38.3162   6.9529575372e+01   2.4136652827e+01    0.1384939    0.1080562  30.77 0.0006988497    1.634    0.388
       276  -9.1467    190.0143     36.6526   7.3601601862e+01   3.3163726927e+01    0.3003529    0.2138388 -23.17 0.0006673203    1.542    0.351
       277  -9.7164     54.3370     36.6702   1.0888205827e+02   6.3373789812e+01    0.2387192    0.2075054 -77.93 0.0008430067    1.719    0.418
       278  -7.8701    173.9845     33.9971   7.5295864554e+01   3.7743044499e+01    0.1673105    0.1581063  76.70 -0.007547014    1.001    0.001
       279  -8.7846     14.1173    227.5748   1.4985972200e+02   2.7118084542e+01    0.1697611    0.1142056 -89.64 0.0004079723    1.286    0.222
       280  -9.7440    144.0884     32.3902   8.0268316263e+01   4.5739974560e+01    0.4826645     0.238683 -30.78   0.00199482    2.070    0.517
       281  -8.3191    139.0354     22.5109   7.7770058685e+01   4.8233367682e+01      0.25497    0.1784216  68.49 0.0006537294    1.440    0.306
       282  -9.1444    140.8134     27.8592   7.9335556777e+01   4.7144469649e+01    0.3179759    0.2510649  80.19  0.001636397    1.396    0.284
       283  -8.0461    249.5068    226.5432   1.0757714130e+02  -8.0747463566e+00    0.1164984   0.08897885  17.21 0.0002436585    1.016    0.015
       284  -9.3512    249.7481     31.8671   6.5245114006e+01   1.8882070895e+01      0.37048   0.09666009 -31.53  0.001290687    3.331    0.700
       285  -9.6132    219.1056     29.6478   6.7853945320e+01   2.6540299166e+01    0.3107113    0.2537262 -15.32  0.001705112    1.435    0.303
       286  -9.2322    166.5689     26.7853   7.4217679528e+01   4.0600090888e+01    0.2658912    0.2333373  69.10 0.0004288053    1.071    0.067
       287  -9.5337    182.6124     25.2831   7.1275683910e+01   3.6537373101e+01    0.5055977    0.2748595  77.63  0.002135151    1.953    0.488
       288  -9.1065    118.7795     24.1507   8.2868239904e+01   5.2985044565e+01    0.3294246    0.2565838  -2.79  0.001763211    1.371    0.271
       289  -8.6677    212.1459     23.1715   6.6911633937e+01   2.9085629369e+01    0.2397398    0.1870208 -55.10 0.0003671978    1.220    0.181
       290  -9.5856    246.2461     21.8356   6.3185019575e+01   2.0909301195e+01    0.3970762    0.2347396 -47.43  0.001776915    1.490    0.329
       291  -9.5520    190.0306    222.2981   1.1723706148e+02   2.0595973611e+00    0.2119786    0.1881566  59.91 0.0004079643    1.342    0.255
       292  -8.3819    182.6003     17.3333   6.8868622376e+01   3.7444220305e+01    0.4315324    0.2103951 -78.30  0.001508396    3.224    0.690
       293  -8.1031    217.4440     17.3363   6.4789811094e+01   2.8415295664e+01    0.3324554    0.1199729  71.00  0.001263147    2.633    0.620
       294  -9.1000    186.3435    219.7962   1.1753055092e+02   3.0490503197e+00    0.2288336    0.1926607  11.91 0.0005928726    1.245    0.197
       295 -10.5138     56.0365    216.8911   1.4192716165e+02   2.4322277930e+01    0.3330102    0.1418542 -72.13  0.001072477    2.311    0.567
       296  -8.9219    167.0888    217.5947   1.2080579646e+02   6.7426727777e+00    0.1808953     0.167496  65.34 0.0003683959    1.207    0.172
       297  -7.9973     98.5437    218.4960   1.3408999412e+02   1.8057326511e+01    0.1210369   0.09965893  60.30 0.0001261887    1.075    0.070
       298  -8.0569    250.5092     13.9379   6.0986215149e+01   2.0839955140e+01    0.1830717    0.1169212 -34.54 0.0004807954    1.490    0.329
       299  -8.5873    145.9858    217.4946   1.2482814271e+02   1.0441177511e+01    0.1971546    0.1053432  44.93 0.0006180175    1.540    0.351
       300 -11.6472    193.4661    214.1582   1.1532400989e+02   2.6126524146e+00    0.6551797    0.5176015  45.13  0.002360448    1.194    0.162
       301 -11.8176    201.4813    212.0674   1.1350582006e+02   1.5055389676e+00     1.404494     1.021462 -82.51  0.007004477    2.983    0.665
       302 -11.9655    188.9108    204.2085   1.1454031222e+02   4.8940687958e+00    0.6320949    0.4009093  22.00  0.001067184    1.831    0.454
       303 -10.6860    195.1989    200.6012   1.1273366541e+02   4.2961658477e+00    0.3577526    0.1938176  43.59  0.001178904    1.618    0.382
       304 -12.1852    198.8846    196.0708   1.1124148500e+02   4.3064806688e+00    0.5130497    0.3338062  34.91 0.0007597962    1.370    0.270
       305  -8.7113    250.5811    213.8451   1.0524690323e+02  -6.8250091522e+00    0.2400696    0.1054412 -33.70  0.001234195    2.435    0.589
       306  -9.3615    230.1335    213.8948   1.0870792776e+02  -3.5909360509e+00    0.3055033     0.254174  39.77  0.001594297    1.315    0.239
       307 -10.7056    233.3557    207.6026   1.0705925236e+02  -3.3329112296e+00    0.4955643    0.4658888  56.11  0.003443664    1.511    0.338
       308  -8.4434    112.2379    215.4350   1.3110534912e+02   1.6456931240e+01    0.1719664   0.09704098  52.05 0.0002967908    1.484    0.326
