#   1 NUMBER                 Running object number                                     
#   2 MAG_AUTO               Kron-like elliptical aperture magnitude                    [mag]
#   3 X_IMAGE                Object position along x                                    [pixel]
#   4 Y_IMAGE                Object position along y                                    [pixel]
#   5 X_WORLD                Barycenter position along world x axis                     [deg]
#   6 Y_WORLD                Barycenter position along world y axis                     [deg]
#   7 A_WORLD                Profile RMS along major axis (world units)                 [deg]
#   8 B_WORLD                Profile RMS along minor axis (world units)                 [deg]
#   9 THETA_WORLD            Position angle (CCW/world-x)                               [deg]
#  10 FWHM_WORLD             FWHM assuming a gaussian core                              [deg]
#  11 ELONGATION             A_IMAGE/B_IMAGE                                           
#  12 ELLIPTICITY            1 - B_IMAGE/A_IMAGE                                       
         1 -12.9287    196.9254     34.2218   6.2991982381e+01   3.2292513536e+01     1.080289    0.7115698  48.37  0.005861008    1.782    0.439
         2 -13.9679    210.5744     18.4270   5.7983528690e+01   3.1099356905e+01     1.260053    0.9035423  45.13  0.007545475    1.894    0.472
         3 -11.3279      2.2410      6.2943   1.0685049047e+02   7.1975395681e+01    0.6226987   0.09976602 -42.59  0.002330493    5.809    0.828
         4 -12.1365     56.2907    240.4255   1.3704215626e+02   1.6963181565e+01    0.3275267    0.2525806 -71.59  0.000544272    1.351    0.260
         5 -15.1503     97.9623    247.0255   1.2936134525e+02   9.4681687467e+00     7.199943       1.6839  37.10   0.02310275    4.189    0.761
         6 -14.5961      9.6468    207.5114   1.4349949137e+02   2.9650926559e+01     3.247972     1.041445 -74.88  0.009093072    2.563    0.610
         7 -14.7574     49.6436    206.2695   1.3498053622e+02   2.5452903965e+01     7.478734     2.269682  59.45   0.01709406    8.964    0.888
         8 -15.2063     29.0887    185.0710   1.3729436725e+02   3.2898894901e+01     7.868126     2.953972  83.05 0.0009566186    8.165    0.878
         9 -14.9970     97.5862    230.0397   1.2736205040e+02   1.3050937925e+01     3.626449    0.8385363  40.73   0.00570186    3.633    0.725
        10 -10.8158    224.8042    198.9535   9.4889720043e+01  -3.0454451867e+00    0.3428767    0.2398846 -57.59   0.00084692    1.872    0.466
        11 -10.0240    192.2126    193.5979   1.0034298414e+02   3.7188102250e+00    0.2935388    0.1752007 -73.40 0.0009470815    4.294    0.767
        12 -14.3214     41.1066    213.9281   1.3760846289e+02   2.4754460342e+01      1.32338    0.8789446 -82.61  0.006318995    1.316    0.240
        13 -11.5259     66.8262    184.2958   1.2821777476e+02   2.8415099584e+01    0.3080898    0.2428512 -50.82 0.0006213061    1.375    0.273
        14 -11.5009     61.0037    191.3129   1.3058453268e+02   2.7512692415e+01    0.4117867     0.262678 -42.47  0.001915248    2.017    0.504
        15 -10.8583     76.7630    172.7654   1.2395368635e+02   2.9814556095e+01    0.2640501     0.226923 -65.64 0.0004046476    1.106    0.095
        16 -13.1179     63.7247    169.9882   1.2686366676e+02   3.2394702007e+01    0.5563136    0.2889766 -45.39  0.001517136    2.198    0.545
        17 -11.9062     83.9648    164.2743   1.2061709662e+02   3.0816837176e+01    0.7623814    0.5820865  63.12  0.003846803    1.392    0.282
        18 -10.6523     33.0213    156.5027   1.3285694770e+02   3.9436305024e+01    0.2193648    0.1588523 -71.04 0.0008565054    1.163    0.140
        19 -12.7981     67.3432    143.9437   1.2140915607e+02   3.8396972994e+01     1.036523    0.6636934  84.58  0.003723921    2.199    0.545
        20 -12.0117     57.7356    131.4711   1.2177905619e+02   4.2759880283e+01     1.973464    0.6544367 -70.79  0.003808686   10.410    0.904
        21 -11.8418     86.0391    147.9066   1.1693766203e+02   3.4570107176e+01    0.3078024    0.2601824 -43.23 0.0004697697    1.216    0.177
        22  -9.9744     26.3037    149.3359   1.3364212128e+02   4.1846230160e+01    0.1350864    0.0847483 -45.16 0.0003599198    1.666    0.400
        23  -9.8686     27.3406    144.3147   1.3265669864e+02   4.2970431531e+01    0.1356479   0.08626606 -41.60 0.0007047632    1.703    0.413
        24  -9.5730    109.4337    135.0495   1.0763877370e+02   3.3580213103e+01     0.291199    0.2248873  12.94  0.001336655    1.668    0.400
        25 -10.4038     96.5147    131.9845   1.1055048122e+02   3.6693425510e+01     0.288648    0.2474044 -20.96  0.000655318    1.326    0.246
        26 -12.6849     33.5910    223.2974   1.4000536511e+02   2.3554338944e+01    0.3923082     0.320196  88.80  0.001265264    1.108    0.098
        27  -9.2427    106.6943    122.4313   1.0537717691e+02   3.7082739181e+01    0.1895417    0.1501847  27.30 0.0003762961    1.392    0.282
        28 -10.2765    167.9117    112.9244   8.7502703413e+01   2.5974490330e+01    0.3788551    0.2880138 -81.14  0.001118064    1.619    0.382
        29 -10.0590     97.7853    149.0060   1.1392585106e+02   3.2308701499e+01    0.3400123    0.2637506 -39.39  0.001028307    1.379    0.275
        30 -13.6310     34.4984    247.5169   1.4177019458e+02   1.8291323000e+01     1.204276    0.8225479  40.84  0.007485647    1.556    0.357
        31 -15.2663      9.3397    243.5148   1.4599419552e+02   2.1963830851e+01     14.00885     1.569466 -75.57   0.03745652    8.744    0.886
        32  -9.4652    104.8972     40.0682   8.1637211022e+01   5.2696584717e+01    0.1872445     0.171206  76.11 0.0004507898    1.296    0.229
        33  -9.9950    189.7719     15.2220   5.9500406463e+01   3.6162555141e+01    0.1682893    0.1324235  58.47 0.0008233126    1.338    0.253
