#   1 NUMBER                 Running object number                                     
#   2 MAG_AUTO               Kron-like elliptical aperture magnitude                    [mag]
#   3 X_IMAGE                Object position along x                                    [pixel]
#   4 Y_IMAGE                Object position along y                                    [pixel]
#   5 X_WORLD                Barycenter position along world x axis                     [deg]
#   6 Y_WORLD                Barycenter position along world y axis                     [deg]
#   7 A_WORLD                Profile RMS along major axis (world units)                 [deg]
#   8 B_WORLD                Profile RMS along minor axis (world units)                 [deg]
#   9 THETA_WORLD            Position angle (CCW/world-x)                               [deg]
#  10 FWHM_WORLD             FWHM assuming a gaussian core                              [deg]
#  11 ELONGATION             A_IMAGE/B_IMAGE                                           
#  12 ELLIPTICITY            1 - B_IMAGE/A_IMAGE                                       
         1 -15.2404    201.9126    128.7691   8.7733092413e+01   1.4849137031e+01     3.166956     2.566506  12.67   0.01545915    1.608    0.378
         2 -12.6072     29.7855      7.6221   9.7668184052e+01   6.8963689175e+01     1.063632    0.4778912   6.59  0.003770356    4.400    0.773
         3 -14.1073      5.8145     21.8110   1.1447672615e+02   6.9402477767e+01     1.079426    0.5677949 -35.46  0.006710756    1.469    0.319
         4 -13.9861     14.0430     16.8936   1.0871532690e+02   6.9444251004e+01    0.8351306    0.5001937  18.53  0.005768334    1.607    0.378
         5 -11.8463     75.5188     13.7020   8.3610522204e+01   6.1471127388e+01    0.2350062    0.2153216  27.79  0.000808894    1.225    0.183
         6 -11.9282     82.0232     13.9753   8.1802030941e+01   6.0257451286e+01      0.29485    0.1962275  41.68 0.0005564691    1.278    0.218
         7 -12.3934     86.8090     11.5623   7.9554745521e+01   5.9579621399e+01    0.4737568     0.290842  64.66  0.001616406    2.014    0.504
         8 -11.0478    123.8147     10.3827   7.0631083064e+01   5.1962402024e+01    0.2327347    0.1811462  30.72 0.0006828728    1.306    0.234
         9 -12.4294     73.2999      2.0643   7.9654290477e+01   6.2909932882e+01    0.2855652    0.2324343  12.61   0.00174108    1.133    0.117
        10 -10.2768    130.6691      4.7565   6.7615389822e+01   5.0903743391e+01    0.2366074    0.1123155  54.93 0.0006313281    1.683    0.406
        11 -12.2754     78.9741      2.2902   7.8141262091e+01   6.1854208091e+01    0.2297318    0.1639492  24.33 0.0007985473    1.230    0.187
        12 -12.9002     88.8932      1.9259   7.5400634729e+01   5.9989369081e+01     0.443101    0.2635086  29.34  0.002603226    1.588    0.370
        13 -11.3464    156.9739     43.9159   7.4389117106e+01   4.0520315955e+01    0.2041413    0.1859764  59.06 0.0004685332    1.053    0.050
        14 -11.8296    241.2103    172.0379   8.9971023479e+01  -1.2767622426e+00    0.4142553    0.3361276  80.58  0.002253478    1.839    0.456
        15 -13.3759    211.8120    165.6669   9.4080329767e+01   5.3949330315e+00     1.192825    0.7847304  18.12  0.005216011    2.135    0.532
        16 -13.1330    180.2703    159.2729   9.9194666108e+01   1.3196513183e+01     1.087555    0.5112048 -60.88  0.003320567    3.706    0.730
        17 -13.5272    172.1183    158.5883   1.0084057650e+02   1.5079417750e+01      1.01414    0.6116081  65.34  0.003875904    2.383    0.580
        18 -11.4617      2.3808    171.1892   1.4403409512e+02   3.8654615354e+01    0.1801771   0.08866205 -86.38 0.0009552708    1.741    0.425
        19 -12.4182    221.0554    156.3390   9.0306240758e+01   5.3826453728e+00    0.5220229    0.4168006  24.07  0.002741046    1.421    0.296
        20 -14.4039    196.2729    149.5341   9.3636962069e+01   1.1835024221e+01     1.394866     1.195287  18.53  0.006991082    1.326    0.246
        21 -12.6715    193.9415    248.7778   1.1325937667e+02  -6.2129306919e+00    0.3320198    0.2177597  38.76   0.00190108    1.342    0.255
        22 -12.3398     58.6962    145.2678   1.2691316857e+02   3.9096338449e+01     0.749355    0.4196256  56.81  0.003378311    2.195    0.544
        23 -11.9788     51.5122    143.0424   1.2847696227e+02   4.0532826058e+01    0.6901619    0.2751153 -72.64  0.002476511    3.082    0.676
        24 -13.3228     47.1150    142.2993   1.2954392239e+02   4.1229875995e+01    0.5694551    0.4737334  86.51  0.003411044    1.202    0.168
        25 -12.8331    214.2464    140.5789   8.8098221869e+01   9.8409714711e+00    0.8011911    0.6178724  61.64  0.003830457    1.465    0.317
        26 -11.9837    248.0468    139.6559   8.2054020918e+01   3.3202828708e+00    0.3451979    0.3180774 -44.46  0.002113141    1.056    0.053
        27 -10.8622      4.6713    140.3294   1.4039041905e+02   4.5577617387e+01    0.1235961   0.07771929  74.29 0.0007051316    1.710    0.415
        28 -12.2115    132.0606    103.3488   9.6941152332e+01   3.6031235081e+01    0.3810803    0.2965688   5.45  0.001191546    1.724    0.420
        29 -13.5838    138.4786     96.7031   9.3496503832e+01   3.5974267389e+01     1.377108    0.5594823  47.12  0.004858545    2.445    0.591
        30 -15.0744    176.7346    118.0388   9.0261363832e+01   2.2759976891e+01     2.402556     1.588235  14.73  0.008876362    2.811    0.644
        31 -15.4174    150.6702    113.7580   9.5073749614e+01   2.9667271060e+01     2.455367     1.578431  54.39   0.01054372    1.615    0.381
        32 -11.2674    121.6161    127.3351   1.0587372720e+02   3.2923027260e+01    0.3727322    0.2762864  37.48  0.001737668    1.422    0.297
        33 -11.0460     28.0191    125.9909   1.3217036839e+02   4.7075560801e+01    0.2033634    0.1426156  76.77  0.001139634    1.685    0.407
        34 -11.1482     33.8541    135.8272   1.3211279816e+02   4.4199577966e+01    0.1819281    0.1422459  79.31   0.00108105    1.361    0.265
        35 -14.3300    150.6858    129.4485   9.9025375508e+01   2.6237138013e+01     1.845542     1.046055  62.93  0.006776398    2.388    0.581
        36 -10.5189     33.2822    122.6655   1.3010383194e+02   4.7368931224e+01    0.1279311   0.09259149  82.63 0.0002546486    1.617    0.382
        37 -11.0202    233.4645    154.6381   8.7691439924e+01   3.3066881047e+00    0.3154474    0.2258755 -70.66  0.001503415    1.992    0.498
        38 -11.3080    249.9945    153.2176   8.4585504824e+01   5.2944424845e-01    0.3530166     0.154408 -31.95  0.001399367    2.467    0.595
        39 -11.9990    107.1231    102.0737   1.0336392831e+02   4.1459247607e+01     0.467306    0.3546266 -58.02  0.002288823    1.406    0.289
        40 -13.1001    188.1182     94.6272   8.2079002136e+01   2.4709273018e+01    0.9340029    0.3024618  56.26  0.002949704    3.246    0.692
        41 -12.0191     44.3340     98.1012   1.2176982006e+02   5.1868004869e+01    0.3628261    0.2838168  -8.03  0.002152773    1.455    0.313
        42 -11.2817     55.1264     95.0713   1.1752596451e+02   5.1283500937e+01     0.314456    0.2288723 -39.01  0.001265117    1.249    0.199
        43 -12.9122      4.7291     84.2455   1.3197551281e+02   5.8083325838e+01     0.559881    0.2427655 -46.42   0.00301961    1.793    0.442
        44 -11.7465     30.7877     82.5922   1.2266846716e+02   5.6536409370e+01    0.1594286    0.1134012  35.92 0.0009547152    1.699    0.411
        45 -11.9277     22.2869     78.9935   1.2478696894e+02   5.7997966944e+01    0.1734787    0.1320523 -45.30 0.0004187785    1.054    0.051
        46 -12.5303    133.7547     76.6636   8.8969001267e+01   4.0859205330e+01    0.2624288    0.2243265 -43.74  0.001386141    1.205    0.170
        47  -9.9987    109.4058     86.4585   9.8316755308e+01   4.4227695162e+01    0.1432371    0.1396935 -29.64 8.959777e-05    1.043    0.042
        48 -12.6901     96.7345     72.0846   9.7678983040e+01   4.9404470535e+01    0.4991663    0.3607858  16.27  0.001333212    1.607    0.378
        49  -9.8944    250.4061     74.4755   6.7899919684e+01   1.4181138218e+01    0.1336691    0.1104439 -62.28  0.000109896    1.017    0.017
        50 -11.5628    144.4631     73.6852   8.5551158413e+01   3.8921156997e+01    0.2589585    0.2340576  43.08 0.0003366838    1.097    0.088
        51 -12.0044    120.8529     73.2364   9.1241398162e+01   4.4318361777e+01    0.2766783    0.1923728  29.70  0.001308954    1.604    0.376
        52 -12.9859     35.0615     70.4001   1.1799195753e+02   5.8600739204e+01    0.5920315    0.2841563  38.79  0.002923003    2.600    0.615
        53 -12.1498     54.7297     67.1303   1.0993119795e+02   5.6999645564e+01    0.2436797    0.1699733  40.96  0.000728015    1.695    0.410
        54 -13.3297     59.4975     70.9854   1.0942836422e+02   5.5645563863e+01    0.5937983    0.2682752  37.85  0.002699945    2.394    0.582
        55 -10.3850     18.6668     72.2920   1.2447547387e+02   5.9635115555e+01    0.1057912   0.09108724  76.53 0.0004208621    1.634    0.388
        56 -12.1790     61.5467     67.0183   1.0750003848e+02   5.6107702102e+01    0.2700879    0.2450536 -14.17 0.0003048137    1.072    0.067
        57 -10.3980    165.1204     65.8306   7.8943389742e+01   3.5306304863e+01     0.195879    0.1715773  27.97 0.0003567326    1.319    0.242
        58 -11.7267     83.8516     65.8671   9.9691228598e+01   5.2836343526e+01    0.2076875    0.1710725  -5.70 0.0003651188    1.210    0.174
        59 -10.3979    214.5796     62.1975   6.9820868554e+01   2.4013230265e+01    0.1920718    0.1344545 -28.09 0.0009650109    1.744    0.427
        60 -12.0299    125.3609     57.4276   8.5234833471e+01   4.5947464392e+01    0.3094215    0.2348223  49.99 0.0006075776    1.244    0.196
        61 -10.5810    174.9021     56.2798   7.4546674395e+01   3.4417506453e+01    0.2020939    0.1703283  65.73 0.0004990987    1.108    0.098
        62 -11.0173    137.0270     55.9531   8.2023333708e+01   4.3525472789e+01    0.2024612     0.184884  55.53 0.0005258203    1.037    0.035
        63 -10.9425    133.1346     53.9558   8.2308312269e+01   4.4718636232e+01     0.257621    0.1874703  51.81  0.001151549    1.278    0.218
        64 -12.7328     67.2344     53.2125   1.0101283569e+02   5.7679227402e+01    0.3996081    0.2979187 -50.87  0.002301038    1.652    0.395
        65 -10.5694     92.5476     52.9612   9.2742276496e+01   5.3399558855e+01    0.2079473    0.1613568  36.75 0.0004423542    1.226    0.184
        66 -13.6013     41.4154     46.4286   1.0815889470e+02   6.2249465060e+01    0.8158058    0.4294066 -30.00  0.002271554    1.785    0.440
        67 -11.8291    145.5252     51.0577   7.8711842658e+01   4.2258802804e+01    0.2682047     0.223594  61.02 0.0005814529    1.122    0.109
        68 -11.4954     80.0054     47.9972   9.4943370151e+01   5.6418100418e+01     0.197847    0.1762229   3.10  0.000459827    1.033    0.032
        69 -11.1872    210.8543     54.3666   6.8509409068e+01   2.6073148291e+01    0.2112736    0.1849803 -45.72 0.0003422676    1.231    0.188
        70 -12.0306      2.6834     46.3279   1.2386915880e+02   6.5589543592e+01    0.7367678    0.2169676 -58.24  0.003244478    3.261    0.693
        71 -11.7344    225.4143    247.2113   1.0702087487e+02  -1.0875571669e+01    0.1553839     0.113927 -42.88 0.0009541395    1.675    0.403
        72 -11.9858    244.6712    247.0757   1.0349122269e+02  -1.3610989761e+01    0.2041588    0.1482064  32.19  0.001334544    1.370    0.270
        73 -12.6318    187.4729    232.9936   1.1196387737e+02  -2.5886270953e+00    0.2906353    0.1904185  37.98  0.001558858    1.367    0.269
        74 -11.0099     82.6815     33.7122   8.8994071919e+01   5.7928714560e+01    0.2726196    0.1871082  -9.66 0.0007831401    1.554    0.357
        75 -10.8096    176.5294     33.5073   6.8282578080e+01   3.7142124121e+01    0.2053475    0.1950881  87.23  0.001294377    1.116    0.104
        76 -10.1213    140.7923     31.6083   7.3884220345e+01   4.5908255346e+01     0.127751   0.09707876  17.71 0.0006813729    1.611    0.379
        77 -10.6190     79.6322     30.0938   8.8604786277e+01   5.8928713339e+01    0.2119757    0.1477686 -15.52 0.0009567319    1.459    0.314
        78 -11.8462     83.6782     22.8195   8.4664896680e+01   5.9037035019e+01    0.2631564    0.2251068   9.76   0.00073607    1.084    0.078
        79 -11.1989     63.2612     17.7899   8.9172088724e+01   6.3136627676e+01    0.3097312    0.2055969  60.20  0.001726865    2.378    0.579
        80 -11.8231    205.2528    228.6396   1.0768834525e+02  -4.8752127987e+00     0.369331    0.1753436 -34.86  0.001672931    2.324    0.570
        81 -11.7822    194.4554    229.6902   1.1000673456e+02  -3.2261911295e+00    0.2737482    0.1973409 -67.59  0.001403446    2.186    0.543
        82 -11.1408    192.3181    217.3400   1.0826635636e+02  -7.1198421978e-01    0.1418867    0.1026767   1.10 0.0007049222    1.710    0.415
        83 -12.3507    201.2495    211.9084   1.0546805448e+02  -1.3300925804e+00    0.5234128    0.3011432 -53.51  0.002394724    2.212    0.548
        84 -11.5323     41.2799    199.9720   1.3846820334e+02   2.8170430614e+01    0.1886532    0.1447733 -87.09 0.0009513241    1.079    0.073
        85 -12.5538    187.1217    195.7697   1.0530492185e+02   4.2885006353e+00    0.5473418    0.4042976 -73.03  0.002604694    1.952    0.488
        86 -11.6361    214.2703    196.4306   9.9921357217e+01  -8.7603682750e-01      0.36703    0.2105946  39.31   0.00173687    1.738    0.425
        87 -11.8287     33.8529    177.3559   1.3765566575e+02   3.4278397282e+01    0.2757511     0.181907 -26.29   0.00138559    2.664    0.625
