#   1 NUMBER                 Running object number                                     
#   2 MAG_AUTO               Kron-like elliptical aperture magnitude                    [mag]
#   3 X_IMAGE                Object position along x                                    [pixel]
#   4 Y_IMAGE                Object position along y                                    [pixel]
#   5 X_WORLD                Barycenter position along world x axis                     [deg]
#   6 Y_WORLD                Barycenter position along world y axis                     [deg]
#   7 A_WORLD                Profile RMS along major axis (world units)                 [deg]
#   8 B_WORLD                Profile RMS along minor axis (world units)                 [deg]
#   9 THETA_WORLD            Position angle (CCW/world-x)                               [deg]
#  10 FWHM_WORLD             FWHM assuming a gaussian core                              [deg]
#  11 ELONGATION             A_IMAGE/B_IMAGE                                           
#  12 ELLIPTICITY            1 - B_IMAGE/A_IMAGE                                       
         1 -14.4362    160.8785     53.4122   7.8210096339e+01   3.8234778821e+01     1.675651     1.234603  11.54  0.005672648    1.923    0.480
         2 -14.2218    173.5634     37.9202   7.1649774323e+01   3.7267156280e+01    0.9078799    0.8239748 -38.52  0.003439023    1.225    0.184
         3 -14.3651    191.0367      6.6222   6.1265913981e+01   3.6590526383e+01    0.9841729    0.7892209  68.83  0.004927008    1.151    0.131
         4 -11.9919    175.4290    185.8464   1.0794509317e+02   8.6977141225e+00    0.4705793    0.2687918 -59.81   0.00191431    2.291    0.564
         5 -18.5041     68.9373    239.5005   1.3831803806e+02   1.6342428964e+01     8.725656     6.423694 -79.45   0.05625113    1.316    0.240
         6 -10.5284    163.5253    203.0652   1.1376784133e+02   7.5693645898e+00    0.2202213    0.1869017  44.07 0.0005516198    1.097    0.088
         7 -11.5908     35.5643    184.0261   1.3942411281e+02   3.2660186817e+01    0.1827354    0.1639751  77.88  0.001248792    1.195    0.163
         8 -19.1763     47.9923     99.0780   1.2260829641e+02   5.1128142291e+01     16.94421    0.9855496 -57.17   0.02755064   15.176    0.934
         9 -10.8586    174.8881    193.5016   1.0955476644e+02   7.2635091019e+00     0.281204    0.1925253 -66.70 0.0009246169    1.958    0.489
        10 -11.3078    206.7703    178.5850   9.9946493033e+01   3.8793185765e+00    0.4346906    0.2897856   9.91   0.00145302    2.179    0.541
        11 -10.3472    219.2849    177.3462   9.7241916811e+01   1.6932770240e+00    0.1453686    0.1069921  -4.59 0.0001942774    1.648    0.393
        12 -12.4816    195.6987    169.5472   1.0029106359e+02   7.8621952942e+00    0.4570051    0.4301566 -52.64 0.0008692988    1.108    0.097
        13 -11.6002    193.2844    164.4205   9.9687722109e+01   9.3930273728e+00    0.4501898    0.3732194  47.61  0.001910997    1.225    0.184
        14 -10.5866    164.1338    170.3484   1.0727526685e+02   1.4265920359e+01    0.3009691    0.2046958 -77.52   0.00123267    2.200    0.545
        15 -11.7826    230.1781    166.6515   9.2958143295e+01   1.5799658434e+00    0.3525484    0.1788758 -52.28   0.00142297    2.427    0.588
        16 -12.1939    121.2479    164.5629   1.1618580889e+02   2.4258118260e+01    0.4596161    0.2785966  62.12  0.001112775    2.012    0.503
        17 -11.0590      9.6062    210.8124   1.4692046436e+02   2.9479041958e+01    0.1900917   0.08807818  84.54  0.001019694    1.941    0.485
        18 -10.0672    222.5702    161.7898   9.3328336702e+01   3.9446885903e+00    0.2004629    0.1302595 -50.05 0.0006581509    1.621    0.383
        19 -10.8653    202.8469    171.3267   9.9211097585e+01   6.0560068244e+00     0.245999    0.2006928 -50.41 0.0006188818    1.284    0.221
        20 -11.8568    120.4671    156.6505   1.1478376645e+02   2.6270524172e+01    0.2790909    0.2412232  59.84 0.0007622291    1.153    0.133
        21 -13.4002    134.0007    145.9250   1.0910094990e+02   2.6073171526e+01     1.535291    0.3591904 -54.34  0.003344267    6.361    0.843
        22  99.0000      6.6861    207.7494   1.4724072831e+02   3.0406122501e+01    0.1475395    0.1098197  39.48 0.0004866501    1.648    0.393
        23 -11.4077    174.2751    148.6922   1.0025823386e+02   1.6768129933e+01    0.3730434    0.2869838 -73.22  0.001226237    1.591    0.371
        24 -12.5826    144.4602    146.4828   1.0666303852e+02   2.3748982544e+01    0.5475551    0.3108611 -65.20  0.002014223    2.402    0.584
        25 -12.8839    135.8644    128.2007   1.0447593261e+02   2.9744550433e+01     1.211235    0.2205007 -50.00   0.00254506    6.572    0.848
        26 -10.0908    167.9829    134.4845   9.8331096157e+01   2.1236055874e+01    0.2181574    0.1388229  73.15 0.0008078488    2.374    0.579
        27 -13.2450    106.0870    130.5731   1.1283915391e+02   3.5167713311e+01    0.5596331    0.4703668 -87.48  0.001734252    1.321    0.243
        28 -11.9484    107.1813    125.1101   1.1126265170e+02   3.6239345283e+01    0.3245086    0.2825601 -17.17 0.0007403342    1.332    0.249
        29 -12.6005    118.7617    129.5101   1.0920578808e+02   3.2980188569e+01    0.4908665    0.3244608 -34.84  0.001055145    1.739    0.425
        30 -12.3282    121.7240    124.1913   1.0713840901e+02   3.3607608826e+01    0.4134327    0.3043848 -21.73  0.001840013    1.776    0.437
        31 -11.6067    160.3236    127.4914   9.8379276304e+01   2.4486001813e+01    0.3949313    0.2978511 -53.79  0.001242402    1.346    0.257
        32 -11.4270    113.4147    118.6034   1.0797714714e+02   3.6537690093e+01    0.2822916    0.2732197  76.29   0.00154102    1.058    0.054
        33 -10.9453    168.3956    113.3455   9.2987568369e+01   2.5618483448e+01    0.4097866    0.2857352 -83.57  0.001174124    2.096    0.523
        34 -11.5264    134.7949    105.6804   9.8963684647e+01   3.4917421084e+01    0.5587692    0.1533821 -46.33  0.001577626    3.695    0.729
        35 -10.8958    205.3577    110.3520   8.4762568081e+01   1.7555424624e+01    0.3210373     0.281205  39.60 0.0008348151    1.264    0.209
        36 -13.6569    156.1438    199.2767   1.1468055808e+02   9.7590005506e+00    0.9471775    0.5429893 -75.75  0.003330327    3.591    0.722
        37 -10.6046     11.4278    206.0643   1.4624582851e+02   3.0305126339e+01    0.2435504    0.2038182  47.09  0.001620373    1.470    0.320
        38 -11.3668     88.3787     78.0051   1.0409137828e+02   4.9775074577e+01    0.2722479    0.1980488  38.96 0.0005861588    1.421    0.296
        39 -12.5114    166.0495    188.2683   1.1045717972e+02   1.0079896421e+01    0.4070071    0.3648894  -6.73  0.001599468    1.261    0.207
        40 -12.5304    158.9901    235.0802   1.2001815494e+02   2.3837702158e+00    0.5083819    0.2815777  48.83  0.002494541    1.662    0.398
        41 -12.1655    167.9630    233.0810   1.1790410720e+02   1.1438330448e+00    0.3600096    0.2483646  53.82  0.001187448    1.470    0.320
        42 -13.1041    177.9395     30.6146   6.9015922667e+01   3.7111490726e+01    0.4549538    0.3918535  -5.75  0.001377428    1.486    0.327
        43 -10.3607     13.4269     59.8185   1.2496956929e+02   6.2294731732e+01    0.1591347     0.146936 -15.62 0.0004386278    1.250    0.200
