#   1 NUMBER                 Running object number                                     
#   2 MAG_AUTO               Kron-like elliptical aperture magnitude                    [mag]
#   3 X_IMAGE                Object position along x                                    [pixel]
#   4 Y_IMAGE                Object position along y                                    [pixel]
#   5 X_WORLD                Barycenter position along world x axis                     [deg]
#   6 Y_WORLD                Barycenter position along world y axis                     [deg]
#   7 A_WORLD                Profile RMS along major axis (world units)                 [deg]
#   8 B_WORLD                Profile RMS along minor axis (world units)                 [deg]
#   9 THETA_WORLD            Position angle (CCW/world-x)                               [deg]
#  10 FWHM_WORLD             FWHM assuming a gaussian core                              [deg]
#  11 ELONGATION             A_IMAGE/B_IMAGE                                           
#  12 ELLIPTICITY            1 - B_IMAGE/A_IMAGE                                       
         1 -13.6641      2.4761    110.3832   8.4788279364e+01   5.2994448293e+01     2.138483    0.4087098 -73.95  0.006154206    5.526    0.819
         2 -13.4306      8.2770     81.3549   7.8056216747e+01   5.9315960054e+01      1.28875    0.6388781 -75.94  0.006289614    2.238    0.553
         3 -13.9635    144.2744     63.7144   2.7751258287e+01   4.0489946356e+01     1.700884     1.004953 -68.08  0.006688588    2.620    0.618
         4 -14.2326    237.3224     45.9455   9.3675963934e+00   2.1474548450e+01     1.911535    0.8827047 -50.65  0.006917124    1.858    0.462
         5 -12.7753      9.9301     45.7186   6.8698808431e+01   6.6548598360e+01    0.8297645    0.6144754 -79.36  0.005193891    1.994    0.499
         6 -12.6311     39.6680     32.0714   4.9820427266e+01   6.5945614051e+01    0.7148379     0.643325  57.60  0.003795574    1.697    0.411
         7 -12.4293     26.7630     32.3705   5.5945940227e+01   6.7426395243e+01     0.896328    0.3811541 -29.52   0.00417695    2.597    0.615
         8 -12.3189     16.7442     30.8121   6.0303876280e+01   6.8658392273e+01    0.5936986    0.5034565  23.37   0.00319687    1.421    0.296
         9 -13.2376     22.9116     16.9521   5.1434495794e+01   7.0168230124e+01     0.838871     0.598671 -18.48  0.005103808    1.185    0.156
        10 -13.9160     11.2320     19.7077   5.8805677735e+01   7.0909435198e+01     1.662533    0.6851292 -41.74  0.008058771    2.079    0.519
        11 -13.0035      3.8276     12.9946   6.0114545678e+01   7.2525082235e+01    0.8276111    0.3731361 -41.40  0.004019113    1.871    0.466
        12 -12.1597    122.8952     27.8361   2.1312285730e+01   5.0604034454e+01    0.5672708    0.4371494 -52.27  0.003237515    1.494    0.331
        13 -12.0776     42.7038     13.2990   4.0359849434e+01   6.8071939770e+01    0.5615976    0.3607759  25.00  0.002783587    1.367    0.269
        14 -12.0114    184.5253     12.4956   7.3955956311e+00   3.7510440860e+01    0.6279657    0.3036608 -79.62  0.002778805    2.488    0.598
        15 -12.6906     62.2895    237.0709   8.3184727257e+01   1.6904155372e+01    0.8756666    0.5076444  73.65  0.003895565    1.780    0.438
        16 -11.9038    140.7746    236.5667   6.6374795967e+01   4.9767339678e+00    0.5544154    0.3610025  63.69  0.002774304    2.001    0.500
        17 -12.2286    126.8664    245.2876   7.0487998976e+01   5.6116501175e+00    0.5962384    0.5763931  74.46  0.004049117    1.171    0.146
        18 -12.4940    137.9707    244.3588   6.8036346898e+01   4.0124736193e+00    0.5615437    0.3150787  27.38  0.002750658    1.859    0.462
        19 -10.6260     72.4582    248.7734   8.2157146186e+01   1.3147446102e+01    0.2726314    0.2435541  50.18  0.001286768    1.220    0.180
        20 -10.9577     84.6103    239.9137   7.8786733247e+01   1.3161377544e+01    0.4245543    0.2580747  59.26  0.002290933    1.535    0.349
        21 -10.5582     76.0443    241.0252   8.0693900553e+01   1.4179876191e+01    0.3492346     0.199553  64.44    0.0018209    1.756    0.431
        22 -10.9478      9.1421    238.1029   9.3759794694e+01   2.3015875647e+01    0.4162972    0.1965745  63.98  0.002313787    1.727    0.421
        23 -10.0563     10.5005    232.9668   9.3230642594e+01   2.3928986453e+01    0.2353748   0.08768921 -71.95  0.001031441    2.431    0.589
        24 -10.3728     95.9626    238.2804   7.6200660991e+01   1.1786272205e+01    0.2945931    0.2627241  48.99  0.001349875    1.118    0.106
        25 -10.1331     98.5198    235.5162   7.5335280240e+01   1.1947990039e+01    0.2545102    0.1461987  47.14  0.001056345    1.486    0.327
        26 -12.8853    114.3180    231.6702   7.1430487609e+01   1.0225133185e+01     1.032207    0.6948344  68.75  0.004722191    1.739    0.425
        27 -10.8513     51.7352    236.9179   8.5346257520e+01   1.8333981601e+01    0.3679594    0.1876309  53.36  0.001490612    1.645    0.392
        28 -12.0839    169.5867    213.9601   5.6673503181e+01   4.3540274799e+00    0.5545048    0.4256757  48.63  0.002153177    1.352    0.261
        29 -12.8837    176.9835    229.9829   5.7766413866e+01   2.3995944906e-01    0.8383087    0.4227155 -30.05  0.003668012    2.671    0.626
        30 -13.7065    178.7074    219.8095   5.5739129434e+01   1.7404218308e+00     1.011955    0.8152004 -42.07  0.004289856    1.354    0.262
        31 -12.3993    100.9228    224.7750   7.3507979267e+01   1.3780168002e+01    0.7517554    0.5417569  56.00  0.003114864    1.267    0.210
        32 -11.8343     81.3932    228.7848   7.8291333061e+01   1.5928958692e+01    0.7119692    0.4429229  72.20  0.003677484    1.747    0.428
        33 -12.4105     88.3350    221.1984   7.5887215768e+01   1.6504469581e+01    0.9472097    0.4805787  39.91  0.004351914    1.749    0.428
        34 -11.7055    248.3950    228.3483   4.3969920100e+01  -9.9406860563e+00    0.3921716    0.1992991 -36.72  0.002197037    1.866    0.464
        35 -12.3154    202.8591    228.4660   5.2328477418e+01  -3.5758283151e+00    0.4474705    0.2648619 -24.12    0.0023118    1.914    0.478
        36 -12.4797    200.0524    220.2376   5.1482272707e+01  -1.7973048277e+00    0.5949017    0.4052133 -34.72  0.003339329    1.496    0.332
        37 -11.9319    148.0357    218.7807   6.2145991966e+01   7.1413144756e+00    0.7880158    0.5277737 -24.66  0.003801634    2.050    0.512
        38 -13.3624     76.6937    212.4120   7.7490867883e+01   2.0192437008e+01     1.942026     1.063034 -49.38  0.009087434    2.225    0.551
        39 -13.8692     35.3774    186.2284   8.4368663933e+01   3.1744277951e+01     1.267594    0.9447291  32.34  0.006420477    1.511    0.338
        40 -13.5358     64.7220    213.1570   8.0307939634e+01   2.1738497106e+01     2.145251    0.6543331 -51.62  0.007335502    4.271    0.766
        41 -13.9395     58.0268    204.5131   8.0914727950e+01   2.4626691318e+01      1.42903    0.8212088 -53.64  0.005859491    1.964    0.491
        42 -11.8031    237.1463    217.8448   4.4113276755e+01  -6.9315802845e+00    0.3341436    0.2908804   6.37   0.00230525    1.143    0.125
        43 -10.7562    102.5987    214.1648   7.1742493988e+01   1.5779902762e+01    0.3917206    0.2982011   8.48  0.002007056    1.856    0.461
        44 -13.6384     48.0680    196.9061   8.2437205700e+01   2.7695474317e+01     1.563438    0.5241772 -61.17  0.006289376    2.745    0.636
        45 -12.3348    153.9091    225.1015   6.1857612298e+01   4.9319190491e+00    0.6813765    0.5084271  32.19   0.00292596    1.215    0.177
        46 -11.2212     37.0222    202.7667   8.5561637423e+01   2.7660736253e+01    0.3944704    0.2650563 -83.66  0.001595555    1.335    0.251
        47 -10.7961    122.8818    201.7650   6.5174815816e+01   1.5066999802e+01    0.2929082    0.1877509  54.57   0.00136888    1.603    0.376
        48 -11.7640    114.4267    194.6948   6.6062943964e+01   1.8130424638e+01    0.4946395    0.4365565  59.04  0.002413223    1.063    0.059
        49 -13.4130    248.7825    186.8444   3.6480824202e+01  -3.7738977802e+00    0.9564623    0.3940556 -40.65  0.004412606    2.177    0.541
        50 -12.1323     85.6955    192.2593   7.2736821935e+01   2.3483118994e+01    0.8784543     0.371163  47.90  0.003456944    2.300    0.565
        51 -11.0291     61.5112    188.8739   7.8272484614e+01   2.7852586393e+01    0.4321252    0.2450702  49.91  0.001970635    1.673    0.402
        52 -11.3288    179.8917    181.8802   4.8575115454e+01   8.7580603985e+00    0.3525082    0.3167195  29.42  0.001975677    1.088    0.080
        53 -12.0172     62.2546    177.6693   7.6637443308e+01   3.0482206945e+01    0.9006218    0.5221713 -86.63  0.004055792    1.956    0.489
        54 -11.3454    130.7639    177.6496   5.9098347605e+01   1.9064691642e+01    0.6728591    0.3128921 -55.34  0.002566685    2.285    0.562
        55 -12.4420     23.4457    174.5554   8.6130726854e+01   3.5814056772e+01    0.7006894    0.3728051 -83.99  0.002462581    1.722    0.419
        56 -13.3428     42.4078    166.1190   8.0328959065e+01   3.5860526734e+01     1.162658     0.717833  88.23  0.004142594    1.675    0.403
        57 -11.2483     70.5386    161.5529   7.2052730561e+01   3.3323101226e+01    0.4461886    0.2692287  47.57  0.002067218    1.665    0.399
        58 -13.6326      3.4280    147.5372   8.8679352799e+01   4.4042787060e+01     1.527483    0.4023166 -78.09  0.005449442    3.531    0.717
        59 -10.5261     47.4557    161.0165   7.8304566839e+01   3.6537446366e+01    0.2295267    0.2052208   6.76 0.0006388748    1.403    0.287
        60 -10.0476     60.6601    153.0338   7.3445001104e+01   3.6859398486e+01    0.2044758    0.1660995 -69.01 0.0003958384    1.139    0.122
        61 -12.0581     69.7574    147.1583   6.9841338966e+01   3.7063076957e+01    0.6864094    0.3914682 -61.19  0.002711876    1.647    0.393
        62 -13.1898     46.7888    147.6881   7.6581143397e+01   3.9965068030e+01    0.7415661    0.5639534  18.92  0.004035016    1.590    0.371
        63 -12.1796    238.9016    139.8150   2.8828788331e+01   5.8022974631e+00     0.603175    0.2725807 -41.34  0.002674238    1.931    0.482
        64 -12.8145    134.4805    128.3574   4.7615862031e+01   2.9784113024e+01     1.256556     0.545405 -54.07  0.004288501    2.554    0.608
        65 -10.7646     74.8478    134.3171   6.5904727247e+01   3.9524358985e+01    0.2611296    0.2128835 -47.84  0.000403001    1.223    0.183
        66 -12.4618     59.3917    126.0379   6.9024675687e+01   4.3809194946e+01    0.6114447    0.5694734 -43.36  0.003235338    1.100    0.091
        67 -11.1003    249.6710    126.4834   2.4492860850e+01   6.2130416040e+00    0.2498904    0.1056627 -40.53  0.001094618    2.014    0.503
        68 -13.2606     20.4263     80.3382   7.3111609031e+01   5.8706465383e+01     1.060774    0.6687146 -46.70  0.004381763    1.332    0.249
        69 -11.1257    161.4814    248.4488   6.3737522993e+01  -4.1260211501e-01    0.2561414    0.2005423  54.01  0.001560004    1.425    0.298
        70 -12.9957      9.3714    100.7439   8.1075044049e+01   5.4841744044e+01       1.1932    0.4113663 -60.86  0.005334343    2.159    0.537
        71 -11.5110     43.7161    243.7276   8.7484506915e+01   1.7956521042e+01    0.6365836    0.3780782  67.13  0.003518628    1.458    0.314
        72 -12.1254      4.6807     64.7681   7.6041965694e+01   6.3085143167e+01      0.66243    0.4370906 -89.85  0.003785956    2.139    0.532
        73 -12.0993    126.8544    119.2555   4.7384350948e+01   3.3484530547e+01    0.8293757    0.4809976 -48.06  0.003410928    1.725    0.420
        74 -10.3576     15.0221    118.0201   8.1820259832e+01   5.0359492686e+01    0.2048101    0.1737522 -72.70  0.001266172    1.040    0.038
        75 -11.2564    244.9946    117.4973   2.3317434098e+01   8.5914528856e+00    0.1872328    0.1328772  55.20  0.001045239    1.627    0.385
        76 -12.9662    110.6803    107.1035   4.8753886336e+01   3.9601711955e+01     1.009012    0.8277677  52.33  0.004018652    1.244    0.196
        77 -11.2884     37.3002    104.0934   7.1946372251e+01   5.1754442994e+01    0.4436238    0.2878816  52.89  0.002257606    1.911    0.477
        78 -13.3196     29.0061     95.7419   7.3182088890e+01   5.4508833631e+01     1.105205    0.8032386 -85.36   0.00480523    1.615    0.381
        79 -12.3945     85.8470     99.2023   5.4233945574e+01   4.6109709377e+01    0.8873991    0.6361634 -50.31  0.003640931    1.368    0.269
        80 -11.1858    127.7129    100.3405   4.2210293691e+01   3.7446460137e+01    0.5592223    0.3596615 -52.59  0.002432918    1.633    0.388
        81 -11.7231    156.8723     88.6239   3.1966169311e+01   3.3064891935e+01    0.4591192    0.4161611 -56.00  0.002338927    1.102    0.093
        82 -13.0674    181.2099     84.8837   2.6115460112e+01   2.7974584359e+01    0.6928807    0.4396606 -60.33  0.003112235    1.741    0.426
        83 -12.0970    167.1662     73.3980   2.5766898898e+01   3.3340628366e+01    0.6157688    0.3738246 -34.25  0.002760716    1.807    0.447
        84 -11.1814     42.4696    234.2778   8.7023726706e+01   2.0054269127e+01    0.6329525    0.3051304  50.91  0.002656973    1.709    0.415
        85 -12.4157     44.5443     58.7651   5.7369632781e+01   6.0746612030e+01      1.09416    0.8004334 -72.79  0.005875861    2.121    0.528
        86 -13.5473      3.1463    174.5739   9.1038835516e+01   3.7612851248e+01     1.103047     0.476127  87.33  0.004520473    2.237    0.553
        87 -14.0490    165.0728     58.9647   2.2266848798e+01   3.6202100388e+01     1.300021    0.7384167 -77.53  0.004930214    2.882    0.653
        88 -13.3912     42.9280    221.2626   8.5879929897e+01   2.2786525616e+01     1.068496    0.5555176  69.79  0.003841974    1.931    0.482
        89 -12.9207     92.2689     48.1713   3.6264228227e+01   5.4646311391e+01     1.013495    0.4732339  48.26  0.004405118    2.020    0.505
        90 -12.0711     15.3498     58.7929   6.9932745550e+01   6.3624133499e+01    0.6482588    0.3776194 -48.87   0.00306432    1.415    0.293
        91 -12.4840     34.3432    213.1942   8.7052240041e+01   2.5599652229e+01     0.644216    0.3728277  76.70  0.002525261    1.625    0.385
        92 -14.1040      4.4053    188.4678   9.1753281830e+01   3.4271674079e+01     1.089444     1.010388  21.95  0.003620553    1.458    0.314
        93 -12.9279     24.0758    209.1748   8.8949311295e+01   2.7645731469e+01    0.6941761    0.3717745 -82.30  0.002726313    1.669    0.401
        94 -13.8315     17.2935    200.7724   8.9790693412e+01   3.0251206308e+01     1.052091    0.6199747 -72.74  0.004537445    1.521    0.343
        95 -13.7527     22.1531    220.6610   9.0177352158e+01   2.5314530766e+01     1.700157    0.7190304 -86.39  0.008197339    2.300    0.565
        96 -14.5585      7.4124    217.4034   9.2953957550e+01   2.7525834575e+01     1.191837    0.6368228  80.00  0.006766068    1.594    0.373
        97 -11.3351     91.6509     32.1435   3.0674155686e+01   5.7016145627e+01     0.396398    0.3482153  72.99  0.002434269    1.355    0.262
        98 -13.8161      6.8442    203.9853   9.2253372093e+01   3.0529520582e+01    0.8827742    0.5722272  70.61  0.005549876    1.268    0.211
        99 -10.6874    250.0628     24.4391   4.0097491650e+00   2.1705484253e+01    0.3069657    0.1330471 -42.35  0.001622926    1.978    0.495
       100 -11.2590     60.2912     22.5628   3.7318186723e+01   6.4149966253e+01    0.3536726     0.224912 -38.17  0.002032366    1.799    0.444
       101 -12.9450     85.8644     62.3036   4.3150590310e+01   5.3569275961e+01    0.9291586    0.8431832  87.77  0.005380102    1.394    0.282
       102 -10.4789    105.7543    245.5618   7.4955650036e+01   8.8640102058e+00    0.2571002    0.1999144  69.41  0.001564407    1.301    0.231
