#   1 NUMBER                 Running object number                                     
#   2 MAG_AUTO               Kron-like elliptical aperture magnitude                    [mag]
#   3 X_IMAGE                Object position along x                                    [pixel]
#   4 Y_IMAGE                Object position along y                                    [pixel]
#   5 X_WORLD                Barycenter position along world x axis                     [deg]
#   6 Y_WORLD                Barycenter position along world y axis                     [deg]
#   7 A_WORLD                Profile RMS along major axis (world units)                 [deg]
#   8 B_WORLD                Profile RMS along minor axis (world units)                 [deg]
#   9 THETA_WORLD            Position angle (CCW/world-x)                               [deg]
#  10 FWHM_WORLD             FWHM assuming a gaussian core                              [deg]
#  11 ELONGATION             A_IMAGE/B_IMAGE                                           
#  12 ELLIPTICITY            1 - B_IMAGE/A_IMAGE                                       
         1 -13.0025    192.7878     26.1646   6.5814085405e+01   3.4036693640e+01      1.47105     1.119578  -3.63  0.007125816    1.930    0.482
         2 -12.6956    199.2870     19.7333   6.3451997549e+01   3.3226946773e+01     1.155803    0.6126667 -43.78  0.005617545    1.891    0.471
         3 -10.3835     12.3489     24.0002   1.1413961062e+02   6.8493276873e+01    0.1578137    0.1111081 -28.09 0.0005277995    1.102    0.092
         4 -12.5881    206.3968     12.9949   6.1090471233e+01   3.2298296072e+01    0.7830615    0.5652093 -26.07  0.001520818    1.745    0.427
         5 -10.1161     32.7223      5.1557   9.7257033776e+01   6.8883257666e+01    0.4814588   0.07745308 -35.52  0.001664037    6.089    0.836
         6 -11.1029    219.0653      1.9927   5.7458976366e+01   3.0545591485e+01    0.4958259    0.1992705  76.15  0.002036871    2.175    0.540
         7 -10.4116     71.5488    236.6079   1.3754670468e+02   1.6543996906e+01    0.2444585    0.1791526  88.88  0.001099506    1.234    0.190
         8  -9.6787    178.9900    249.9979   1.1833430414e+02  -3.5436115698e+00    0.1588542     0.131942  34.69  0.001005696    1.008    0.008
         9 -12.1090    140.8327    248.7033   1.2555679973e+02   3.1524020850e+00    0.8435199    0.3666095  53.50  0.003657647    2.405    0.584
        10 -12.0357     73.1890    247.0328   1.3824281172e+02   1.4262467777e+01    0.6283242    0.4284818  71.06  0.003967214    1.244    0.196
        11 -11.9792     83.0593    246.3186   1.3634911608e+02   1.2945707509e+01    0.6167653    0.4027161 -60.14  0.003704512    1.754    0.430
        12 -11.6741     99.2792    237.1953   1.3225643922e+02   1.2197483870e+01    0.4873826    0.3637055  66.80 0.0007517536    1.176    0.150
        13 -13.1205     97.4348    248.7635   1.3390683467e+02   1.0277423686e+01     1.341226    0.5457965  41.91  0.006289194    2.134    0.531
        14 -10.8701     68.3190    191.8168   1.3315335241e+02   2.6695612942e+01    0.4700469    0.2576081 -45.63  0.001910673    2.416    0.586
        15 -10.8298     73.3128    184.8950   1.3109807832e+02   2.7579966453e+01     0.311182    0.2384443 -49.97 0.0004800477    1.490    0.329
        16  -9.9689    114.3087    174.5595   1.1976247300e+02   2.3218666059e+01    0.2915348    0.1360959  45.16  0.001145643    2.094    0.522
        17 -10.3603     82.1906    173.3756   1.2729554434e+02   2.8960944031e+01    0.2637779    0.2336187 -58.32 0.0004097802    1.203    0.169
        18 -12.4145     69.6236    170.7170   1.2991025138e+02   3.1468208722e+01    0.4949031    0.2884085 -44.11  0.001385402    2.097    0.523
        19 -11.8814     87.3953    164.9825   1.2463351478e+02   3.0147875913e+01     1.059478    0.5670308  55.57   0.00151894    2.109    0.526
        20 -12.0997     57.9649    131.5864   1.2636635195e+02   4.2445006498e+01     1.090104    0.4091895 -71.02  0.003443459    4.047    0.753
        21 -12.3211     67.5722    144.5257   1.2612423465e+02   3.8066984186e+01    0.7946563    0.5502491  80.47  0.002409954    1.731    0.422
        22  -9.9483    107.5246    173.5054   1.2120349317e+02   2.4694694647e+01    0.2276842    0.1307846  51.59 -7.615421e-06    1.769    0.435
        23  -9.2129    101.0219    149.0009   1.1816959770e+02   3.1697391078e+01     0.296701    0.2063037 -58.64 0.0008861892    1.377    0.274
        24  -8.5710    103.8260    145.0347   1.1662070967e+02   3.2147891734e+01    0.3611777    0.2378561 -20.40  0.001422683    2.629    0.620
        25 -11.3043     89.8923    148.2919   1.2093317983e+02   3.3767559920e+01    0.3018849    0.2619509 -40.39 0.0004459156    1.262    0.208
        26  -9.3951    134.0000    144.9461   1.0888087639e+02   2.6299940665e+01    0.4338591   0.08777922 -49.02  0.001046966    4.895    0.796
        27 -12.2586     43.6170    224.0964   1.4166018150e+02   2.2885651774e+01    0.4524482    0.3502307 -81.72 0.0008439888    1.216    0.178
        28  -9.1656    111.3648    135.4320   1.1253788641e+02   3.3034462189e+01    0.3196315    0.2430958  -4.13  0.001172599    1.940    0.485
        29  -9.6210     98.9789    132.2345   1.1514375111e+02   3.6063104881e+01    0.3024169    0.2258211 -31.41 0.0007581658    1.574    0.365
        30 -11.4525     32.5781    128.9025   1.3292578966e+02   4.5888838337e+01    0.6866034    0.1375339 -66.02  0.002047623    4.662    0.785
        31 -13.9990     21.2820    173.1717   1.4139970016e+02   3.6635770454e+01     5.120955     1.844948  82.60  0.003453299    8.903    0.888
        32  -8.8250    108.0725    122.7032   1.1044150657e+02   3.6628283131e+01    0.1973805    0.1925203  29.49 0.0003276673    1.085    0.079
        33 -14.3815     52.8222    212.3803   1.3877665317e+02   2.4203826859e+01     2.538047     1.475192  57.70   0.01417354    1.550    0.355
        34 -10.6539     73.1323    154.9847   1.2650895534e+02   3.4748322951e+01    0.5484965    0.3202675  79.02  0.002256585    2.541    0.606
        35  -9.9269    167.9519    112.9843   9.2993373448e+01   2.5797067238e+01    0.3777061    0.2902958 -77.36  0.000755039    1.592    0.372
        36 -10.7885     58.0700    240.1243   1.4038190042e+02   1.7731325973e+01    0.3118375    0.1699748  87.82  0.001709219    1.857    0.461
        37 -11.7699    108.2743    245.0605   1.3142281207e+02   9.2407800093e+00    0.3619134    0.2925485  63.24  0.001209477    1.036    0.034
        38 -10.8152     44.0018    109.0531   1.2600840046e+02   4.9327447776e+01    0.3780661    0.2192427  46.40  0.001913632    2.110    0.526
        39 -10.0768    163.6199    225.9147   1.1764289304e+02   3.1971856773e+00    0.2924686    0.1630824  54.30  0.001337539    1.946    0.486
        40 -10.9686    117.0774     47.6952   8.6195118221e+01   4.9241031845e+01     0.484982    0.3183931  76.16  0.001673956    2.346    0.574
        41  -9.1022    226.2354    201.7209   1.0080581472e+02  -3.8435461463e+00    0.2180856    0.1711389 -44.29 0.0009655869    1.408    0.290
        42 -10.2578    162.3242    249.3297   1.2146116187e+02  -6.1607424091e-01    0.2974707    0.1370928  46.16  0.001399373    1.886    0.470
        43 -11.7069    126.4723    246.4765   1.2806456755e+02   5.9729734947e+00    0.4668228    0.3354877 -58.68  0.002785204    1.608    0.378
        44 -15.7835     10.2844    223.0968   1.4762386853e+02   2.6868314898e+01     14.97825      5.66679 -78.70   0.04856531    2.197    0.545
        45  -9.7253    192.1604    193.3260   1.0589253203e+02   3.9232074155e+00    0.3833659    0.2299715 -71.66  0.001334662    3.836    0.739
        46  -9.8278    198.3850    245.1766   1.1386295247e+02  -6.0367200884e+00    0.1588294    0.1210651 -52.11 0.0009493977    1.707    0.414
