#   1 NUMBER                 Running object number                                     
#   2 MAG_AUTO               Kron-like elliptical aperture magnitude                    [mag]
#   3 X_IMAGE                Object position along x                                    [pixel]
#   4 Y_IMAGE                Object position along y                                    [pixel]
#   5 X_WORLD                Barycenter position along world x axis                     [deg]
#   6 Y_WORLD                Barycenter position along world y axis                     [deg]
#   7 A_WORLD                Profile RMS along major axis (world units)                 [deg]
#   8 B_WORLD                Profile RMS along minor axis (world units)                 [deg]
#   9 THETA_WORLD            Position angle (CCW/world-x)                               [deg]
#  10 FWHM_WORLD             FWHM assuming a gaussian core                              [deg]
#  11 ELONGATION             A_IMAGE/B_IMAGE                                           
#  12 ELLIPTICITY            1 - B_IMAGE/A_IMAGE                                       
         1 -14.0488    223.3910      3.6131   3.9182819127e+01   2.8511976888e+01     2.281436    0.9569483  57.05  0.007807425    2.438    0.590
         2 -14.0276    192.4626     37.8392   5.1827874718e+01   3.2213826361e+01     1.183389     1.040481 -52.81  0.003197119    1.117    0.105
         3 -14.6956    200.4940     28.5464   4.8097298745e+01   3.1357448874e+01     1.742402      1.33886  32.14  0.001341317    1.597    0.374
         4 -10.5735    189.6290     14.9099   4.5615845262e+01   3.5704012713e+01    0.2379872    0.1789728  60.66 0.0006385182    1.273    0.214
         5 -11.3252     74.8969     13.0450   6.8917342818e+01   6.3069751186e+01    0.4020358    0.1902726  59.70  0.001647882    3.296    0.697
         6 -16.4564     70.9495    147.6435   1.0992952276e+02   3.6102810299e+01     16.52052     7.777598  81.29   0.01955775    6.659    0.850
         7 -19.3064     10.9687    149.8993   1.2475711288e+02   4.2047910253e+01     18.29908     4.200796 -78.50    0.0641857    4.179    0.761
         8 -10.6343     72.9042    204.0602   1.1666933042e+02   2.3369844577e+01    0.3783219    0.2532349  77.99  0.002151997    1.410    0.291
         9 -13.7504     54.5635    203.1116   1.2022619512e+02   2.5974523596e+01    0.8856732    0.5382088  75.93  0.002101158    1.511    0.338
        10 -11.8098     67.1882    206.4477   1.1804722034e+02   2.3666012270e+01    0.2588344    0.2429326  37.79   0.00040273    1.434    0.302
        11 -10.9646     44.1029    210.2239   1.2282731356e+02   2.5815106177e+01    0.3282857    0.1849995 -79.61  0.001053142    1.615    0.381
        12 -10.7259     41.8041    205.8753   1.2292518652e+02   2.6950691164e+01    0.2443314    0.2275343 -33.53  0.001130849    1.705    0.414
        13 -10.9494     37.7665    211.2574   1.2408427437e+02   2.6343335620e+01    0.1573414    0.1115369  70.48 0.0003314325    1.082    0.076
        14 -13.4143     31.7549    206.3384   1.2485032838e+02   2.7986261128e+01    0.3907835    0.1592059  56.19  0.001667795    2.097    0.523
        15 -12.0565    192.9107    194.6246   9.0617160625e+01   4.7784600152e+00     0.999481     0.537627 -64.05  0.003096377    6.025    0.834
        16 -10.6218     97.0679    200.6130   1.1133207625e+02   2.0522143987e+01    0.3122197    0.2710869  -7.99  0.001365773    1.740    0.425
        17  -9.6594     51.5279    215.9704   1.2188904700e+02   2.3795050716e+01    0.2308436    0.1301866 -55.73  0.001334772    2.239    0.553
        18 -11.0028    130.8168    199.2700   1.0408991070e+02   1.5216716193e+01    0.2242192    0.1521442  58.92  0.001184497    1.476    0.322
        19 -11.1446    202.8161    197.3896   8.9205351073e+01   2.5506533480e+00    0.1968063    0.1105075  31.58 0.0004471372    1.707    0.414
        20  -9.7616    159.8323    197.0993   9.7711333401e+01   1.0428461353e+01    0.1932379    0.1729406  69.26 0.0003602899    1.227    0.185
        21 -12.4951     27.7152    196.3741   1.2490756579e+02   3.0435567917e+01    0.2053009    0.1504943  71.47 0.0004880802    1.076    0.070
        22 -10.1365    208.2900    195.6415   8.7841649248e+01   1.8458930534e+00     0.121146    0.1076949 -89.60 0.0006555021    1.688    0.407
        23  -9.9337     82.1828    194.9714   1.1376101412e+02   2.3918229224e+01    0.2231992    0.1685101  53.06  0.001087644    1.193    0.162
        24 -13.5850     63.5583    189.2831   1.1704306977e+02   2.7703733505e+01    0.7761027    0.6707348 -45.40  0.004427487    1.573    0.364
        25 -10.0100     94.4596    250.1190   1.1702725945e+02   1.1917917477e+01    0.1775338    0.1164419  50.49  0.000693666    1.174    0.148
        26 -10.9916     97.0007    190.9905   1.1010944134e+02   2.2503423537e+01    0.2687624    0.2450636 -70.95  0.001169332    1.212    0.175
        27  -9.9345     29.8700    217.5756   1.2593983784e+02   2.5993147126e+01    0.2631593     0.132997 -55.30  0.001485758    2.715    0.632
        28  -9.4863     45.0238    189.7385   1.2093692945e+02   2.9908788780e+01    0.2190602    0.1193377 -89.21 0.0008286801    1.738    0.425
        29 -10.2569     73.0077    218.0341   1.1802028940e+02   2.0605399869e+01     0.180525     0.138773  69.39 0.0003542539    1.048    0.046
        30 -11.4118    131.0074    214.4149   1.0620588124e+02   1.2376286944e+01    0.2376015    0.1872713 -62.15 7.593991e-05    1.449    0.310
        31 -11.6976    148.0770    185.5499   9.8214600391e+01   1.4752926803e+01    0.3866724    0.2740907  78.42  0.001862851    1.980    0.495
        32 -10.0481    153.7592    185.5625   9.7001605203e+01   1.3688038374e+01    0.2347605    0.1774231 -81.95   0.00118947    1.797    0.443
        33  -9.5952     58.1775    226.6640   1.2151206100e+02   2.0932272181e+01    0.1083342   0.06568994  78.56 0.0006602555    1.500    0.333
        34 -10.8848     99.4830    180.7316   1.0814033417e+02   2.4281270468e+01    0.2463997    0.2174103  63.45 0.0005853632    1.051    0.049
        35  -9.8328    204.5113    176.5011   8.4866272164e+01   5.6060206265e+00    0.2858493    0.1343336 -39.36  0.001218857    2.205    0.546
        36 -12.2997     76.0319    174.8612   1.1260976089e+02   2.9137943055e+01    0.4146282    0.2903406 -43.40  0.002242503    1.860    0.462
        37 -12.2698     79.9207    170.0480   1.1107026219e+02   2.9651956236e+01    0.3259691    0.2611106 -61.05  0.001923219    1.287    0.223
        38 -10.4998     58.2778    176.1070   1.1673555809e+02   3.1253621287e+01    0.2418668    0.1585243  49.92 0.0005844083    1.444    0.307
        39 -10.9580     46.1898    172.9524   1.1905981439e+02   3.3421793664e+01    0.3426406    0.2551646  47.12  0.001886601    1.375    0.273
        40 -11.7736    143.5136    173.5166   9.7067281331e+01   1.8003235710e+01    0.3547556     0.251113 -40.50   0.00177616    1.577    0.366
        41 -12.6740    107.7899    203.2750   1.0944703964e+02   1.8298112838e+01    0.6550344    0.2797133  49.60  0.001949377    2.133    0.531
        42  -9.9240    162.0049    166.9529   9.1725257832e+01   1.5707468792e+01    0.2154255    0.2065122  62.44 0.0004438323    1.079    0.073
        43 -10.9300    230.1390    166.1756   7.7933878907e+01   2.4706367317e+00    0.1769706    0.1683945 -49.39  0.000836827    1.336    0.252
        44  -9.8109    156.7745    159.8645   9.1446056016e+01   1.8181362481e+01    0.2044315    0.1744559  76.07  0.001060023    1.345    0.256
        45 -12.4242     93.5573    154.1287   1.0534526469e+02   3.1187868331e+01     0.658475    0.4606182 -29.67  0.003130737    2.110    0.526
        46 -11.4424    133.8002    145.0353   9.3688075211e+01   2.5965814732e+01      1.14412     0.306628 -55.18  0.002823405    5.500    0.818
        47 -10.6465    174.5055    148.8288   8.5163256557e+01   1.6721318591e+01    0.3119407    0.2754904  69.08 0.0009059815    1.278    0.218
        48 -10.5455    144.3366    147.1049   9.1615421041e+01   2.3389153071e+01    0.3700326    0.2345578 -78.84  0.001388139    2.763    0.638
        49 -12.4253    105.7181    211.3079   1.1087928324e+02   1.7074133284e+01    0.4864108     0.431034 -55.36  0.003223129    1.374    0.272
        50 -11.4342    106.5733    139.4838   9.9331218529e+01   3.2378058124e+01    0.5656552    0.5051279  -3.18  0.003069814    1.396    0.283
        51 -12.4495     93.6489    139.5787   1.0269270999e+02   3.4568549846e+01    0.2913957    0.2465322 -49.85 0.0005323155    1.219    0.179
        52 -12.3662    113.3860    208.2863   1.0894845958e+02   1.6423594772e+01     0.327727    0.2809556  66.01  0.001127109    1.047    0.045
        53  -9.7807    117.2908    133.6581   9.5345596564e+01   3.1750396523e+01    0.1539822      0.11639  87.43 0.0003417104    1.651    0.394
        54 -10.8865    105.9726    130.8567   9.7686269582e+01   3.4494205969e+01    0.3600297    0.2980402 -72.09  0.001259766    1.219    0.180
        55 -10.8736    113.8464    130.1228   9.5457386061e+01   3.3215617626e+01    0.3586011    0.2902478 -11.29  0.001294284    1.648    0.393
        56 -11.1074    135.9332    127.7323   8.9260284600e+01   2.9365989883e+01    0.5508515    0.1819912 -51.99  0.001645737    3.410    0.707
        57 -11.1045    101.2691    126.1828   9.7927561652e+01   3.6424187900e+01    0.2926172    0.2316218 -35.95 0.0009645744    1.405    0.288
        58 -10.7469    119.5348    123.7546   9.2509088151e+01   3.3584665092e+01    0.5424299    0.3337921 -19.22  0.001911185    3.164    0.684
        59  -9.9305    160.7974    127.9572   8.3349853150e+01   2.3949590287e+01    0.2651386    0.1839832 -71.00   0.00109143    2.041    0.510
        60 -10.0754    109.3400    119.1040   9.4128058148e+01   3.6608318566e+01    0.2196433    0.2049586  25.29 0.0002954027    1.173    0.148
        61 -10.0796    167.7441    112.5168   7.7849570172e+01   2.5549131422e+01    0.3804672    0.2663523 -82.56   0.00150627    2.288    0.563
        62  -9.6258    135.0000    112.9581   8.5819973440e+01   3.2822944043e+01    0.2642374    0.0875924 -45.26 0.0008056788    2.965    0.663
        63 -11.4524    118.4579    110.0233   8.9407440649e+01   3.6914134193e+01    0.5707933    0.4260739  58.47   0.00269652    1.491    0.329
        64 -10.2471    205.4855    110.1500   6.9486434517e+01   1.7223318062e+01    0.3150929    0.2177573  41.47 0.0008344876    1.527    0.345
        65 -14.0694     85.4062    229.9894   1.1681515065e+02   1.6651338405e+01      2.04475     1.499083  68.64  0.008229425    1.159    0.137
        66 -11.4086     41.8001     91.3482   1.0804687227e+02   5.2988804008e+01     0.312411    0.1830387 -59.91 0.0007999935    1.420    0.296
        67 -11.1087     52.7756     90.6075   1.0429180302e+02   5.1964923269e+01    0.2717506    0.1810995 -40.61  0.001012931    1.460    0.315
        68  -9.7543     37.1025    224.8759   1.2513326778e+02   2.3804852007e+01    0.1314256    0.1207715 -81.29 0.0004619925    1.500    0.333
        69  -9.0599    155.6927     80.7158   7.1649461626e+01   3.4678139804e+01    0.1567866    0.1230554  15.57 0.0003287061    1.565    0.361
        70  -9.9817     65.4524     70.3113   9.4573106477e+01   5.4864063345e+01    0.2317901    0.1804565  30.02  0.001191506    1.424    0.298
        71 -10.9521    157.2361     59.4148   6.4713625414e+01   3.8055099558e+01    0.3249871    0.2603503 -87.87 0.0006749532    1.505    0.336
        72 -10.6201     53.9055    231.3839   1.2263026749e+02   2.0599651356e+01    0.2071199    0.1264526  84.03   0.00103459    1.486    0.327
        73 -13.9079    181.3137     47.2113   5.6340279007e+01   3.3780122200e+01      1.10673    0.9337475  12.14 0.0008769127    1.403    0.287
        74 -11.7340     61.8108    235.2144   1.2152361572e+02   1.8907938284e+01    0.1938594    0.1423578  80.78 0.0003417427    1.181    0.153
        75  -9.9557     61.4872    219.9868   1.2036395017e+02   2.1765432031e+01    0.1625084    0.1010007 -82.37  0.001007437    1.541    0.351
        76 -10.5850    159.5053     53.3389   6.2303136054e+01   3.8453883731e+01    0.2669216    0.2454228 -77.83 0.0005890836    1.156    0.135
        77 -10.2851     48.2392    217.7776   1.2263712671e+02   2.3846423022e+01    0.2169032    0.1486574  13.08  0.001131047    3.009    0.668
        78 -11.4567     50.0604    234.3963   1.2351533526e+02   2.0526319837e+01    0.2115299    0.1278393  67.66 0.0003334592    1.324    0.245
