#   1 NUMBER                 Running object number                                     
#   2 MAG_AUTO               Kron-like elliptical aperture magnitude                    [mag]
#   3 X_IMAGE                Object position along x                                    [pixel]
#   4 Y_IMAGE                Object position along y                                    [pixel]
#   5 X_WORLD                Barycenter position along world x axis                     [deg]
#   6 Y_WORLD                Barycenter position along world y axis                     [deg]
#   7 A_WORLD                Profile RMS along major axis (world units)                 [deg]
#   8 B_WORLD                Profile RMS along minor axis (world units)                 [deg]
#   9 THETA_WORLD            Position angle (CCW/world-x)                               [deg]
#  10 FWHM_WORLD             FWHM assuming a gaussian core                              [deg]
#  11 ELONGATION             A_IMAGE/B_IMAGE                                           
#  12 ELLIPTICITY            1 - B_IMAGE/A_IMAGE                                       
         1  -8.6473    111.9846     34.5156   3.2491963393e+01   5.3279568174e+01    0.2861033    0.1923391 -47.75 0.0006718827    1.599    0.375
         2  -8.1199     30.1606     16.1301   5.5728891383e+01   7.1949768794e+01     0.161072    0.1418594 -49.02 0.0005951239    1.327    0.247
         3  -8.5129     55.7890      9.8870   3.8988422482e+01   6.8924027981e+01    0.2250928    0.1658939 -44.60 0.0006617706    1.582    0.368
         4  -7.8337     47.5813      9.8050   4.2689053028e+01   7.0387370580e+01    0.1760006    0.1107532 -40.90 0.0005048314    1.660    0.398
         5  -8.3928     97.2998     14.8129   2.7538710449e+01   5.9455034934e+01    0.2786861    0.1063536 -33.43  0.001062126    2.514    0.602
         6  -8.2954     70.3152      6.0267   3.1076824137e+01   6.6526554258e+01    0.1879024    0.1579003 -14.45 0.0005510312    1.144    0.126
         7  -8.5850     33.3618      4.7324   4.6946668919e+01   7.3370157920e+01    0.3172196    0.1725919 -53.05  0.001423994    3.079    0.675
         8  -8.0359     99.1647      3.7841   2.1721372176e+01   6.0162365626e+01    0.1932197    0.1481435  26.36 0.0006261553    1.313    0.238
         9  -8.3105     79.4232      3.7398   2.6859232153e+01   6.4791998121e+01    0.2550051    0.1163098 -28.90  0.001121489    2.133    0.531
        10  -8.3175     90.9991      8.5375   2.6121216989e+01   6.1643924738e+01    0.2571063    0.1812507 -39.99 0.0008429979    1.532    0.347
        11  -8.1529     62.6873      1.4984   3.1119211624e+01   6.8599720288e+01    0.1563077    0.1274592  66.09 0.0009187488    1.497    0.332
        12  -9.5321    147.1709    245.9077   7.2424065460e+01   6.4067424177e+00    0.3021629    0.1662202  59.63  0.001621374    2.666    0.625
        13  -9.8429    248.7149    242.0908   5.5033294678e+01  -6.6952821094e+00    0.3039298    0.1762011 -33.82   0.00139078    2.162    0.538
        14  -9.7430     93.8092    250.0773   8.2385274517e+01   1.3080766027e+01      0.21813    0.1536053  50.93  0.001597862    1.075    0.070
        15  -8.0520    142.6581    247.6781   7.3420240691e+01   6.8008267945e+00    0.1091803   0.07641558  14.40 0.0004347753    1.725    0.420
        16  -9.4161    120.2741    245.2052   7.7187890663e+01   1.0252873041e+01    0.2880017     0.166512  65.04  0.001507518    2.250    0.556
        17  -8.6529     67.5074    244.4995   8.6695612041e+01   1.7270591955e+01    0.1828393     0.100671 -75.54 0.0009906304    2.087    0.521
        18  -8.6697    201.9169    243.0568   6.2600831396e+01  -8.3637963011e-01    0.1992301    0.1492426 -45.91 0.0008527254    1.992    0.498
        19  -9.2075     78.1955    243.0760   8.4664595190e+01   1.6171199754e+01     0.284453    0.1162687  60.83  0.001419175    2.719    0.632
        20  -7.9380     58.3739    244.6874   8.8342130803e+01   1.8336515735e+01    0.1200719   0.05513788  57.77 0.0007031978    1.785    0.440
        21  -9.1608    169.1135    242.6170   6.8157898139e+01   3.7451880904e+00    0.2132787    0.1576497 -24.09 0.0008819863    1.665    0.399
        22  -9.4738    160.1843    240.0769   6.9428177280e+01   5.3374302215e+00    0.2641383    0.2000833 -84.79  0.001282712    2.308    0.567
        23  -7.9363    153.5678    241.7946   7.0814489755e+01   6.0521069430e+00     0.128777    0.1088728 -80.61   0.00093914    1.709    0.415
        24  -8.1605     88.4142    242.0539   8.2721229568e+01   1.5020430342e+01    0.1407331    0.1031419 -82.29 0.0006286518    1.583    0.368
        25  -8.3193    213.9741    240.9923   6.0331228207e+01  -2.2195131580e+00    0.1316003   0.09956593  15.83 0.0004721873    1.043    0.041
        26  -8.7862    241.4367    238.0583   5.5554385568e+01  -5.4333982790e+00    0.4187306    0.1790665  -9.47  0.001872685    4.217    0.763
        27  -9.0113    193.9733    239.2104   6.3420639335e+01   6.8257334523e-01    0.1701152    0.1447591   5.12 0.0005664629    1.200    0.166
        28  -8.3678    146.1480    239.1896   7.1850295491e+01   7.4644108460e+00    0.1497996    0.1159689  54.58 0.0004543777    1.347    0.258
        29  -9.4077    135.5863    238.7720   7.3730026156e+01   9.0329256593e+00     0.207872    0.1448258  63.11 0.0007967734    1.689    0.408
        30  -8.9197    230.9789    236.9698   5.7026963704e+01  -4.0121681494e+00    0.2018009    0.1932127  88.33  0.001425547    2.115    0.527
        31  -8.0208    208.9806    238.1960   6.0762637501e+01  -1.2514998074e+00    0.1247445    0.1214209 -19.05 0.0004897377    1.594    0.373
        32  -8.0106    129.3217    238.6851   7.4871328709e+01   9.9367071496e+00    0.1151275   0.07370568  58.19 0.0004057274    1.659    0.397
        33  -8.4733     26.6518    237.5315   9.3604095240e+01   2.3058879981e+01    0.3348073   0.06218871  53.99  0.001446371    3.572    0.720
        34  -8.6728     13.7735    237.6586   9.5853987477e+01   2.4329424696e+01    0.1907219   0.08779212  47.60  0.001101388    1.516    0.340
        35  -9.9410    214.9936    233.1407   5.9051479365e+01  -1.5061262703e+00    0.4358501    0.3405696  84.66  0.002378285    4.081    0.755
        36  -9.0556    203.1573    234.5201   6.1220690861e+01  -4.4495793521e-02    0.2413635     0.184328 -57.07   0.00108205    2.339    0.572
        37  -9.8055    175.7059    233.2141   6.5795298955e+01   4.0002945382e+00    0.3642513     0.221461 -56.82  0.002126731    2.677    0.626
        38  -7.9766     58.4855    237.0000   8.7847945376e+01   1.9597253429e+01    0.2425422   0.04964944  35.38 0.0009419986    3.994    0.750
        39  -8.5330    248.1607    234.2871   5.3968050536e+01  -5.8962744993e+00    0.1884235    0.1256645 -18.78  0.000782649    1.466    0.318
        40  -9.2165    246.7908    228.2955   5.3269758811e+01  -5.1432289928e+00    0.3421258    0.1455827 -27.61  0.001642615    2.360    0.576
        41  -9.2276    182.9349    239.8493   6.5398925301e+01   2.1436560294e+00    0.3182369    0.2084096  58.40  0.001670453    2.394    0.582
        42  -9.3899    108.6036    233.9169   7.8244698239e+01   1.3581885623e+01     0.313415    0.1845323  70.87   0.00106856    2.243    0.554
        43  -8.0390    123.0717    234.0498   7.5539507491e+01   1.1518255470e+01    0.1863539    0.1169225  61.28  0.001121331    1.776    0.437
        44  -8.1736     99.6600    234.2861   7.9964483222e+01   1.4757799076e+01    0.1891391    0.1065184  61.49  0.001098905    1.841    0.457
        45  -8.9017     78.3990    233.6821   8.3915593178e+01   1.7683155705e+01    0.1851018    0.1031797 -80.80  0.001116374    2.131    0.531
        46  -8.4462     70.6643    234.2801   8.5409581735e+01   1.8566013065e+01    0.1644102    0.1060926  51.92 0.0008767953    1.169    0.145
        47  -8.9779     67.3130    230.8563   8.5790308107e+01   1.9568481300e+01    0.3119669    0.1612767 -83.27  0.001653443    2.236    0.553
        48  -8.3752      8.2892    234.6525   9.6702757757e+01   2.5370416026e+01    0.1124236   0.04822201  60.97 0.0003225645    1.660    0.398
        49  -8.5766    194.4367    232.7440   6.2457012756e+01   1.3811614272e+00    0.1951975    0.1538004  45.42 0.0008958168    1.476    0.323
        50  -9.6834    235.9775    230.5335   5.5287477721e+01  -3.9975302631e+00    0.2881142    0.2033702  -6.42  0.001487903    1.269    0.212
        51 -10.0953    149.6654    226.0482   6.9619571617e+01   8.8215437178e+00    0.5114742    0.3277269 -89.19  0.002452736    3.709    0.730
        52  -8.9123    140.0473    230.1663   7.1923772905e+01   9.6408907968e+00    0.2186329    0.1293786  50.00 0.0008089612    1.572    0.364
        53  -8.1748      1.4232    230.2860   9.7762249310e+01   2.6763647380e+01    0.1430718   0.06797221  74.65 0.0009430878    1.649    0.394
        54  -9.6035    186.5122    230.5720   6.3531567126e+01   2.7766894656e+00    0.2734631    0.2197047 -77.04  0.001564206    2.351    0.575
        55  -8.8331    162.3783    227.7425   6.7480519984e+01   6.6851356350e+00    0.2728156    0.1697286  55.44  0.001515669    1.965    0.491
        56  -8.7993    127.8651    227.1475   7.3875572498e+01   1.1887785662e+01    0.2917791     0.162152  57.74   0.00117486    2.046    0.511
        57  -8.2070    120.0991    227.4915   7.5397900616e+01   1.2965591903e+01    0.1865945     0.139768  63.29  0.001009238    1.376    0.273
        58  -8.3113     49.8989    226.7909   8.8804788779e+01   2.2380692497e+01    0.2752014    0.1073606  62.66   0.00137741    2.515    0.602
        59  -8.7226      8.0000    227.0094   9.6509633301e+01   2.6739265923e+01    0.1550048   0.04916275 -83.26 0.0008038991    2.953    0.661
        60  -7.5371    223.3253    226.7098   5.6736567088e+01  -1.9242176395e+00   0.09593605   0.08251243  41.51 0.0002587735    1.613    0.380
        61  -8.8175    206.1552    225.7981   5.9457340243e+01   5.5343470406e-01    0.1698861    0.1477509 -29.14 0.0007262741    1.471    0.320
        62  -8.2516    200.1635    226.1686   6.0535560606e+01   1.3602452658e+00    0.1385714    0.1239548  31.14 0.0004697435    1.326    0.246
        63  -8.8997    180.5059    224.0884   6.3692205278e+01   4.4879782077e+00    0.2502531    0.1709532  48.67  0.000575684    1.585    0.369
        64  -8.8939     94.1576    224.2054   8.0080043147e+01   1.7185490690e+01    0.3479414    0.1563047  60.06  0.001576158    2.625    0.619
        65  -8.7835    216.5321    223.3217   5.7342206295e+01  -6.1265252091e-01    0.1902576    0.1787795  78.49 0.0008893465    1.881    0.468
        66  -8.8297    104.6926    223.4717   7.7952657245e+01   1.5834647917e+01    0.2825593    0.1751982  71.69  0.001259398    1.965    0.491
        67  -7.9610     59.9800    223.9800   8.6696610044e+01   2.1680888492e+01    0.2462222   0.07969335  61.32 0.0009494778    4.055    0.753
        68  -8.1526    132.6164    232.2988   7.3560655975e+01   1.0408560926e+01    0.1770098    0.1161669  60.46  0.000672291    1.720    0.419
        69  -8.6250    173.1521    222.8078   6.4843360009e+01   5.7571623706e+00    0.1740587    0.1602193 -59.18 0.0006182704    1.478    0.323
        70  -7.9246    113.7834    223.5658   7.6191262315e+01   1.4514750737e+01    0.1654349   0.08886401  47.34 0.0003486698    1.537    0.349
        71  -8.9634    239.2575    221.3936   5.3368025288e+01  -3.4725904541e+00    0.2256274    0.2119716 -45.14  0.001483541    1.909    0.476
        72  -9.0438    225.3115    221.6174   5.5635135793e+01  -1.6299238884e+00    0.1726697    0.1485083  14.32  0.000459147    1.262    0.207
        73  -9.3379    192.3187    221.0958   6.1158620390e+01   3.1303731196e+00    0.2475619    0.2218916 -77.83  0.001237185    1.817    0.450
        74  -8.5019    162.6718    222.2973   6.6702370583e+01   7.4074208593e+00    0.2663879    0.1170098  47.69  0.001284524    2.285    0.562
        75  -8.3897    158.9996    220.3522   6.7125122872e+01   8.2451832055e+00    0.1913991    0.1543408  62.99 0.0006430923    1.530    0.346
        76  -7.9994    140.4655    222.4805   7.0913792007e+01   1.0736731276e+01    0.1207025    0.0968712  44.75 0.0001303944    1.084    0.077
        77  -8.4879     82.8338    220.1199   8.1926752708e+01   1.9439522669e+01    0.2405051    0.1400489  74.37   0.00114221    1.955    0.489
        78  -8.1318     73.2044    220.4541   8.3853601609e+01   2.0649958446e+01    0.2142924   0.08434619 -84.08 0.0008641285    4.252    0.765
        79  -7.9560     27.4882    221.0096   9.2707714922e+01   2.5901910726e+01    0.1337104   0.07695717 -55.64  0.000809922    2.493    0.599
        80  -8.6773      6.9549    221.6406   9.6519998678e+01   2.7803667936e+01    0.1880499          nan  47.67 0.0007043099    4.474    0.776
        81  -8.1011    202.6870    219.9600   5.9179620209e+01   1.7560553164e+00     0.153517    0.1297144   5.97 0.0003984557    1.129    0.114
        82  -9.0646    120.3339    218.8398   7.4382614455e+01   1.4333534376e+01    0.4366841    0.2072519  60.47   0.00190626    3.108    0.678
        83  -8.3692    209.9391    219.1206   5.7809412042e+01   8.1212858711e-01    0.1606393    0.1376466  26.89  0.000447124    1.254    0.203
        84  -8.6116    248.2940    217.5650   5.1357559820e+01  -4.2458492332e+00     0.254079    0.1563949  56.83   0.00119858    4.689    0.787
        85  -7.5792    151.3135    218.3278   6.8307784699e+01   9.7208418165e+00    0.1184977   0.08683493   8.97  0.000704325    1.670    0.401
        86  -9.4420    132.9611    215.7619   7.1529340227e+01   1.2935341297e+01    0.4382811    0.2565605  72.36  0.002010164    3.204    0.688
        87  -8.8876     51.6294    217.1276   8.7845107382e+01   2.3935259654e+01    0.2323311    0.1196334  84.77  0.001029476    2.050    0.512
        88  -8.3434    179.3976    217.2259   6.2908527186e+01   5.5789901536e+00    0.1419321    0.1149254 -52.55 0.0009430731    1.671    0.402
        89  -8.7778    169.3446    215.9662   6.4579836142e+01   7.2946852358e+00    0.2498315    0.1965175 -85.97 0.0009754498    2.151    0.535
        90  -8.6150    143.1101    216.5587   6.9651540485e+01   1.1252893449e+01    0.2429687    0.1749888  71.54  0.001434142    1.899    0.474
        91  -8.2640     61.8043    216.9778   8.5828809124e+01   2.2729490604e+01    0.1956488   0.09965841  68.86 0.0009695676    2.007    0.502
        92  -8.4120     18.4291    215.7230   9.4172335645e+01   2.7801500009e+01    0.1981234   0.08689961  89.67  0.001137762    2.109    0.526
        93  -8.8086    232.1034    214.1252   5.3351281496e+01  -1.7204683231e+00    0.2243199    0.1693966 -44.49  0.001034908    2.034    0.508
        94  -8.0979    154.3456    214.8289   6.7255051314e+01   9.7839605595e+00    0.2280812    0.1382913  54.86  0.001240702    1.895    0.472
        95  -9.3752    214.0959    211.9811   5.5985586822e+01   1.0785087743e+00    0.3044766    0.2426967  57.91  0.001593886    1.980    0.495
        96  -8.4107    185.6390    214.1042   6.1311111463e+01   5.0549839237e+00    0.1581357    0.1507121 -55.79 0.0008526667    1.447    0.309
        97  -9.2773     93.0916    213.8490   7.9280089980e+01   1.9150191536e+01    0.3308291    0.1318111  54.01  0.001485196    2.550    0.608
        98  -9.3158     73.4010    211.8543   8.3084757667e+01   2.2199507581e+01     0.610485    0.1860848  56.65  0.002168669    4.334    0.769
        99  -8.9028    161.8127    212.1561   6.5453537405e+01   9.0239374860e+00    0.2020873    0.1675777 -51.94 0.0008255449    1.501    0.334
       100  -7.8255    225.1083    212.1316   5.4169182174e+01  -5.1795874602e-01    0.1393699    0.1250971   8.59 0.0004522628    1.313    0.239
       101  -9.6084    175.5497    209.8835   6.2529441200e+01   7.2062375418e+00    0.3958858    0.2730485  71.11   0.00148934    2.802    0.643
       102  -7.7625    106.4792    212.5070   7.6428719126e+01   1.7463928746e+01    0.1248294   0.09865987  54.43 0.0001025548    1.078    0.072
       103  -8.9767    204.1684    210.5807   5.7470257845e+01   2.7186174687e+00    0.2258505    0.1852053 -36.22 0.0008022861    1.502    0.334
       104  -8.3813    192.3108    210.4110   5.9542037910e+01   4.5355020380e+00    0.1709133    0.1459103 -60.81 0.0006811248    1.764    0.433
       105  -8.8795    147.9947    210.3680   6.7869962831e+01   1.1470301143e+01    0.2518661    0.1897882  86.51   0.00108294    1.996    0.499
       106  -8.8636    116.5083    210.4039   7.4154723938e+01   1.6338625646e+01    0.3369295    0.1738083  59.03 0.0009325522    2.315    0.568
       107  -8.3175     85.3506    209.0816   8.0383003275e+01   2.1103945585e+01    0.2732685    0.1485765  68.35  0.001026878    2.128    0.530
       108  -8.0767     32.3150    209.9997   9.1205915365e+01   2.7462116140e+01    0.1841109   0.06106271  76.22 0.0007036005    4.177    0.761
       109  -9.0247      6.4100    208.6866   9.6171402932e+01   3.0271916972e+01    0.3242978    0.0779043  70.17  0.001208251    4.728    0.788
       110  -9.0188    236.5336    208.1591   5.1666160419e+01  -1.6565536443e+00    0.2397458    0.2030519 -48.05  0.001288025    1.964    0.491
       111  -7.9320     46.2281    209.2411   8.8384212900e+01   2.6059538526e+01    0.1718452   0.07820036  87.11 0.0007308627    2.419    0.587
       112  -9.2841    246.4401    207.1378   4.9937623977e+01  -2.8911095325e+00     0.220801    0.1650555 -19.75 0.0007013712    1.331    0.249
       113  -8.3197    139.0199    207.5360   6.9255715528e+01   1.3343965036e+01     0.213124    0.1692215 -87.46 0.0008027664    1.664    0.399
       114  -8.2625    126.6096    208.2879   7.1848385674e+01   1.5158237097e+01    0.1907861    0.1316504  67.25 0.0009632448    1.727    0.421
       115  -9.1759     99.5288    206.0633   7.7134879981e+01   1.9644251968e+01    0.3488259    0.1890996  67.58  0.001363216    2.394    0.582
       116  -8.5329     57.0128    205.7774   8.5934064723e+01   2.5444461946e+01    0.2779413     0.120352  62.47  0.001343851    2.344    0.573
       117  -9.0781    183.7830    203.7957   6.0057064404e+01   6.7850729966e+00    0.2829994    0.2241686  67.70   0.00112635    1.904    0.475
       118  -8.2737    109.0610    205.1137   7.5048662873e+01   1.8402595395e+01    0.1973601    0.1286764  64.84 0.0006542556    1.660    0.398
       119  -8.1425     92.4573    204.9491   7.8484843150e+01   2.0875266755e+01    0.1659559    0.0941657  78.92 0.0006915134    2.397    0.583
       120  -9.3737    194.9002    203.2923   5.7943955761e+01   5.1049580856e+00    0.3095482    0.2308347 -39.57  0.001244102    1.576    0.365
       121  -9.2871    192.3885    197.1846   5.7394967167e+01   6.3595789418e+00     0.312952    0.2711184 -60.83 0.0007805824    1.659    0.397
       122  -9.6832    164.0090    202.9101   6.3666899417e+01   1.0088125928e+01    0.4231176    0.2405157  54.84  0.001604113    2.191    0.544
       123  -8.5235    131.1423    203.5699   7.0308639763e+01   1.5259952508e+01    0.2505704    0.1791864  75.06 0.0009084357    1.833    0.455
       124  -9.3326    250.0553    201.4043   4.8411480760e+01  -2.7460886850e+00    0.4112379    0.1607018 -33.21  0.002136303    2.523    0.604
       125  -9.2616    245.4097    193.0628   4.7680877088e+01  -1.1574221282e+00    0.2405383    0.1987423 -50.55  0.000708745    2.040    0.510
       126  -8.7969    243.1649    200.7813   4.9373620327e+01  -1.7344054865e+00     0.219081    0.1445271 -24.72 0.0007240447    1.456    0.313
       127  -8.6334    210.9248    201.6583   5.4842227430e+01   2.8517464623e+00     0.200789    0.1556838 -50.16 0.0007776936    1.887    0.470
       128  -8.8401    140.8318    201.2428   6.8016160447e+01   1.4109831678e+01    0.3217475     0.204991  63.54  0.001661933    2.060    0.515
       129  -8.4853     80.3419    201.3642   8.0659837110e+01   2.3263007603e+01    0.2970062    0.1398783  63.00  0.001365521    2.474    0.596
       130  -8.1140     48.4834    201.9991   8.7412262289e+01   2.7212161960e+01      0.17094    0.0769291  73.97 0.0008095751    2.490    0.598
       131  -7.8708     10.4900    202.4575   9.5140985266e+01   3.1106314893e+01    0.1132946   0.07955274  66.48 9.301383e-05    1.027    0.026
       132  -7.8409    222.2041    201.4316   5.2883684506e+01   1.1899031108e+00    0.1476738    0.1022904  42.20 0.0003968892    1.576    0.365
       133  -9.4378    149.6795    198.5681   6.5839673462e+01   1.3121189307e+01    0.3853229    0.2660927  75.58  0.001617249    2.332    0.571
       134  -8.7815    124.1339    199.0948   7.1151009384e+01   1.7158915003e+01    0.2966453    0.2001535  78.93  0.001123512    2.073    0.517
       135  -8.9838    236.9810    198.3398   4.9934121951e+01  -5.8170962763e-01     0.227787    0.1445258 -34.65 0.0009117296    1.736    0.424
       136  -8.5278    177.1308    198.7407   6.0496319600e+01   8.5980639114e+00    0.2245492    0.1925586  88.58 0.0009843049    1.745    0.427
       137  -9.2124    112.8791    198.2051   7.3397090569e+01   1.9086883234e+01    0.3823187    0.2086516  64.13  0.001772088    2.427    0.588
       138  -8.8591     88.5973    198.2375   7.8573540407e+01   2.2710207270e+01    0.3416367    0.1837346  71.90  0.001438927    2.448    0.592
       139  -8.2309    202.1631    197.5044   5.5682725587e+01   4.7614315118e+00    0.1708462    0.1667122 -25.02 0.0005947205    1.376    0.273
       140  -8.9397     61.3901    196.8293   8.4271077309e+01   2.6669967935e+01    0.4025295    0.1729705  65.03  0.001787506    2.718    0.632
       141  -8.6184     12.8348    197.5428   9.4462115221e+01   3.1863521248e+01    0.2326826   0.08591953  63.68  0.001181991    2.269    0.559
       142  -7.9429    133.0195    195.9237   6.8860593233e+01   1.6298874178e+01    0.1966225    0.1429723  68.66 0.0006907699    1.655    0.396
       143  -7.9616     53.4163    196.2299   8.5926679840e+01   2.7780035798e+01    0.1691282   0.09779773  85.09 0.0007004257    1.722    0.419
       144  -8.6645    224.6404    194.0990   5.1215229326e+01   1.7459043201e+00    0.2269967     0.131671 -40.22 0.0009647243    2.029    0.507
       145  -8.9450    185.2659    194.6147   5.8284613610e+01   7.8883928787e+00    0.2159854     0.205574  82.82 0.0005484448    1.422    0.297
       146  -9.1685    160.9418    194.2013   6.2914107982e+01   1.1980390374e+01    0.2940947    0.2197021  77.38  0.001127716    2.081    0.519
       147  -7.9180    230.9632    194.0197   5.0156406600e+01   8.1338559718e-01    0.1440654     0.114937   0.10 0.0003923415    1.056    0.053
       148  -8.6259     77.0147    193.7363   8.0595928616e+01   2.5228400488e+01    0.2062233    0.1477829  74.90 0.0005552162    1.334    0.250
       149  -8.8729     44.0143    193.2888   8.7710418044e+01   2.9490982201e+01    0.3957852    0.1541446  62.71  0.001779556    2.661    0.624
       150  -8.0154    205.4150    191.7182   5.4110873012e+01   5.0439199332e+00    0.1567101    0.1094227 -18.29 0.0003686626    1.465    0.318
       151  -8.3241    198.9701    191.4552   5.5220921573e+01   6.1166448352e+00    0.2083803     0.170817 -48.22 0.0007235697    1.589    0.371
       152  -8.4871    172.3444    191.3837   6.0213108886e+01   1.0526549150e+01    0.2229664     0.176253  76.57 0.0006855316    1.919    0.479
       153  -8.0390    179.1932    191.2707   5.8872650488e+01   9.3986028708e+00    0.1623743    0.1476302  62.18 0.0006725214    1.373    0.272
       154  -9.1697    139.3898    190.2587   6.6695598960e+01   1.6258949797e+01    0.3227296    0.2237876  73.92  0.001393391    2.057    0.514
       155 -10.2943     92.5350    188.7508   7.6622719036e+01   2.4011534752e+01    0.9034973    0.2315577  47.43  0.003113028    3.654    0.726
       156  -8.8271    216.0447    195.5411   5.2920246337e+01   2.8664753522e+00    0.2633713    0.1881613 -52.80  0.001120906    2.229    0.551
       157  -8.6330    148.6741    189.2990   6.4618884233e+01   1.4868174932e+01     0.208968    0.1641006 -71.93 0.0009687448    1.655    0.396
       158  -8.9955    129.3878    188.4868   6.8543962718e+01   1.8244747246e+01    0.3435903    0.2323122  80.35   0.00100718    2.183    0.542
       159  -9.3621    156.0399    187.3722   6.2799285137e+01   1.3949603269e+01    0.3018316    0.2347552 -69.43 0.0008925257    1.715    0.417
       160  -9.5099    120.7197    186.1682   7.0074248002e+01   2.0108416410e+01    0.4484872    0.2613781 -79.03  0.001998658    2.759    0.638
       161  -8.8157     34.4782    188.1197   8.9396866821e+01   3.1625374838e+01    0.3414487    0.1421299  64.15  0.001225164    2.307    0.567
       162  -8.2822    237.2253    188.2402   4.8115181384e+01   6.0135112537e-01    0.1471659     0.129594 -20.50 0.0006489636    1.353    0.261
       163  -8.8844    216.4785    187.6745   5.1460977611e+01   3.8414826268e+00    0.2115479    0.1955041 -21.82 0.0007159706    1.326    0.246
       164  -8.7743    191.4023    187.0815   5.5846443997e+01   7.9986432010e+00    0.2780176    0.2132865 -68.94   0.00153323    2.205    0.547
       165  -9.0911     54.7651    186.6095   8.4813270521e+01   2.9602454774e+01    0.3813055    0.1768311  70.99  0.001366189    2.509    0.601
       166  -8.0844    230.4878    187.0522   4.8994054414e+01   1.7573414471e+00    0.1721516    0.1076738 -29.25  0.001017428    1.559    0.358
       167  -8.6522    164.9611    186.5407   6.0860101465e+01   1.2564298546e+01    0.2209993    0.1844601 -69.24 0.0006869443    1.582    0.368
       168  -9.1348    109.6531    186.0044   7.2478853037e+01   2.1925388478e+01    0.3568541    0.2127058  68.54  0.001359254    2.187    0.543
       169  -9.0521    249.3502    185.3783   4.5695334277e+01  -8.1289837700e-01     0.238468    0.1714534 -33.09 0.0008176908    1.547    0.354
       170  -9.2425    210.2523    183.7488   5.1835611725e+01   5.3764194228e+00    0.3290504    0.1672213 -30.79 0.0005836295    2.022    0.505
       171  -8.7018    183.0090    184.7204   5.7014724827e+01   9.7734183977e+00    0.2337242    0.2115677 -70.00 0.0009070809    1.492    0.330
       172  -8.8773     66.8576    184.3925   8.1887292014e+01   2.8525638912e+01    0.3384786    0.1704343  61.96  0.001030473    2.037    0.509
       173  -8.0340     12.3205    184.9998   9.3977093903e+01   3.4478984611e+01    0.1953123    0.0566336  75.23 0.0007044162    4.237    0.764
       174  -8.4459    224.0887    183.4636   4.9403888761e+01   3.2083966474e+00    0.1824811     0.143491 -16.85 0.0005010847    1.191    0.160
       175  -8.5166    197.2569    183.4071   5.4110123517e+01   7.5682508276e+00    0.2006494    0.1540668 -54.95 0.0009187107    1.814    0.449
       176  -8.8256    174.3396    183.4937   5.8479462236e+01   1.1453617058e+01    0.2377066    0.2146272  86.42 0.0007732071    1.471    0.320
       177  -8.5982    243.1656    183.4239   4.6298445674e+01   3.1762918060e-01    0.1483094    0.1079161  43.46 0.0005863591    1.661    0.398
       178  -8.9246     44.4282    182.2554   8.6754404459e+01   3.1759121187e+01      0.33462    0.1605704  63.57  0.001023394    1.995    0.499
       179  -8.1386      1.7803    183.5718   9.6138814775e+01   3.5692598266e+01     0.158998   0.07521883  47.45 0.0009438201    1.697    0.411
       180  -9.2273    147.5477    180.4216   6.3412159330e+01   1.6637810783e+01    0.3021503    0.2352358  74.24  0.001194166    1.651    0.394
       181  -9.2931     25.8260    179.0266   9.0689776587e+01   3.4458339766e+01     0.579595    0.1886213  72.89  0.002090299    4.242    0.764
       182  -8.8100    137.7705    179.1191   6.5284990507e+01   1.8574940424e+01    0.3455481    0.2212159  66.72  0.001291978    2.158    0.537
       183  -9.3707    191.5656    178.1609   5.4211267132e+01   9.3285068853e+00    0.2608812    0.2376235  69.51 0.0006951095    1.465    0.317
       184  -9.0920     36.1685    176.6303   8.8178942698e+01   3.3899364548e+01    0.5647104    0.2012972  72.98  0.002026493    4.135    0.758
       185  -8.6496    250.5245    172.5178   4.3125986788e+01   5.7154111799e-01    0.2285888    0.1487053 -15.87 0.0005722093    1.350    0.259
       186  -9.2183    248.9411    177.1596   4.4242828451e+01   2.3511969189e-01     0.259469    0.2502054 -46.56  0.001060618    1.635    0.388
       187  -8.0094    247.3095    173.6890   4.3839421514e+01   9.0517201514e-01    0.1263885   0.09860426  -0.54 0.0004317095    1.045    0.043
       188  -8.5352    205.1269    177.6305   5.1620142305e+01   7.1000757366e+00    0.2063131    0.1687494 -38.19 0.0006222496    1.389    0.280
       189  -8.2710    169.2176    178.2539   5.8572437509e+01   1.3214215944e+01    0.1740598    0.1549878  73.63 0.0006905107    1.402    0.287
       190  -8.5340    129.4185    177.4256   6.6834680653e+01   2.0335865470e+01    0.2862844    0.1871557  75.95  0.000973114    2.302    0.566
       191  -8.5669    231.1334    176.7481   4.6986979403e+01   2.9920310056e+00     0.204135    0.1493597 -33.19 0.0006552843    1.441    0.306
       192  -8.6002    217.4562    176.9497   4.9322832248e+01   5.1541232486e+00    0.2113962    0.1720978 -39.37 0.0008286741    1.458    0.314
       193  -9.2125    183.0998    175.9737   5.5421975877e+01   1.1146834377e+01    0.2638398    0.2107633 -53.16 0.0007290297    1.551    0.355
       194  -8.6162     88.9623    176.5293   7.5899928078e+01   2.7068911545e+01    0.2493069    0.1685094  84.64 0.0007948812    1.656    0.396
       195  -9.3312     59.2476    175.7057   8.2747879728e+01   3.1379995468e+01    0.5138661    0.2100957  63.42  0.001889721    3.110    0.678
       196  -9.2413     55.8226    170.6590   8.3038728459e+01   3.2925597889e+01    0.3961051    0.1862152  75.45  0.001675919    2.739    0.635
       197  -8.6306     12.9513    176.3235   9.3392361425e+01   3.6263475651e+01    0.2722529    0.1214804  76.82 0.0009850573    1.993    0.498
       198  -8.6321    202.8828    184.5147   5.3286694297e+01   6.4727254721e+00    0.2051995    0.1744302 -49.99 0.0006406616    1.556    0.358
       199  -9.1579    158.6671    174.8403   6.0120167890e+01   1.5678361429e+01    0.3379159    0.2371479  75.18  0.001001577    2.298    0.565
       200 -10.6228    101.7795    175.5739   7.2800418904e+01   2.5288749769e+01    0.4272735     0.309222  28.94  0.002331436    1.539    0.350
       201 -10.7402     75.7839    170.5313   7.8246348942e+01   3.0289896347e+01     1.168536    0.4327577 -76.91  0.003920866    4.283    0.767
       202  -8.6433    224.6576    174.3038   4.7597634610e+01   4.3500513243e+00    0.2117541    0.1428244 -39.99 0.0009029352    1.672    0.402
       203  -9.7314    175.8728    171.9555   5.6093429233e+01   1.3093039972e+01      0.33572    0.2427492 -37.36 0.0008604958    1.460    0.315
       204  -8.5424    142.9901    172.3432   6.3013979190e+01   1.8936348907e+01    0.1910323    0.1655709  45.97 0.0004504166    1.073    0.068
       205  -8.7950    134.8190    171.5488   6.4671187290e+01   2.0537860385e+01     0.252963    0.1823443 -78.14 0.0009096875    1.847    0.459
       206  -9.5784    121.4266    170.3237   6.7482013674e+01   2.3116167083e+01    0.3621743    0.2582506  87.06 0.0009185404    1.842    0.457
       207  -9.0778     45.1535    170.9922   8.5609671616e+01   3.4135685116e+01    0.3543721    0.1725888  75.70  0.001369257    2.254    0.556
       208  -8.8708    230.3268    170.0603   4.5842057941e+01   4.0131290639e+00    0.1784291    0.1406401 -15.82 0.0005564959    1.139    0.122
       209  -8.4218    205.8220    169.8172   5.0009666103e+01   8.1406575833e+00    0.2214081    0.1649608 -58.81 0.0007766437    2.028    0.507
       210  -8.5730    198.1663    169.7537   5.1394491985e+01   9.4831102158e+00    0.2125918    0.1757011 -41.74 0.0007985373    1.374    0.272
       211  -8.7885    149.9438    169.4145   6.0992798787e+01   1.8237595608e+01    0.3130009    0.2180858  67.02  0.001231914    1.911    0.477
       212  -7.8396    244.3951    169.1922   4.3429274050e+01   1.9145273350e+00    0.1638748    0.1016195 -36.15 0.0007427569    1.664    0.399
       213  -8.3718    237.1077    169.2735   4.4591980408e+01   3.0380240848e+00    0.1713469    0.1470247  -0.75  0.001032853    1.091    0.084
       214  -9.2049    167.1812    168.3733   5.7177712737e+01   1.5285197101e+01    0.3148367    0.2482376  71.31  0.001299917    1.700    0.412
       215  -8.4973    218.8181    168.1678   4.7404586028e+01   6.1685604875e+00    0.1788431    0.1653117 -10.23 0.0004943975    1.196    0.164
       216  -7.9948    211.4776    167.9658   4.8641673972e+01   7.4431990323e+00    0.1682139    0.1099755 -56.02  0.000809125    2.462    0.594
       217  -8.6799    111.8309    167.4186   6.9233372594e+01   2.5348971467e+01    0.3331722    0.2069862  68.06  0.001119026    2.056    0.514
       218  -8.1073     88.8326    168.5935   7.4865518393e+01   2.8794109609e+01    0.1945391    0.1082554  49.86 0.0009013391    1.667    0.400
       219  -9.1266    191.9149    166.3013   5.1894288516e+01   1.1138836999e+01    0.2952705    0.1895804 -39.58 0.0007726975    1.623    0.384
       220  -8.6039    185.0500    166.4453   5.3239391064e+01   1.2355537385e+01    0.2361203    0.1838841 -52.50 0.0006409354    1.558    0.358
       221  -8.9314     20.6787    166.1277   9.1009759193e+01   3.7791545553e+01    0.3585133    0.1121638  52.62  0.001307128    2.757    0.637
       222  -7.7797     13.2986    167.6429   9.2825817853e+01   3.8126818102e+01    0.1309952   0.06532031  65.36 0.0007035589    1.705    0.413
       223  -8.4388    140.9621    166.2157   6.2377425048e+01   2.0476586483e+01    0.2707318    0.1729601  49.77 0.0009962625    1.533    0.347
       224  -9.2155    136.2068    163.8231   6.3009850129e+01   2.1809871748e+01    0.3818634    0.2344012  59.27  0.001220461    1.936    0.483
       225  -9.9621     94.9137    162.5637   7.2522412137e+01   2.9167689190e+01    0.7871307      0.38194  70.87  0.002492912    4.556    0.781
       226  -8.4127    234.0289    164.7293   4.4197857914e+01   4.1372400675e+00    0.2050614    0.1517058 -32.26 0.0006109914    1.364    0.267
       227  -8.7592    159.5836    164.2365   5.7977821207e+01   1.7428863964e+01    0.2791493    0.2177855  78.22 0.0009001446    1.777    0.437
       228  -7.9978    240.4502    163.9998   4.3032143394e+01   3.2056332462e+00    0.1824285    0.1077199 -29.74 0.0006246391    1.547    0.354
       229  -8.7706    212.9094    163.3897   4.7485849535e+01   7.8737508125e+00    0.2247107    0.1734472 -44.07 0.0004907305    1.517    0.341
       230  -9.4514     33.6018    163.0483   8.7681697974e+01   3.7200814704e+01    0.5291114    0.1817861  54.02  0.002235599    2.764    0.638
       231  -8.7060    246.1078    162.7612   4.1910555438e+01   2.4777780333e+00    0.2260902    0.1528554 -18.87 0.0006272146    1.293    0.227
       232  -8.4127    204.8724    162.5588   4.8751836041e+01   9.4112208177e+00    0.2378862      0.16429 -49.83 0.0006839105    1.822    0.451
       233  -9.2641      3.3749    162.2612   9.4830489314e+01   4.0147223010e+01     0.406496    0.1380697  57.29   0.00192615    2.490    0.598
       234  -9.0508     60.4972    160.3707   8.0756935254e+01   3.4656150972e+01     0.333963    0.2225881 -82.82  0.001627052    1.428    0.300
       235  -9.1394    177.3954    160.4068   5.3560760946e+01   1.4789743873e+01    0.2794334    0.2297353 -61.77 0.0008735672    1.532    0.347
       236  -8.8051    151.6832    160.7277   5.9003523595e+01   1.9558242343e+01    0.2597287    0.2122768 -77.84 0.0008412031    1.545    0.353
       237  -8.8021    227.3115    158.8147   4.4112198436e+01   6.0686384705e+00    0.2730586    0.1784992 -47.58  0.000939518    1.965    0.491
       238  -9.3591    241.6996    153.9001   4.0811992734e+01   4.3556934725e+00    0.4579501    0.3280652  85.46  0.002054656    3.908    0.744
       239  -8.9016    243.0330    149.8052   3.9766725778e+01   4.6922093906e+00    0.2594981    0.1537251 -28.87 0.0009526457    1.495    0.331
       240  -9.7041    250.2041    157.5233   4.0250317917e+01   2.5168635736e+00    0.3131557    0.1738028 -33.28 0.0008364628    1.655    0.396
       241  -8.4558    245.3026    158.3124   4.1149727246e+01   3.1859321764e+00    0.1806894    0.1368232   0.51 0.0005536696    1.184    0.156
       242  -8.3990    246.5724    155.4780   4.0386299191e+01   3.3576893183e+00    0.1979342    0.1062593 -29.50 6.919515e-05    1.651    0.394
       243  -8.5934    237.1071    158.8465   4.2533264997e+01   4.4352202291e+00    0.1803208    0.1629496 -22.80 0.0005495806    1.260    0.206
       244  -8.3296    128.4560    158.9509   6.3903298742e+01   2.4203589563e+01    0.2824968    0.1601678  70.10  0.001022459    3.292    0.696
       245  -9.5988    106.0649    158.0434   6.9083540833e+01   2.8329660305e+01    0.4873755    0.2718927  64.87  0.001238439    2.430    0.588
       246  -8.5344    196.7121    157.8228   4.9294902211e+01   1.1634155557e+01    0.2370651    0.1796483 -53.66  0.001066953    1.668    0.401
       247  -8.1540    188.4421    157.4942   5.0798962962e+01   1.3220821523e+01    0.2214557    0.1258814 -48.88 0.0006098325    2.081    0.520
       248  -9.1469    167.7480    157.2091   5.4891270826e+01   1.7179073787e+01     0.312557    0.2446571  84.47  0.001222141    1.880    0.468
       249  -8.6064    218.0637    156.4982   4.5196602576e+01   7.9977124946e+00    0.2376316    0.1680549 -43.37 0.0006851087    1.596    0.373
       250  -7.9166     79.6573    157.7352   7.5594673714e+01   3.2595940514e+01    0.1244094    0.1082347 -15.54  0.000267845    1.600    0.375
       251  -9.2528     81.4945    154.6180   7.4676614998e+01   3.3034823822e+01     0.492248    0.2463065  63.51  0.001335675    2.623    0.619
       252  -9.2619     49.9218    155.2542   8.2845085630e+01   3.7163868631e+01    0.4739847    0.1880901  60.16  0.001838647    3.046    0.672
       253  -9.1691    157.7648    155.5819   5.6679573032e+01   1.9386519712e+01    0.3133418    0.1905246 -49.54 0.0008594845    1.778    0.438
       254  -9.2100    119.5758    155.0424   6.5291712704e+01   2.6625480553e+01     0.363438    0.2433318  85.76  0.001259886    2.178    0.541
       255  -8.3121    204.8336    155.1490   4.7250155789e+01   1.0572589417e+01    0.1919567    0.1804772 -43.62 0.0006107098    1.272    0.214
       256  -8.4907    144.5190    154.5081   5.9385469547e+01   2.2120664271e+01    0.2704915    0.2230704  78.72 0.0008797524    1.457    0.314
       257  -8.2551    232.8497    154.0558   4.2238917736e+01   5.8043448288e+00    0.1853701    0.1671328 -30.77 0.0007037885    1.283    0.221
       258  -9.6236    132.8464    152.7593   6.1722486777e+01   2.4675806027e+01    0.4376719    0.2884434  68.90  0.001190739    2.062    0.515
       259  -9.1870    133.4165    147.8461   6.0626390443e+01   2.5591387718e+01    0.3544503     0.236268 -37.98  0.001669093    1.697    0.411
       260  -9.1238     68.1621    153.6730   7.7961500806e+01   3.5178020465e+01     0.380842    0.1847629  58.49  0.001276718    2.283    0.562
       261  -8.7939     20.0290    152.5138   9.0189537741e+01   4.0952815838e+01    0.1946115    0.1352005  89.61 0.0006420049    1.182    0.154
       262 -10.4498    148.7318    144.9034   5.6484500950e+01   2.3224630523e+01     0.616927     0.415697 -89.57  0.001591928    2.702    0.630
       263  -9.5450     29.4103    150.4817   8.7632500114e+01   4.0535127528e+01    0.5076708    0.1963623  69.30  0.001921293    3.236    0.691
       264  -8.9467    189.5370    150.0661   4.9043079504e+01   1.4266453890e+01     0.283247    0.2195442 -61.75 0.0008466259    1.725    0.420
       265  -8.0405    182.4223    151.1491   5.0662297532e+01   1.5446632290e+01    0.1908337    0.1293712 -51.64 0.0007137628    1.731    0.422
       266  -8.3065    162.3407    150.4020   5.4642476140e+01   1.9482452852e+01    0.2277028    0.1719899 -66.01 0.0007167474    1.698    0.411
       267  -8.5098     98.5692    150.5879   6.9690787280e+01   3.1245952658e+01    0.2822822    0.1821282  74.36 0.0007997844    1.967    0.492
       268  -9.4186    248.9084    149.1159   3.8739146205e+01   3.8259523017e+00    0.2853674    0.1572044 -28.39 0.0007205932    1.584    0.369
       269  -8.3320    213.0508    149.6358   4.4634385864e+01   9.9320962919e+00    0.2167443    0.1724328 -37.68  0.000527491    1.309    0.236
       270  -8.7305      3.2024    150.0240   9.4221428484e+01   4.2918886846e+01    0.2132362   0.09385723  68.89 0.0009898659    2.011    0.503
       271  -8.4614    198.8370    148.7507   4.7004716171e+01   1.2714950340e+01    0.2301087    0.1712813 -60.51 0.0004438138    1.880    0.468
       272  -9.5200     39.9970    147.7372   8.4602713618e+01   4.0076229017e+01    0.5104479    0.2093009  59.52  0.001660438    2.713    0.631
       273  -9.3593    233.3210    147.5122   4.0804103369e+01   6.6486862940e+00    0.2392629    0.1549862 -27.83 0.0006562358    1.391    0.281
       274 -10.2326     55.1109    144.5992   8.0198745624e+01   3.9046484542e+01    0.7945499    0.3450909  67.95  0.002820203    3.585    0.721
       275  -9.7779     55.5596    135.7601   7.8871965414e+01   4.1125735588e+01    0.4821987    0.2921236   1.45   0.00194812    3.523    0.716
       276  -8.2956    223.4354    146.9823   4.2301362020e+01   8.4596210239e+00    0.1908164    0.1838967 -44.81 0.0006769135    1.312    0.238
       277  -9.8397    139.1068    144.7274   5.8658096887e+01   2.5146053347e+01    0.4588973    0.3029042 -80.51  0.001452392    2.485    0.598
       278 -10.2019    106.5840    143.7642   6.6431182301e+01   3.1416661500e+01    0.7741221    0.4762727  87.12  0.002342855    2.612    0.617
       279  -9.3537     13.4602    146.0517   9.1380505818e+01   4.3028920706e+01    0.3808467    0.1724705  65.91  0.001505581    2.085    0.520
       280  -9.8247    240.2050    145.1859   3.9237878022e+01   5.7999239005e+00    0.2296497    0.1551907 -40.50 0.0006717413    1.569    0.363
       281  -7.9400    206.4977    146.0981   4.5038867042e+01   1.1699692619e+01    0.1993269    0.1271006 -34.27 0.0004662079    1.509    0.337
       282  -8.2999    175.7690    145.9627   5.0897022388e+01   1.7665804587e+01    0.2230726    0.1658788 -70.46 0.0007817386    1.961    0.490
       283  -9.8054    125.2256    142.4988   6.1519187120e+01   2.8285348540e+01    0.5467865    0.3551215  88.05   0.00152302    2.580    0.612
       284  -9.3128    247.0179    143.9426   3.7947067990e+01   4.8297938335e+00    0.1948835     0.158405 -15.35 0.0005230417    1.039    0.037
       285  -9.9805     89.3763    146.2200   7.1317061919e+01   3.3749352325e+01    0.7105261    0.3733157 -89.39  0.002465159    3.595    0.722
       286  -8.7996    165.5347    143.8368   5.2570514540e+01   2.0092643057e+01    0.2614385    0.2225572  82.05 0.0007671838    1.476    0.323
       287  -8.7161     78.3119    147.2173   7.4381153843e+01   3.5229569365e+01    0.3189712    0.1674977  64.87  0.001280137    2.455    0.593
       288  -8.5238    182.0389    141.3357   4.8623442633e+01   1.7252049769e+01     0.247219    0.1970649 -64.93 0.0006529048    1.620    0.383
       289 -10.9101     69.2443    138.8450   7.5522943989e+01   3.8540802344e+01    0.8406901    0.4424898 -73.95  0.003112936    1.972    0.493
       290  -9.1782      2.4769    141.4964   9.3908015505e+01   4.4940186837e+01    0.3495965    0.1558421  67.49   0.00153303    2.024    0.506
       291  -8.4727    250.5520    140.6831   3.6743784784e+01   4.6860649962e+00    0.2306204    0.1082935 -26.64 0.0008170588    1.911    0.477
       292  -9.7259     23.5045    138.1160   8.8064397157e+01   4.4036190117e+01    0.5002969    0.2076558  66.36  0.001807285    2.701    0.630
       293  -8.7667    172.4423    138.1922   4.9875393149e+01   1.9758851797e+01    0.3115836     0.227294 -68.02 0.0008656046    1.916    0.478
       294  -7.7102    218.7078    138.3450   4.1225326603e+01   1.0628649140e+01    0.1303681    0.1049048 -59.07 0.0007028388    1.661    0.398
       295  -8.3486    207.7830    137.7713   4.2985979633e+01   1.2791691452e+01    0.2433077    0.1701363 -56.79 0.0008815912    1.935    0.483
       296  -8.6889    197.5131    137.4103   4.4769111690e+01   1.4855940829e+01    0.2558952    0.2137186 -55.60 0.0009153478    1.425    0.298
       297  -8.8644    150.2897    136.0981   5.4224814765e+01   2.4686771128e+01    0.4984565    0.3091453   8.41  0.001728491    3.518    0.716
       298  -9.1990    139.9002    136.9909   5.6829827716e+01   2.6600103444e+01    0.3825281    0.2351716  14.07   0.00137078    3.216    0.689
       299  -9.2551     39.3316    135.8868   8.3448519229e+01   4.2999746395e+01    0.2962764    0.1766804  73.81 0.0008635548    1.695    0.410
       300  -8.8932    248.6021    134.9190   3.5802633450e+01   5.7950610544e+00    0.2603425    0.1567263 -34.16  0.000833428    1.485    0.326
       301  -7.7725    187.8580    135.8041   4.6240088555e+01   1.7061721088e+01    0.1872848    0.1663987 -59.15 0.0005138618    1.309    0.236
       302  -8.2329    162.6680    136.1655   5.1492204949e+01   2.2141247861e+01    0.2240087    0.1783185 -62.91 0.0006337239    1.475    0.322
       303  -7.9753    109.9984    137.0000   6.4242519971e+01   3.2338508961e+01     0.239722   0.08147043  40.30 0.0007988831    2.918    0.657
       304 -10.3593     83.3831    132.9404   7.0611495291e+01   3.7838439477e+01    0.5234571     0.317581 -76.30  0.001471909    1.845    0.458
       305  -8.0494    231.3824    133.8129   3.8161902293e+01   8.9760460503e+00    0.1844977    0.1136594 -21.18 0.0003241779    1.570    0.363
       306  -8.3396    179.4472    133.6777   4.7417951518e+01   1.9156763164e+01      0.24831      0.19395 -55.43 0.0007422743    1.465    0.317
       307  -8.9875    112.9606    133.1722   6.2691397918e+01   3.2661620247e+01    0.3725941    0.2421393  72.84  0.001102137    2.144    0.533
       308  -7.7576    237.6687    133.3633   3.7089848495e+01   7.9115042958e+00    0.1302061   0.09890007 -56.77 0.0007038006    1.809    0.447
       309 -10.4002    132.3433    130.0973   5.7121543905e+01   2.9581227311e+01    0.7820768    0.3681127 -49.33  0.002488173    2.149    0.535
       310  -9.1501    143.0745    131.2900   5.4811568872e+01   2.7148858612e+01    0.3368951    0.2318409 -62.52 0.0008332658    1.714    0.417
       311  -8.9110    250.7602    129.3261   3.4287810126e+01   6.1946829620e+00    0.4606272   0.09541661 -31.74  0.001449218    4.236    0.764
       312  -8.5491    246.9735    129.9816   3.4971105235e+01   6.7557863030e+00    0.2009495    0.1639639 -23.54 0.0006252764    1.077    0.072
       313  -8.0690    204.5517    130.0632   4.1815024375e+01   1.4683707317e+01    0.1912438    0.1139998 -55.25 0.0007795786    2.352    0.575
       314  -8.3834    192.8235    130.0625   4.3969883674e+01   1.7053878086e+01    0.2132362    0.1899782 -54.87 0.0004550123    1.268    0.211
       315  -9.1125    168.3700    129.3568   4.8703876645e+01   2.2266465890e+01    0.2932667    0.2378779 -80.60 0.0007934661    1.625    0.385
       316  -9.3453    153.0262    129.1174   5.2011657322e+01   2.5533919930e+01    0.3580589     0.257622 -66.23 0.0008487027    1.749    0.428
       317  -9.4909     97.9613    128.0215   6.5628689518e+01   3.6572038852e+01    0.6167822    0.2105733 -57.32  0.002071712    2.979    0.664
       318 -10.0676     73.0321    128.6267   7.2759894577e+01   4.0469391823e+01    0.4378095    0.2681082 -83.35    0.0012406    1.872    0.466
       319  -9.7496     12.9629    128.9071   9.0165170251e+01   4.7146328229e+01    0.4950688    0.2050133  63.64  0.001738233    2.532    0.605
       320  -8.0366      1.7305    129.9831   9.3375584654e+01   4.7699514068e+01    0.2266063   0.06530185  55.75 0.0008865316    3.458    0.711
       321  -7.7620    234.6921    129.7141   3.6740259059e+01   8.9753818036e+00    0.1329934    0.0946262   5.81 0.0002471553    1.569    0.363
       322  -7.7981    220.5148    129.5570   3.8960088314e+01   1.1644460769e+01    0.1376999    0.1211637  -9.04 9.193597e-05    1.030    0.029
       323  -8.2503    211.7344    128.9343   4.0296436293e+01   1.3444937842e+01    0.2182063    0.1488356 -55.59 0.0008025348    1.918    0.479
       324  -8.0011    186.3011    129.6414   4.5123920397e+01   1.8469434470e+01     0.145121    0.1147938 -71.13 0.0007037163    1.714    0.417
       325  -8.8528     50.3466    128.6648   7.9344195284e+01   4.3511121007e+01    0.2860093    0.1640234  66.00 0.0008549249    1.940    0.484
       326 -10.4972     44.4969    123.2969   8.0297221704e+01   4.5525870051e+01     0.975764    0.4417795  81.26  0.003425615    3.603    0.722
       327 -10.4401     60.2763    125.1947   7.5888469080e+01   4.3107391900e+01    0.7186808    0.3789838  76.33  0.002804242    2.808    0.644
       328  -9.8206    117.9739    124.8236   5.9569069927e+01   3.3595770216e+01    0.6329912     0.435332  88.13  0.001855208    2.119    0.528
       329  -8.0439    228.6792    125.3066   3.6682256306e+01   1.0742640191e+01    0.1299686    0.1037213 -59.47 0.0007032262    1.638    0.390
       330  -8.9444    179.2694    124.6049   4.5323711906e+01   2.0853742713e+01    0.2884637    0.2319591 -76.91 0.0008221952    1.663    0.399
       331 -10.2267     28.4296    121.5292   8.4895626153e+01   4.7629011360e+01     0.899396    0.3755592  79.09  0.003321632    3.393    0.705
       332  -7.8325    188.5203    123.5421   4.3250187092e+01   1.9089412983e+01    0.1439552    0.1376529 -20.46 3.939621e-05    1.037    0.036
       333  -8.6283     84.6394    122.5427   6.8263732445e+01   4.0141257821e+01    0.3998262    0.2414005  18.62  0.001619425    2.642    0.622
       334  -8.0199    194.8745    121.6016   4.1584589463e+01   1.8094087076e+01    0.2406967    0.1587796 -40.77 0.0005689346    1.473    0.321
       335  -9.5347    158.6228    121.1739   4.8855819149e+01   2.5937743142e+01    0.3704641    0.2642565 -76.16  0.001121087    2.069    0.517
       336 -10.4115    131.3082    118.3060   5.4613776235e+01   3.2352696937e+01    0.6460264    0.4291077 -78.25  0.001992393    2.310    0.567
       337  -9.6787     71.1506    119.6089   7.1656302646e+01   4.2958826508e+01    0.4179241    0.2384872 -74.86  0.001141156    1.899    0.473
       338 -10.0228    141.6495    118.4743   5.2113127726e+01   3.0136945734e+01     0.502502    0.3188867 -64.28  0.001241891    2.047    0.511
       339  -9.4833      3.2749    117.4909   9.2022125502e+01   5.0594918521e+01    0.5119976    0.1913438  64.71  0.002170919    2.920    0.657
       340  -7.9809    231.5018    117.4895   3.4453681174e+01   1.1379418171e+01      0.13651    0.1195515 -27.74 0.0008094332    1.077    0.071
       341 -10.0095    109.4231    114.3126   5.9414361074e+01   3.7660958945e+01    0.5306175    0.3479976 -74.06  0.001519904    1.969    0.492
       342  -8.2722    193.0440    115.0426   4.0323757196e+01   1.9621360431e+01    0.2197111    0.1720219 -63.05 0.0004137417    1.572    0.364
       343  -8.5842    171.9339    121.0447   4.5961595513e+01   2.3087854443e+01    0.2576469    0.1971295 -47.82  0.000514559    1.337    0.252
       344 -10.1382     92.9150    112.4551   6.3676125551e+01   4.1162633184e+01    0.5487183    0.3615281 -78.05  0.001276369    1.878    0.467
       345  -9.9962     79.0239    112.3428   6.7803663142e+01   4.3532452418e+01    0.6114747    0.3821313 -87.95  0.001756845    2.179    0.541
       346  -8.6154     78.3782    105.2072   6.6415833496e+01   4.5381150421e+01    0.3538753     0.223382   6.76   0.00134601    3.125    0.680
       347  -8.8251     59.6845    114.7862   7.4255493195e+01   4.5770358178e+01    0.3126033    0.2042792   7.41  0.001293986    2.489    0.598
       348  -8.3052    167.2257    114.2983   4.5269706783e+01   2.5404223890e+01     0.211445    0.1865498 -29.01 0.0005838568    1.127    0.112
       349  -9.9160    133.6960    109.5583   5.1810236520e+01   3.3742942321e+01     0.638924    0.3152484 -54.61  0.002355695    2.298    0.565
       350  -9.6028    122.0231    112.4786   5.5562550767e+01   3.5560536875e+01    0.3353307    0.2649682 -85.85 0.0005096992    1.526    0.345
       351  -8.8074    174.8059    111.5266   4.2985023448e+01   2.4249136885e+01    0.3009268    0.1856912 -53.26 0.0007154577    1.854    0.461
       352  -8.8095    159.0698    111.5348   4.6331004310e+01   2.7753554587e+01    0.2841854    0.2050816 -58.06 0.0005915233    1.561    0.360
       353 -10.2975     66.7030    109.5431   7.1037577830e+01   4.6098652241e+01    0.6389721    0.3280205 -66.60  0.002432212    1.898    0.473
       354  -9.6678     14.2092    110.6771   8.8038066248e+01   5.1508636899e+01    0.4501037    0.2120557  79.47  0.001638585    2.258    0.557
       355 -10.9448    248.8648    107.8206   2.9754169091e+01   9.5223737099e+00     0.537716    0.3522202 -19.16  0.002905378    1.436    0.304
       356  -8.9072     42.5240    109.1426   7.8727304307e+01   4.9284361143e+01    0.3074877    0.1648516  22.01  0.001408553    2.396    0.583
       357  -8.1308    189.2741    107.4762   3.9120201016e+01   2.1770654866e+01    0.2510341    0.1642069 -53.09 0.0006236553    1.736    0.424
       358  -7.9239    185.6358    115.7836   4.1910582031e+01   2.1089804655e+01    0.2068726    0.1304026 -45.81 0.0003795639    1.612    0.380
       359 -10.8364    110.3540     99.5980   5.5399641427e+01   4.0853460194e+01     1.310765    0.6987975  70.80  0.003644841    4.887    0.795
       360  -8.9825    108.2042     92.0506   5.3915674476e+01   4.2998634733e+01    0.5774987    0.2843461  31.42  0.001983277    2.959    0.662
       361 -10.5056     45.8982    102.1965   7.6394936381e+01   5.0645794343e+01    0.7985598    0.3928968  68.90  0.002940204    3.337    0.700
       362 -10.6702     22.8342    102.5874   8.4237646097e+01   5.2840719539e+01    0.6993982     0.333258  69.95  0.002094551    2.662    0.624
       363  -9.5669    150.6635    103.0387   4.5981626920e+01   3.1344968230e+01    0.5083027    0.3037516 -62.86  0.001197309    2.359    0.576
       364  -9.3823    139.8163    104.4449   4.8939608702e+01   3.3492198349e+01    0.3600138    0.2841071 -89.10 0.0007936966    1.604    0.377
       365  -8.7114     93.2758    104.8233   6.1748918724e+01   4.2919706184e+01    0.2765101    0.2048319   1.55 0.0009925161    2.111    0.526
       366  -8.6310    166.6725    104.0268   4.2711047833e+01   2.7500443712e+01    0.2560026    0.2125359 -79.21 0.0005700676    1.458    0.314
       367  -9.6392    128.4069    101.8569   5.1112172582e+01   3.6551427727e+01    0.3503858    0.2704092 -70.30 0.0007654867    1.501    0.334
       368  -8.7693      6.6831    102.8324   8.9631277341e+01   5.3959083609e+01    0.2502838    0.1468995  71.91 0.0008322323    1.660    0.398
       369  -7.8340    175.6045    101.8233   4.0284682443e+01   2.5871372127e+01    0.2159532    0.1352643 -47.36 0.0004838431    1.622    0.384
       370  -8.4580    159.8271    100.7504   4.3298029951e+01   2.9702963140e+01    0.2866479    0.1902426 -62.88 0.0007179245    1.937    0.484
       371  -9.3080     82.1615    100.0376   6.3992140469e+01   4.6012818484e+01    0.3536172    0.2417543 -78.73 0.0008615882    1.743    0.426
       372 -10.3695     64.2505     94.3877   6.8509739187e+01   5.0204312042e+01     1.010624    0.4373035 -56.41  0.002292957    2.049    0.512
       373  -8.2886    150.4314     96.3878   4.4196745658e+01   3.2734580874e+01    0.3806763    0.2295186 -10.23  0.001231178    3.488    0.713
       374  -9.2672     95.0134     96.5910   5.9106386634e+01   4.4545530043e+01    0.3592171    0.2332408 -63.29 0.0006456473    1.635    0.388
       375  -8.5326    176.4945     93.1737   3.7756448023e+01   2.7245828671e+01    0.3097617    0.2199137 -70.03  0.001042249    1.887    0.470
       376  -8.1340    164.5618     93.9783   4.0404229000e+01   2.9901585788e+01    0.2325291     0.147172 -38.93 0.0004034867    1.522    0.343
       377  -9.3063    139.1296     92.2191   4.5689158611e+01   3.6188313011e+01    0.4196677    0.3019333 -76.40 0.0007498918    1.903    0.475
       378  -7.6063    188.7080     93.3691   3.5509798380e+01   2.4367226935e+01    0.1580767    0.1123272 -62.23 0.0007025981    1.718    0.418
       379 -10.2043    124.0318     91.0397   4.9210461670e+01   3.9843651908e+01    0.5383595    0.4400977  41.24   0.00114214    1.285    0.222
       380  -7.6772    182.8003    109.0779   4.0765479520e+01   2.2921303399e+01    0.1989871    0.1132376 -38.36 0.0004328491    1.677    0.404
       381  -9.0478     22.3072     90.4471   8.2619954352e+01   5.5916147896e+01    0.3480647    0.2156735 -51.79   0.00131402    1.523    0.343
       382  -9.4682      5.1631     91.6459   8.8933043121e+01   5.6804412261e+01       0.2834    0.1642344  59.05  0.001244025    1.837    0.456
       383  -7.7381    157.6180     91.5114   4.1196719156e+01   3.2009394339e+01    0.1549798    0.1456855 -44.26 0.0002872933    1.031    0.030
       384  -9.4190     34.8652     89.5596   7.7882356704e+01   5.5002986374e+01    0.4469956    0.2422454  89.94  0.001473362    2.289    0.563
       385  -8.3197    150.9762     88.9874   4.1948369539e+01   3.4069711664e+01    0.2472121    0.1882319 -73.74 0.0004851554    1.643    0.392
       386 -10.0638     86.5093     85.9126   5.8828172300e+01   4.8611191294e+01    0.6648589    0.4218509 -66.91  0.001925626    1.830    0.454
       387  -7.9672    163.9675     86.9874   3.8534658931e+01   3.1353608133e+01    0.1918714    0.1727702 -38.87 0.0004369465    1.071    0.066
       388  -9.8686     48.7865     84.3288   7.1627366546e+01   5.4754766224e+01    0.5453911    0.3084604  69.69  0.002064609    2.826    0.646
       389  -7.8748    179.1981     85.2565   3.5020539394e+01   2.8016652675e+01    0.2457202     0.100832 -43.68 0.0006168783    2.386    0.581
       390  -9.2380     45.9470     92.2023   7.4410028189e+01   5.3142060960e+01    0.3875066    0.2510608  -1.02  0.001793062    2.456    0.593
       391  -8.5513    158.0159     83.8033   3.8861810734e+01   3.3379782489e+01    0.2693565    0.2156034 -41.55 0.0003890491    1.205    0.170
       392  -9.7776    104.7126     82.8529   5.2219977835e+01   4.5767354711e+01    0.4541689    0.3015119 -64.91 0.0009045879    1.811    0.448
       393  -9.0146    140.9181     82.6030   4.2389183072e+01   3.7708516244e+01    0.3051467    0.2196103 -50.64 0.0005995429    1.404    0.288
       394  -9.2372    250.3146     81.7988   2.3493294597e+01   1.2875425483e+01    0.2905886   0.08404494 -37.08    0.0010805    2.685    0.627
       395  -7.4831    185.2984     82.6046   3.3151959279e+01   2.7018498670e+01    0.1643063    0.1108206 -61.55  0.000124515    1.805    0.446
       396  -7.8860     64.0381     82.5228   6.5589203371e+01   5.3127989097e+01    0.1964063    0.1432344  39.15 0.0006159083    1.500    0.333
       397  -9.5945     24.7855     80.4355   7.9943392755e+01   5.8200223058e+01    0.4481587    0.2560098  81.97   0.00157519    2.161    0.537
       398  -9.2203      9.6444     80.6883   8.5855149281e+01   5.9236716087e+01    0.3387852    0.1625722  57.68  0.001140938    2.551    0.608
       399  -8.2782    150.3305     80.3864   3.9523503911e+01   3.5882348673e+01    0.2664203    0.1768092 -55.53 0.0007246007    1.671    0.401
       400  -8.7153    119.3292     80.0245   4.7140328511e+01   4.3224213302e+01     0.326372    0.2246548 -62.56 0.0008435801    1.713    0.416
       401  -8.8377     74.5733     80.0910   6.1168875617e+01   5.2049246464e+01    0.3490891    0.2383636 -80.37 0.0009854798    1.958    0.489
       402  -8.1283    166.8180     79.3586   3.5711261782e+01   3.2056185445e+01    0.2181967    0.1799308 -43.09 0.0004821426    1.165    0.141
       403  -7.7699    157.0117     76.0289   3.6727197432e+01   3.5063116394e+01    0.1945858     0.172672 -39.21 0.0004496927    1.090    0.083
       404  -9.2169    128.0921     75.1306   4.3236243616e+01   4.2216160972e+01    0.3793122    0.2587335 -61.55 0.0006770121    1.751    0.429
       405  -9.9471     63.3229     73.6397   6.3340308916e+01   5.5348983718e+01    0.4942874    0.2976438 -71.67 0.0009228252    2.077    0.519
       406  -8.5930    140.4832     75.1640   4.0171794816e+01   3.9260259314e+01    0.2460828    0.2120973 -75.76 0.0005356838    1.284    0.221
       407  -9.7179     82.5343     72.4031   5.6041431631e+01   5.2425530990e+01    0.4586958    0.2918116 -70.02 0.0009949413    2.134    0.531
       408  -8.2508    163.4779     73.0701   3.4482525267e+01   3.3996026409e+01    0.2438347     0.146975 -37.92   0.00102356    1.582    0.368
       409  -8.5143    115.8053     72.7123   4.5755450186e+01   4.5526942794e+01    0.3046447    0.2003318 -52.14 0.0005981422    1.569    0.363
       410  -8.3073     42.7243     72.3804   7.1005301535e+01   5.8392198335e+01    0.2517996    0.1552256 -73.10 0.0007773315    1.688    0.408
       411  -7.7003    175.5035     72.4406   3.1980741276e+01   3.1125559980e+01    0.1518148    0.1463629 -41.23 0.0001800776    1.020    0.019
       412  -7.9652    151.3181     72.7096   3.6920359522e+01   3.7071982852e+01    0.1587989    0.1209837 -73.03 0.0002840467    1.599    0.374
       413  -9.2890    105.9075     71.6163   4.8259166486e+01   4.7932478821e+01    0.2960772    0.2136595 -55.08 0.0006925902    1.434    0.302
       414  -9.2456     95.2025     71.0423   5.1383794634e+01   5.0286937945e+01    0.4004105    0.2441089 -60.16 0.0008982313    1.939    0.484
       415  -9.2544     51.4680     69.4760   6.6700887157e+01   5.8006199129e+01    0.4529866    0.2451164 -70.95  0.001379765    2.256    0.557
       416  -9.3898     30.2083     69.3190   7.5381477611e+01   6.0443602958e+01    0.5304744    0.2737914 -34.94  0.002386668    2.366    0.577
       417  -8.9671     16.7319     69.6783   8.1125487190e+01   6.1467948419e+01    0.3338076    0.1968512  82.30 0.0009786949    2.024    0.506
       418  -7.3003    157.2744     69.6668   3.4690525684e+01   3.6139963232e+01    0.1605099    0.1168725 -63.80 0.0002694537    1.599    0.374
       419  -8.8896    147.2396     68.0330   3.6322245003e+01   3.8931176284e+01    0.3245271    0.2330177 -53.40   0.00069121    1.464    0.317
       420  -8.6565    138.6978     65.8888   3.7568548555e+01   4.1433224975e+01    0.3046858    0.1967422 -51.61 0.0007745355    1.646    0.393
       421  -8.8553    121.7574     65.7403   4.1766239890e+01   4.5542158399e+01     0.319261     0.266126 -81.25 0.0008661854    1.413    0.292
       422  -8.8287    110.0585     63.3547   4.4185838401e+01   4.8697213934e+01    0.3303869    0.2020617 -49.92 0.0007981538    1.687    0.407
       423  -8.7471     64.7746     62.8485   5.9367009795e+01   5.7601666861e+01    0.3430744    0.2250508  -9.77  0.001382809    2.500    0.600
       424  -8.7639     37.2474     63.7263   7.0949142630e+01   6.1073997486e+01    0.2784547    0.1929388 -88.89   0.00112127    1.810    0.448
       425  -8.4876     17.8109     62.7749   7.9219005707e+01   6.3060461108e+01     0.231132    0.0951558 -38.10 0.0009560197    2.833    0.647
       426  -8.1245    158.3589     61.7448   3.1939103838e+01   3.7232230633e+01    0.2130343    0.1460997 -24.08 0.0004095647    1.571    0.363
       427  -9.2276     97.6783     60.0445   4.6742617348e+01   5.2060171107e+01    0.3714465    0.3056512 -45.10  0.001181492    1.171    0.146
       428  -9.6773     73.3385     59.2186   5.4834754383e+01   5.6965502581e+01    0.4712849    0.2464305 -55.20  0.001120268    2.030    0.507
       429  -8.0349    147.0393     58.9877   3.3370776909e+01   4.0569309927e+01    0.1939591    0.1729485 -38.08 0.0004417221    1.095    0.087
       430  -8.4422     89.0048     59.3006   4.9301406124e+01   5.3999379215e+01    0.2037751    0.1927894 -47.72 0.0005066665    1.044    0.042
       431  -8.4931    130.8746     57.5338   3.6567601404e+01   4.4864218847e+01    0.3088282    0.1835002 -50.43   0.00069593    1.821    0.451
       432  -9.8004     23.4735     56.2264   7.5050394891e+01   6.4171814034e+01    0.4544654    0.2684734  80.25  0.001958115    2.638    0.621
       433  -9.4379      7.7416     57.2474   8.2605156456e+01   6.5033764936e+01    0.3140615    0.2010498  74.05  0.001074786    1.882    0.469
       434  -8.2312    140.0360     56.0210   3.3893646430e+01   4.2843284140e+01    0.2467544    0.1803176 -65.04 0.0004711684    1.621    0.383
       435  -8.9308    119.0760     55.0677   3.8678502913e+01   4.8167361803e+01    0.4676138     0.214729 -46.58  0.001326979    2.300    0.565
       436  -8.7128     44.2473     55.4512   6.5378026627e+01   6.2180375853e+01     0.256406    0.2056423 -70.44 0.0008109809    1.323    0.244
       437  -8.9998     62.8991     54.5070   5.7162986559e+01   5.9729668758e+01    0.3053203    0.1931362 -57.41 0.0006222863    1.640    0.390
       438  -8.8483     54.1660     53.6759   6.0470531664e+01   6.1240980894e+01    0.3470397    0.2116413 -69.58  0.001164283    2.240    0.554
       439  -8.4292    105.5882     52.8139   4.1611207061e+01   5.1716955932e+01    0.2676366    0.1784194 -44.82 0.0006342353    1.484    0.326
       440  -9.5345     92.4914     50.4006   4.4743438383e+01   5.5034400012e+01    0.4271238    0.2424647 -51.81  0.001171025    1.975    0.494
       441  -8.2228    129.8572     49.0872   3.3760447920e+01   4.6563456694e+01    0.2367493    0.2032764 -64.20 0.0005126946    1.252    0.201
       442  -8.5118    112.5734     46.9654   3.7360440153e+01   5.1137899763e+01    0.3424517     0.202194 -56.29 0.0009383057    2.171    0.539
       443  -8.1201    120.8556     47.1282   3.5237429459e+01   4.9115269284e+01    0.2270622    0.2003882 -59.77 0.0005926658    1.198    0.165
       444  -8.9445     82.1673     46.2470   4.6584831963e+01   5.7935430210e+01     0.301251    0.2180973 -50.28 0.0006427558    1.432    0.301
       445  -8.6276     45.0259     44.4201   6.1064659551e+01   6.4503957237e+01     0.240508    0.1767486 -63.16 0.0005502437    1.481    0.325
       446  -8.9835     16.6494     44.3558   7.5050892834e+01   6.7461676762e+01    0.2723271    0.1733338 -83.26 0.0008966957    1.884    0.469
       447  -8.1501    132.9389     42.9986   3.0788944128e+01   4.6761075653e+01    0.2444054    0.1764397 -62.86 0.0004646151    1.631    0.387
       448  -8.1527    144.6350     48.7197   3.0339865332e+01   4.2871595595e+01    0.2819231    0.1479896 -27.71 0.0006867286    2.003    0.501
       449  -9.3572     69.6685     41.3410   4.9186717090e+01   6.1241393790e+01    0.4176869    0.2512344 -58.08  0.001269983    2.176    0.540
       450  -9.0845     58.2418     42.2596   5.4278772138e+01   6.3015024882e+01    0.3402026    0.2243573 -60.98  0.001174459    1.863    0.463
       451  -9.8628      5.1962     41.9135   8.0375575931e+01   6.8751822625e+01    0.3504068    0.2091194 -87.15  0.001385678    1.919    0.479
       452  -8.6113    106.0201     41.2409   3.6897139624e+01   5.3642968138e+01     0.320027    0.1902791 -43.44 0.0006970445    1.703    0.413
       453  -7.8121    140.4543     41.4518   2.8599684898e+01   4.5068044490e+01    0.1521988    0.1440161 -65.24 4.681956e-05    1.061    0.058
       454  -8.6347     36.9086     40.5826   6.3456284254e+01   6.6338870867e+01    0.2563494    0.1778946 -58.75 0.0006716513    1.418    0.295
       455  -7.8282    160.5001     39.4838   2.4135062736e+01   4.0119468659e+01    0.1538172    0.1401249 -63.73 0.0008091921    1.081    0.075
       456  -8.7077     95.7501     37.9080   3.8542909096e+01   5.6541051841e+01    0.2706953    0.1889821 -50.60 0.0006638221    1.587    0.370
       457  -8.2829     80.7046     36.3610   4.2856236308e+01   6.0016992643e+01    0.2681922    0.1630059 -46.82   0.00101931    1.734    0.423
       458  -9.3832     26.2286     35.0113   6.6786182437e+01   6.8688246190e+01    0.3393045    0.1973252 -61.39 0.0008929769    1.701    0.412
       459  -7.9805    133.4936     35.5499   2.7851748876e+01   4.7727179564e+01    0.1485199    0.1449331 -73.68 0.0001550896    1.029    0.028
       460  -8.0074    125.9586     35.3372   2.9424957686e+01   4.9684322916e+01    0.2029001    0.1922614  52.36 0.0004413289    1.053    0.051
       461  -9.1555    175.5795    247.5213   6.7635696494e+01   2.2433984361e+00    0.2544119    0.2011476  70.97  0.001644582    2.080    0.519
       462  -8.8624     48.6189     33.0620   5.4572686293e+01   6.6299389497e+01    0.2442224     0.203347 -53.20 0.0007212182    1.296    0.228
       463  -8.9581    119.3042     32.6026   2.9879688713e+01   5.1754142958e+01    0.3845314    0.1077778 -35.57  0.001203281    3.237    0.691
       464  -8.8826     60.7542     32.1664   4.8698999565e+01   6.4514811734e+01    0.2677235     0.174364 -49.56 0.0007605609    1.637    0.389
       465  -8.7073     72.1636     30.9224   4.3495466173e+01   6.2638150033e+01    0.2104882    0.1817965 -54.48 0.0006229704    1.333    0.250
       466  -8.9128     13.0639     30.3790   7.2431638607e+01   7.0820690582e+01    0.2667366    0.1542098 -68.48  0.001127101    1.775    0.437
       467  -8.4813    182.2363     28.9643   1.7459922852e+01   3.5814754997e+01    0.2368834    0.2002827  73.88 0.0005672089    1.188    0.158
       468  -8.7093    101.6830     29.1695   3.2973239648e+01   5.6533163795e+01    0.2314863    0.1733837 -49.92 0.0007914468    1.475    0.322
       469  -7.9885     42.3124     29.6878   5.6071747285e+01   6.7849942210e+01    0.1215584    0.1047877 -82.31 0.0004939549    1.632    0.387
       470  -8.9593     81.6393     27.3290   3.8341654103e+01   6.1295075564e+01    0.2759123    0.2195083 -65.92 0.0008145628    1.663    0.399
       471  -9.3695      3.7234     27.5008   7.7032200537e+01   7.2042674941e+01     0.275261    0.1516221 -75.59  0.001256565    1.966    0.491
       472  -7.9591     88.7223     34.3541   3.9220106151e+01   5.8669595728e+01    0.1447044    0.1110622 -62.32 0.0004025296    1.650    0.394
       473  -8.7952     91.8927     25.9530   3.4369967705e+01   5.9256700756e+01    0.2962325     0.192477 -35.84 0.0007320513    1.519    0.342
       474  -8.0348     34.5541     22.7710   5.6757085931e+01   7.0187479739e+01    0.1685613    0.1134293 -52.85 0.0005077574    1.569    0.363
       475  -8.7474     48.4113     21.4695   4.8937677762e+01   6.8426726912e+01    0.2305312    0.1826692 -37.43 0.0007703709    1.207    0.172
       476  -8.7796     63.6534     20.8342   4.1811804031e+01   6.5883156220e+01    0.2502167    0.1913428 -54.64 0.0008287652    1.656    0.396
       477  -8.3293     19.5054     21.0172   6.4650338249e+01   7.2210247070e+01    0.1893982    0.1054582 -52.14 0.0006612574    1.565    0.361
       478  -9.1365     74.2751     19.3117   3.6934720079e+01   6.4013254465e+01    0.3228112    0.2108194 -45.99 0.0009018014    1.743    0.426
       479  -7.9762     11.5510     20.4956   6.9423121332e+01   7.3002098578e+01    0.1222995   0.09802608 -41.83 0.0001448999    1.019    0.018
       480  -8.2474     87.8480     17.2926   3.1424807376e+01   6.1346393258e+01    0.2385212    0.1773535 -37.13 0.0007105537    1.386    0.279
       481  -7.9207     38.6221     18.2297   5.2159422657e+01   7.0451736181e+01    0.1760389    0.1051801 -32.24 0.0002750288    1.521    0.342
       482  -7.5263    112.7432     16.6664   2.4630750505e+01   5.5460557670e+01     0.145814    0.1046447  23.17 0.0002228726    1.568    0.362
       483  -8.9934    132.3217    247.8314   7.5280136107e+01   8.2158885313e+00    0.2429158      0.16068  66.49 0.0007847176    1.953    0.488
       484  -8.9661      7.4345     15.1842   6.9780973614e+01   7.4377339058e+01    0.1637325    0.1035892 -65.69 0.0008626697    1.704    0.413
       485  -7.6813     83.6501     10.7303   2.9346292461e+01   6.3088903224e+01    0.1449226   0.09460036  28.76 0.0002616451    1.625    0.384
       486  -8.1103    113.1483    248.4236   7.8777421254e+01   1.0759052900e+01    0.1801327    0.1139133  82.01   0.00111094    2.297    0.565
       487  -9.1813    103.8945    246.7720   8.0298254119e+01   1.2247308189e+01    0.3628887    0.1922381 -85.98  0.001942152    3.239    0.691
       488  -9.1516    233.1530    246.2808   5.8012898005e+01  -5.2019468507e+00    0.3354228    0.1985664 -12.02  0.001951401    1.713    0.416
       489  -8.6082    218.6796    247.5766   6.0475149093e+01  -3.5119600554e+00      0.21027     0.116984 -32.25  0.001384367    2.098    0.523
       490  -9.1676    156.4708    247.0754   7.0909031819e+01   4.9524033787e+00     0.317544    0.2012559 -17.57  0.001747709    2.497    0.599
       491  -9.0566    243.0619    245.7193   5.6409493457e+01  -6.3542333969e+00     0.299894     0.145825 -19.63  0.001928127    2.152    0.535
       492 -10.0823    223.8854    243.8861   5.9136673349e+01  -3.8045665540e+00    0.3554752    0.2017085 -40.51  0.002312466    2.483    0.597
       493  -9.2537    210.9232    246.1420   6.1533055288e+01  -2.3624494593e+00     0.194897    0.1451623 -40.74 0.0008366465    1.932    0.482
