#   1 NUMBER                 Running object number                                     
#   2 MAG_AUTO               Kron-like elliptical aperture magnitude                    [mag]
#   3 X_IMAGE                Object position along x                                    [pixel]
#   4 Y_IMAGE                Object position along y                                    [pixel]
#   5 X_WORLD                Barycenter position along world x axis                     [deg]
#   6 Y_WORLD                Barycenter position along world y axis                     [deg]
#   7 A_WORLD                Profile RMS along major axis (world units)                 [deg]
#   8 B_WORLD                Profile RMS along minor axis (world units)                 [deg]
#   9 THETA_WORLD            Position angle (CCW/world-x)                               [deg]
#  10 FWHM_WORLD             FWHM assuming a gaussian core                              [deg]
#  11 ELONGATION             A_IMAGE/B_IMAGE                                           
#  12 ELLIPTICITY            1 - B_IMAGE/A_IMAGE                                       
         1 -16.2892    242.9326    111.3411   1.1534522299e+01   1.2042196394e+01     3.275845      0.96179 -35.34   0.01381529    2.690    0.628
         2 -16.2276    243.0118     65.9486   2.1252903353e+00   1.8118905291e+01     2.581816     1.115807 -36.18   0.01342201    1.792    0.442
         3 -15.6768    221.6000     52.6948   1.1504887086e+00   2.3776244700e+01     2.587994    0.9446773 -38.83   0.01182908    2.122    0.529
         4 -13.7008    202.4486     29.5543   3.5733206011e+02   3.0588671216e+01    0.7646185    0.3718604 -62.12  0.003663817    2.072    0.517
         5 -15.1299    192.7963     38.2907   4.2839507809e-01   3.1669375942e+01     1.403374     1.265044  76.55  0.006357636    1.214    0.176
         6 -13.8611    179.5761     24.4584   3.5804880162e+02   3.6368720898e+01    0.8339935    0.4271547 -68.70   0.00351345    2.098    0.523
         7 -13.7389     81.4061     39.0409   2.1907597513e+01   5.9166076421e+01    0.7318045    0.4371704 -45.36  0.003281486    1.819    0.450
         8 -14.2536     43.8117     27.1317   3.2406251239e+01   6.9103949303e+01    0.8577697    0.7812269  -7.35  0.005197104    1.071    0.066
         9 -12.2763    246.5791     16.5153   3.5156451482e+02   2.3242236449e+01    0.4876741    0.2025425 -51.28  0.002455197    1.811    0.448
        10 -12.8107    238.1143     18.3018   3.5236527657e+02   2.4612448461e+01     0.500556    0.2861741 -16.58  0.002773996    2.345    0.574
        11 -13.9945    232.1268     13.0523   3.5155533231e+02   2.6299054556e+01    0.9019135    0.6707516 -68.12  0.005668106    1.157    0.136
        12 -13.1582    143.0116      3.8818   3.5546503469e+02   4.7524213682e+01    0.5993323     0.420086 -86.27  0.003184215    1.280    0.219
        13 -14.3646    160.8337     11.7650   3.5620089037e+02   4.2276844012e+01     1.533616    0.4808691  70.54  0.005912623    2.806    0.644
        14 -13.6942    169.6110      2.8424   3.5285276972e+02   4.0970470196e+01    0.5168082    0.4596222 -54.83  0.003084571    1.147    0.128
        15 -14.1673    157.0861      3.1420   3.5393049155e+02   4.4024274700e+01     1.126838    0.4293187  77.00  0.004746052    2.367    0.578
        16 -11.4879    192.2550      5.2696   3.5197433892e+02   3.5439649738e+01    0.2600911    0.1385751 -40.95  0.001054016    1.592    0.372
        17 -10.8387    129.3379      4.3008   3.5711212652e+02   5.1029370899e+01    0.1404096   0.09244166  46.97 0.0006313347    1.664    0.399
        18 -11.4329      1.9131      2.8403   4.9639782594e+01   7.9303478364e+01    0.2575103    0.1428351 -45.44  0.001434596    1.673    0.402
        19 -13.1324     40.5171     12.9740   2.5856486724e+01   7.1932198932e+01    0.3339902    0.2469505 -25.04  0.001894932    1.410    0.291
        20 -11.3719    175.4831    180.1270   3.6055997978e+01   1.1979762241e+01    0.2977006    0.1762437  31.74  0.001547935    1.618    0.382
        21 -10.6676    250.4479    249.6960   3.4224017078e+01  -6.0445300514e+00     0.165475   0.07848711 -32.91  0.001130789    2.075    0.518
        22 -10.9450    146.4840    179.4932   4.2117355553e+01   1.6676643981e+01    0.1367925    0.1237848  16.09 9.575067e-05    1.030    0.029
        23 -12.7811    214.8911    206.2128   3.3298059921e+01   2.6618963463e+00    0.4845091    0.2881872  43.21  0.002831862    2.296    0.564
        24 -13.3710    185.8506    167.8042   3.1746986009e+01   1.2427653819e+01    0.6059027    0.4583394 -36.34  0.003576913    1.300    0.231
        25 -13.4860    177.7431    169.6744   3.3675399721e+01   1.3399115387e+01    0.7160543     0.393713 -41.51   0.00348108    1.811    0.448
        26 -13.0694    169.3082    162.0721   3.3916212523e+01   1.6117434588e+01    0.7793999    0.5063398 -25.43  0.003933846    1.645    0.392
        27 -13.9555    174.6854    160.2763   3.2468530019e+01   1.5533372609e+01    0.7988173    0.4681049  60.70   0.00325574    3.233    0.691
        28 -12.7979    205.9168    163.0524   2.7218754009e+01   1.0097650388e+01    0.5088805    0.4022748 -27.57  0.002263213    1.143    0.125
        29 -15.3230    198.9904    177.6294   3.1150727427e+01   8.8690047403e+00     1.630414     1.035129  42.48  0.007963086    1.808    0.447
        30 -12.8638    140.6501    162.4431   4.0331599958e+01   2.0980087534e+01    0.4570817    0.2167042  48.14  0.001806786    2.406    0.584
        31 -11.2807     14.6197    160.2327   7.6082913654e+01   3.9438231317e+01    0.1917419    0.1126687 -69.48 0.0009567917    1.670    0.401
        32 -14.0157    163.6348    149.4875   3.2561043089e+01   1.9418689142e+01     0.905007    0.6105095 -10.46  0.004246087    1.953    0.488
        33 -13.2190    167.3470    138.9790   2.9543761624e+01   2.0705094873e+01    0.7186967    0.5739802 -60.14  0.003796051    1.500    0.333
        34 -13.6044    179.5735    135.0788   2.6262984322e+01   1.9149258387e+01    0.8345308    0.4874969  36.73  0.003981709    1.842    0.457
        35 -11.2874     86.0166    150.5141   5.2733401877e+01   3.3060987638e+01    0.3204535    0.1770581  73.87  0.001045808    3.572    0.720
        36 -13.3028    246.0095    143.3821   1.7416206036e+01   7.1859725923e+00    0.6450322    0.4453018  22.95  0.004233774    1.677    0.404
        37 -11.6834     81.6980    239.0596   6.4966045193e+01   1.4735477465e+01    0.2589678    0.1580345  23.97  0.001487613    1.456    0.313
        38 -14.4832    225.7277    172.6269   2.5764102919e+01   5.8807526606e+00      1.27748    0.6627288  37.10  0.007181467    2.091    0.522
        39 -14.9459    244.1847    223.7385   3.1395173414e+01  -2.7117805823e+00      1.08483     1.059191  37.33  0.008939104    2.218    0.549
        40 -14.4841    178.3359    150.6337   2.9801220725e+01   1.6613533694e+01     1.209818    0.7176035 -35.68  0.005983451    1.617    0.382
        41 -11.6669    121.9918    125.5142   3.7177029466e+01   3.2362699864e+01    0.2434952    0.1490059  41.54   0.00103897    1.609    0.378
        42 -10.9272    203.8285    122.8307   1.9340008452e+01   1.6830397301e+01    0.2473323    0.1584771 -56.41  0.001118996    1.961    0.490
        43 -10.4432    208.0336    123.0000   1.8716101316e+01   1.6064285363e+01    0.2481012    0.1064191  49.01  0.001093174    2.656    0.623
        44 -12.1406    187.9850    121.7827   2.1760636753e+01   1.9903172349e+01    0.2597086    0.1853755 -35.86  0.001366449    1.284    0.221
        45 -11.8533    129.6391    116.8771   3.3067998482e+01   3.2678646862e+01    0.2727582    0.2135094  31.67 0.0009776092    1.357    0.263
        46 -11.0410    183.5025    114.4894   2.0879204028e+01   2.2021829771e+01     0.138616    0.1276287 -35.24  0.000208611    1.020    0.019
        47 -11.3999    212.4800    111.8350   1.5622916526e+01   1.7028709090e+01    0.2517717    0.1972105 -61.87  0.001485587    1.504    0.335
        48 -13.3376    143.7548    101.3465   2.5616324427e+01   3.2825736412e+01    0.7499775    0.3548571 -43.79  0.002906853    2.074    0.518
        49 -12.6723    146.7417     95.9785   2.3502539957e+01   3.3201206439e+01    0.3372588    0.2408126 -45.39  0.001179682    1.371    0.271
        50 -11.7506    103.2101    105.5886   3.7569130468e+01   4.0732332827e+01    0.2269559    0.1496979  31.59 0.0009543698    1.678    0.404
        51 -12.6447    112.5238     99.8873   3.3251975567e+01   4.0041836716e+01    0.4611826    0.3357084 -44.54  0.002125356    1.394    0.283
        52 -11.6020     91.7098    100.9862   3.9991830948e+01   4.4149417233e+01    0.2289329    0.2158315 -59.94  0.001186832    1.072    0.067
        53 -12.9351    151.6080     91.6614   2.1280913173e+01   3.2914548238e+01    0.3771377    0.3053299 -87.90  0.001376908    1.454    0.312
        54 -12.7162     43.7373     90.2589   5.5706904539e+01   5.4967825831e+01    0.5238879    0.2991649  29.83  0.002285453    1.774    0.436
        55 -13.0670     13.6213     89.4801   6.9327085992e+01   5.8216174703e+01    0.4790867    0.2785917 -11.66  0.002172126    2.147    0.534
        56 -12.0242      2.6314     88.1978   7.4286987662e+01   5.9212112030e+01    0.3358679    0.2015046  67.53  0.001627687    1.801    0.445
        57 -12.5316    144.1342     80.9273   1.9851741339e+01   3.6622305332e+01    0.5688641    0.3826263  80.62  0.002458476    1.972    0.493
        58 -12.9802    148.5161     79.4914   1.8516235647e+01   3.5847156811e+01     0.636477    0.4242976 -69.97   0.00276729    1.957    0.489
        59 -13.2870     93.8622     78.9881   3.2748983852e+01   4.8694552793e+01    0.5440896    0.4193796 -65.29  0.002549494    1.472    0.321
        60 -12.5777    219.9861     76.8156   6.8169788978e+00   2.0839410080e+01    0.3109264    0.1966482 -59.99  0.001694036    1.699    0.412
        61 -10.8846    106.2881    145.6744   4.5918675987e+01   3.0749568653e+01    0.1520647     0.117218  73.26 0.0003781809    1.610    0.379
        62 -11.5743     40.0023    140.5294   6.5992283179e+01   4.2060274153e+01    0.2897758    0.2612861 -15.71  0.001621778    1.296    0.228
        63 -11.2873     74.2126     69.3999   3.6591439324e+01   5.4919381772e+01    0.2208667    0.1405288  51.84 0.0009484343    1.661    0.398
        64 -11.4899    198.9878     63.3398   6.0875850560e+00   2.6965380638e+01    0.3049901    0.1877121 -52.02  0.001579215    1.509    0.337
        65 -11.9016    132.3826     63.2502   1.7019727094e+01   4.2596311908e+01    0.3221066    0.1403048 -39.34  0.001201794    2.261    0.558
        66 -12.1372    194.9429     57.0611   4.9993486180e+00   2.8716998503e+01    0.3863002    0.2718581  33.57  0.002010833    2.012    0.503
        67 -11.4398    136.3998     56.2634   1.3914290260e+01   4.2748710713e+01     0.269743    0.1825845  89.20 0.0009595092    1.804    0.446
        68 -12.6276    198.9841     51.3005   3.0866351210e+00   2.8623900872e+01    0.4497838    0.2358693 -51.78  0.002185018    1.768    0.434
        69 -11.8673    206.1139     24.1359   3.5571377208e+02   3.0414413755e+01    0.3264523    0.2515332 -23.25  0.002005409    1.474    0.322
        70 -15.9646    247.1417    193.7337   2.6201846575e+01   5.0043692839e-01      3.11201    0.7966839 -34.92    0.0138264    3.297    0.697
        71 -13.4395    146.5738    207.7364   4.6686867283e+01   1.1579314761e+01    0.9625154    0.5672455  10.83  0.004728505    2.025    0.506
        72 -12.7069    143.6384    203.7373   4.6723110564e+01   1.2695099672e+01     0.700196    0.3131852  24.12  0.002973694    2.407    0.585
        73 -12.7780    156.6787    231.4100   4.7944543199e+01   6.4279809693e+00    0.4151413    0.3258839  49.69  0.002699731    1.708    0.415
        74 -12.0870    123.0367     46.5823   1.3463776794e+01   4.7646036547e+01    0.4138588     0.235703  44.93  0.001753048    1.910    0.476
        75 -11.3858    111.6769     37.3311   1.2621715942e+01   5.1918857996e+01    0.1555102    0.1090033 -70.96 0.0007049972    1.700    0.412
        76 -12.5846     97.1219     36.6294   1.6030351511e+01   5.5716089998e+01     0.282652    0.2291233 -22.06  0.001228848    1.388    0.280
        77 -10.8472     62.2335    138.9943   5.8267973852e+01   3.9609204500e+01    0.1999572    0.1238239 -66.02 0.0008818479    1.639    0.390
        78 -14.6089    152.6570    219.9993   4.7186570544e+01   8.7130176609e+00     1.277243    0.9515296  69.93  0.007010429    2.540    0.606
        79 -10.9796    234.6025     28.5971   3.5477310544e+02   2.4154879515e+01    0.1918535    0.1522414 -51.42  0.001345022    1.044    0.042
        80 -13.0755    172.3293    140.3081   2.8817825908e+01   1.9538292549e+01    0.5114899    0.3460146 -22.49  0.002078943    1.634    0.388
        81 -11.7192     89.6784     27.9132   1.4372916450e+01   5.8803068535e+01    0.2743245    0.1869627  49.85  0.001344716    1.370    0.270
        82 -11.0322    240.9568     25.2188   3.5366825676e+02   2.3340383500e+01    0.2090155    0.1324902 -41.63  0.000866824    1.230    0.187
        83 -10.9633    102.9524     25.6900   9.9967361284e+00   5.5717348727e+01    0.2132256    0.1790274  67.27  0.001159695    1.094    0.086
        84 -11.5235    224.6293     21.3909   3.5381110287e+02   2.6886933918e+01    0.3348204    0.1621669 -50.42  0.001837587    1.637    0.389
        85 -12.4894    105.4501    225.5793   5.8241105375e+01   1.4133084506e+01     0.309015    0.2312607  50.48   0.00170741    1.379    0.275
        86 -11.1094     79.3266    224.6701   6.4195981878e+01   1.7677463680e+01    0.1354349   0.07964404  53.34 0.0007050866    1.706    0.414
        87 -13.2101    202.8799    221.2677   3.7733035032e+01   2.1130231407e+00    0.4138776    0.3264247  11.55   0.00301378    1.145    0.127
        88 -12.1409    187.3315     19.3294   3.5597703924e+02   3.5127662334e+01    0.3119139     0.192517 -74.80  0.001362932    1.546    0.353
        89 -13.7184    210.1485    214.3375   3.5399711701e+01   2.1586523809e+00    0.5068332    0.3263696  -8.01    0.0028706    1.410    0.291
        90 -12.1224    221.0893    222.4993   3.4828570786e+01  -1.3276807816e-01    0.2312321   0.09094924  36.14  0.001217264    2.656    0.623
        91 -15.8698    191.9485    189.7044   3.4580245645e+01   8.0191029666e+00     2.189209     1.469049 -39.43   0.01144284    1.555    0.357
        92 -13.1832     93.2600    199.4334   5.8031054715e+01   2.0855554003e+01    0.4778858     0.308104   0.07  0.002219357    2.257    0.557
        93 -12.9404    146.6546    222.7557   4.8827522238e+01   9.0808462335e+00    0.7119066    0.4412935 -58.88  0.003886587    2.365    0.577
        94 -11.9134    212.1821    200.7761   3.2865245762e+01   3.7277331624e+00    0.2451976    0.2152751  71.44  0.001609491    2.292    0.564
        95 -11.5610    123.1607    187.3014   4.8894723594e+01   1.8872017886e+01     0.229291    0.1668836  14.30  0.001059142    1.445    0.308
