#   1 NUMBER                 Running object number                                     
#   2 MAG_AUTO               Kron-like elliptical aperture magnitude                    [mag]
#   3 X_IMAGE                Object position along x                                    [pixel]
#   4 Y_IMAGE                Object position along y                                    [pixel]
#   5 X_WORLD                Barycenter position along world x axis                     [deg]
#   6 Y_WORLD                Barycenter position along world y axis                     [deg]
#   7 A_WORLD                Profile RMS along major axis (world units)                 [deg]
#   8 B_WORLD                Profile RMS along minor axis (world units)                 [deg]
#   9 THETA_WORLD            Position angle (CCW/world-x)                               [deg]
#  10 FWHM_WORLD             FWHM assuming a gaussian core                              [deg]
#  11 ELONGATION             A_IMAGE/B_IMAGE                                           
#  12 ELLIPTICITY            1 - B_IMAGE/A_IMAGE                                       
         1 -14.5093      2.4712     86.1064   1.3324940632e+02   5.7512261986e+01     4.459108          nan -62.54   0.01184319    7.124    0.860
         2 -13.5630    201.6543     29.2789   6.4172520476e+01   3.1533409167e+01     1.346978      1.19408  60.52   0.00717731    1.256    0.204
         3 -14.7032      4.6943    141.5425   1.4062529961e+02   4.5018083933e+01     3.796007     1.265922 -80.75   0.01476289    3.315    0.698
         4 -13.5481    217.9723     11.1736   5.8361956378e+01   2.9902008725e+01    0.9043927    0.7610301  70.25   0.00237254    1.270    0.212
         5 -12.0610      3.9502      4.6794   1.0892866446e+02   7.1643684405e+01    0.4809225    0.2624016 -25.16  0.003360409    1.430    0.301
         6 -10.7355     81.6837    249.2303   1.3557163535e+02   1.1994978163e+01    0.2216669    0.1615753  50.77  0.001396412    1.202    0.168
         7 -12.8459    228.4247    249.5988   1.0717921105e+02  -1.1747848708e+01     1.194107     0.307048  34.23  0.004349583    3.861    0.741
         8 -11.6985    138.8295    248.3890   1.2436665772e+02   2.9804301668e+00     0.510289    0.2417682 -55.22  0.002423975    2.493    0.599
         9 -11.3641    123.7015    249.9028   1.2754862625e+02   5.2345859050e+00    0.5051675    0.1106005  39.69  0.001623319    4.076    0.755
        10 -13.0868     36.7978    246.5173   1.4348443888e+02   1.8634077877e+01      1.19835     1.092881  68.88  0.009203903    1.419    0.295
        11 -14.0918      9.5916    239.1753   1.4763930457e+02   2.3173671766e+01      2.06446     1.456862 -86.88   0.01519571    1.209    0.173
        12 -13.0906     42.9786    212.5957   1.3950584509e+02   2.4936191757e+01     1.061521    0.7818996 -74.78  0.005736552    1.259    0.206
        13 -12.8907     27.2971    229.9583   1.4395115685e+02   2.3098000869e+01    0.2909563    0.2204553 -72.31 0.0007742398    1.396    0.284
        14 -14.1155     32.2354    223.8801   1.4257297773e+02   2.3795253720e+01    0.7938351    0.5619053  71.04  0.002449268    1.133    0.117
        15 -10.9393     64.0222    247.2135   1.3866604846e+02   1.4931551241e+01    0.3564997    0.1923315  74.12  0.001313243    1.901    0.474
        16 -12.2143    150.0041    248.3134   1.2213839932e+02   1.1047748607e+00    0.7017421    0.2662345  50.14  0.002800064    2.724    0.633
        17 -11.5726    162.7404    248.1744   1.1959192387e+02  -1.0279092980e+00    0.3786238    0.2671796 -46.42  0.002200083    1.659    0.397
        18 -12.6115    244.6172    247.4458   1.0388156840e+02  -1.3757371040e+01    0.6622039    0.4537864 -36.01  0.004239543    1.616    0.381
        19 -12.0961    125.8620    232.1447   1.2477636387e+02   8.2236977052e+00    0.6948599    0.1539123  40.85  0.002174252    3.927    0.745
        20 -12.0890     93.3046    227.8675   1.3093599325e+02   1.4492033657e+01    0.5411358    0.2022005  42.16  0.002271964    2.371    0.578
        21 -12.1404    110.5664    231.2138   1.2780849539e+02   1.0998413595e+01    0.5905477    0.1771701  41.98  0.002190487    2.881    0.653
        22 -13.5506     50.2212    206.5703   1.3742898245e+02   2.5363004376e+01      5.31663     1.654753  62.33   0.01022494   13.634    0.927
        23 -11.8198    175.1107    249.0932   1.1728731619e+02  -3.2570504735e+00    0.6016235    0.2112937  49.48  0.002210399    3.399    0.706
        24 -12.5592     10.5682    120.7490   1.3643057691e+02   4.9381605533e+01    0.5401945    0.3879366 -88.54 0.0005910121    1.393    0.282
        25 -13.3892      3.0909    111.3429   1.3717776408e+02   5.1987225935e+01     1.348928    0.5988702 -64.61  0.007175746    1.677    0.404
        26  -8.6534    152.5380    213.0404   1.1618694998e+02   7.2510675953e+00     0.188018    0.1408397 -51.25 0.0003448691    1.447    0.309
        27 -12.5754      9.7434    206.9437   1.4549097079e+02   2.9826647034e+01    0.6609986    0.4307466  35.21  0.002974263    1.853    0.460
        28 -10.4545     54.1919    203.8543   1.3630616828e+02   2.5459634531e+01     0.351635    0.1892171  76.38  0.001666455    2.100    0.524
        29  -9.4258     34.6707    202.8292   1.4025621323e+02   2.8094473175e+01    0.1806996    0.1623719  56.14 0.0006286057    1.321    0.243
        30 -11.7928     55.7268    197.0857   1.3521266073e+02   2.6802960767e+01    0.2861687    0.2356421 -64.77 0.0005500336    1.283    0.220
        31 -12.0194     62.5993    188.6961   1.3265760500e+02   2.7831318951e+01    0.2766913    0.2436233 -71.28 0.0004975923    1.178    0.151
        32 -11.0663      4.0566    183.7976   1.4482262094e+02   3.5434175117e+01     0.355968    0.1818033  63.63 0.0007964975    1.919    0.479
        33 -10.8311     73.6889    176.0085   1.2828871846e+02   2.9278467245e+01    0.2499162    0.2176901 -79.23 0.0003350948    1.047    0.045
        34 -13.2466     59.9657    173.9828   1.3129121052e+02   3.1688620807e+01    0.5501938     0.281126 -47.06  0.001698142    2.281    0.562
        35  -9.5596     92.2959    169.7256   1.2271126336e+02   2.7892267471e+01      0.27102    0.1972651  71.31 0.0007384318    1.506    0.336
        36 -11.9680     81.4394    167.0032   1.2495358054e+02   3.0290226496e+01    0.7081513    0.5079914 -50.13  0.003623636    1.435    0.303
        37 -10.3740     95.0333    151.6631   1.1867586426e+02   3.1825627003e+01    0.3020143    0.2844902 -81.29 0.0006915954    1.019    0.019
        38 -11.9151     83.5125    150.5686   1.2149993460e+02   3.3979099374e+01    0.3203573    0.2525147 -48.07 0.0005823858    1.282    0.220
        39  -9.2334     98.1853    147.6490   1.1704144243e+02   3.2259936597e+01    0.1953847    0.1927791  35.02  0.001095892    1.120    0.107
        40 -12.1315     67.3096    143.4227   1.2450956287e+02   3.8123959815e+01    0.6860467    0.4366961  60.89  0.003251832    1.897    0.473
        41  -9.8494    107.9682    136.8755   1.1212498419e+02   3.3095455088e+01      0.43443    0.2788194 -19.18  0.001633089    2.755    0.637
        42 -10.5619     94.7777    134.1654   1.1511070334e+02   3.6105541734e+01     0.247515    0.2249248 -38.95  0.000335082    1.141    0.124
        43  -8.8020    114.5956    129.7097   1.0869561812e+02   3.3529233237e+01    0.1586698    0.1226944  -3.72 0.0006990268    1.807    0.447
        44  -9.2406    105.7707    123.5293   1.0962670137e+02   3.6652819302e+01    0.1991838    0.1508406  40.45 0.0004026818    1.377    0.274
        45  -8.1662    221.7028    213.6962   1.0212384446e+02  -5.2810247462e+00    0.1340857   0.09493583   0.52 0.0002611607    1.583    0.368
        46 -10.8067    243.4950     93.4967   7.3142063887e+01   1.2277212229e+01    0.2709112    0.1042683 -48.91  0.001044276    2.428    0.588
        47  -9.8995    159.5102     77.9762   8.3857638220e+01   3.4430599713e+01    0.2257246    0.1478332 -40.05  0.000538426    1.564    0.361
        48  -9.8084     59.9328     78.0612   1.1175922754e+02   5.3937424097e+01    0.2838106    0.1837838  43.27  0.001258145    1.836    0.455
        49  -9.0041     42.1933     67.1065   1.1482826637e+02   5.8214889161e+01    0.1491075    0.1453449 -51.47 0.0003943467    1.304    0.233
        50 -11.0252    156.9994    249.5011   1.2091988141e+02  -2.8116092829e-01    0.3649429    0.1351016  45.26  0.001520795    2.366    0.577
        51 -11.3940     97.3533    246.7342   1.3231722709e+02   1.0080067287e+01    0.4437619    0.2189893 -66.59  0.001828512    2.261    0.558
        52 -10.0173     88.7846    249.5846   1.3426613862e+02   1.0858369679e+01    0.1832903   0.09299079  51.71 0.0005619866    1.654    0.396
