#   1 NUMBER                 Running object number                                     
#   2 MAG_AUTO               Kron-like elliptical aperture magnitude                    [mag]
#   3 X_IMAGE                Object position along x                                    [pixel]
#   4 Y_IMAGE                Object position along y                                    [pixel]
#   5 X_WORLD                Barycenter position along world x axis                     [deg]
#   6 Y_WORLD                Barycenter position along world y axis                     [deg]
#   7 A_WORLD                Profile RMS along major axis (world units)                 [deg]
#   8 B_WORLD                Profile RMS along minor axis (world units)                 [deg]
#   9 THETA_WORLD            Position angle (CCW/world-x)                               [deg]
#  10 FWHM_WORLD             FWHM assuming a gaussian core                              [deg]
#  11 ELONGATION             A_IMAGE/B_IMAGE                                           
#  12 ELLIPTICITY            1 - B_IMAGE/A_IMAGE                                       
         1 -17.3477    246.6156     50.9528   6.0448221671e+01   1.7067726403e+01     5.487393     4.024875 -21.39   0.01010933    1.576    0.365
         2  -9.8770    133.0472     35.7066   7.5594348601e+01   4.7204085296e+01    0.4016662    0.2410243 -18.25  0.000785534    1.898    0.473
         3 -10.2256    169.9949     21.5227   6.3663129000e+01   4.0022222495e+01    0.9240636    0.3566382 -13.53  0.002819532    4.860    0.794
         4  -8.2277     80.2596     12.5732   8.1215080119e+01   6.0615207392e+01    0.2149541    0.1364101 -35.94 0.0009825743    1.747    0.428
         5  -8.7171    204.1003     10.3248   5.5599375548e+01   3.2600277221e+01    0.2457525    0.1943814 -42.26  0.001162449    1.336    0.251
         6  -8.8975    122.7649      9.6021   6.8879952463e+01   5.2532848576e+01     0.184855    0.1216768  66.40 0.0009562745    1.673    0.402
         7  -7.4462    197.3964      6.2624   5.5354055174e+01   3.4705848379e+01    0.1442186   0.08791158  46.05 0.0002068244    1.714    0.417
         8  -8.7035    106.1018      2.3604   7.0059833299e+01   5.6766851373e+01    0.2217966    0.1596139   3.65  0.001311885    1.393    0.282
         9  -9.3597    217.4544      1.4334   5.1854788620e+01   3.0185120129e+01    0.3718683    0.1227973  69.04  0.001150817    2.603    0.616
        10 -10.2147    174.3903    169.3048   1.0152579240e+02   1.3336873334e+01    0.4829282    0.3160612  79.64    0.0016177    2.633    0.620
        11 -12.6556    244.0889    241.6832   1.0144021344e+02  -1.0306278268e+01    0.9694573    0.6717337  -3.94  0.006403778    1.521    0.342
        12 -11.9097      8.4988    236.4356   1.4030284785e+02   2.6090350944e+01    0.7667477    0.3917049  66.90  0.003996135    1.434    0.303
        13  -9.4946    229.8707    167.6234   9.0312960755e+01   2.1492308552e+00      0.29728    0.2286046 -59.44  0.001318234    1.779    0.438
        14 -10.3931     31.5824    165.2423   1.3126091897e+02   3.7254828250e+01     0.466491    0.2813281 -40.50  0.002632554    2.649    0.622
        15 -11.7394     26.8121    161.8839   1.3187855605e+02   3.8419680902e+01    0.6045879     0.582862 -73.35  0.004873936    1.405    0.288
        16  -9.0419    248.3350    162.8372   8.6016824787e+01  -7.3089896401e-01     0.257927    0.1961655  38.83  0.001017699    1.287    0.223
        17 -11.4256     14.4161    246.7061   1.3998010157e+02   2.3779364101e+01     0.526281    0.3107734 -86.27  0.004197531    1.385    0.278
        18  -9.6631    227.9951    149.4580   8.6755583932e+01   5.4800912386e+00     0.423342    0.3194793  68.82  0.001418163    1.738    0.425
        19  -8.8828    236.0732    133.1335   8.1630288556e+01   6.4744402195e+00    0.2069692    0.1955852   4.80 0.0002956298    1.014    0.014
        20  -8.2479    170.6918    156.0694   9.9607158599e+01   1.6635349028e+01    0.1971532    0.1866763 -43.11 0.0003024061    1.120    0.107
        21  -9.1028    160.6759    129.9852   9.6015164712e+01   2.4001972577e+01    0.3653255    0.3391622 -68.83  0.001920836    1.123    0.109
        22  -7.7159     70.7838    123.1760   1.1645029927e+02   4.1829386434e+01    0.1657007    0.1409146 -41.63 0.0003268861    1.272    0.214
        23  -8.8207    249.5736    153.3827   8.3787769215e+01   4.6771381335e-01     0.234474    0.2162792  61.92 0.0006572683    1.318    0.241
        24 -10.4337    134.0000    115.1526   9.8713827701e+01   3.2788947551e+01     1.432884    0.2083052 -44.39  0.003066065    7.071    0.859
        25  -9.4355    133.7005    108.4698   9.7126586104e+01   3.4241319852e+01    0.5721368     0.231169 -42.77  0.001327167    2.491    0.598
        26 -10.2898    217.2473    151.1903   8.9144325414e+01   7.4677565145e+00     0.255945    0.2414572   3.58 0.0003176236    1.031    0.030
        27 -10.0504    168.7197    117.0405   9.1088225794e+01   2.4774918714e+01    0.8901694    0.4750467 -63.46  0.002820919    3.416    0.707
        28  -8.3838    246.4360    119.3547   7.6696386463e+01   6.5122421743e+00    0.4002735    0.1969408 -49.95  0.001575373    2.480    0.597
        29  -7.9242    162.3274    119.2734   9.3069353044e+01   2.5790469200e+01    0.1528243    0.1209755  14.82 0.0006984536    1.585    0.369
        30 -10.2295     53.6984    151.1112   1.2494769261e+02   3.7845220748e+01    0.3222782     0.296347 -73.17 0.0009156644    1.207    0.171
        31  -9.3927    126.4448    106.5087   9.8439492119e+01   3.6132074385e+01    0.3245599    0.1455492  45.40  0.001239759    2.270    0.559
        32  -7.8364    144.7713    105.1522   9.3580399291e+01   3.2553339701e+01    0.2056194    0.1782595  12.84 0.0005982725    1.320    0.242
        33  -8.4030    118.5185    102.4937   9.9441306115e+01   3.8530241135e+01    0.1445971    0.1393232 -65.68  4.81663e-05    1.044    0.043
        34  -9.6761    199.6329     99.9699   8.0296865142e+01   2.0632511613e+01    0.4453318    0.3041158  41.22  0.001036646    1.522    0.343
        35  -8.6068    153.0286    100.8152   9.0483561890e+01   3.1573406821e+01    0.4219887    0.1951522  39.21  0.001507098    2.451    0.592
        36  -8.1134    130.9700     98.4558   9.5210770356e+01   3.6858636525e+01    0.2414293     0.190369 -43.61 0.0009275405    1.253    0.202
        37 -12.1326     65.5582    144.9073   1.2137732160e+02   3.7733970677e+01    0.9334394    0.8606761  10.28  0.003630052    1.448    0.309
        38 -14.0115    238.2996     48.1712   6.0830360897e+01   1.9428365409e+01    0.4477775    0.3221343  65.51  0.001109138    1.373    0.272
        39  -9.4587    166.4379     94.2609   8.5666135684e+01   2.9712268211e+01    0.4732168    0.3348979  33.21  0.001399739    1.579    0.367
        40  -7.8287    208.0970     92.4836   7.6772949974e+01   1.9886191080e+01    0.2110376    0.1486119  55.14 0.0002796959    1.416    0.294
        41  -7.8331    149.8067     91.8260   8.8808188891e+01   3.4053627454e+01    0.2000822    0.1782974 -74.68 0.0003292192    1.258    0.205
        42  -8.8402    172.1882     91.0847   8.3545979286e+01   2.8924082573e+01    0.2435207    0.2146374  46.57 0.0003554625    1.116    0.104
        43  -8.7061    179.7817    147.8212   9.5909688554e+01   1.6258765133e+01    0.2046548    0.1773746  82.31 0.0008105342    1.329    0.247
        44  -9.9313    179.7609     87.4202   8.0946803916e+01   2.7744412799e+01    0.6386684     0.277948  55.24  0.002285651    2.322    0.569
        45  -9.3547    183.6837     85.6646   7.9665106181e+01   2.7090921836e+01    0.3400734    0.2533329  46.85  0.001604359    1.325    0.246
        46 -10.2702    162.6413     82.3072   8.3198988510e+01   3.2824170396e+01     0.414636    0.3150827 -16.91 0.0009050149    1.541    0.351
        47  -8.0156    127.6416     82.3017   9.1593158494e+01   4.0734113200e+01    0.1488913    0.1185379 -88.08 0.0007037651    1.715    0.417
        48  -8.4556    138.7538     67.0167   8.4268988967e+01   4.1098639188e+01    0.2083023    0.1888457 -25.64 0.0005412969    1.108    0.098
        49  -7.6602    100.6829     63.3104   9.3223985290e+01   4.9519520400e+01     0.131661     0.111448 -80.54 0.0004325123    1.639    0.390
        50  -7.3945     49.6785     61.3018   1.0844909746e+02   5.7276060392e+01    0.1107346   0.09492325 -88.00 0.0003622694    1.630    0.386
        51  -8.2923    104.8341    160.5353   1.1496665011e+02   2.8489190369e+01    0.1887926    0.1663267 -83.06 0.0004001977    1.060    0.056
        52  -8.2637     94.9626     53.2150   9.1648792543e+01   5.2291074409e+01    0.2244105    0.1691943 -43.85 0.0006518323    1.383    0.277
        53  -9.1780    191.5215     37.4199   6.4737043571e+01   3.2602666458e+01    0.5564972    0.3361036 -46.54  0.002549875    1.768    0.435
        54 -10.1414    191.5922     52.3533   6.8914868821e+01   3.0506737275e+01    0.4598742    0.2804236  63.17 0.0004823344    1.605    0.377
        55  -9.6876    192.9963     47.1950   6.7232172703e+01   3.0891326226e+01    0.4865084    0.3149753  -4.19  0.001954508    2.275    0.561
        56  -9.7157    149.6811     50.2770   7.6535261612e+01   4.1261586362e+01     0.422304    0.2373293  22.62  0.001552436    2.882    0.653
        57  -7.9731    174.9227     49.4933   7.1118271676e+01   3.5159174619e+01    0.2261841    0.1417984  60.47   0.00101288    1.540    0.351
        58  -9.7152    142.2104     43.7789   7.6142594022e+01   4.3977420711e+01    0.2823842    0.2003817 -14.03  0.001168562    1.595    0.373
        59  -7.8374    182.2411     42.3396   6.7696389572e+01   3.4312445845e+01    0.1429378    0.1105554  20.74 0.0001840563    1.555    0.357
        60  -9.1026    208.9885    145.6850   8.9507802806e+01   1.0215455503e+01     0.253735    0.2109055 -67.47 0.0004837615    1.494    0.331
        61  -8.7703    154.6270     38.2044   7.1683883218e+01   4.1782924213e+01    0.1872837    0.1383342 -12.17 0.0001936711    1.542    0.352
        62  -7.3920    104.3095    248.3173   1.2631637466e+02   1.1992548630e+01   0.09753308   0.08654747  31.35 0.0002692934    1.637    0.389
        63  -7.8206     45.4942     33.4487   1.0117070726e+02   6.2638917588e+01    0.1190738   0.09383912 -20.84 0.0001411286    1.024    0.023
        64  -7.6353     93.4295     32.2387   8.4804455187e+01   5.5800320847e+01     0.172998    0.1171063 -39.08 0.0006360761    1.583    0.368
        65  -8.6465    167.7216     29.6734   6.6522592306e+01   3.9633920206e+01    0.2262299    0.1283583  29.12 0.0002121413    2.348    0.574
        66  -8.7443    188.4742    234.0019   1.0991430219e+02   3.0401074637e-02    0.1599665    0.1252793 -42.11 0.0007617282    1.585    0.369
        67  -7.6077    175.8455    146.1688   9.6378939730e+01   1.7441214904e+01    0.2005842    0.1737733  14.94 0.0002459282    1.297    0.229
        68  -8.2381    158.9721     36.5977   7.0305540877e+01   4.0931361794e+01    0.2144369    0.1861198 -27.68 0.0004773486    1.225    0.184
        69  -8.4354     84.7601     21.5291   8.3376693602e+01   5.8761224277e+01    0.2130063    0.1573748 -22.99 0.0008034299    1.290    0.225
        70  -9.1128     74.8487     17.1819   8.4773879677e+01   6.0964880509e+01    0.2065971     0.186238 -19.69  0.000421043    1.290    0.225
        71  -8.3570    189.4729     15.1627   5.8820501075e+01   3.5788378771e+01    0.1937253    0.1392655 -26.25  0.001019055    1.554    0.356
        72  -8.2292    172.1320     13.8627   6.1026591085e+01   4.0314528077e+01    0.2229868    0.1442059  37.19 0.0008827198    1.661    0.398
        73 -11.4736      3.2874    248.7202   1.4160529115e+02   2.4569235280e+01    0.7102758    0.3756055 -82.24  0.005576808    1.569    0.363
        74  -9.9464    188.7092    168.4244   9.8421690874e+01   1.0506916313e+01    0.3214217    0.1349905  45.99  0.001234188    2.208    0.547
        75  -9.3168    155.9819    218.4943   1.1358276071e+02   8.2218689039e+00    0.2000399    0.1853944 -78.02 -6.828843e-05    1.236    0.191
        76  -9.9277    124.0014    205.9941   1.1789728846e+02   1.6088074128e+01    0.1843646     0.153753  64.74   0.00116127    1.020    0.020
        77  -8.9938    249.0420    158.0017   8.4869593187e+01  -1.3509977730e-01    0.2013322    0.1796739   4.07            0    1.013    0.012
        78  -8.7685    191.1597    192.7815   1.0262157652e+02   5.8020773203e+00    0.5921823    0.2985923 -64.58  0.001677039    6.680    0.850
