#   1 NUMBER                 Running object number                                     
#   2 MAG_AUTO               Kron-like elliptical aperture magnitude                    [mag]
#   3 X_IMAGE                Object position along x                                    [pixel]
#   4 Y_IMAGE                Object position along y                                    [pixel]
#   5 X_WORLD                Barycenter position along world x axis                     [deg]
#   6 Y_WORLD                Barycenter position along world y axis                     [deg]
#   7 A_WORLD                Profile RMS along major axis (world units)                 [deg]
#   8 B_WORLD                Profile RMS along minor axis (world units)                 [deg]
#   9 THETA_WORLD            Position angle (CCW/world-x)                               [deg]
#  10 FWHM_WORLD             FWHM assuming a gaussian core                              [deg]
#  11 ELONGATION             A_IMAGE/B_IMAGE                                           
#  12 ELLIPTICITY            1 - B_IMAGE/A_IMAGE                                       
         1 -14.6925     11.1339     19.8733   1.1187536019e+02   6.9350666002e+01     1.779156    0.8525354  -8.74  0.009720894    2.438    0.590
         2 -12.3371     27.8742      8.8741   9.9477904940e+01   6.9151829648e+01    0.3933367    0.1990832  20.11 0.0009782992    1.849    0.459
         3 -13.1610     87.4652      2.2376   7.5744592771e+01   6.0287133321e+01     0.649617    0.2696588  54.69  0.003222544    2.019    0.505
         4 -11.9087     75.4413     13.5243   8.3525039883e+01   6.1577214644e+01    0.2418272     0.217472  24.91 0.0008743642    1.199    0.166
         5 -10.9451    123.8642     10.4540   7.0346910014e+01   5.1892270651e+01    0.2427566    0.1662962  34.08 0.0006941195    1.467    0.318
         6 -12.5138     73.1867      2.0778   7.9654891299e+01   6.3003345458e+01    0.2890246    0.2215146   2.24  0.001344765    1.281    0.220
         7 -11.7693     82.0300     13.9516   8.1704872601e+01   6.0320737728e+01    0.2700835    0.2104769  23.57 0.0006563669    1.094    0.086
         8 -10.3580    130.2869      4.6802   6.7344054406e+01   5.0918832473e+01    0.1887072     0.088824  56.48 0.0006761575    1.660    0.398
         9 -12.4672     86.9334     11.5449   7.9393489980e+01   5.9607610708e+01    0.4751146    0.3245803  65.82  0.001586379    1.820    0.451
        10 -11.5565     41.2848    199.9932   1.3870710796e+02   2.8201848018e+01     0.190213    0.1461994 -87.98  0.001125107    1.088    0.081
        11 -12.9131    187.4935    195.8725   1.0483667882e+02   4.0179085669e+00     0.542919    0.4520209 -87.62  0.002799315    1.641    0.390
        12 -12.4831     70.8927    198.4964   1.3198534209e+02   2.4613559813e+01    0.2251197    0.1895162 -56.21  0.001321969    1.343    0.255
        13 -12.0312    213.0419    196.9849   9.9763347733e+01  -9.8104684396e-01    0.6309412    0.2921027  32.15  0.002537913    2.404    0.584
        14 -10.6015    230.8287    190.4057   9.4994535384e+01  -2.9646534313e+00    0.1934445    0.1227852  27.07 0.0009492895    1.695    0.410
        15 -11.7376     33.9728    177.5983   1.3793052241e+02   3.4247442473e+01    0.2659236    0.1740147 -40.76  0.001425453    2.036    0.509
        16 -11.3981    241.8289    172.9082   8.9423284101e+01  -1.7969956133e+00    0.3417646    0.2070253  52.94  0.001639099    2.080    0.519
        17 -12.5074    204.2040    170.5553   9.6122983851e+01   5.7302714003e+00    0.9229556    0.3871115  51.01  0.003289943    2.801    0.643
        18 -12.3462    209.3560    167.2876   9.4379603758e+01   5.3447068536e+00    0.3577608    0.3215388 -23.71  0.001969154    1.079    0.073
        19 -12.2251    213.8332    163.6528   9.2708746263e+01   5.1635544847e+00     0.456972    0.3339872 -15.13  0.002191879    1.634    0.388
        20 -11.6666      3.0606    171.2355   1.4426054171e+02   3.8600421376e+01    0.2083518    0.1432422  44.29  0.001362566    1.605    0.377
        21 -13.0085    179.9990    158.7617   9.8709793645e+01   1.3208664625e+01    0.5460089     0.371072 -81.66  0.002115447    2.507    0.601
        22 -13.4147    171.4462    158.0657   1.0047934296e+02   1.5204006620e+01    0.7596868    0.3735601  44.84  0.002883446    2.021    0.505
        23 -14.6202    190.3716    105.8303   8.3935287416e+01   2.1844629455e+01     1.267952    0.9651451  89.08  0.005931298    1.581    0.367
        24 -14.4553    195.9917    149.6723   9.3224207931e+01   1.1673756264e+01     1.306276    0.9863446  53.15  0.006128557    1.395    0.283
        25 -14.8774    201.0083    129.1446   8.7464015991e+01   1.4765066585e+01     2.887788     2.269686  15.27   0.01368058    1.672    0.402
        26 -12.4204    234.2005    154.7827   8.6985126269e+01   2.8856837619e+00    0.4058567    0.2838142  55.55  0.002047204    1.687    0.407
        27 -12.5896    219.4995    157.0413   9.0180491396e+01   5.3184464241e+00    0.3920041    0.3305367  21.74  0.001599582    1.290    0.225
        28 -12.5635    245.9826    145.7116   8.3033655729e+01   2.3378330538e+00    0.3213992    0.2701389 -44.42  0.001706576    1.098    0.089
        29 -12.0098    249.8000    148.8990   8.3075587149e+01   1.0662693574e+00    0.8240913    0.1820667 -41.20  0.002504249    3.961    0.748
        30 -10.5089    138.8039    152.3883   1.0704451725e+02   2.3496718611e+01    0.2237955    0.1503238  32.90 0.0009449004    1.641    0.391
        31 -12.3129     58.3284    145.2219   1.2719036416e+02   3.9217685763e+01    0.5812068    0.3904879  64.56  0.002595649    1.763    0.433
        32 -13.1189     48.8776    142.1878   1.2928136136e+02   4.1112735680e+01    0.7368745    0.4625218  38.30  0.003830448    1.746    0.427
        33 -12.7335    214.4460    140.7524   8.7535894900e+01   9.5337478596e+00    0.8565331    0.6017067  57.71  0.004092418    1.592    0.372
        34 -14.2719    156.5722    101.4104   9.0050342678e+01   3.0773191156e+01     2.007081    0.7835135  57.20  0.006256949    3.112    0.679
        35 -15.1453    150.6793    113.1233   9.4546942343e+01   2.9727009002e+01      2.94269     1.537459  59.71   0.01057749    2.379    0.580
        36 -14.1720    176.6765    114.4282   8.8909496116e+01   2.3366114937e+01     1.234679    0.7999868  -0.42  0.004131541    3.469    0.712
        37 -12.9793    183.6105    115.3607   8.7670240988e+01   2.1545821150e+01     1.028973    0.5245899  42.15  0.003908242    2.161    0.537
        38 -11.2315    121.8955    127.2695   1.0559106356e+02   3.2886765266e+01    0.3682074    0.2827126  25.78  0.001660281    1.493    0.330
        39 -14.4714    150.1509    128.7739   9.8650301666e+01   2.6435569464e+01     1.712056     1.058527  59.97   0.00683922    1.901    0.474
        40 -13.6753    186.7723     95.7894   8.2127138474e+01   2.4622410644e+01    0.7939369    0.5394752  31.32   0.00343793    1.969    0.492
        41 -12.7188    239.5278    154.8242   8.6056466608e+01   1.8771777828e+00    0.8890697    0.3418635 -40.56  0.003447408    2.359    0.576
        42 -11.9594     44.2409     98.1842   1.2209373361e+02   5.1934676063e+01    0.3802913    0.2837148  -8.25  0.002177506    1.540    0.351
        43 -11.0910     55.1377     95.0194   1.1771223162e+02   5.1377144483e+01    0.2700468    0.2019141 -45.74  0.001466395    1.182    0.154
        44 -12.9117    190.8085    159.1118   9.6434056050e+01   1.0824137390e+01    0.7190428    0.4895762 -60.04  0.003170086    1.756    0.430
        45 -12.4207      5.9910     83.2461   1.3186749570e+02   5.8241270258e+01    0.4391439    0.1176685 -59.03  0.001916521    2.561    0.610
        46 -11.3302     30.5243     82.5055   1.2311242837e+02   5.6643647439e+01    0.1259824    0.1040164 -40.54 7.144568e-05    1.009    0.009
        47 -12.5082    138.0014     79.5182   8.8424467209e+01   3.9332527703e+01    0.2428426    0.2087847 -38.00 0.0009779693    1.211    0.174
        48 -11.6518     22.1519     79.0747   1.2528484534e+02   5.8045681233e+01    0.1898489    0.1333394 -36.00 0.0003829146    1.220    0.181
        49 -12.3628      2.0843     74.7157   1.3153310977e+02   6.0210638706e+01    0.4461887   0.09873395 -64.14  0.001644411    3.939    0.746
        50 -12.1390    121.7454     72.9050   9.0643792510e+01   4.4182329175e+01     0.377928    0.1922189  39.26  0.001526384    2.031    0.508
        51 -12.4499     96.8238     71.7304   9.7427006069e+01   4.9508790570e+01    0.4951133    0.2893974  30.17  0.001347185    1.865    0.464
        52 -11.5283     18.6424     72.2888   1.2494752461e+02   5.9688497938e+01    0.2058946    0.1601469 -35.39 0.0003128001    1.062    0.059
        53 -12.5767     59.5049     70.5281   1.0944805727e+02   5.5824271018e+01    0.2980741    0.2693219   0.29   0.00106246    1.102    0.092
        54 -12.9506     61.5958     67.0079   1.0762083417e+02   5.6196408707e+01    0.4922635    0.3867811 -79.08 0.0001990146    2.147    0.534
        55 -11.9303     48.2797     68.5171   1.1290396702e+02   5.7625161660e+01    0.3140736    0.1689929 -10.85  0.001287054    2.948    0.661
        56 -12.3737     34.4944     70.1354   1.1848168788e+02   5.8784626759e+01    0.5289271    0.2670087  42.14  0.002574833    2.728    0.633
        57 -11.4993    144.5390     73.6831   8.5164811008e+01   3.8832756076e+01    0.2602147    0.2153335  49.53 0.0003240619    1.149    0.129
        58 -11.4485     83.9783     65.7115   9.9567687872e+01   5.2918668515e+01    0.1915251     0.168768  18.44 0.0003612673    1.079    0.073
        59 -11.1109    165.3694     65.2405   7.8291230440e+01   3.5197103054e+01     0.317999    0.1480059  34.38 0.0009695266    4.069    0.754
        60 -11.6633    125.1858     57.4671   8.4996632731e+01   4.5959198823e+01    0.3073474    0.2278857  50.77  0.001591565    1.261    0.207
        61 -12.6728     67.9829     54.3731   1.0122598952e+02   5.7467313263e+01    0.3655119    0.3197976  65.34  0.001741245    1.690    0.408
        62 -10.8126    133.2303     53.9493   8.1952734797e+01   4.4649300314e+01    0.2643979    0.1838784  51.38  0.001327857    1.315    0.239
        63 -13.2569     42.1158     47.7070   1.0862231827e+02   6.2052788954e+01    0.5795699    0.3769564  -1.50  0.001183948    1.597    0.374
        64 -12.3488     41.9267     42.6406   1.0693311026e+02   6.2895952353e+01    0.4118391    0.2351645  15.17  0.001504688    1.848    0.459
        65 -11.6149    145.5242     50.9634   7.8305608363e+01   4.2182260286e+01    0.2783785     0.200681  56.73 0.0005730211    1.263    0.208
        66 -10.5998     24.2118     48.5992   1.1616833469e+02   6.3707364420e+01    0.2198009   0.08540318 -52.22  0.001034222    2.516    0.603
        67 -11.2582    210.8563     54.3419   6.7982522451e+01   2.5803155598e+01    0.2094992    0.1866262 -49.05 0.0003400397    1.214    0.176
        68 -12.1921      2.7073     46.4809   1.2453251386e+02   6.5594348755e+01    0.2723524    0.2141196 -41.73  0.001076198    1.148    0.129
        69 -10.9910    156.9749     43.9775   7.3994409477e+01   4.0378874935e+01    0.2077117    0.1875971  60.38 0.0004558095    1.039    0.038
        70 -12.8132    193.7215    248.5283   1.1290593754e+02  -6.3442879995e+00    0.3537506    0.2668374  49.23  0.002103508    1.461    0.316
        71 -11.7623    244.7068    246.9751   1.0291790749e+02  -1.3864866636e+01    0.1733213    0.1371064  -1.38  0.001178702    1.062    0.059
        72 -10.9439    176.4560     33.4670   6.7836963788e+01   3.6964309705e+01    0.2198056    0.1933327  78.24 3.961211e-05    1.022    0.021
        73 -10.0461    140.7891     31.6133   7.3526298739e+01   4.5818356766e+01    0.1291961   0.09735579  20.17 0.0006826259    1.605    0.377
        74 -10.3493     79.5358     29.9497   8.8533118595e+01   5.9037655447e+01     0.176997    0.1184846 -26.00 0.0005124926    1.546    0.353
        75 -10.2962     37.0044     27.4545   1.0327916026e+02   6.5731353832e+01    0.1549205   0.09967213  22.60 4.111291e-05    1.449    0.310
        76 -12.0072     83.8035     22.8303   8.4544051944e+01   5.9075667922e+01    0.2834869     0.249711  10.52 0.0008139401    1.113    0.101
        77 -11.2911     63.8203     18.0420   8.9145873171e+01   6.3112007641e+01    0.2993031    0.1882875  55.59   0.00165644    2.200    0.546
        78 -12.8993    184.3922    246.3987   1.1442881858e+02  -4.4640867531e+00    0.2505537    0.2192834  41.05  0.001331042    1.168    0.144
        79 -11.6305    221.4127    245.2302   1.0696438663e+02  -1.0237363507e+01     0.157823    0.1173875 -43.20 0.0009532261    1.671    0.402
        80 -12.7434    187.9088    232.9943   1.1152076100e+02  -2.8547256749e+00    0.3736451    0.1906441  38.82  0.001754012    1.737    0.424
        81 -11.8107    205.1253    229.3389   1.0740378136e+02  -5.1872147544e+00    0.2333869    0.1766462 -18.48  0.001335998    1.384    0.277
        82 -11.9492    194.5146    229.3431   1.0954636483e+02  -3.3797774625e+00    0.2610969    0.2057758 -45.60  0.001505572    1.470    0.320
        83 -12.3076    201.0800    211.4736   1.0497897960e+02  -1.4313951749e+00     0.478489    0.2951868 -58.58  0.002156308    2.385    0.581
