#   1 NUMBER                 Running object number                                     
#   2 MAG_AUTO               Kron-like elliptical aperture magnitude                    [mag]
#   3 X_IMAGE                Object position along x                                    [pixel]
#   4 Y_IMAGE                Object position along y                                    [pixel]
#   5 X_WORLD                Barycenter position along world x axis                     [deg]
#   6 Y_WORLD                Barycenter position along world y axis                     [deg]
#   7 A_WORLD                Profile RMS along major axis (world units)                 [deg]
#   8 B_WORLD                Profile RMS along minor axis (world units)                 [deg]
#   9 THETA_WORLD            Position angle (CCW/world-x)                               [deg]
#  10 FWHM_WORLD             FWHM assuming a gaussian core                              [deg]
#  11 ELONGATION             A_IMAGE/B_IMAGE                                           
#  12 ELLIPTICITY            1 - B_IMAGE/A_IMAGE                                       
         1 -13.2785    212.6558     52.9146   9.8905918052e+00   2.6503438820e+01      1.21883     1.071345   0.26  0.006837426    1.427    0.299
         2 -13.3058    226.1833     43.6464   6.1598342977e+00   2.4884187107e+01    0.8892465    0.7687584  38.78  0.003396704    1.529    0.346
         3 -10.5984    250.2342     21.5266   3.5919050590e+02   2.2784790182e+01    0.5890319    0.1318483 -31.34  0.002259701    3.394    0.705
         4 -11.2040      2.4782      9.6788   5.9646159271e+01   7.6969291399e+01     0.655727    0.1446064 -51.85  0.002542267    3.385    0.705
         5 -10.1676    158.0428      8.9709   3.1854182711e+00   4.4833987630e+01    0.2077548    0.1858419 -70.40 0.0004533646    1.026    0.025
         6  -9.5600    189.3156     15.0126   1.9679466102e+00   3.6593894191e+01      0.18961    0.1569641 -47.73 0.0005040766    1.102    0.093
         7 -11.2028     74.7973    245.7891   7.7319704803e+01   1.3428088946e+01    0.4283737    0.2791652 -70.52  0.002761797    1.772    0.436
         8 -14.7696     55.1508    235.7076   8.0554174358e+01   1.7581585844e+01     4.744656     3.094714 -42.26   0.01550946    2.287    0.563
         9 -10.3108     76.9416    230.0978   7.5572096453e+01   1.6063920754e+01    0.2342736    0.1693172 -80.84 0.0005359569    1.529    0.346
        10 -15.8367     27.8676    182.1783   8.2857551556e+01   3.2105918301e+01     9.295294     3.287639  86.89   0.01530048    3.506    0.715
        11 -10.6450    149.2359    229.1745   6.0319779548e+01   6.5536103917e+00    0.2845511    0.1818039 -21.44  0.001564924    1.974    0.493
        12  -9.0075    141.9123    213.5292   5.9637898851e+01   1.0280430306e+01    0.1786124    0.1647483 -34.28 0.0004858013    1.190    0.160
        13  -9.2678    108.6527    203.3020   6.5573235830e+01   1.7139536170e+01    0.1392805   0.09426681  60.54 0.0002435984    1.689    0.408
        14 -14.7997      9.7680    206.6742   8.8440021261e+01   2.8171856916e+01     1.184576    0.8591383  40.69   0.00466346    1.334    0.250
        15  -9.8396    194.0156    196.8609   4.6291820392e+01   5.4398360675e+00     0.322387    0.1794548 -61.54  0.001106159    5.421    0.816
        16  -9.4257     93.8920    191.5590   6.7485388669e+01   2.1800185841e+01    0.2064018    0.1782344 -54.50  0.001209493    1.243    0.196
        17 -15.5197      7.4327    221.0448   8.9501285139e+01   2.5348351224e+01     2.519923     1.039726  24.34  0.005452292    2.730    0.634
        18 -10.4556    132.0066    188.0091   5.7876986440e+01   1.6734688681e+01    0.2086124    0.2005908  15.71 0.0004235049    1.021    0.021
        19  -9.5691     76.4417    182.7884   7.0670735740e+01   2.6266080064e+01    0.4989056    0.2463492  71.20  0.001803661    3.345    0.701
        20  -9.6013    174.8725    182.1237   4.7395725773e+01   1.0935056375e+01    0.1983132    0.1934637  60.14  0.001231218    1.303    0.232
        21 -10.1984     99.0795    181.0263   6.4714832148e+01   2.3416402127e+01    0.2825041    0.2707931  11.21 0.0007396957    1.135    0.119
        22  -9.3000     61.2744    181.0372   7.4324139892e+01   2.8666598266e+01    0.2507445    0.1772308  45.33 0.0004136626    1.323    0.244
        23  -9.2182    173.4979    177.5121   4.6802856435e+01   1.2013608334e+01    0.2894133    0.1312009  38.31  0.001221858    2.212    0.548
        24  -8.7894     91.9875    176.0060   6.5763759566e+01   2.5651825125e+01    0.2385412    0.1590086  65.15  0.001124172    1.738    0.424
        25  -9.6471    124.0360    173.1996   5.7235451786e+01   2.1213773317e+01    0.2560863    0.2069265 -51.63 0.0007326257    1.260    0.207
        26  -9.9447    198.2941    170.0898   4.0387491784e+01   9.2935677612e+00    0.4429949    0.1084197 -44.92  0.001324197    4.539    0.780
        27 -12.1794    110.2463    228.8021   6.8371264044e+01   1.1972118600e+01    0.9120291    0.1886863  35.98  0.003181135    3.685    0.729
        28  -9.5198     73.3174    169.7809   6.9768772236e+01   2.9837405370e+01     0.289924    0.1831236 -75.23 0.0009142724    1.615    0.381
        29 -10.8023    179.9458    169.0993   4.3808531007e+01   1.2510154488e+01     0.396077     0.336081 -16.35  0.002281025    1.084    0.077
        30  -9.4049    229.3201    169.6572   3.4791948239e+01   4.5833055532e+00    0.1181692   0.09828227 -54.27 0.0007049831    1.722    0.419
        31 -13.2208     60.3570    132.4137   6.7774252816e+01   4.1285389962e+01     2.176105     1.010714 -79.82  0.007573835    2.849    0.649
        32 -12.3315     72.4732    151.7142   6.7323324659e+01   3.4531603745e+01    0.7766041    0.5760255 -66.46 0.0004233634    1.274    0.215
        33 -13.3517     68.8338    144.3919   6.7197895477e+01   3.6952044133e+01     2.495806      1.21168  76.07  0.007137466    4.741    0.789
        34 -11.4781     56.8440    163.3834   7.3405816328e+01   3.3592716598e+01    0.4594241    0.3316604 -25.98  0.002278594    1.954    0.488
        35 -11.5702     62.0836    159.3315   7.1414567304e+01   3.3968205137e+01    0.4664793    0.3161021 -38.83  0.001256836    1.835    0.455
        36  -8.8871    110.5006    166.9896   5.9530185143e+01   2.4873588419e+01    0.2108907    0.1430169 -58.20 0.0004456706    1.496    0.332
        37 -13.4889     39.4678    176.0735   7.9423241506e+01   3.2406809603e+01     1.111926    0.9444782  88.96  0.004260096    1.068    0.064
        38  -9.3685    235.3313    158.9968   3.1670375453e+01   5.3532846546e+00    0.2081819   0.08645515 -50.04 0.0003832157    4.382    0.772
        39  -8.9187    244.4032    155.3052   2.9515933570e+01   4.5876407580e+00    0.1731467     0.099286 -38.68  0.000596235    1.538    0.350
        40 -15.0271      9.2023    241.5320   8.9873144492e+01   2.1175092691e+01     1.673273    0.8447031  48.76      0.01079    1.444    0.307
        41 -10.1493    133.8004    145.4583   4.9298475556e+01   2.5782813725e+01      1.07994    0.2458969 -54.44   0.00221824    7.423    0.865
        42 -11.8795     81.2202    145.9984   6.3814404237e+01   3.4732239676e+01    0.7668798    0.5297282 -39.71  0.003563832    1.653    0.395
        43  -9.8215     79.6451    137.3190   6.2676768352e+01   3.7232460651e+01    0.3183639    0.2160484  86.25  0.001036072    1.841    0.457
        44  -9.2751     40.4384    146.1781   7.5974452533e+01   3.9961607362e+01    0.3493864    0.1302907 -75.42  0.001279493    2.597    0.615
        45 -10.0746     90.3465    142.9460   6.0588589381e+01   3.4088674921e+01    0.4219419    0.2547271 -86.58  0.001386977    2.467    0.595
        46  -8.7997    100.7489    143.7027   5.7762294259e+01   3.2168986172e+01    0.2002688    0.1695344  85.19 0.0004951542    1.292    0.226
        47 -12.7480      1.8887    248.5857   9.1423569021e+01   2.0528597139e+01    0.3347438    0.1707132 -87.99 0.0006351463    1.853    0.460
        48 -10.2615     96.7306    134.4275   5.6988078375e+01   3.5202279497e+01    0.5368472    0.3846197   0.81  0.002295102    2.073    0.518
        49 -10.6967     73.3778    135.2189   6.4196099421e+01   3.8724916649e+01    0.4166836    0.2419425  46.67  0.001582086    1.814    0.449
        50 -11.6394     83.6317    133.1535   6.0642734045e+01   3.7700215679e+01    0.3333789     0.281993 -54.95 0.0004534998    1.134    0.118
        51  -9.9544    106.6691    128.7715   5.2831993543e+01   3.4862757249e+01    0.6007559    0.3572354 -27.91  0.002217009    2.509    0.601
        52  -9.8420     42.9342    128.2912   7.2737326909e+01   4.4495933135e+01     0.283978    0.1843531  77.45 0.0009555871    1.693    0.409
        53 -10.3717     94.6639    122.3952   5.4907686656e+01   3.8637304637e+01    0.3621805    0.2802632 -20.08  0.001659637    1.634    0.388
        54  -9.7709     40.9631    121.4780   7.2328700636e+01   4.6558392963e+01    0.3697152    0.1940041 -83.46  0.001272672    2.061    0.515
        55 -10.7957     36.1020    118.9513   7.3596213464e+01   4.7746238978e+01    0.3160864    0.2376523  61.82 0.0004561271    1.405    0.288
        56 -10.6308     67.4137    128.1967   6.4743744444e+01   4.1453061122e+01    0.3817836    0.2553769 -86.64  0.001674812    1.717    0.417
        57  -8.9593    105.1439    116.6723   5.0339727157e+01   3.8163001590e+01    0.2050804    0.2002648  -4.93 0.0004186213    1.092    0.084
        58  -9.6683     41.9078    113.1576   7.0589566891e+01   4.8719681395e+01    0.2243361    0.1877493  79.27 0.0004810131    1.218    0.179
        59 -12.5948     59.4235    146.8719   7.0399043662e+01   3.7554199004e+01    0.5879366    0.4512099   4.28  0.000968732    1.726    0.421
        60  -9.6324    205.2617    110.4296   2.5679453894e+01   1.8735662716e+01    0.2592044    0.2325001  29.10  0.001109433    1.269    0.212
        61 -10.0535     89.0894    104.3035   5.2126835755e+01   4.4238569991e+01    0.4340778      0.29823  82.38 0.0006182525    2.230    0.552
        62  -9.5603     24.0275    105.0443   7.5768800108e+01   5.2613978204e+01    0.2592655    0.2268743  69.85  0.001109129    1.204    0.170
        63  -9.2393     19.5083    102.0192   7.7010972633e+01   5.3780069805e+01    0.4011396    0.1493732  44.72  0.001522715    3.109    0.678
        64 -11.0869     53.3045     95.2703   6.2586829217e+01   5.2171263045e+01    0.5125163     0.343672 -78.89  0.002134435    1.677    0.404
        65 -10.4863      6.4457     89.4505   8.0335129757e+01   5.7957390670e+01    0.2723944    0.2134308  72.74  0.000810926    1.342    0.255
        66  -9.9386     40.9626     87.7797   6.5696256387e+01   5.5628193993e+01    0.2931784    0.2381005  53.66 0.0004423332    1.413    0.292
        67  -9.4657     19.9127     69.8985   7.0752567916e+01   6.2214666675e+01    0.3356387    0.1624529  53.05  0.001339582    3.099    0.677
        68 -12.2832    202.9578     59.1604   1.2707156842e+01   2.7735072468e+01    0.7805071    0.5444064  36.35   0.00267398    1.932    0.483
        69 -11.1479     97.9508    228.1058   7.0908459005e+01   1.3744747656e+01    0.4374267    0.3282431  68.55  0.002713423    1.462    0.316
        70  -9.7704    119.1509    242.0020   6.8004011158e+01   8.4900998989e+00    0.1978488    0.1840462  72.53 0.0005539277    1.258    0.205
        71  -9.6834     14.8514     34.1531   6.2417068022e+01   7.1073135058e+01     0.185875    0.1261905 -29.68 0.0005307413    1.327    0.246
        72  -9.4896     29.5026     33.5291   5.3081787772e+01   6.9736237656e+01    0.1333002    0.1135494 -26.72 1.613737e-05    1.022    0.022
        73 -12.9689     10.5791    228.9217   8.9167028127e+01   2.3480989721e+01    0.4461119    0.2464312  58.92 0.0004053383    1.384    0.277
        74 -10.0404     19.4921     46.9882   6.4414832747e+01   6.7823153114e+01    0.2307566    0.1787707  38.39 0.0007105645    1.577    0.366
        75  -8.2351     90.3267    237.2789   7.3425916811e+01   1.3042653254e+01    0.1108848   0.08955628   0.71 0.0002842854    1.594    0.373
        76 -11.6872      6.7364     24.8057   6.3971639400e+01   7.3666788797e+01    0.4313996    0.2811413 -19.94  0.001857421    1.472    0.321
        77 -10.7980      2.3054     22.1677   6.6083972190e+01   7.4499888872e+01     0.360242    0.1536226 -53.03  0.001807954    1.804    0.446
        78  -9.2124     60.3718     21.1393   3.0622807134e+01   6.6936062790e+01    0.2193852    0.1698836  27.80 0.0004087372    1.238    0.192
        79 -12.1738    134.6626    230.2409   6.3439014878e+01   8.3832764880e+00    0.5758898    0.3078259  29.72  0.003048258    1.659    0.397
        80  -9.3871     38.5155     15.5548   3.7925858957e+01   7.1652931414e+01    0.1299065     0.110601  -3.23 6.999027e-05    1.014    0.014
        81 -11.9541    126.1142    229.1371   6.5073713132e+01   9.7484132001e+00    0.4616254    0.4149058 -43.04  0.003005596    1.279    0.218
