#   1 NUMBER                 Running object number                                     
#   2 MAG_AUTO               Kron-like elliptical aperture magnitude                    [mag]
#   3 X_IMAGE                Object position along x                                    [pixel]
#   4 Y_IMAGE                Object position along y                                    [pixel]
#   5 X_WORLD                Barycenter position along world x axis                     [deg]
#   6 Y_WORLD                Barycenter position along world y axis                     [deg]
#   7 A_WORLD                Profile RMS along major axis (world units)                 [deg]
#   8 B_WORLD                Profile RMS along minor axis (world units)                 [deg]
#   9 THETA_WORLD            Position angle (CCW/world-x)                               [deg]
#  10 FWHM_WORLD             FWHM assuming a gaussian core                              [deg]
#  11 ELONGATION             A_IMAGE/B_IMAGE                                           
#  12 ELLIPTICITY            1 - B_IMAGE/A_IMAGE                                       
         1 -12.0179    237.4430     20.5349   2.9683905014e+01   2.5420394560e+01     0.480251    0.2343351 -53.78  0.002703411    1.660    0.398
         2 -11.4382     34.1542     20.3106   7.1040649078e+01   6.8402787271e+01    0.4979449    0.2714145   3.12  0.002171868    2.482    0.597
         3 -12.0666    112.0193     18.9056   4.4921321070e+01   5.3581623209e+01    0.4065644    0.3047825  41.79  0.001601787    1.273    0.215
         4 -11.2983    226.8988     16.0384   2.9597769912e+01   2.8024025232e+01    0.2719838    0.1554257 -22.11  0.001447673    2.803    0.643
         5 -11.0238     99.8926     16.1329   4.6635108892e+01   5.6576646106e+01    0.4461855    0.1780123  46.87  0.001313889    2.167    0.538
         6 -10.9089    104.5515     10.4648   4.3596361751e+01   5.6061047384e+01    0.2813147    0.1977789  27.47  0.000893108    1.570    0.363
         7 -11.1628     10.2145     15.2746   8.1421912283e+01   7.1935839945e+01    0.2671169    0.2025774 -11.97 0.0005567945    1.043    0.041
         8 -11.6856     16.4782     13.5550   7.7022308671e+01   7.1526985154e+01    0.3192496    0.1963163  18.77 0.0001504818    1.433    0.302
         9 -12.5556     24.3227     12.0396   7.2035442633e+01   7.0786916784e+01    0.2713657    0.1968704  -0.88 0.0004088776    1.140    0.123
        10 -10.6860    155.4601     14.8081   3.6430805163e+01   4.3876571246e+01     0.270844    0.2145756  37.33  0.001271173    1.540    0.351
        11 -11.1182     58.2338     13.5923   5.7817646114e+01   6.5307030490e+01     0.383345    0.2724803   8.02   0.00237703    1.412    0.292
        12 -12.0325    187.0733     13.7239   3.2540128700e+01   3.6749129940e+01    0.2439599    0.1907249 -79.23 0.0002911721    1.076    0.070
        13 -11.5967    182.5046     12.3722   3.2684842091e+01   3.7913507672e+01    0.3181481    0.3005493  44.00  0.001278689    1.393    0.282
        14 -11.9295    208.1547     10.2273   2.9883453014e+01   3.2532766857e+01    0.4179768    0.3231298  37.82  0.002618831    1.998    0.499
        15 -10.7001    248.1442     11.5405   2.7314686077e+01   2.4421148707e+01     0.221013    0.2036254 -76.75  0.001789341    1.427    0.299
        16  -9.7591    156.3203     10.0184   3.5044839665e+01   4.4142737951e+01    0.1898116    0.1540761  60.11 0.0007433667    1.221    0.181
        17 -11.5724    122.6200     11.1312   4.0350083675e+01   5.1884117269e+01     0.498156    0.3169651 -35.65  0.002835614    1.784    0.440
        18  -9.9278    117.3176      9.2712   4.0698298925e+01   5.3269041479e+01    0.2632734    0.1727218 -79.11 0.0006489613    1.929    0.482
        19 -10.2581     92.3291     10.2404   4.6266237144e+01   5.8775642037e+01    0.2534922    0.1599867  68.41 0.0008701496    1.612    0.380
        20 -11.3268     46.7806      8.8606   6.0054686050e+01   6.7799705075e+01    0.3456366    0.1798176  32.43 0.0007069175    1.691    0.409
        21  -9.7957     34.8210      8.7610   6.5219307326e+01   6.9715172375e+01    0.1772905    0.1293985  13.72  0.001159682    1.122    0.108
        22 -10.0696      7.9758      8.7894   7.9639170403e+01   7.3066499349e+01    0.1553814    0.1135967   2.26 0.0003500069    1.090    0.083
        23  -9.8063    238.7744      7.5900   2.7183289525e+01   2.6631104601e+01    0.1492435   0.08416507 -84.73  0.000398344    1.532    0.347
        24 -11.2646    216.5345      6.4966   2.8478648833e+01   3.1177258780e+01    0.2181765    0.2069966 -15.75  0.001016008    1.578    0.366
        25 -10.3455     77.6252      6.7403   4.8694954534e+01   6.2183900226e+01    0.2199802    0.1985923  48.58 0.0009249526    1.149    0.130
        26 -11.2358     12.7572      5.2465   7.4988790546e+01   7.3027073461e+01    0.3194358    0.2086432  -4.49  0.001889774    1.305    0.234
        27 -11.5084    127.7187      4.7544   3.7527942639e+01   5.1255257425e+01    0.2989873     0.219644 -88.68   0.00112043    1.376    0.273
        28  -9.5851    192.2385      5.2278   3.0142849905e+01   3.6474408765e+01    0.1882049    0.0681003 -44.03 0.0008972694    2.481    0.597
        29  -9.3935     40.6252      5.2688   6.0889105189e+01   6.9178885168e+01    0.1424533   0.09678676  -4.61 0.0001889347    1.444    0.307
        30 -10.9450      1.9198      2.6966   8.0316751866e+01   7.4457752715e+01    0.1957867    0.1684184 -38.92  0.001504322    1.739    0.425
        31 -10.4258    103.9701      2.1856   4.0826167080e+01   5.6870222919e+01    0.4145027    0.1858398  73.00  0.001893409    2.349    0.574
        32  -9.6926     18.6039      3.2511   7.0617143340e+01   7.2572461101e+01    0.1518108   0.08879687 -17.08  0.000942873    1.619    0.382
        33 -11.7219     89.7752      3.2259   4.4227434655e+01   5.9909194931e+01     0.392904    0.2608217  51.70  0.001762276    1.219    0.180
        34  -9.5540     25.2080      2.0059   6.6449739171e+01   7.1836649691e+01    0.1521185    0.1280343 -43.75  0.001067961    1.935    0.483
        35  -8.9314     84.3353      1.2409   4.4754188941e+01   6.1223465653e+01    0.1264083   0.07137996  41.05  0.000192395    1.546    0.353
        36  -9.1939    201.3333      6.3046   2.9611300833e+01   3.4394926855e+01    0.1099538   0.08278941  53.00 0.0005018435    1.662    0.398
        37  -9.6001     45.5055    117.9579   9.6838780981e+01   4.7304309323e+01     0.226998    0.1290975 -58.94  0.001026848    1.579    0.367
        38  -9.1865     26.7250    116.6785   1.0311916546e+02   4.9542895302e+01    0.1438501   0.08897179 -41.12 0.0001951226    1.576    0.365
        39 -10.7456      2.4327    111.9697   1.1079192604e+02   5.2450148648e+01    0.1990675    0.1874525  15.19 0.0003127244    1.269    0.212
        40  -9.8369     52.8494    111.2159   9.2832514089e+01   4.8093690283e+01    0.2097049    0.1523912 -39.14 0.0006442552    1.336    0.252
        41  -9.8828     34.6770    108.9156   9.8837824206e+01   5.0733078748e+01    0.3034811    0.0938585 -55.70  0.001104169    2.558    0.609
        42  -9.2979     44.2174    107.9800   9.5193479940e+01   4.9938302403e+01    0.1849598    0.1071386 -59.23 0.0003215887    1.584    0.369
        43 -10.5791     17.0729    106.5391   1.0477318785e+02   5.2849048895e+01    0.4554169    0.1702308 -77.77  0.001542985    3.708    0.730
        44  -9.4840     71.7293    107.6116   8.5399543724e+01   4.6282358362e+01    0.2053292    0.1378814  42.55 0.0008718796    1.594    0.373
        45 -10.9570     80.7061    103.1635   8.1207613701e+01   4.5858197795e+01    0.3002153    0.2334051   6.92 -0.000430966    1.502    0.334
        46 -14.9812    221.5290    133.9734   5.4961684578e+01   1.0860005203e+01      2.59169     1.470338  48.05   0.01262825    2.032    0.508
        47 -10.5936     44.9274    101.8695   9.3556047964e+01   5.1343020323e+01     0.338836    0.2049286  42.60  0.001289391    1.905    0.475
        48  -9.9612     52.9279    100.0112   9.0161812102e+01   5.0798243790e+01    0.2916811    0.1576389 -34.23  0.001219898    2.080    0.519
        49 -10.1583    101.6454     97.9283   7.3058796125e+01   4.3156779922e+01    0.2358812    0.2035236  24.23 0.0002377418    1.202    0.168
        50  -9.9952     71.1262     96.8975   8.2801189065e+01   4.8884661740e+01    0.3120228     0.200367  54.13 0.0009340359    2.014    0.504
        51 -10.8618     47.6142     95.9417   9.1128115026e+01   5.2431332571e+01    0.2330912    0.2183417   7.59 0.0002004174    1.124    0.110
        52 -10.0353     16.3390     95.1252   1.0294288410e+02   5.5668077641e+01    0.1785633    0.1497821 -59.16 0.0004000301    1.084    0.078
        53  -9.3288      1.3931     94.4924   1.0854658055e+02   5.6735182054e+01    0.1305066    0.1004024 -53.64 9.836533e-05    1.059    0.055
        54  -9.2265    116.5712     93.5170   6.7447775938e+01   4.1011877264e+01     0.150349    0.1468294 -83.84 0.0001445414    1.064    0.060
        55 -11.2692    126.5077     91.4814   6.4185967040e+01   3.9265690777e+01    0.2735039    0.2676646  72.74 0.0003153292    1.026    0.025
        56 -11.4209     34.7630     89.8983   9.4595499116e+01   5.5291588621e+01    0.2354877    0.2236863 -50.05  0.001467371    1.129    0.114
        57 -10.1812     57.0074     89.7162   8.5963822736e+01   5.2631972631e+01    0.2904096    0.1904944 -83.06    0.0011946    2.725    0.633
        58  -9.3442      3.8005     90.4150   1.0692953369e+02   5.7572983675e+01    0.1601038     0.109419 -20.01 0.0004986129    1.547    0.354
        59  -9.7933     50.8429     89.1475   8.8146100972e+01   5.3592714336e+01     0.195229    0.1515009 -23.75 0.0002881368    1.289    0.224
        60 -10.8842    122.2262     86.6451   6.3932875919e+01   4.1167699289e+01    0.5587986    0.3561958  24.68  0.001334028    2.186    0.543
        61 -10.6150    115.9610     84.9981   6.5153145532e+01   4.2858527985e+01    0.2605956     0.218941  64.73 0.0003035372    1.296    0.228
        62 -10.5704     86.2756     86.5423   7.4651238793e+01   4.8545157738e+01    0.3099937    0.2430826 -74.86 0.0009546459    1.721    0.419
        63  -9.6995    139.1313     86.9116   5.9755229601e+01   3.7323737854e+01    0.2177673    0.1939246 -77.97 -0.0006383859    1.197    0.165
        64 -10.7053    131.2483     85.8587   6.1379093377e+01   3.9310177070e+01    0.2525555    0.2257472  41.98 0.0002678032    1.124    0.110
        65 -10.6098     28.4725     85.1077   9.5949946918e+01   5.7011393541e+01    0.2999242    0.1925168  39.54 0.0008973829    1.847    0.459
        66  -9.8845    102.7701     85.0166   6.8970141684e+01   4.5637099233e+01    0.1991748    0.1235125 -43.46 0.0007034036    1.631    0.387
        67 -11.0873     75.9930     82.5108   7.6952776911e+01   5.1228684974e+01    0.4533333    0.2101536 -48.36  0.001159008    2.165    0.538
        68  -9.3441     20.3510     83.3075   9.8841858694e+01   5.8125601434e+01    0.1433497   0.08222134 -32.09 0.0007043136    1.711    0.416
        69 -10.0851     71.0129     82.0829   7.8595949807e+01   5.2159305586e+01    0.2146283    0.1940599 -10.61  0.001209054    1.053    0.050
        70  -9.9559     47.2288     82.0891   8.7618046134e+01   5.5632953929e+01    0.2145992    0.1716513 -26.57 0.0005920235    1.175    0.149
        71 -10.2700    104.7256     80.6991   6.7084391364e+01   4.6087560198e+01    0.2964669    0.1767347 -62.01  0.001162492    2.481    0.597
        72  -9.9686     80.1363     80.9024   7.5021517513e+01   5.0833278686e+01    0.2052332    0.1978537  71.93 0.0002860167    1.205    0.170
        73  -9.2497     54.4339     80.5041   8.4337811361e+01   5.5021832963e+01    0.1400418    0.1262422 -23.33 0.0001354129    1.011    0.011
        74 -11.6884     75.6971     75.1267   7.4770162769e+01   5.2785725162e+01    0.5533895    0.3839085  10.80  0.002633117    1.759    0.431
        75 -10.3662      7.3152     76.7011   1.0282050847e+02   6.0528997409e+01     0.184553    0.1581241 -16.76 0.0006034503    1.186    0.157
        76 -10.1388      4.4968     75.9818   1.0386610000e+02   6.0851311660e+01    0.1899272    0.1046482 -60.82 0.0003501387    1.528    0.346
        77  -9.0292     98.6677     76.2840   6.7550186701e+01   4.8187880030e+01    0.1433076    0.1177565  82.71 0.0003985151    1.616    0.381
        78  -9.3777     60.9859     75.9882   8.0455365196e+01   5.5020992737e+01    0.1657386    0.1507042  -4.77  0.000961459    1.030    0.029
        79  -9.1683     36.5560     76.5301   9.0393739951e+01   5.8107247814e+01    0.1353102    0.1171825 -29.36 2.252034e-05    1.005    0.005
        80 -10.0838    130.7691     74.9468   5.8345822908e+01   4.1437268888e+01     0.219242    0.1968367  21.29 0.0005231866    1.227    0.185
        81  -9.0449     83.3349     75.2400   7.2163174576e+01   5.1383745019e+01     0.143176    0.1078695   8.64 0.0003288634    1.544    0.352
        82 -11.4249     46.2003     73.8695   8.5649375255e+01   5.7531707998e+01    0.3956529     0.261319 -53.98 0.0009862961    1.550    0.355
        83 -10.8153    151.5237     72.4804   5.2998106524e+01   3.7059184348e+01    0.2690904    0.2481097 -85.04   0.00151785    1.062    0.058
        84 -10.9460    140.4162     72.4955   5.5385895485e+01   3.9643847172e+01    0.5629929    0.1641529  44.87  0.001653933    3.945    0.747
        85 -11.2940    137.0568     69.5243   5.5286765435e+01   4.0930880595e+01    0.2527385    0.2377197 -62.10  0.001408847    1.086    0.079
        86 -10.5294     64.0461     69.8548   7.7348540004e+01   5.5780091311e+01    0.3156718    0.2655585  69.13  0.001226003    1.665    0.399
        87 -10.6262     17.5767     70.5992   9.6933698047e+01   6.1173534483e+01    0.2528321    0.1996842  12.91  0.001038556    1.357    0.263
        88 -11.2865    155.3534     68.2610   5.1071118161e+01   3.6867828555e+01     0.414609    0.2138622 -53.06  0.001364597    2.206    0.547
        89 -11.2585    101.7776     68.9245   6.4286659298e+01   4.8903792277e+01    0.2733138     0.237051 -50.77  0.001491156    1.259    0.205
        90 -10.3030     97.0688     69.0412   6.5743485442e+01   4.9860203195e+01    0.2767281    0.1968168 -37.61 0.0005381597    1.449    0.310
        91 -10.8042     32.7832     62.5878   8.7902072479e+01   6.1436665824e+01    0.2830431    0.2211706  45.82  0.001651067    1.670    0.401
        92 -11.4691    110.6435     65.2869   6.0597480805e+01   4.7635245873e+01    0.3862503    0.2940118 -70.74  0.001896927    1.753    0.430
        93 -10.6250     58.1910     66.1221   7.8388281631e+01   5.7420669667e+01    0.2498711    0.1885263  33.23  0.001371537    1.344    0.256
        94 -10.0889     48.7040     66.2129   8.2240175034e+01   5.8767333225e+01    0.2681432    0.1767555  12.19  0.001276288    1.649    0.394
        95 -10.5347    193.8547     64.1367   4.3563757334e+01   2.8679662438e+01    0.2227708    0.1912618 -73.62 0.0002791503    1.041    0.040
        96 -10.6414    202.5611     64.7024   4.2490554386e+01   2.6682261411e+01    0.2334518    0.1506218 -86.99 0.0007630099    1.771    0.435
        97 -10.4000      1.4452     63.1896   1.0236983666e+02   6.3810323099e+01    0.3144189    0.1040065 -63.12  0.001344541    2.645    0.622
        98  -9.9591      4.0795     59.4977   1.0023774873e+02   6.4445236958e+01    0.1650225    0.1131681   4.62    0.0005076    1.528    0.346
        99 -11.1458    147.0918     61.6238   5.0867210734e+01   3.9873451854e+01    0.2390139    0.2080426 -63.63 0.0003621921    1.174    0.148
       100 -12.5195    150.8285     57.6159   4.9002799943e+01   3.9611987755e+01    0.3040949    0.2868522 -55.47 0.0003492782    1.108    0.098
       101 -10.1877     90.5750     62.0748   6.5479311583e+01   5.2407492626e+01    0.3090058    0.2265803  80.68  0.001182221    2.233    0.552
       102 -11.0327     60.3592     57.4292   7.4571275336e+01   5.8703641602e+01    0.3811081    0.2556781  31.42  0.002019176    1.443    0.307
       103 -11.1142     96.2595     57.9879   6.2346652645e+01   5.1932006638e+01    0.3193305     0.196025  55.65  0.001485089    1.749    0.428
       104 -10.7508    160.6678     56.8238   4.6976546438e+01   3.7413477027e+01    0.2695097    0.2563308 -84.94 0.0007641035    1.065    0.061
       105  -9.9381    162.1987     52.8379   4.5640918576e+01   3.7640582580e+01    0.2009701    0.1884079  30.13 0.0004303258    1.271    0.213
       106 -10.2581      7.9308     57.0581   9.7764328610e+01   6.4714597092e+01    0.1897318    0.1463514 -32.13 0.0004532894    1.051    0.049
       107 -11.0556    200.6331     54.9398   4.0502596607e+01   2.8559088523e+01    0.2639627    0.2061794 -64.76 0.0008956411    1.144    0.126
       108 -10.7727    176.0697     55.4988   4.4087825271e+01   3.4016263226e+01    0.3254236     0.204698 -51.49  0.001456305    1.565    0.361
       109  -9.6103    112.1615     55.8185   5.7155972570e+01   4.8842853156e+01    0.1930287    0.1573663  29.51    0.0002541    1.276    0.216
       110 -11.1476     71.2218     63.9269   7.2709599056e+01   5.5710480734e+01    0.3082323    0.2828474 -16.83 0.0004598919    1.074    0.069
       111 -10.0569     78.4912     55.8789   6.7347057657e+01   5.5809593165e+01     0.199556    0.1339593 -37.61  0.001014445    1.540    0.350
       112  -9.1881    185.4109     54.5133   4.2455488346e+01   3.2019372502e+01    0.1352565    0.1172867 -75.38 7.928028e-05    1.031    0.030
       113 -10.2211    144.4849     53.4460   4.9052669389e+01   4.1731046748e+01    0.1396521    0.1285823  72.12 3.395801e-05    1.009    0.009
       114 -10.0820    126.6785     49.9652   5.1766351652e+01   4.6411302032e+01    0.2456384    0.1824956 -55.38 0.0003961264    1.523    0.343
       115  -9.9631      5.1914     49.9442   9.7095660809e+01   6.6321341958e+01    0.2910411    0.1230629 -48.66  0.001483702    1.840    0.457
       116 -10.2132    212.2189     49.9924   3.8003462094e+01   2.6767327501e+01    0.2006613    0.1644901 -85.11 0.0004217464    1.099    0.090
       117 -11.3252    202.9817     49.7343   3.9024071112e+01   2.8788438894e+01    0.2959656    0.2161244  64.06  0.000946881    1.402    0.287
       118 -10.7871     85.6005     49.1202   6.2583795846e+01   5.5514620470e+01    0.2481883    0.2367665 -82.05 0.0005820273    1.291    0.225
       119 -10.8078     85.8910     44.6603   6.0887372933e+01   5.6123467635e+01    0.3140828    0.1998112 -27.46 0.0007294276    1.709    0.415
       120 -10.3685     25.0124     48.9466   8.7019579593e+01   6.4893950819e+01    0.4519118    0.2017514 -18.59  0.001685967    3.796    0.737
       121 -10.0386    170.0029     48.7160   4.3288915422e+01   3.6398872272e+01    0.1972113    0.1712508  81.57  0.001176139    1.051    0.048
       122  -8.9771    106.3025     49.6632   5.6686450570e+01   5.1073556021e+01    0.1369552    0.1092873 -78.66 0.0007037395    1.665    0.399
       123 -10.8294     62.2098     47.9208   7.0399700922e+01   6.0024734553e+01    0.3141786    0.2625166 -73.33  0.001668932    1.878    0.467
       124  -9.3274     55.5270     49.4761   7.3625508785e+01   6.0852024041e+01    0.1358854    0.1131062  -0.02 7.523996e-05    1.087    0.080
       125 -11.5096    136.8424     46.7055   4.8605275383e+01   4.4494735348e+01    0.2696538    0.2391893 -79.25  0.000377882    1.168    0.144
       126 -10.0998    121.8524     48.1976   5.2317559793e+01   4.7779622055e+01    0.1985767    0.1784882  82.04 0.0003095536    1.165    0.141
       127 -10.3549     98.7853     47.3336   5.7971962621e+01   5.3048059412e+01    0.2146252     0.188017 -27.52 0.0002845468    1.221    0.181
       128  -9.2659    233.2626     47.6778   3.5332909956e+01   2.2782264510e+01    0.1267713    0.0737796 -63.15 0.0001911074    1.555    0.357
       129  -9.6496     45.7308     47.0160   7.6818731504e+01   6.2727071754e+01    0.1748825    0.1474236 -19.65  0.000220965    1.103    0.094
       130 -10.7771    198.1134     44.7808   3.8480951952e+01   3.0539986251e+01    0.2688225    0.1781077 -33.35  0.001476805    1.676    0.403
       131 -10.0799     79.4261     44.7116   6.3003924407e+01   5.7396435377e+01    0.1894992    0.1636124 -88.44  0.000515749    1.652    0.395
       132  -9.3155     67.4144     45.2325   6.7422102668e+01   5.9551911529e+01    0.1684439    0.1247113 -44.93 0.0004819052    1.576    0.365
       133 -10.6387     33.1396     44.0210   8.1385085561e+01   6.4885202643e+01    0.3011595    0.1865318 -26.52  0.001668261    1.530    0.347
       134 -10.2875    235.4693     43.3082   3.4256185385e+01   2.2940561509e+01    0.2121437    0.1773883 -82.84  0.001266057    1.144    0.126
       135 -10.6045    108.3473     43.1440   5.3963295878e+01   5.1547701924e+01    0.3503163     0.207259  67.12  0.001020874    1.989    0.497
       136 -11.2023     18.3357     40.9407   8.7498774471e+01   6.7003442636e+01    0.3771302    0.2536902 -65.94  0.002087834    2.287    0.563
       137  -9.3508    168.3051     42.6065   4.1961830832e+01   3.7629042003e+01    0.1464151    0.0912093 -67.87 0.0007008241    1.820    0.450
       138 -11.6739     56.8249     41.6607   7.0130084857e+01   6.1910043632e+01    0.2938122    0.2214454   3.04 0.0002483908    1.311    0.237
       139 -11.6889     63.1248     38.4730   6.6424238893e+01   6.1324262783e+01    0.4218958    0.2867348  15.58  0.001327168    1.556    0.357
       140 -10.5749     90.9567     40.1654   5.7711597309e+01   5.5717147729e+01     0.222202    0.1885145  28.07  0.001319622    1.101    0.092
       141  -9.2504     28.2203     41.0148   8.2605975029e+01   6.5976272476e+01    0.1575301   0.09107649 -42.07 0.0003082167    1.623    0.384
       142 -10.2046     76.0914     38.4222   6.1764456022e+01   5.8946293606e+01    0.2061141    0.1687978  -3.45  0.001226197    1.240    0.194
       143 -10.3436    207.6725     39.3407   3.6171023344e+01   2.9182542739e+01    0.2436206    0.1245036 -54.91  0.001229628    1.819    0.450
       144 -10.9305    227.7135     36.6308   3.3624070918e+01   2.5359714111e+01     0.491733     0.216611 -73.43  0.002114057    3.056    0.673
       145  -9.9162    140.3260     37.9366   4.5334345947e+01   4.4834876764e+01    0.1790968    0.1707554 -68.58   0.00035457    1.116    0.104
       146 -10.2929     84.1847     38.0086   5.8980155088e+01   5.7403368883e+01    0.2125102    0.1543366 -62.52   0.00108695    2.094    0.522
       147 -10.6747    194.9149     36.2057   3.6883620008e+01   3.2378682845e+01     0.404946    0.2517179 -83.49  0.001722587    1.643    0.391
       148 -10.3468    127.9331     36.9608   4.7455860470e+01   4.7871205224e+01    0.2704363     0.174962  60.33 0.0007661073    1.391    0.281
       149  -9.4365    111.0048     35.9904   5.0900852135e+01   5.1889080269e+01    0.1719227    0.1372117  54.01 0.0009822253    1.124    0.110
       150 -10.2340     47.2993     35.6337   7.1687452837e+01   6.4326836698e+01    0.1704937    0.1572466  83.72 0.0006843287    1.734    0.423
       151 -10.4476    106.8121     34.8419   5.1532594169e+01   5.2974575842e+01    0.2186118    0.1882497  44.68 0.0004280176    1.047    0.045
       152 -10.0939    170.0501     33.9669   3.9478471146e+01   3.8329369996e+01    0.1992322     0.175293 -80.09 0.0006466878    1.052    0.049
       153 -10.2632    234.9726     28.5139   3.1399956127e+01   2.4940567707e+01    0.1941584    0.1183521 -77.15 0.0006020442    1.477    0.323
       154 -10.4255    163.0172     42.2590   4.2681706757e+01   3.8914851315e+01    0.2021226    0.1855728 -63.68 0.0004278601    1.119    0.107
       155 -10.4729     40.4789     32.8322   7.3553335707e+01   6.5744339818e+01    0.2688072    0.1696694  15.09  0.001175197    1.577    0.366
       156  -8.9881    246.0000     31.9279   3.1187334870e+01   2.2394412769e+01    0.1793251   0.05559945 -37.81 0.0007948371    2.890    0.654
       157 -10.1050    153.9651     29.7562   4.0704413053e+01   4.2607525734e+01    0.1972765    0.1825861 -64.32 0.0002721879    1.144    0.126
       158 -10.4840     47.4388     28.2537   6.8545349877e+01   6.5367352822e+01    0.2100416    0.1904172  35.54  0.001417203    1.361    0.265
       159 -10.8659     15.3158     28.4114   8.4272784474e+01   6.9426160378e+01     0.324992     0.188451   0.64  0.001594059    1.751    0.429
       160 -10.4065    238.8463     32.5097   3.1859776386e+01   2.3686979948e+01    0.2951391    0.1790779 -87.94  0.001807215    1.562    0.360
       161 -11.4007     80.3366     26.1938   5.5670469708e+01   5.9670652270e+01     0.479457    0.3551423  79.71  0.002598686    2.016    0.504
       162  -9.3293      4.3001    245.6891   1.2122636130e+02   2.0441326488e+01    0.1230478   0.06247028  62.14 0.0004474339    1.603    0.376
       163  -9.7147    184.6868     25.8342   3.5628534802e+01   3.5942100335e+01    0.2522365    0.1371885 -78.17  0.001220014    2.081    0.519
       164  -9.2102    120.3218     26.3331   4.5650013288e+01   5.0894634776e+01    0.1377894   0.09107581  34.20 0.0007049932    1.702    0.413
       165  -9.4396     34.9874     25.6815   7.3051527929e+01   6.7550290234e+01    0.1682986    0.1366656   3.53   0.00100831    1.024    0.023
       166 -11.5007     29.6528     24.4510   7.5104064507e+01   6.8429953707e+01    0.3410645    0.1672398 -40.68  0.001393421    2.114    0.527
       167  -9.7915    106.2070    244.0811   9.9728123961e+01   8.1391449879e+00    0.1886313    0.1722435  11.95 0.0007634755    1.196    0.164
       168 -10.4947    206.9924     25.2552   3.3173604189e+01   3.1088713721e+01    0.1734505    0.1369524 -84.00 0.0004855112    1.060    0.057
       169  -9.5389     73.0193     25.4840   5.7717924067e+01   6.1206408217e+01    0.1940206    0.1139116  49.47  0.001018118    1.567    0.362
       170  -9.5717    164.2098     22.7531   3.7373087686e+01   4.1000861765e+01    0.1718397    0.1380199  52.24  0.001051456    1.344    0.256
       171  -9.7195    158.3666     22.8833   3.8198033557e+01   4.2351475449e+01    0.1669148    0.1534925 -79.65  0.000375919    1.112    0.101
       172  -9.9772      7.5470     22.3759   8.6115236068e+01   7.1096322181e+01    0.2518346    0.1364471 -38.78  0.001514857    1.590    0.371
       173  -9.7183     28.5852    243.5964   1.1633551757e+02   1.8364429993e+01    0.2634266    0.1180174  60.77 0.0007809376    2.081    0.519
       174  -9.9607      1.6482     20.9811   8.8998145883e+01   7.1785999156e+01    0.2408991   0.09089069 -48.91  0.001223402    2.421    0.587
       175 -11.6379    150.4385     18.8321   3.8217621479e+01   4.4641933697e+01    0.2933589    0.2206816  73.49  0.000484318    1.146    0.128
       176 -10.3161    119.2887     19.1884   4.3545736231e+01   5.1886919709e+01    0.2034729    0.1658766 -15.13 0.0009000691    1.460    0.315
       177 -10.6505     55.0225     19.4072   6.1598849615e+01   6.5236312994e+01    0.1957366     0.150087   7.16 0.0005398636    1.215    0.177
       178  -9.8954    244.1599     17.3156   2.8614932715e+01   2.4509154057e+01     0.177138    0.1358577 -45.59 0.0006883889    1.375    0.273
       179  -9.6384     44.1898     18.3873   6.5584105634e+01   6.7155438323e+01    0.1571918    0.1043013  43.99 0.0004331416    1.588    0.370
       180 -10.1857    236.5103    242.5042   7.2803668315e+01  -9.6867416572e+00    0.1183972   0.09037298  -6.55 8.971204e-05    1.011    0.011
       181  -9.6318    189.2777    239.0263   8.1173319043e+01  -3.1424880712e+00    0.1694323    0.1440362  -7.13 0.0002844197    1.081    0.075
       182 -10.5707    119.0800    230.6132   9.5089443678e+01   8.9153335664e+00    0.2318158    0.1899343  88.63 0.0004481797    1.493    0.330
       183  -9.4273    140.5013    227.4413   8.9766495051e+01   6.2274533510e+00    0.1369781    0.1225831  24.02 6.305071e-05    1.007    0.007
       184 -10.3201    183.8923    225.9340   8.0118572897e+01  -1.4534984982e-01    0.1960538    0.1705488   3.82 0.0003622043    1.022    0.021
       185 -11.8801     68.4476    218.3308   1.0534981546e+02   1.9020398249e+01    0.7543303    0.7053754  54.19  0.004450045    1.103    0.093
       186 -11.0342     76.8544    219.1004   1.0345066515e+02   1.7683331504e+01    0.4224652    0.3804651  38.29  0.002011258    1.134    0.119
       187 -10.2963    118.0091    214.2720   9.2969725368e+01   1.2533368203e+01    0.1968729    0.1733052  36.90 0.0001991449    1.057    0.054
       188  -9.5649    148.8986    209.8773   8.5019522984e+01   8.4250408978e+00    0.1838946    0.1621848  53.72            0    1.265    0.209
       189  -9.8908    234.0020    208.4997   6.7411651754e+01  -4.2430102771e+00    0.1510933    0.1096217  57.36 0.0008102822    2.518    0.603
       190  -9.4294    103.1881    194.5933   9.3555492767e+01   1.9418325657e+01    0.1922609    0.1400771  21.78 0.0003613973    1.524    0.344
       191  -9.6991    216.3279    187.6790   6.6744293239e+01   1.8138309391e+00    0.1234799    0.1077543 -76.26 0.0007048073    1.688    0.407
       192 -11.7039    249.3913    183.3750   6.0224688073e+01  -2.1950966062e+00    0.4031414    0.2147762 -39.38  0.002165372    1.564    0.361
       193 -11.9050    235.9239    179.0511   6.1618802614e+01   4.1113343059e-01    0.5045026    0.2781695  53.12    0.0023601    2.895    0.655
       194 -10.3532     36.4317    172.4994   1.0816931821e+02   3.4210106472e+01    0.2332397    0.2060329 -81.48  0.001386482    1.033    0.032
       195 -10.5306     54.1169    168.6443   1.0276852302e+02   3.3136302619e+01    0.2584417    0.1885233 -62.79 0.0004764159    1.284    0.221
       196 -12.5352    216.8407    156.7911   6.0511402851e+01   7.4283547420e+00    0.6619098    0.3003061 -46.20  0.002822328    2.044    0.511
       197 -11.3812    223.8795    155.8464   5.9093346625e+01   6.4210298276e+00    0.3308562    0.2400566 -13.25  0.001763773    1.607    0.378
       198 -10.0785      1.7007    153.8896   1.1573065778e+02   4.1994099096e+01    0.1861904    0.1460891 -67.80 0.0005232756    1.132    0.117
       199 -10.9772     11.8573    145.1496   1.1194164497e+02   4.3487468416e+01    0.2222174    0.1801902 -63.15 0.0002493736    1.114    0.103
       200 -13.2453    238.9636    112.1283   4.7814902610e+01   1.1635877250e+01     1.587668    0.7274486 -46.77  0.007425638    1.849    0.459
       201 -14.1767    220.5355    115.2647   5.1139662065e+01   1.4455186324e+01     1.660067      1.10131 -23.43  0.007556623    1.896    0.473
       202 -11.0904     28.1659    140.1066   1.0635227825e+02   4.3417868586e+01    0.4111942    0.2242622 -56.80  0.001129371    1.597    0.374
       203  -9.5528     16.4909    132.4720   1.0895424164e+02   4.6374153364e+01    0.1358832    0.1157512 -67.01 8.100782e-05    1.014    0.014
       204  -9.2032     39.8512    130.6216   1.0111949716e+02   4.4701225397e+01    0.1828799     0.127001  41.31 0.0001468502    1.570    0.363
       205 -10.1032     15.6929    128.8979   1.0872112767e+02   4.7345820048e+01     0.190604    0.1474112 -72.18 0.0003653655    1.123    0.110
       206  -9.2393     33.4638    128.5171   1.0286109536e+02   4.5900854024e+01    0.1408518    0.1247178 -63.02 0.0002780924    1.003    0.003
       207  -9.7711     48.0341    125.8302   9.7533044130e+01   4.5007133267e+01    0.2396399    0.1578609 -21.34  0.001087485    1.945    0.486
       208  -9.4819     23.5069    125.0484   1.0559709169e+02   4.7701064765e+01    0.2117791    0.1213922 -69.44 0.0004578005    1.553    0.356
       209  -9.5590     29.8152    124.3982   1.0338542852e+02   4.7305416864e+01    0.1888562    0.1319817  -3.28 0.0009581032    1.774    0.436
       210 -10.0337     21.2542    142.0206   1.0874209770e+02   4.3538931004e+01    0.1912136    0.1577773 -75.42 0.0003821982    1.059    0.055
       211 -10.4487     11.8356    129.0432   1.0997814571e+02   4.7590293636e+01    0.1921049    0.1854662 -60.41 0.0003011668    1.143    0.125
