#   1 NUMBER                 Running object number                                     
#   2 MAG_AUTO               Kron-like elliptical aperture magnitude                    [mag]
#   3 X_IMAGE                Object position along x                                    [pixel]
#   4 Y_IMAGE                Object position along y                                    [pixel]
#   5 X_WORLD                Barycenter position along world x axis                     [deg]
#   6 Y_WORLD                Barycenter position along world y axis                     [deg]
#   7 A_WORLD                Profile RMS along major axis (world units)                 [deg]
#   8 B_WORLD                Profile RMS along minor axis (world units)                 [deg]
#   9 THETA_WORLD            Position angle (CCW/world-x)                               [deg]
#  10 FWHM_WORLD             FWHM assuming a gaussian core                              [deg]
#  11 ELONGATION             A_IMAGE/B_IMAGE                                           
#  12 ELLIPTICITY            1 - B_IMAGE/A_IMAGE                                       
         1 -12.9316    190.9497     39.4287   4.3571066278e+01   3.2696665039e+01     1.134897    0.9222342  27.32  0.004356351    1.641    0.391
         2 -13.5058    125.9704     30.2504   5.1872511447e+01   4.9727352220e+01    0.9745175    0.4991085 -23.72  0.002730931    2.255    0.556
         3 -14.3657    121.7226      6.9660   4.4662388931e+01   5.3114402158e+01     2.897228     2.647357 -70.48   0.01892013    1.234    0.190
         4 -12.1899    219.4899      7.4213   3.2945213075e+01   2.9892123345e+01    0.6921045    0.4781129 -20.78  0.003966414    1.921    0.479
         5 -12.2294    214.2396      5.7027   3.2982993363e+01   3.1236017682e+01    0.7158143    0.4848579 -19.04  0.004197672    1.996    0.499
         6  -8.4579    231.4323     23.4640   3.5441261741e+01   2.5473414742e+01    0.1231408    0.1021997 -70.44  0.000339856    1.041    0.039
         7 -15.1254    242.5373    236.9636   7.8416861273e+01  -9.9055388896e+00     2.772423     1.225432 -27.64   0.01441316    2.206    0.547
         8 -13.7930     74.9331    152.8697   1.0115338016e+02   3.4376558363e+01     3.140327     1.652509  88.11  0.009379528    3.731    0.732
         9  -9.7658    192.9713    195.7763   8.0433598369e+01   3.8681354712e+00    0.6222882    0.2951695 -60.28  0.001698187    6.672    0.850
        10 -10.5988    160.5382    205.4948   8.9118511957e+01   7.6823224515e+00     0.253603    0.2368351  28.90 0.0003743592    1.057    0.054
        11  -9.7058     96.0190    190.0592   1.0163285533e+02   2.2039508513e+01    0.2574576    0.2029596  86.71   0.00079529    1.350    0.259
        12  -8.3975    182.7316    190.7128   8.1600292282e+01   6.6008040862e+00    0.1389706    0.1047039  -3.50 0.0002251296    1.501    0.334
        13  -9.0259     66.8194    206.7023   1.1068649949e+02   2.2536794721e+01    0.1147494   0.09058999 -55.82 0.0002088358    1.435    0.303
        14  -9.1647     68.6606    187.4332   1.0796559116e+02   2.6745318119e+01       0.3109    0.1710008  27.72  0.001346138    2.113    0.527
        15  -9.4474     69.1196    183.5627   1.0734893173e+02   2.7607802116e+01     0.382982    0.2959023  57.50  0.002125845    1.230    0.187
        16  -9.1520    188.8289    178.7967   7.7952889416e+01   7.7782921222e+00    0.1855634     0.174588  71.66 0.0003480517    1.314    0.239
        17  -9.4944     43.7841    206.2194   1.1578371693e+02   2.5572400523e+01    0.1373097    0.1228015 -88.43 0.0009055255    1.172    0.147
        18 -10.0760     72.0000    249.8991   1.1379452763e+02   1.2923077791e+01    0.1595636   0.06569458 -68.27 0.0007589569    2.688    0.628
        19  -9.1108     71.6852    163.6252   1.0381668443e+02   3.2143272370e+01    0.2863399    0.1780857  69.11 0.0009335464    1.962    0.490
        20  -9.4124     39.0351    161.7385   1.1226512700e+02   3.6706657903e+01    0.2793611    0.1702941 -45.73  0.001263194    1.876    0.467
        21 -10.3302     90.1087    159.3699   9.8118769701e+01   3.0398180071e+01    0.2613106     0.233402 -68.35 0.0003052659    1.079    0.073
        22 -10.4270     48.9944    250.5880   1.1825588501e+02   1.5742633693e+01    0.1410615    0.0926136  46.64 0.0002464267    1.273    0.214
        23 -10.8820     95.8778    152.7570   9.5306116203e+01   3.1087049764e+01    0.6126621    0.4381397 -22.72  0.002726351    1.947    0.486
        24 -11.5359    133.8483    146.7323   8.3861242695e+01   2.5467252083e+01     1.287946    0.2852534 -53.84  0.002677205    6.896    0.855
        25 -18.6181     16.8081    178.0173   1.1944346734e+02   3.4941611936e+01     17.34398     2.365295 -72.85   0.05009124    5.504    0.818
        26 -10.5846    223.3324    219.7806   7.8913897499e+01  -4.9017008162e+00    0.2246351    0.1938587  -5.86 0.0003386995    1.137    0.121
        27 -10.2509     54.3837    145.9069   1.0582456105e+02   3.8925909292e+01    0.4245631    0.2371254 -40.84  0.001367262    2.136    0.532
        28  -9.9582     92.2923    217.4399   1.0620903094e+02   1.6529479310e+01    0.3333991    0.2018165  67.55 0.0004897546    1.925    0.481
        29 -10.5316    107.3938    138.7821   8.9194702380e+01   3.2502629004e+01    0.4625422    0.3138541 -31.11  0.001984612    1.807    0.447
        30 -11.1596    249.7912    137.2004   5.8027098082e+01   4.3716173635e+00    0.5155767   0.09354525 -38.18  0.001457573    4.736    0.789
        31 -11.2702     95.7738    138.4381   9.2420369861e+01   3.4669593879e+01    0.2975927    0.2735539  56.50 0.0003453241    1.118    0.105
        32  -9.6258    188.0952    137.2200   6.8994883645e+01   1.6208177351e+01    0.2412455    0.2042411 -38.43 0.0003154058    1.123    0.109
        33 -15.1005    121.8492    230.8191   1.0145232481e+02   9.2471931345e+00     4.943988     4.162005 -48.06   0.03063028    1.376    0.273
        34 -10.2389     58.0374    198.7387   1.1182755432e+02   2.5514035977e+01    0.3123976    0.1557082 -65.40  0.001491865    1.917    0.478
        35  -9.4265     35.0283    219.4952   1.1873662547e+02   2.3672377518e+01    0.1765974   0.09680814  45.75 0.0007450639    1.588    0.370
        36 -10.1442    114.5485    129.6996   8.5094379773e+01   3.3346541888e+01    0.3159248    0.2653257  -3.13 0.0007247096    1.440    0.305
        37  -8.3759    192.7194    215.7077   8.4128267512e+01   4.3109639417e-01    0.1319783   0.09383503   0.05 0.0002189371    1.530    0.347
        38  -9.9306    102.3374    125.6320   8.7618501973e+01   3.6650026347e+01    0.2940041    0.2434273 -25.18 0.0004238187    1.355    0.262
        39 -10.1760    119.9645    124.1896   8.2240085287e+01   3.3580284128e+01    0.2617051    0.1890796   6.88   0.00108207    2.001    0.500
        40  -9.4237    135.0000    120.9909   7.7376377689e+01   3.1183031421e+01    0.2655992   0.08943599 -46.06 0.0007990765    2.919    0.657
        41  -9.1580    110.0207    119.0493   8.3765223307e+01   3.6772206473e+01    0.2285597    0.2231133 -51.38  0.001210343    1.008    0.008
        42 -12.8023    246.3708    102.8503   5.1151919810e+01   1.0749908882e+01    0.8498717    0.4835574 -31.79  0.004168879    1.698    0.411
        43  -9.9876    134.1857    105.6271   7.3510462919e+01   3.4774093106e+01     0.312954    0.1189985 -46.23  0.001012354    2.625    0.619
        44 -10.8635    113.3148     95.0298   7.6281055927e+01   4.1570883251e+01    0.3678881    0.2370964 -25.78  0.001515379    1.931    0.482
        45  -8.6655    167.3048    112.6805   6.7398989641e+01   2.5794760141e+01    0.1586052    0.1234386 -78.09 0.0004028815    1.632    0.387
        46 -10.1471     96.6221     88.2551   7.9349839905e+01   4.6380300584e+01    0.2568689    0.2451574   2.14 0.0003078403    1.038    0.036
        47 -11.3577    118.0356    111.1048   7.9404452266e+01   3.7012684163e+01    0.5535065    0.3261024  61.21  0.002072766    2.379    0.580
        48 -11.3178    176.0022     53.0145   4.9442432982e+01   3.4423125099e+01    0.4003848    0.3743014 -77.88 0.0008133487    1.023    0.023
        49  -9.4933     78.8763    241.3824   1.1165487910e+02   1.3609405685e+01     0.148981    0.1353383  75.35 0.0005581076    1.161    0.138
        50 -12.0922    195.9530     33.5768   4.1435897645e+01   3.2261190830e+01    0.5084233    0.4331445  84.13  0.001119512    1.082    0.075
        51  -9.4906     43.6693    236.8256   1.1829090237e+02   1.9070649862e+01     0.164211    0.1363683  52.66 0.0004484934    1.198    0.165
        52  -9.1649    168.1945    233.6011   9.2088636148e+01   1.3485424034e+00    0.1857282    0.1750779 -52.62  0.000520598    1.320    0.242
        53  -9.7272     53.3376    232.1289   1.1600492681e+02   1.8837886135e+01    0.1550092    0.1170404  89.78 0.0002714525    1.241    0.194
        54  -7.5892     43.6838    222.2012   1.1716739290e+02   2.2090353884e+01    0.1215484   0.07105817  57.24 0.0006704209    1.472    0.321
