#   1 NUMBER                 Running object number                                     
#   2 MAG_AUTO               Kron-like elliptical aperture magnitude                    [mag]
#   3 X_IMAGE                Object position along x                                    [pixel]
#   4 Y_IMAGE                Object position along y                                    [pixel]
#   5 X_WORLD                Barycenter position along world x axis                     [deg]
#   6 Y_WORLD                Barycenter position along world y axis                     [deg]
#   7 A_WORLD                Profile RMS along major axis (world units)                 [deg]
#   8 B_WORLD                Profile RMS along minor axis (world units)                 [deg]
#   9 THETA_WORLD            Position angle (CCW/world-x)                               [deg]
#  10 FWHM_WORLD             FWHM assuming a gaussian core                              [deg]
#  11 ELONGATION             A_IMAGE/B_IMAGE                                           
#  12 ELLIPTICITY            1 - B_IMAGE/A_IMAGE                                       
         1 -12.2862     43.4353     82.3830   9.6919295747e+01   5.5606690414e+01     1.277477     1.011776 -28.29  0.007449181    1.203    0.169
         2 -10.4261     50.3095     37.2235   7.9165199687e+01   6.3708370522e+01    0.7988569    0.6235082 -70.38  0.004325932    2.397    0.583
         3 -10.4420     39.6103     29.9477   8.0862743831e+01   6.6317133290e+01    0.5169415     0.309004 -38.47  0.002479327    1.583    0.368
         4 -11.8839     44.7417     22.3820   7.5187309533e+01   6.6757164063e+01    0.9513924    0.8256972 -48.10   0.00597239    1.685    0.406
         5 -12.0398    128.8430     15.5308   4.6831497347e+01   5.0689658125e+01     1.265103     1.167414  75.53  0.008052052    1.103    0.094
         6 -10.8118    120.3884      4.2457   4.4508774780e+01   5.3690850795e+01     1.087786    0.4489357  46.65  0.004877463    2.153    0.536
         7 -11.4403    108.7072      4.9570   4.7071040196e+01   5.6326409728e+01     1.647353    0.6869468  62.46   0.00739751    2.119    0.528
         8 -12.5523    155.4300     20.7975   4.3959265230e+01   4.3726009111e+01     1.433475    0.9005461  50.76  0.005870787    1.522    0.343
         9 -13.3572    168.7607     16.9472   4.0925453466e+01   4.0885608597e+01     2.957533     1.273545  79.31   0.01187209    2.660    0.624
        10  -9.9002     77.3785     20.2556   6.1640866251e+01   6.1499291207e+01    0.3907619    0.2460332 -28.97  0.002011865    1.659    0.397
        11 -11.0566     78.1331     13.7939   5.8602417365e+01   6.2061969282e+01      1.27329    0.5581589 -13.93  0.005370739    3.016    0.668
        12 -11.2193     83.8949      3.7746   5.2558541387e+01   6.1833110578e+01     1.010999     0.476378  52.61  0.005073691    1.787    0.440
        13 -10.2836     71.3336      5.5319   5.7066248094e+01   6.4197408800e+01    0.4967457    0.3551571  34.70  0.002666117    1.168    0.144
        14 -10.1925    116.1548     16.1930   4.9628461631e+01   5.3603154911e+01    0.5558034    0.3359932 -50.29  0.002735805    2.137    0.532
        15  -9.0295    111.5044     16.5117   5.0773289342e+01   5.4640091892e+01     0.325394    0.2307252  46.78  0.001503828    1.235    0.191
        16 -12.9074    170.7295      6.5489   3.7800164192e+01   4.1433263555e+01     2.258768    0.7717611  73.21  0.008946443    2.740    0.635
        17  -9.2093     94.2698     17.2970   5.5356465101e+01   5.8375884902e+01    0.4722116    0.2933354  81.36  0.002098109    2.862    0.651
        18 -10.3789     63.6009     16.2132   6.4646643876e+01   6.4523610018e+01    0.7443483    0.2619152  51.21  0.002980049    3.218    0.689
        19 -10.0897    247.3950     16.5327   3.3073964124e+01   2.3158281312e+01    0.2684613    0.2102994 -65.50  0.001743419    1.012    0.012
        20  -9.0120     20.6827     13.8233   8.2960285878e+01   7.0963843641e+01    0.4758225    0.1960641 -25.50  0.002219987    2.687    0.628
        21  -9.8175     38.8482      8.3926   7.1109857228e+01   6.9418696270e+01    0.5629901    0.3076895   3.25  0.002906412    2.223    0.550
        22  -8.3673     40.0299      1.9285   6.7206709894e+01   6.9969074082e+01    0.2346122    0.1567488  12.28  0.001219157    1.293    0.227
        23 -10.5616     60.3293      4.3948   6.0273527703e+01   6.6355929986e+01    0.6837639    0.4326049 -10.09  0.004061449    1.588    0.370
        24 -12.0890    131.1795      3.7202   4.2447223094e+01   5.1189504916e+01     2.535566    0.5068025  67.34  0.007629789    4.600    0.783
        25 -10.3142    203.5781      4.4102   3.3929680548e+01   3.3926076329e+01    0.3225347    0.1717178  76.10  0.001720297    1.675    0.403
        26  -8.4642     17.3893      2.3496   7.8909646666e+01   7.2888077076e+01     0.259117    0.1611948 -45.52  0.001566538    2.302    0.566
        27  -9.6527    217.7700      2.2440   3.2278909822e+01   3.0965233912e+01    0.2981469    0.1283337  83.44  0.001429996    2.248    0.555
        28  -9.8210    250.1807      3.5598   3.0324510182e+01   2.4038427749e+01    0.3611423    0.1659293 -44.23  0.002053706    1.777    0.437
        29  -8.0780     52.3848      2.0060   6.2070199134e+01   6.7973910836e+01    0.1940025     0.133769  35.80  0.001231259    1.258    0.205
        30  -9.0073     77.2015     77.2087   8.3032005296e+01   5.2111020430e+01    0.1918776    0.1784223 -86.00   0.00107975    1.340    0.254
        31  -8.4373     12.4954     89.9765   1.1012372920e+02   5.6453035842e+01    0.1987831    0.1048391 -66.10 0.0009467783    1.566    0.362
        32  -9.8992     74.8097     69.6543   8.1459860110e+01   5.4052972003e+01    0.4099301    0.3385949  27.46  0.002279495    1.235    0.191
        33  -8.4490    100.3243     83.6611   7.7408108829e+01   4.6592230140e+01    0.1502448    0.1220512 -87.59 0.0006274396    1.723    0.420
        34  -9.2705    182.7673    246.5939   9.1648667478e+01  -2.4652589341e+00    0.1810876   0.09939455  41.40 0.0009588602    1.720    0.418
        35  -8.9226     83.8666     69.1302   7.8125915972e+01   5.2601183912e+01    0.3529184    0.2154433  40.97  0.001648176    1.691    0.409
        36  -8.8010     45.5756     62.3191   9.0276132337e+01   5.9693880690e+01    0.3637396    0.2246477 -54.41  0.001872459    1.654    0.395
        37  -8.8031    227.9991     79.3736   4.8834508863e+01   1.8560786745e+01    0.4353991    0.2449136 -26.63  0.001966374    2.066    0.516
        38  -8.6921     67.4824     63.4924   8.2078329012e+01   5.6445288307e+01    0.1403548    0.1237446 -15.36 0.0008103594    1.011    0.010
        39  -9.0800     76.1308     59.1903   7.7424045436e+01   5.5844494450e+01    0.3838808     0.177968 -32.09  0.001538651    2.372    0.578
        40  -8.3583     15.8955     58.7324   1.0185130752e+02   6.3224321232e+01    0.2138392    0.1519579  17.14  0.001094215    1.594    0.373
        41 -10.3510    197.2930     56.5648   4.7582833486e+01   2.8974949016e+01    0.4631305    0.2945285  58.34  0.001273267    1.582    0.368
        42  -8.5794     66.2687     54.2634   7.9296951951e+01   5.8375157328e+01    0.3584959    0.1553324 -50.71  0.001393785    2.861    0.650
        43  -8.6867     34.4729     53.0424   9.1950279018e+01   6.2787168125e+01    0.3230517    0.1695657  24.81  0.001651218    2.038    0.509
        44  -8.0952     23.6112     51.8140   9.6393947951e+01   6.4054000180e+01    0.1738167    0.1098176 -61.24  0.000953458    1.738    0.425
        45  -9.8186     85.5222     48.1271   7.0135878880e+01   5.6054448552e+01     0.799687     0.473678  54.05  0.003692817    2.039    0.510
        46  -9.8104     81.6636     38.6076   6.7773905724e+01   5.8260129241e+01    0.5868501    0.3049392 -36.71  0.002746117    1.971    0.493
        47  -9.9528     92.0744     43.6319   6.6323322229e+01   5.5470028458e+01    0.4205644    0.1998494 -34.41  0.001818478    2.141    0.533
        48 -10.3652      3.6022     40.2040   1.0228198026e+02   6.7739013586e+01    0.6139846    0.3869356 -49.89   0.00299433    1.272    0.214
        49  -9.0814     11.7610     34.1831   9.6197366378e+01   6.8367949267e+01    0.3962189    0.1725907 -44.10  0.001973598    1.772    0.436
        50  -9.1261    110.7019     40.8222   5.9889542479e+01   5.1914571250e+01    0.3646479    0.2810944 -77.21  0.001838251    1.885    0.469
        51  -9.7897    175.1416    241.7466   9.2428337384e+01  -5.8661121141e-01    0.2392349    0.1519569 -11.83  0.001172844    2.111    0.526
        52  -9.2610    159.8097    239.8076   9.5226264804e+01   2.0737410048e+00    0.1739002    0.1428853  51.85  0.001021844    1.350    0.259
        53 -10.7307    204.2990    224.1017   8.3841393984e+01  -2.2691128517e+00    0.3637379    0.2092637  15.37  0.001805823    1.959    0.489
        54  -7.8403     29.1005     35.3724   8.8038861330e+01   6.6629177923e+01    0.1584592    0.1056535  33.38 0.0009340176    1.764    0.433
        55 -10.0909     86.5367     31.6673   6.3420895536e+01   5.8278804306e+01    0.5231141    0.3661035  26.13   0.00278126    1.396    0.283
        56  -9.6229     89.9784     27.7458   6.0787681071e+01   5.8083680690e+01    0.3085459    0.2757825  85.83  0.001860857    1.501    0.334
        57 -10.1505    225.1017     29.3464   3.7671235555e+01   2.6324172889e+01    0.4653632    0.3794833  56.42  0.001954776    1.439    0.305
        58  -9.4187     66.7285     29.6520   6.9412121384e+01   6.2260206174e+01    0.3418137    0.1845233 -22.89  0.001579818    1.962    0.490
        59  -8.4516    238.8195    202.5951   7.3534098677e+01  -4.0992902039e+00    0.1617007    0.1151398  40.06 0.0008359445    1.656    0.396
        60  -8.2986     20.2581    155.8705   1.1674122952e+02   3.9857797398e+01    0.2665717    0.1356777 -69.85   0.00105309    1.620    0.383
        61 -10.8093     11.0000    139.9938   1.1752688253e+02   4.4457732929e+01    0.4150644    0.2280218 -79.23  0.002200192    1.535    0.349
        62 -10.1399      5.0352    142.3992   1.1936960494e+02   4.4285682864e+01    0.4439319    0.0798559 -64.69   0.00160197    3.387    0.705
        63  -8.0189     24.7990    141.5902   1.1391086313e+02   4.2976816214e+01    0.1788708     0.110633  43.95  0.000954741    1.750    0.429
        64 -12.5445    241.9309    131.8424   5.8607731444e+01   7.0094632017e+00     1.367726     1.209439  39.34  0.005832452    1.302    0.232
        65  -9.5809     40.5579    141.9353   1.0951556135e+02   4.1390152053e+01    0.3384237    0.2624775  73.12  0.001919112    1.340    0.254
        66  -9.3782     14.8119    129.2192   1.1522244635e+02   4.6821241184e+01    0.2257601    0.1074535  65.10 0.0009595205    2.856    0.650
        67  -8.9970     23.2582    125.8706   1.1228476039e+02   4.7000117909e+01    0.2501113    0.1477607 -31.77  0.001244502    2.110    0.526
        68  -8.4022    103.3080     26.4063   5.6506227302e+01   5.5405442632e+01    0.2578023    0.2100368  67.75  0.001171441    1.381    0.276
        69  -9.0578     97.6906     36.5386   6.1931610953e+01   5.5330209487e+01    0.2281991    0.1666642 -51.73  0.001180738    1.761    0.432
        70  -8.1850     10.7729     23.6948   9.2734711528e+01   7.0299752767e+01    0.1625307    0.0884781 -57.43 0.0005027197    2.308    0.567
        71  -8.2630     20.3349     22.6640   8.7192827011e+01   6.9640966971e+01    0.2169512    0.1353268  14.21  0.001341647    1.563    0.360
        72  -8.9442    117.3178     21.6689   5.1350200602e+01   5.2769552277e+01    0.2331281    0.2245698  84.67  0.001110354    1.155    0.135
        73  -8.6403     57.5033    122.4848   1.0112787429e+02   4.4342625636e+01    0.1435487    0.1280306 -56.43 0.0001635764    1.025    0.024
        74  -9.3772     13.4124    121.2533   1.1462508039e+02   4.8871905035e+01    0.2105732     0.157385 -14.96 0.0008247375    1.693    0.409
        75  -7.9452     94.2259    111.0203   8.6997556065e+01   4.1613470999e+01    0.2103617    0.1208326 -50.24 0.0008756106    1.656    0.396
        76  -8.6011     68.5777    106.3198   9.4018629386e+01   4.6838295170e+01    0.3354668    0.1358952  31.94  0.001259941    2.687    0.628
        77  -9.2655     16.9583    103.9227   1.1096137245e+02   5.2843895559e+01    0.3132913    0.2924085 -41.54  0.002129847    1.171    0.146
        78  -9.2250     70.0176     12.5174   6.0686670296e+01   6.3760234111e+01    0.2394192    0.1415322  40.74  0.001316651    1.473    0.321
        79  -9.6469     46.9728     99.7145   9.9823192374e+01   5.1170753008e+01     0.322922    0.2487538 -66.64  0.001781647    1.270    0.213
        80  -9.5051     30.1504    102.1731   1.0616977834e+02   5.2240896509e+01    0.3985418    0.1598254 -47.09  0.001700856    2.191    0.544
        81  -8.6795     63.9933     98.7110   9.3690823784e+01   4.9293226657e+01    0.1985692    0.1904573 -12.77 0.0007169318    1.091    0.083
        82  -9.3465      2.4201     89.1905   1.1359794594e+02   5.7189543510e+01    0.6816928    0.1911979 -69.16   0.00271525    2.825    0.646
        83 -10.0820     25.2418     65.6030   9.9706898540e+01   6.1053694366e+01    0.6672464    0.2586928 -49.60  0.002840066    2.004    0.501
        84 -11.0607      5.1270     76.6916   1.1041017753e+02   5.9926217011e+01    0.6719585    0.5032029  45.36  0.004282101    1.723    0.420
        85  -8.4916     97.6845     27.0856   5.8292618757e+01   5.6545587984e+01    0.2950636    0.1982909  -7.71  0.001531124    1.697    0.411
        86 -11.5834     14.3301     73.0060   1.0601791879e+02   6.0228274491e+01    0.8019943    0.6417599  25.16  0.005235366    1.505    0.335
        87  -8.1495    143.6680     80.3279   6.4473330372e+01   3.7839056359e+01     0.157999    0.1213357 -78.40  0.000705159    1.715    0.417
        88  -8.3706    138.5134     80.0184   6.5633813699e+01   3.9093905633e+01    0.2311276    0.1500012 -38.36 0.0006022677    1.545    0.353
        89  -8.0785     71.1866     80.2046   8.6068954088e+01   5.2435725467e+01     0.189505    0.1759942  89.96  0.001076288    1.338    0.253
