#   1 NUMBER                 Running object number                                     
#   2 MAG_AUTO               Kron-like elliptical aperture magnitude                    [mag]
#   3 X_IMAGE                Object position along x                                    [pixel]
#   4 Y_IMAGE                Object position along y                                    [pixel]
#   5 X_WORLD                Barycenter position along world x axis                     [deg]
#   6 Y_WORLD                Barycenter position along world y axis                     [deg]
#   7 A_WORLD                Profile RMS along major axis (world units)                 [deg]
#   8 B_WORLD                Profile RMS along minor axis (world units)                 [deg]
#   9 THETA_WORLD            Position angle (CCW/world-x)                               [deg]
#  10 FWHM_WORLD             FWHM assuming a gaussian core                              [deg]
#  11 ELONGATION             A_IMAGE/B_IMAGE                                           
#  12 ELLIPTICITY            1 - B_IMAGE/A_IMAGE                                       
         1 -12.3539    175.0132     41.3749   9.6697321622e+00   3.5760254241e+01     1.229673    0.7470766  35.14  0.004858035    2.441    0.590
         2 -13.4655    174.9280     70.4398   1.7946538946e+01   3.1409979957e+01      3.43369     2.050845 -81.12     0.013469    2.596    0.615
         3 -12.2691    188.4743     34.0635   5.9806634941e+00   3.3435347448e+01     1.678051    0.9999817  26.45  0.006896677    3.268    0.694
         4 -11.7494    247.9421     44.1279   2.9027048229e+00   1.9374937153e+01     1.187029    0.1560916 -40.14  0.004155539    3.811    0.738
         5 -13.6289    216.6915     56.0466   8.4808482287e+00   2.4074676947e+01      1.44447     1.134594  -2.81   0.00343427    1.781    0.439
         6 -13.8909    242.3439     61.5251   7.1438561896e+00   1.8144301276e+01     1.315365    0.7762765 -40.90  0.002581082    1.352    0.260
         7 -11.0356     30.3955     20.7634   4.4739208187e+01   7.1898601866e+01    0.9351461    0.4444162 -41.76  0.004477946    2.055    0.513
         8 -14.1031     11.3663     69.2973   7.3615929529e+01   6.3185244206e+01     1.843021     1.339901 -17.14   0.01044913    1.476    0.323
         9 -10.3818     92.3860     34.3247   2.4036726380e+01   5.7662060451e+01     1.146829     0.794373 -72.28  0.005158244    2.162    0.537
        10 -13.0929     74.2878      7.4669   1.6834871900e+01   6.5136504995e+01     2.168241    0.8417158  70.07  0.004308615    3.625    0.724
        11 -11.9881     85.5181      1.7965   1.0900878722e+01   6.2951734627e+01    0.4571185    0.1796658  55.18  0.001190446    2.038    0.509
        12 -12.0898     41.3594     21.2625   3.8547978591e+01   7.0128804500e+01     1.678172    0.8139172  17.09  0.005810177    4.118    0.757
        13 -13.2191     55.0639     71.2906   5.3141479154e+01   5.8034204227e+01     1.135938    0.8551943 -57.38  0.001803128    1.345    0.256
        14 -12.5526     53.3836     21.3318   3.2461285408e+01   6.7963557085e+01     1.323686    0.8934396 -88.37  0.004853272    4.662    0.786
        15 -12.7753     26.0712     40.7232   5.6973252955e+01   6.8629946377e+01     1.767295    0.7906766 -36.18  0.007595075    2.296    0.564
        16 -14.1541      4.3591     52.8887   7.3776134097e+01   6.7558195835e+01     2.863818    0.9648457 -64.47   0.01099978    2.365    0.577
        17 -13.5996     36.6746     56.5027   5.6962327012e+01   6.3964122971e+01      1.62764    0.8527338  32.33   0.00726729    1.981    0.495
        18 -12.9680     67.7770     16.2995   2.3709701219e+01   6.5661582240e+01     1.358372    0.6269556  56.48  0.005895593    2.117    0.528
        19 -13.2478     14.3019     34.5203   6.1931955966e+01   7.1063621339e+01    0.8210863    0.7492278  54.04  0.002532935    1.434    0.303
        20 -12.3435     12.1521     25.0813   5.9429224569e+01   7.3178520621e+01    0.5194649    0.4048074  -0.89    0.0015293    1.219    0.179
        21 -13.7664     79.2171     44.1134   3.2698871886e+01   5.9117073848e+01     1.282048     1.110413  58.43  0.006285891    1.243    0.196
        22 -13.3710     72.8211     27.3034   2.7410803052e+01   6.3129248623e+01     2.522121      1.17344  33.91  0.009719811    2.632    0.620
        23 -12.7756     47.7936     32.3245   4.0946406849e+01   6.7226267688e+01     1.615731     1.129907  41.04  0.007026205    1.472    0.320
        24 -12.8400    208.1196     45.4262   6.7983599150e+00   2.7405481512e+01     1.704755    0.8296977 -70.78  0.007002759    2.767    0.639
        25 -12.5937    226.1360     22.6394   3.5978849163e+02   2.6333361832e+01     0.478706    0.3516662  82.41  0.001938007    1.383    0.277
        26 -11.6168    211.0852     21.5530   6.5514147204e-01   2.9709571748e+01    0.6395098    0.4320697 -20.47  0.003588453    1.793    0.442
        27 -11.5393    103.1877     26.6413   1.7769590914e+01   5.6049333555e+01    0.5291893    0.3564666 -45.31  0.001407173    1.638    0.390
        28 -11.1092    112.6581     23.7962   1.4387072587e+01   5.3993789056e+01     0.420431    0.3236109  15.31  0.002150929    1.574    0.365
        29 -10.0860     19.7841     19.6838   5.1242169149e+01   7.3440491866e+01    0.5725366    0.1761647 -48.12  0.002281456    3.071    0.674
        30 -10.8419    130.1555     19.2306   9.2920451807e+00   4.9974806256e+01    0.7523176    0.3226345  87.91  0.002412638    3.832    0.739
        31 -11.5888    123.6937     22.8717   1.1787620779e+01   5.1253948440e+01    0.6473542    0.4130645 -33.05  0.003047376    1.654    0.395
        32 -12.0110    108.5314      9.5547   9.4431960984e+00   5.6530180029e+01    0.5115447    0.3028499 -33.23 0.0007098739    1.815    0.449
        33 -10.3022    110.7432      4.2444   6.8543852097e+00   5.6423018147e+01      1.45979    0.5147606  86.62  0.003790306    6.214    0.839
        34 -11.2309    125.0000     14.9873   8.6015930411e+00   5.1757061970e+01    0.3414196    0.1974539 -15.12  0.001063988    2.129    0.530
        35 -11.0971    125.1140      9.8649   6.6716019937e+00   5.2220380616e+01    0.6900929    0.3611753  23.56  0.002746469    3.073    0.675
        36 -12.0883    114.7014     12.6491   9.5285096143e+00   5.4654841159e+01    0.5257996    0.3198763  89.06 0.0006114786    1.867    0.464
        37 -10.9782    116.3205      9.6899   8.0646372348e+00   5.4515013519e+01    0.3105058    0.2104962 -84.22 0.0009125985    1.607    0.378
        38 -12.2179    244.2127     22.3441   3.5853388620e+02   2.2715563854e+01    0.6010525    0.3242708  83.43  0.003477457    1.952    0.488
        39 -10.2025    203.2291     16.6460   6.8523557542e-02   3.2029245327e+01    0.4300641     0.199374 -85.42  0.001765948    2.360    0.576
        40 -12.1469    229.0346     10.5047   3.5688283597e+02   2.7072714602e+01     0.540372    0.3158985 -65.52  0.001837319    1.454    0.312
        41 -12.4537    221.4676      8.5104   3.5688136859e+02   2.8873088000e+01    0.5049205    0.2010705 -44.99  0.001861412    1.936    0.483
        42 -13.7838    244.3736      8.3492   3.5559649866e+02   2.4222585123e+01     1.033885    0.4103161 -72.41  0.005002123    2.639    0.621
        43 -11.4164    231.6285      2.9976   3.5510388141e+02   2.7318330284e+01    0.6673883    0.2385107 -53.05  0.003267554    2.173    0.540
        44 -11.7764     94.3253     15.5809   1.5201375548e+01   5.9520179847e+01     0.385929    0.2581891 -29.35  0.001986688    1.620    0.383
        45  -9.9161    187.3086     14.0471   7.1423298413e-01   3.6034827162e+01    0.2278803    0.1218861 -20.77  0.001075266    2.260    0.557
        46 -11.4819    141.2179     14.1511   5.8172301095e+00   4.7620672520e+01    0.2151215    0.2045688  12.84 0.0003898465    1.245    0.197
        47 -11.4100    149.0330     13.0168   4.4096766470e+00   4.5710294541e+01    0.4485736     0.224798  89.38  0.001908607    2.176    0.540
        48 -10.6304     87.7896     11.8806   1.5181237099e+01   6.1499448219e+01    0.3272638    0.1921238  71.04  0.001542419    1.783    0.439
        49  -9.9614    101.5054      9.5494   1.0864594037e+01   5.8317426657e+01    0.2321073    0.2006336  38.04 0.0007495321    1.162    0.139
        50  -9.7370    100.7197      6.4209   9.6670074486e+00   5.8794034957e+01    0.2006487    0.1775599 -71.82 0.0001493725    1.228    0.186
        51 -10.9236     26.2688      9.7641   4.0783927416e+01   7.4229086969e+01    0.2597631    0.1804851   1.41 0.0009093329    1.429    0.300
        52 -11.4078    193.8610      7.7699   3.5854274002e+02   3.5129905896e+01    0.2596538     0.211538  68.07 0.0009173746    1.333    0.250
        53 -12.4341    172.8155      6.4311   3.5989171293e+02   4.0330478563e+01     0.323198    0.2814742  84.23 0.0004614991    1.118    0.105
        54 -12.0965    173.7935      2.9733   3.5883142345e+02   4.0413035569e+01    0.2774319    0.1808598 -21.15 0.0009519625    1.793    0.442
        55 -10.9790     47.1477      8.3972   2.7895800406e+01   7.0850130571e+01    0.3823668    0.2580749  40.46  0.001396475    1.326    0.246
        56  -9.9444    216.0008      8.2424   3.5715254088e+02   3.0078176823e+01    0.1658119    0.1285694 -69.82 0.0003578977    1.060    0.056
        57  -9.6309    156.5351      7.9206   1.9215749872e+00   4.4278395920e+01    0.1675766     0.108666  25.63  0.000801048    2.241    0.554
        58  -9.6524    131.2391      8.3324   5.1919663098e+00   5.0768477817e+01    0.1754436    0.1607603  61.82 0.0005004256    1.113    0.102
        59 -11.0569      3.5368      5.8950   5.6225337623e+01   7.7485604044e+01    0.3322219    0.1764092  -7.02  0.001526364    2.093    0.522
        60  -9.7206    210.2103      6.3318   3.5706618006e+02   3.1546353401e+01    0.1804122   0.09667601 -84.64 0.0009472434    1.767    0.434
        61  -9.8366     91.1829      6.1352   1.1630462341e+01   6.1201896203e+01    0.1768216    0.1507297 -58.07 0.0008400923    1.345    0.257
        62 -10.1869    183.3661      3.5249   3.5822126106e+02   3.8034462970e+01    0.2803857    0.1683629 -69.03 0.0009640606    1.514    0.339
        63 -11.4918    217.7506      1.9607   3.5560336354e+02   3.0336025790e+01      0.27822    0.1872461  85.12  0.001378451    1.405    0.288
        64  -9.4816    213.4524      2.4242   3.5595192746e+02   3.1223349924e+01     0.182516    0.1345603  80.42 0.0005755091    1.347    0.258
        65 -10.6834     46.6072      2.0843   2.4127084785e+01   7.1648434440e+01     0.335518    0.1822674  37.36  0.001729512    1.651    0.394
        66  -9.7970    126.3909      1.6828   3.4541839548e+00   5.2591055941e+01    0.2994925    0.1533711 -87.40  0.001301144    2.155    0.536
        67  -9.1426    187.3078      1.2644   3.5733272403e+02   3.7304946978e+01    0.1172425   0.09048002  54.43 0.0003258578    1.531    0.347
        68  -9.6883    202.9770      1.0000   3.5623465061e+02   3.3694602918e+01    0.1783548   0.06288613  79.22 0.0003688745    2.657    0.624
        69 -11.7414    234.3433     46.1623   4.4600171442e+00   2.1756374188e+01     0.324499    0.1966606 -70.56 0.0009343899    1.718    0.418
        70 -10.7999    170.3121     97.9892   2.6337984419e+01   2.7605655360e+01    0.3829362    0.2878587 -50.57  0.001490235    1.310    0.236
        71 -11.4811     56.9033     99.3848   6.0249471332e+01   5.0805542466e+01    0.3405823    0.1457733  30.29  0.001256411    2.456    0.593
        72 -10.5697     46.0201     99.0770   6.4488991044e+01   5.2331490357e+01    0.2171949    0.2041991 -64.24 0.0003001531    1.012    0.012
        73 -12.0100     11.7175     97.4925   7.8224935772e+01   5.5920345816e+01    0.4413661    0.2560181 -59.71  0.001741032    1.474    0.322
        74 -11.1469    140.9013     96.0171   3.2286370560e+01   3.4813042751e+01    0.3863457    0.3492773  78.14  0.001167742    1.173    0.147
        75 -10.1625     88.3383    238.7020   7.1978538267e+01   1.3092122633e+01    0.1317329   0.07685225  53.74 0.0002986614    1.659    0.397
        76 -14.5626     66.0073     82.7813   5.2133257682e+01   5.3560439468e+01     1.916599     1.561422  15.69  0.009675565    1.348    0.258
        77 -14.2611     38.1467     80.9837   6.3546410013e+01   5.7918281504e+01     1.817155     1.132944 -34.01  0.006544082    1.734    0.423
        78  -9.7066    157.7096    222.6818   5.4934088377e+01   6.0866802726e+00    0.1282824   0.08948404  -1.16 0.0002149975    1.599    0.375
        79  -9.8639    236.7143    145.9934   2.6006082961e+01   6.4530729365e+00    0.1781715    0.1374199 -26.80 0.0003370773    1.067    0.063
        80  -9.3754    184.6674    135.2813   3.2688916975e+01   1.7452012495e+01    0.1387469    0.1161392 -81.88 0.0003684861    1.611    0.379
        81 -10.6479    115.3640    121.0907   4.5918187158e+01   3.4864039276e+01    0.2629627    0.2199261  28.80 0.0003369248    1.268    0.211
        82 -13.4937     33.3508     67.1235   6.2035832153e+01   6.1866787433e+01     1.073584     0.879472 -63.25  0.004646466    1.218    0.179
        83 -14.1067     77.5381     58.8751   3.9330599889e+01   5.6727725685e+01     1.732634    0.6661389  49.54  0.003377857    2.910    0.656
        84 -11.1586     72.9897    119.0495   5.8886007124e+01   4.3239198109e+01    0.2348012     0.213677 -67.13            0    1.067    0.063
        85 -11.1025    181.1477    118.8940   2.9515898387e+01   2.1270630156e+01     0.329682     0.296752  83.89 0.0008639185    1.299    0.230
        86 -10.6005    182.5940    115.5976   2.8430158421e+01   2.1589587095e+01    0.4600422    0.2932618  70.27   0.00194189    2.322    0.569
        87  -9.8475    127.2991    114.6832   4.0933359646e+01   3.3832615059e+01    0.1601692    0.1271362 -89.61   0.00021575    1.614    0.380
        88 -13.0512     61.9487     44.4068   3.9827963820e+01   6.2544956308e+01    0.8469551    0.6297023 -81.71  0.003882417    2.368    0.578
        89  -9.7259    210.6774    111.9904   2.2654356242e+01   1.6532518906e+01    0.2904655     0.136711  52.05  0.001251573    2.416    0.586
        90 -10.7591     93.1944    116.0756   5.1440904466e+01   4.0467972281e+01    0.2344731    0.2114318 -26.49 0.0003553089    1.203    0.168
        91 -11.5078    196.5705    108.0729   2.4051189529e+01   2.0041749868e+01    0.6706448    0.4207025 -71.81  0.002725931    2.720    0.632
        92 -10.6312     62.4970    110.4820   6.0709562590e+01   4.7101038390e+01    0.1514976    0.1447847 -69.73 0.0001210136    1.001    0.001
        93 -12.1026    161.0494    105.9081   3.0364406375e+01   2.8173392812e+01    0.4419936    0.2777129 -49.66 0.0007557517    1.613    0.380
        94 -12.4070     46.4739     54.0528   5.1096057987e+01   6.3189065029e+01     0.768392    0.4660676  -5.18  0.002548127    2.527    0.604
        95 -11.9875     75.9760     52.0138   3.7224056108e+01   5.8377224230e+01    0.2732259    0.2608438  89.17 0.0003552379    1.210    0.173
        96 -10.8628    152.0607    108.0592   3.2948912268e+01   2.9766788481e+01    0.2822377    0.2090572  66.48 0.0008738252    1.587    0.370
        97  -9.0921    166.2814     95.3600   2.6441991898e+01   2.9026154348e+01    0.1530439    0.1208484   0.32 0.0004135083    1.672    0.402
        98 -11.7314     54.6326     93.8040   5.9775090897e+01   5.2563124019e+01    0.3263227    0.2586899 -76.40  0.001044934    1.351    0.260
        99 -11.5678     49.5639     95.0139   6.2123576107e+01   5.2939322162e+01    0.3092187    0.2177013  59.57 0.0005770106    1.703    0.413
       100 -11.7713     45.5526     91.8237   6.3012445198e+01   5.4274480420e+01    0.3881214    0.3122429 -32.39  0.001739976    1.296    0.229
       101 -10.3713    250.1385     93.9782   1.3342025841e+01   1.2131664481e+01    0.1942061    0.1534869 -41.36 0.0007619383    1.030    0.029
       102 -10.2705     89.1004     93.5496   4.6749868392e+01   4.6768669960e+01    0.2332113    0.2051753 -48.64 0.0002995472    1.122    0.109
       103 -12.6938     51.4445     44.7176   4.4848702134e+01   6.4332017345e+01      1.21645    0.4459323  29.79   0.00156722    3.511    0.715
       104 -11.9587    215.9129     91.1570   1.6988685244e+01   1.8934899048e+01    0.3960725    0.2435127 -24.04  0.001314311    1.801    0.445
       105 -10.5658    226.3352     91.9547   1.5771898158e+01   1.6757992535e+01    0.2710686    0.1885873  84.76 0.0008994794    1.956    0.489
       106 -12.6228     58.4711     62.3109   4.8542762428e+01   5.9526670626e+01    0.9904802    0.5722105 -59.82  0.004209812    2.079    0.519
       107 -10.4239    168.3186     90.2170   2.4636105019e+01   2.9514753868e+01    0.3609231    0.2633477  72.19  0.001439212    1.591    0.371
       108 -10.0343    172.7554     90.4583   2.3845138645e+01   2.8440870860e+01    0.2606529     0.197092  50.15 0.0006992303    1.395    0.283
       109  -9.7036     79.3929     91.1374   4.9490323741e+01   4.9195374819e+01    0.2436718    0.2083315  18.62  0.001209845    1.271    0.213
       110  -9.1458     86.3203     90.2757   4.6749395664e+01   4.8088483155e+01    0.1552135    0.1238163  -5.89 0.0003867463    1.575    0.365
       111 -12.0639      6.5837     88.1153   7.9071953133e+01   5.8661756810e+01    0.6186289    0.2257424  88.87  0.002057095    3.853    0.740
       112 -10.4155    212.3925     89.2421   1.7026585111e+01   1.9957874602e+01    0.2034162    0.1102095 -44.87  0.000564358    1.641    0.391
       113 -10.7522    248.0468     87.3179   1.2155330325e+01   1.3460874551e+01    0.2326647    0.1961774 -35.09  0.000370414    1.100    0.091
       114 -10.8142    247.6591     83.6892   1.1419477416e+01   1.4052712506e+01    0.3540962    0.2227664  78.58  0.001960581    2.181    0.542
       115 -10.9479    245.4465     80.5074   1.0969673074e+01   1.4905607111e+01    0.2872616    0.1862315 -40.02 0.0008431885    1.233    0.189
       116 -10.9144    105.6831     86.7665   3.9245679460e+01   4.4858369700e+01    0.4764075    0.3135881 -64.64  0.001936502    1.945    0.486
       117 -11.4075    110.6373     86.9079   3.7775332034e+01   4.3725368340e+01    0.3808931    0.3192592  35.94  0.001847548    1.235    0.191
       118 -12.5294    114.9476     81.0841   3.4669533959e+01   4.3977726038e+01    0.8104876     0.593796 -22.59  0.002559257    1.660    0.398
       119 -10.7847    113.0254     75.3868   3.3373885199e+01   4.5590738158e+01    0.5051625    0.3180206 -18.17  0.001910821    2.431    0.589
       120 -12.1633    223.7991     86.9917   1.4958306723e+01   1.8021446743e+01    0.5307376    0.3277979  30.05  0.002474398    2.593    0.614
       121 -13.8617    204.0097     79.2946   1.5782397554e+01   2.3321150948e+01     1.790542    0.4828649  52.23  0.005959039    3.950    0.747
       122 -11.9191    161.1284     84.6636   2.4524763281e+01   3.2234914474e+01    0.7774003    0.4610016  43.49  0.002701108    1.868    0.465
       123 -11.4970    147.6840     84.6676   2.7401245311e+01   3.5460378730e+01    0.4419462    0.3605224  59.83  0.001334593    1.250    0.200
       124 -11.8754    147.1314     79.2842   2.5926318728e+01   3.6612658369e+01     0.521787    0.3598901 -32.42 0.0003522342    1.526    0.344
       125 -12.3962    102.3980     96.3244   4.3162084265e+01   4.3405804568e+01    0.6460294    0.3669724 -42.13 0.0006137405    1.803    0.445
       126 -12.5457    220.2319     80.4977   1.3897414820e+01   1.9734677538e+01    0.5087249    0.3342594  -8.99 0.0009898106    2.324    0.570
       127 -12.6363    217.0054     75.8501   1.3202515260e+01   2.1106193758e+01    0.5081208    0.3422975 -15.29  0.002351775    1.943    0.485
       128 -12.4776    220.7495     69.5867   1.1256727310e+01   2.1272033819e+01    0.4396288    0.3334984 -56.56  0.001288455    1.200    0.167
       129 -11.9806    238.1266     80.8352   1.1840580756e+01   1.6201751639e+01    0.2654275      0.22926   5.13 0.0003938026    1.489    0.328
       130  -9.5877    172.6988     78.3029   2.0526835083e+01   3.0613618896e+01     0.227058    0.1826204  81.35 0.0006395237    1.354    0.262
       131 -11.9547    169.0679     80.7194   2.1866345902e+01   3.1054122747e+01    0.4312244    0.3640932 -80.99 0.0008398438    1.269    0.212
       132 -10.7489    168.7769     76.3766   2.0700161455e+01   3.1882903440e+01    0.3462113    0.2382984  63.84 0.0009040511    1.524    0.344
       133 -12.3222     97.3713     70.0881   3.6401798918e+01   5.0241869971e+01     1.365242    0.7271404 -52.42  0.005269993    2.145    0.534
       134 -11.3960     99.6922     76.6590   3.7888457847e+01   4.8362426304e+01    0.5769318    0.2797827 -38.37  0.001993236    2.197    0.545
       135 -11.9204     96.3065     75.9230   3.8751703114e+01   4.9259569677e+01    0.8488419    0.4398738 -60.62  0.002665366    2.930    0.659
       136 -12.8036    145.3847    103.2624   3.3226485796e+01   3.2277251303e+01    0.6488625    0.5364992  63.76  0.002542647    1.299    0.230
       137 -12.5371     73.3740     74.3860   4.6531831145e+01   5.4226720064e+01    0.7555349    0.5894581  42.28  0.002536731    1.312    0.238
       138 -10.8973     86.7727     74.0655   4.1405026184e+01   5.1676550441e+01    0.4235824    0.2752293 -35.91  0.001484894    1.630    0.387
       139 -10.9468     82.9699     72.9454   4.2398439836e+01   5.2693605073e+01    0.3701415    0.3381355  28.71  0.001213221    1.100    0.091
       140 -10.2491    156.1418     76.9036   2.3300064897e+01   3.4850063616e+01    0.3264543    0.2104286  67.05  0.001081152    1.715    0.417
       141 -10.4095    103.9725     75.5331   3.6150798063e+01   4.7642946742e+01    0.2828153     0.221131 -24.59 0.0005474287    1.446    0.309
       142 -10.0831    106.2324     72.2232   3.4335013783e+01   4.7804363517e+01    0.3610795    0.1353354 -44.08  0.001186831    2.701    0.630
       143 -11.4303    226.0238     74.9299   1.1889276682e+01   1.9410960845e+01    0.2362935    0.1789196 -14.76 0.0005904412    1.610    0.379
       144 -12.7398    229.3221     66.3836   9.5460645258e+00   1.9998315215e+01    0.7122137      0.34042  49.61 0.0005253539    2.653    0.623
       145 -11.5002    154.7667     64.9195   1.9988994469e+01   3.7268873972e+01     1.032717    0.3219856 -43.31  0.003285947    3.114    0.679
       146 -12.1646    136.3634     71.6050   2.6019193373e+01   4.0679445141e+01     1.514037    0.5246551  59.57  0.004528985    3.448    0.710
       147 -12.0527    145.9425     67.0858   2.2449664690e+01   3.9104364610e+01    0.7589661    0.6189206  25.77  0.003072665    1.494    0.331
       148 -13.6435    116.8957     61.8373   2.7670867535e+01   4.7252061970e+01     1.005303    0.9936174  61.23  0.002528017    1.020    0.020
       149 -12.5143    104.2881     65.9781   3.2762278409e+01   4.9486762421e+01    0.4735569    0.3842558  23.00 0.0003335361    1.403    0.287
       150 -11.2209     82.3330     78.1031   4.4365522065e+01   5.1678982954e+01    0.6071114    0.3647654  36.80  0.002198138    1.714    0.416
       151 -11.0777     16.7292    105.6521   7.7351646669e+01   5.3427963724e+01    0.4046562    0.2789033  -2.67  0.002105178    1.782    0.439
       152 -10.5035    140.9465     61.6978   2.1809345448e+01   4.1280244956e+01    0.3219423    0.1952614  54.38 0.0004192387    1.615    0.381
       153  -9.9257    136.6290     62.0983   2.2891096213e+01   4.2299449045e+01    0.3224623    0.2532533 -29.75 0.0005508128    1.362    0.266
       154 -10.1080    137.2706     57.9864   2.1396603750e+01   4.2828700677e+01    0.2413723    0.2234837  86.23  0.000669856    1.057    0.054
       155 -11.4467     98.3402     54.1435   3.0249695524e+01   5.3068162417e+01    0.8962796    0.3265536 -46.82   0.00289729    3.220    0.689
       156 -10.5770    102.1667     53.5897   2.8862561503e+01   5.2265688635e+01     0.593886    0.4088254 -30.66  0.002464482    1.555    0.357
       157 -10.9988    127.2145     58.7501   2.3965477395e+01   4.5236430059e+01    0.4956585    0.2754269  36.91  0.001909606    2.277    0.561
       158 -11.5832    161.8302     57.0352   1.6307076461e+01   3.6774807599e+01    0.4748212    0.4266835 -84.78 0.0008340685    1.070    0.066
       159  -9.7431    155.3492     54.5775   1.6705429533e+01   3.8786664335e+01    0.3441638     0.178355  49.52 0.0009106661    2.026    0.506
       160 -10.3140    146.9415     57.3601   1.9174903240e+01   4.0478445601e+01    0.5043192    0.3097989  13.11  0.001743899    3.490    0.714
       161 -10.7440    144.2409     52.3386   1.8093872516e+01   4.1958398828e+01     1.466784    0.4401691  54.02  0.003897339    3.071    0.674
       162  -7.1011    155.0354     42.7115   1.3056544500e+01   4.0611263820e+01      0.66171    0.6200217 -12.89  0.002993653    1.234    0.190
       163 -11.3459    149.8686     42.1229   1.3741393819e+01   4.2018489213e+01    0.3680731    0.3230989 -29.61 0.0003739628    1.236    0.191
       164 -10.7480    146.2029     39.7727   1.3614746214e+01   4.3287748923e+01     0.550189     0.363916  34.72  0.002505735    1.937    0.484
       165 -11.4474    161.3505     40.1614   1.1266075265e+01   3.9351351811e+01    0.4845206    0.3139082  47.37  0.001280506    1.719    0.418
       166 -11.1467    158.1839     36.3562   1.0571473512e+01   4.0664252594e+01    0.3259949    0.2205878  78.26 0.0008427203    1.457    0.314
       167 -10.9329    161.4546     35.5221   9.8305711483e+00   3.9938596597e+01    0.2580983    0.2281875 -68.73  0.000554188    1.053    0.050
       168 -11.1533    142.2728     46.6951   1.6624925933e+01   4.3316304467e+01    0.2549994     0.227057  45.73 0.0001772447    1.194    0.163
       169 -11.4848    144.9998     43.9998   1.5220614587e+01   4.3006286179e+01    0.2246744    0.2172674  59.03 0.0003337178    1.105    0.095
       170 -11.0954    184.6558     52.0566   1.1357892675e+01   3.1917768054e+01    0.3775529    0.2119703 -41.22  0.001430767    1.625    0.384
       171 -10.4977    180.2888     51.8851   1.1917434105e+01   3.2994769329e+01    0.3220231    0.2824851 -49.92  0.001388523    1.086    0.079
       172 -10.2133    167.5211     51.8812   1.3829039475e+01   3.6135632567e+01     0.265936    0.1878643  47.18 0.0005847157    1.577    0.366
       173 -12.2400     90.4682     51.0548   3.1597836414e+01   5.5423392849e+01    0.2571293    0.2384669  40.39   0.00140512    1.042    0.040
       174 -10.1831    161.8082     48.9489   1.3870797630e+01   3.7999742156e+01    0.3040705    0.2087683 -16.11  0.001410681    1.863    0.463
       175  -9.2948    137.9990     39.7610   1.5111767742e+01   4.5410176738e+01    0.2220089    0.1838848  45.60 0.0004059897    1.271    0.213
       176 -10.4842    133.4810     46.4756   1.8324615125e+01   4.5608480546e+01    0.4231374    0.2144775 -51.37  0.001554123    2.278    0.561
       177 -10.3306    135.4707     43.4757   1.6881360407e+01   4.5537797363e+01    0.2764516    0.2371427  48.52 0.0009666776    1.195    0.163
       178 -10.8129    133.0160     40.4523   1.6329045486e+01   4.6601864353e+01    0.4316094    0.2587815  58.96  0.001354804    1.563    0.360
       179  -9.6165     99.3317     47.5052   2.7361998358e+01   5.3972472650e+01    0.2533468    0.1398142 -35.06  0.001061039    1.888    0.470
       180  -9.2686    121.7484     44.9986   2.0413044691e+01   4.8829511884e+01    0.2797152    0.1903692 -20.14  0.001274697    1.750    0.429
       181 -10.3964    124.5064     42.5095   1.8874678755e+01   4.8495801916e+01    0.2929286     0.210283  59.68  0.001423826    1.317    0.241
       182 -10.5029    240.7431     40.2886   2.6327365833e+00   2.1240833687e+01    0.3325763    0.2524215  19.03  0.001674803    2.210    0.548
       183 -10.4865    215.1787     42.1059   5.2701188651e+00   2.6289494855e+01    0.3699209    0.2630525  79.58  0.001700723    1.455    0.313
       184 -10.9227    229.5945     40.3016   3.5417982175e+00   2.3473311504e+01    0.3809445    0.2762832  40.20  0.001878091    2.000    0.500
       185 -10.8594    223.9351     42.0495   4.4395285514e+00   2.4424604765e+01     0.335347    0.2623457  47.72  0.001220117    1.663    0.399
       186 -12.4725    220.4426     37.9027   3.7787905923e+00   2.5694896827e+01    0.4916308    0.2640997 -56.84  0.002519243    1.696    0.410
       187 -10.3122    236.4507     39.4639   2.7897734163e+00   2.2191837565e+01    0.3047424    0.1872597 -28.58  0.001712354    1.658    0.397
       188 -11.1520    233.2103     36.5729   2.4029773651e+00   2.3204421103e+01    0.2959567    0.1572127 -48.08 0.0006294245    1.510    0.338
       189  -9.7974    104.7916     43.3539   2.4137107903e+01   5.3318740030e+01    0.2229117    0.1262586  47.45 0.0009487218    1.691    0.409
       190 -10.2700     99.5508     42.0156   2.5103064399e+01   5.4798616592e+01    0.3637933    0.2474901  -4.66  0.001059967    2.040    0.510
       191 -10.5182    210.1377    105.1135   2.1132483429e+01   1.7799182326e+01    0.3362451    0.2668953 -87.73  0.001635955    1.624    0.384
       192  -9.7277    114.5664     38.9776   1.9884534694e+01   5.1536010889e+01    0.2390928    0.2000825 -79.37  0.001242098    1.327    0.247
       193 -10.9221    122.1409     33.4492   1.6061740441e+01   5.0360581692e+01    0.4036229    0.2080985 -38.80 0.0005466505    1.988    0.497
       194 -11.0186    131.5927     33.6539   1.4213354492e+01   4.7889867364e+01     0.302977    0.2064305 -53.19 0.0007735402    1.567    0.362
       195 -10.2981    112.1179     32.8688   1.8105779576e+01   5.2999616535e+01     0.297096    0.1926273  50.55 0.0008582337    1.449    0.310
       196 -10.8360    163.5420     31.0031   8.1605830614e+00   3.9979502584e+01    0.3647787    0.2289734 -67.50 0.0008457163    1.698    0.411
       197 -10.0637    241.9548     30.1581   3.4771182638e-01   2.2243577249e+01    0.2335123    0.1659581  89.77  0.000954649    1.437    0.304
       198 -10.1768    237.7646     30.6315   7.4437119440e-01   2.3014384726e+01    0.2118951    0.1490435 -81.16  0.001336952    1.380    0.275
       199 -10.7254    227.0739     30.7036   1.5564267385e+00   2.5185669952e+01    0.4191207    0.2173592  55.06  0.002140692    2.384    0.581
       200 -10.8453    109.4200    104.6840   4.3362184652e+01   3.9976432953e+01    0.2906594    0.1550582 -51.94 0.0007247878    1.923    0.480
       201 -10.7871    218.5724     29.1536   1.8721613420e+00   2.7176958706e+01    0.3843319    0.3200529  59.29  0.002318453    1.458    0.314
       202 -10.8903    216.6773     25.0179   1.0452949526e+00   2.8078571119e+01    0.4691406    0.3316239  23.38  0.002503456    2.434    0.589
       203 -13.0321    122.1979     99.9666   3.8313704691e+01   3.8260906835e+01    0.7476962    0.4835135 -31.62  0.001411697    1.793    0.442
       204 -10.4398    152.3290     29.5490   9.2991875928e+00   4.3028562720e+01    0.2259943    0.2062027 -82.41 0.0001242859    1.018    0.017
       205 -10.9776    158.9023     26.2514   7.3285153851e+00   4.1735025357e+01    0.4099086    0.2056153 -27.75  0.001797659    2.128    0.530
       206 -14.2616    130.6088     95.2492   3.4673362334e+01   3.7366638430e+01     1.808255     1.282582  83.68  0.007419294    2.050    0.512
       207 -11.7310     97.9998     22.1241   1.7163312982e+01   5.7885072682e+01       0.2663    0.2302605  -8.80 0.0006470157    1.273    0.214
       208  -9.5963    102.4325     19.4954   1.4936073338e+01   5.7077307630e+01     0.223489    0.1889668  49.47  0.001218279    1.097    0.088
       209 -11.4064    135.4147     26.5193   1.0993721315e+01   4.7782220351e+01    0.4891318    0.3379606 -69.48  0.002113716    1.602    0.376
       210  -9.7375    114.3630     28.2499   1.5772720925e+01   5.3021741655e+01    0.1506964   0.09926359  40.04 0.0006951784    1.615    0.381
       211 -12.3500    127.0937     81.1699   3.1350219165e+01   4.1098745166e+01    0.8565926    0.5756152   6.09  0.003166633    2.726    0.633
       212  -9.6815    167.7419     26.6489   6.3101752087e+00   3.9443593399e+01    0.3430246    0.1707118  81.55  0.001462297    2.123    0.529
       213 -10.5017     21.4692     25.9846   5.3340084074e+01   7.2087315188e+01    0.2744552     0.229169 -15.88  0.001438751    1.016    0.016
       214 -11.8474    131.9934     83.1325   3.0693700573e+01   3.9534888766e+01    0.4913438    0.2816397 -34.58  0.000315756    1.871    0.466
       215  -9.8718    234.0439     24.4547   3.5964671952e+02   2.4491847155e+01    0.2992834    0.2131373 -15.83  0.001785879    1.866    0.464
       216 -10.3919    147.2837     25.7732   8.8274052610e+00   4.4784306323e+01    0.3169761    0.1950274  39.11 0.0009300865    2.011    0.503
       217  -9.4467    136.1788     19.9486   8.5646372041e+00   4.8328121171e+01    0.2352474    0.1694984 -12.98  0.001200521    1.691    0.408
       218 -12.4772    176.4619     23.3778   4.3461126440e+00   3.7648020043e+01    0.3357312    0.2819629  38.31 0.0007005242    1.490    0.329
       219  -9.7430    153.4667     25.4964   7.8380524076e+00   4.3218766715e+01    0.1424015    0.1256983 -81.33 5.403301e-05    1.033    0.032
       220 -12.3569    137.0329     80.7751   2.8720976710e+01   3.8784542106e+01    0.8889337    0.6407388  89.20  0.002387208    1.880    0.468
       221 -11.2765    127.4604     89.5315   3.3816897246e+01   3.9301749923e+01    0.3420061    0.2955715  76.34 0.0006308942    1.265    0.210
       222 -11.3134    124.7266     86.9897   3.3780978086e+01   4.0470873678e+01    0.3203135    0.2730969  34.74 0.0002022497    1.244    0.196
       223 -10.1259    222.2404    100.2132   1.8214298765e+01   1.6240116653e+01     0.188377    0.1432642 -56.50 0.0006302007    1.349    0.259
       224 -11.6260    226.6657     99.8606   1.7526079633e+01   1.5455897068e+01      0.47902    0.2790305 -51.21  0.001492649    1.720    0.418
       225 -10.8552    215.9030    100.8473   1.9265768644e+01   1.7367327407e+01    0.3147666    0.2131874 -20.23  0.001517936    1.665    0.399
       226 -10.8469    183.0484    102.0177   2.4949638073e+01   2.4011502920e+01     0.222637    0.2098411 -41.08  0.000397351    1.016    0.016
       227 -12.4207    110.0924     92.6511   3.9691266730e+01   4.2582356701e+01    0.6607201    0.3655857  57.73  0.002456975    2.205    0.547
       228 -12.2607     95.4720     90.3351   4.3632644979e+01   4.6236085903e+01    0.5740339    0.5056503  70.79  0.001057013    1.251    0.200
       229 -11.2366    202.1083     20.6762   1.1673915857e+00   3.1836435387e+01    0.3378927    0.2579253 -55.16   0.00115732    1.119    0.106
       230 -10.0779    165.5221    101.4936   2.8243983655e+01   2.8026250972e+01    0.1519422    0.1456772 -43.37 1.329464e-05    1.013    0.013
       231  -9.7480    163.4961     20.8756   5.0978240626e+00   4.1178984520e+01    0.1978298    0.1623788  89.40 0.0003256764    1.100    0.091
       232 -10.7908    192.3495     19.1293   1.6145156778e+00   3.4283450117e+01    0.4110806    0.1906387  54.99  0.001858849    2.424    0.587
       233 -11.9436     54.4190     54.6169   4.7493844337e+01   6.1841034725e+01     0.513366    0.3228722  11.18 0.0006780118    2.137    0.532
       234 -10.3839    160.4492     99.7843   2.8856644496e+01   2.9518091928e+01    0.3863459    0.1813176 -46.11  0.001443321    2.108    0.526
       235 -12.0236    150.9494     95.9361   2.9894889141e+01   3.2480844138e+01     1.031656    0.4655435 -58.27  0.002867303    3.848    0.740
       236 -10.6556    157.6778     95.5247   2.8289052706e+01   3.0990927600e+01    0.6999233    0.2782983  44.85  0.001803364    2.734    0.634
       237 -11.4741    106.9831     96.2737   4.1713124216e+01   4.2441120627e+01    0.3184856    0.3067136  22.08  0.000732372    1.074    0.069
       238  -9.7772    172.5508     16.3094   2.7413429106e+00   3.9399741723e+01    0.2256702    0.1162545 -36.25  0.001069653    1.845    0.458
       239 -11.9643     83.5920     98.4317   5.0061191577e+01   4.6643496511e+01    0.5901993    0.4284998 -11.82  0.001665129    1.938    0.484
       240 -11.2035     87.7777     97.9879   4.8480286495e+01   4.5960347488e+01    0.5899349    0.3898504 -16.29  0.002219212    2.427    0.588
       241 -10.1916    244.4082     98.5717   1.4985687457e+01   1.2442698469e+01    0.3604748    0.1348517 -30.02  0.001454203    2.689    0.628
       242  -9.6742    159.8361     14.2073   3.4952438253e+00   4.2820601531e+01    0.1703504    0.1503441  49.21 0.0004307154    1.292    0.226
       243 -12.3314    199.7701     95.1287   2.0353251986e+01   2.1617885021e+01    0.7783334    0.4520618 -39.67  0.002462604    1.538    0.350
       244  -9.2728    156.0097     12.7442   3.4818244202e+00   4.3944960598e+01    0.1649305    0.1066027  76.91 0.0003185174    1.401    0.286
       245  -9.6090    133.4409     12.4960   6.3573062017e+00   4.9806021620e+01    0.1383464    0.1236298  82.23 7.390124e-05    1.007    0.007
       246 -12.7098    235.1260     85.4703   1.3217272641e+01   1.6077378512e+01    0.9658803    0.4905336 -56.57  0.001892868    2.289    0.563
       247  -9.4610    179.5226     11.5711   7.3135250220e-01   3.8175196474e+01    0.1386426     0.106395 -69.05 -0.0001414426    1.139    0.122
       248 -12.0644    175.7587     85.6949   2.1999479628e+01   2.8600989174e+01    0.6875359    0.6296023 -47.79  0.001231928    1.031    0.030
       249 -10.8056     36.5682    248.7224   8.3677775029e+01   1.7493206191e+01      0.19224    0.1021252 -72.88  0.001142686    2.122    0.529
       250 -10.2466      2.6628    247.6624   9.0336553747e+01   2.1070963088e+01    0.0928097   0.08231761 -40.72 0.0007051393    1.753    0.430
       251 -11.6151    174.6290     56.8676   1.4161652675e+01   3.3632969488e+01    0.5631194    0.4302604 -42.91  0.001322696    1.242    0.195
       252 -11.1820    113.7031    245.5642   6.7218697241e+01   8.4835948306e+00    0.1947525    0.1431662  69.67   0.00118686    1.773    0.436
       253 -12.3871    231.8189     57.4404   7.2439082703e+00   2.0753159599e+01    0.7585508     0.704642  86.49  0.003342618    1.234    0.190
       254 -10.3567    245.1162     50.0920   4.4089668183e+00   1.9144179718e+01    0.2578343     0.157607 -49.23  0.001516335    1.306    0.235
       255 -10.9023    180.7285    243.8502   5.3364870821e+01  -2.6962117516e-01    0.2125533    0.1688131  22.96  0.001482257    1.169    0.145
       256 -12.0631    202.7150     33.6859   4.3978071282e+00   3.0148405273e+01    0.4749131    0.2899731 -60.17 0.0002687297    1.521    0.343
       257 -13.2405    194.6792     67.8329   1.4183181095e+01   2.7202394583e+01     1.728899     0.669324  66.77   0.00507013    3.098    0.677
       258 -13.2974    187.7529     59.9968   1.3086707254e+01   3.0008756531e+01     2.035757    0.5323753  60.62  0.006609195    3.740    0.733
       259 -13.4112    194.1661     85.1217   1.8727937074e+01   2.4522257849e+01    0.8653305    0.6489162  83.81   0.00301914    1.589    0.371
       260  -9.5010    218.5981    239.7793   4.5826690790e+01  -4.4067413690e+00    0.1353816   0.09830183 -32.46 0.0006370426    1.605    0.377
       261 -11.9452    208.8201     58.0884   9.8711065554e+00   2.5490323546e+01    0.4682897    0.2971117 -75.96  0.001554353    1.826    0.452
       262 -10.0347     15.9983    238.6599   8.7402294382e+01   2.1517640417e+01    0.1622805     0.120002  51.53  0.000600526    1.061    0.057
       263 -12.8308    196.4461     48.6470   8.9351690799e+00   2.9621135450e+01    0.7175774    0.5305934  67.64 0.0007275529    1.404    0.288
       264 -11.8283    188.0151     43.3951   8.5597090500e+00   3.2325590744e+01    0.5781752    0.3680701  59.67  0.001630319    1.635    0.388
       265 -12.2001    238.1124     51.1212   5.2362527299e+00   2.0359447339e+01    0.4269388    0.2485815 -49.45  0.002070436    1.407    0.289
       266 -11.9605    229.6101     47.6667   5.2224460583e+00   2.2515913640e+01    0.3649516    0.2810302 -38.43 0.0008821931    1.199    0.166
