#   1 NUMBER                 Running object number                                     
#   2 MAG_AUTO               Kron-like elliptical aperture magnitude                    [mag]
#   3 X_IMAGE                Object position along x                                    [pixel]
#   4 Y_IMAGE                Object position along y                                    [pixel]
#   5 X_WORLD                Barycenter position along world x axis                     [deg]
#   6 Y_WORLD                Barycenter position along world y axis                     [deg]
#   7 A_WORLD                Profile RMS along major axis (world units)                 [deg]
#   8 B_WORLD                Profile RMS along minor axis (world units)                 [deg]
#   9 THETA_WORLD            Position angle (CCW/world-x)                               [deg]
#  10 FWHM_WORLD             FWHM assuming a gaussian core                              [deg]
#  11 ELONGATION             A_IMAGE/B_IMAGE                                           
#  12 ELLIPTICITY            1 - B_IMAGE/A_IMAGE                                       
         1 -13.9278     68.8180    144.3960   7.4670410998e+01   3.7275455048e+01     4.038477     2.199646  87.67   0.01157692    4.578    0.782
         2 -13.3201    211.7032     50.5755   2.4371163325e+01   2.8569456733e+01    0.9136276    0.8430036  65.29  0.006485763    1.558    0.358
         3 -13.2572    225.3072     40.8697   2.1574122323e+01   2.7522579832e+01    0.6656811    0.6027336  65.36  0.005169241    1.660    0.398
         4 -11.3332    249.6308     18.3111   1.6478355448e+01   2.6333389889e+01    0.5182475    0.1582158 -42.11  0.003045744    2.571    0.611
         5  -9.1016     69.0039     14.5112   3.6984427970e+01   6.2053936948e+01    0.2103454     0.152757 -88.69  0.001257825    1.749    0.428
         6 -11.0672      2.7332     10.1263   6.4870628713e+01   7.4115630794e+01     0.347909    0.1712254 -33.94   0.00196768    2.184    0.542
         7  -9.7258    166.8683      3.1320   1.8971187710e+01   4.2327714063e+01    0.1780955    0.1121777 -73.36 0.0007938688    1.298    0.229
         8 -10.1894    158.3492      9.0151   2.0959062073e+01   4.3470205776e+01    0.2138668    0.1346679  89.10 0.0009398113    1.299    0.230
         9 -11.9637    113.5545    229.1944   7.5967752344e+01   1.0008635195e+01    0.9066768     0.347318  36.56  0.003555371    2.529    0.605
        10  -9.6103     75.0803    248.5898   8.7981124425e+01   1.0345257866e+01    0.5171013    0.1602519 -53.42  0.001958749    3.190    0.687
        11 -10.7752     72.0916    242.4482   8.8077148494e+01   1.2033710965e+01    0.4712811    0.3814615 -79.79  0.001587368    1.449    0.310
        12 -15.0681      8.7467    148.9048   9.6526049242e+01   4.2814132429e+01     8.157381     2.243755 -78.72    0.0228718    4.425    0.774
        13  -9.8910     43.3886    248.6047   9.5922617201e+01   1.3760016731e+01    0.3400718    0.2973983 -55.74  0.001222925    1.272    0.214
        14  -9.0329    166.7560    225.3043   6.3279389076e+01   4.3833508581e+00    0.2104602   0.08243655 -39.83 0.0007755816    2.339    0.572
        15  -8.5035    142.5385    217.4317   6.7311658591e+01   8.8700888861e+00    0.1349888    0.1213731  -9.44 0.0002573008    1.045    0.043
        16  -9.2485     92.0786    213.5137   7.9247780564e+01   1.6310455710e+01    0.2184968     0.136814  24.64 0.0004840628    1.525    0.344
        17  -9.9522    131.0095    207.4343   6.8410897650e+01   1.2515318904e+01    0.2605933    0.1992702 -50.54 0.0005120119    1.326    0.246
        18  -8.3841    167.8072    205.0443   5.9799647598e+01   8.1927573048e+00    0.1700221   0.09366633 -47.58 0.0003615705    1.674    0.403
        19 -10.6154    129.3380    201.9240   6.7911455528e+01   1.3965431235e+01    0.2872005    0.2523312 -56.87 0.0005085882    1.246    0.197
        20 -10.7851    128.0105    197.4774   6.7492060744e+01   1.5150695759e+01    0.2896524    0.2468613 -53.13 -2.907412e-05    1.224    0.183
        21 -11.0117     74.7169    198.5254   8.1908582585e+01   2.2269401433e+01    0.4657206    0.3040995 -84.32  0.001200478    1.991    0.498
        22  -9.7630    101.0038    198.7977   7.4649709201e+01   1.8646114139e+01    0.2630923    0.2032861 -82.61  0.001036573    1.647    0.393
        23 -11.0187    110.2651    197.6037   7.2005021564e+01   1.7632634899e+01    0.3411429    0.2685249  39.29  0.001758859    1.322    0.244
        24 -11.5166    117.6893    194.0371   6.9494029108e+01   1.7413927433e+01    0.5306188    0.2667884 -48.51  0.002226016    1.906    0.475
        25  -9.9415    191.8189    192.9026   5.3096383229e+01   7.5451133089e+00    0.7053655    0.3718185 -69.34  0.001726289   10.481    0.905
        26  -9.2278    162.4940    190.4882   5.8424032443e+01   1.1835672919e+01    0.2081066    0.1266539 -57.77 0.0009947623    1.841    0.457
        27  -9.2162     71.9377    190.6070   8.1565049034e+01   2.4667993558e+01    0.2922679    0.1904476 -42.95 0.0007378667    1.593    0.372
        28 -10.4177     76.6708    183.4461   7.9076499272e+01   2.5890561548e+01    0.5467443    0.3736772  83.56  0.001781451    2.020    0.505
        29  -9.8607     80.3906    182.2084   7.7781738672e+01   2.5694874390e+01    0.3838516    0.2582345 -84.06  0.001645239    1.955    0.489
        30 -10.4050     99.0944    180.9421   7.2212496005e+01   2.3306357668e+01    0.3356797    0.3022723 -21.26 0.0007188336    1.108    0.098
        31 -10.3418    180.5969    173.8052   5.1848104969e+01   1.2689498090e+01    0.3208752    0.2112056  17.35  0.001681363    1.932    0.483
        32  -8.9240     74.6687    172.7571   7.7940919888e+01   2.8963618000e+01     0.246718    0.1070571  38.98 0.0008837818    2.273    0.560
        33 -10.3298    102.9744    171.1608   6.9386786848e+01   2.5143931299e+01    0.3880309    0.2215427  39.03   0.00163779    1.772    0.436
        34 -11.0816     73.5468    166.0778   7.7148526434e+01   3.0881167875e+01    0.6249542    0.3794221 -42.03  0.002642007    1.725    0.420
        35 -12.4316     69.1662    158.1022   7.7125551754e+01   3.3616893191e+01     1.843672    0.9366004  61.81  0.003765693    3.644    0.726
        36 -12.6453     60.2592    148.6229   7.8338819156e+01   3.7392996113e+01    0.5802055    0.4287803   7.07 0.0007148055    1.515    0.340
        37  -9.4403    111.8428    243.5028   7.8326048100e+01   7.1854701659e+00    0.2153018    0.1805898 -47.77 -0.0002871586    1.294    0.227
        38  -9.5541    179.7469    167.5596   5.0877292333e+01   1.4041351117e+01    0.1687365    0.1271902  50.26 0.0009181591    1.638    0.389
        39  -8.6784    110.5245    166.7617   6.6494683419e+01   2.5028802972e+01    0.1990157    0.1474252 -68.82 0.0005579624    1.548    0.354
        40 -10.4041    247.0423    163.8127   3.9830426201e+01   6.1767246665e+00    0.2888215    0.1284413 -49.03 0.0006321376    1.800    0.445
        41 -10.2572    245.5980    158.5575   3.9175975149e+01   7.1806770353e+00    0.3030445    0.1624879 -52.37  0.001072735    1.635    0.389
        42 -10.0799    235.9837    159.5048   4.0565055374e+01   8.1286004126e+00    0.2341493     0.117199 -24.30  0.001042104    3.519    0.716
        43  -9.7529     53.0666    159.5880   8.2649851839e+01   3.5397850813e+01    0.2913445    0.2183063  84.97  0.001053959    1.589    0.371
        44  -9.7499     48.7852    155.3753   8.3402499091e+01   3.7078239360e+01    0.3555381    0.1887544 -85.71  0.001244273    2.800    0.643
        45 -12.0078     81.7411    146.3471   7.0883913601e+01   3.4773934695e+01    0.9666393    0.6411057 -45.65  0.004314729    1.507    0.337
        46 -11.6737     84.1597    134.1647   6.7574292283e+01   3.7442997525e+01    0.3307982    0.2905193 -40.37 0.0005084819    1.142    0.125
        47  -9.9893    133.9015    146.0114   5.6381715103e+01   2.5945760246e+01    0.8590909    0.2009153 -55.12  0.001963958    6.484    0.846
        48 -15.4277      7.5310    207.7298   1.0221088146e+02   2.7031266430e+01     3.027245     1.778741 -78.85   0.01478109    1.663    0.399
        49  -9.0810     32.0046    143.5335   8.7403012594e+01   4.2230380230e+01    0.2186026    0.1473134  21.24 0.0003488903    1.515    0.340
        50 -10.1785     97.2768    135.5881   6.3884015189e+01   3.4840925901e+01     0.535405    0.3689789  -6.43  0.002224797    2.170    0.539
        51 -12.2159     62.2536    161.6560   7.9975932800e+01   3.3633366577e+01    0.7221438    0.5188868  -4.53  0.003247796    1.668    0.400
        52 -12.3906     73.7831    153.8852   7.4873117568e+01   3.4052340855e+01     1.656609    0.7770503  59.67  0.004560082    4.667    0.786
        53 -10.1222    107.0109    128.8530   5.9600880490e+01   3.4682416638e+01      0.58496    0.3827125 -18.12  0.002312951    2.420    0.587
        54  -8.2628    148.7695    128.9943   4.9456360394e+01   2.6946631378e+01     0.178888    0.1098253 -48.21 0.0003419779    1.519    0.342
        55 -10.0597     39.4397    122.4945   8.0883006505e+01   4.7015475504e+01    0.2680265    0.2255207 -59.04 0.0006449146    1.184    0.156
        56 -11.6024     33.9792    118.7915   8.2296737146e+01   4.8616468736e+01    0.5152681    0.3174514  47.74  0.002267323    1.871    0.466
        57 -16.0579      9.0693    226.5081   1.0305176789e+02   2.2195907093e+01     7.520305     2.544955  11.34   0.01689395    4.011    0.751
        58 -10.1538     95.2450    123.0855   6.1672321502e+01   3.8167598717e+01    0.3324012    0.2724041  -2.87 0.0008340669    1.475    0.322
        59 -14.4752     29.0859    185.5534   9.3908107010e+01   3.0995739170e+01     3.335076     1.687569  65.59  0.009131611    2.607    0.616
        60  -8.9189    105.6407    116.9562   5.7231360138e+01   3.7630022668e+01    0.1961863    0.1807465 -53.62 0.0002873216    1.084    0.077
        61  -8.6993     69.0159    115.7282   6.8431840724e+01   4.4474383934e+01     0.220196    0.1970259  24.62  0.001157258    1.103    0.094
        62  -9.0414    138.7510    112.4069   4.7972272018e+01   3.2196379693e+01    0.2640042    0.1603685 -59.62  0.001207523    1.785    0.440
        63  -9.5902    205.3352    110.3770   3.6096519899e+01   2.0661079525e+01    0.2265611    0.1988344  58.17 0.0009012901    1.377    0.274
        64  -9.8323     43.4813    111.3384   7.6953727449e+01   4.9346540693e+01    0.2545695    0.1615142  45.12 0.0007018059    1.733    0.423
        65  -8.3548    113.6896    110.3555   5.3481345024e+01   3.7508728684e+01    0.1516943    0.1143873  89.36 0.0002117711    1.730    0.422
        66  -8.6914     74.5201    109.8555   6.5116711566e+01   4.4936659360e+01    0.2120283    0.1485972 -54.03 0.0004929549    1.468    0.319
        67 -13.7241     40.6698    177.9339   8.9366480499e+01   3.1863896070e+01     1.930923     1.278174 -84.88  0.007423503    1.687    0.407
        68  -8.8927     27.9721    107.2773   8.2431803042e+01   5.2216774570e+01    0.2012112    0.1760671   4.49 0.0002868708    1.122    0.109
        69  -9.3153    134.0679    105.1880   4.7343503061e+01   3.4542456087e+01    0.2688887    0.1752469 -73.16 0.0008181637    2.059    0.514
        70  -9.4059     24.0435    105.0516   8.3645881197e+01   5.3183403077e+01    0.2198123    0.2079646 -17.65 0.0008757683    1.033    0.032
        71 -10.9596     57.4245    165.7599   8.2216769863e+01   3.3168589502e+01    0.3347712    0.2472868 -53.08 0.0005254546    1.326    0.246
        72 -13.5525      4.0959    237.3448   1.0494545326e+02   2.0019142321e+01      0.66623    0.4063379  12.17  0.002537561    1.796    0.443
        73  -9.9324     43.3758     89.1905   7.1610232281e+01   5.4615138330e+01    0.2938189    0.2116317  45.60 0.0006063665    1.517    0.341
        74  -8.1417     83.3280     67.3342   5.0516333058e+01   5.1939768356e+01    0.1401102    0.1070286  12.92 0.0007051826    1.721    0.419
        75 -12.5508    202.1043     57.0172   2.6460554247e+01   2.9382873886e+01    0.6018172    0.4579439  52.63  0.002354424    1.788    0.441
        76  -9.3876     62.2207    234.4253   8.9767043170e+01   1.4981585783e+01    0.3220933    0.2023444  74.75  0.001483929    2.145    0.534
        77 -10.4591      1.6490     56.9547   8.3319519632e+01   6.6166188161e+01    0.3106298    0.1695827 -64.30 0.0006005471    2.103    0.524
        78 -11.0278     13.4458     60.1145   7.7659638670e+01   6.4482344138e+01    0.3112515    0.2469307 -53.03 0.0005699084    1.382    0.276
        79 -11.5342      7.5804     59.3947   8.0658029713e+01   6.5180813746e+01    0.4601798    0.2718445  33.28  0.001992839    1.778    0.438
        80  -8.2169     80.6749     59.2859   4.8864087990e+01   5.3823651345e+01    0.1333908    0.1036425  80.14 0.0004063323    1.604    0.377
        81 -12.2379    127.2084    230.1806   7.2814321299e+01   8.1175719043e+00    0.8335559    0.3687605  35.87  0.003578861    2.249    0.555
        82  -9.1968     58.4224     54.9020   5.5040558553e+01   5.8870623010e+01    0.2537851     0.171431  56.09 0.0009917453    1.656    0.396
        83  -9.1691     71.8377     41.0920   4.5653856646e+01   5.8348050079e+01        0.188    0.1631704  68.86 0.0004104698    1.211    0.174
        84  -9.6986     17.7878     38.6101   6.7964086054e+01   6.7981038628e+01    0.1742033    0.1021459  34.98 0.0004422623    1.619    0.382
        85  -8.8001    104.0046     34.6809   3.5309415563e+01   5.2320158667e+01    0.2080005   0.09616484  80.89 0.0007044986    4.241    0.764
        86  -9.9534     32.6700     31.6937   5.7414195084e+01   6.6908107568e+01    0.1962542    0.1150774 -28.76  0.000797618    1.984    0.496
        87 -11.2473      3.6191     22.6678   7.0122464157e+01   7.2204557706e+01    0.3484423    0.2256895  -9.44  0.001479925    1.511    0.338
        88  -9.3265     76.6713    230.9179   8.5589966435e+01   1.4125925327e+01    0.2487096    0.1876339   4.98  0.001307005    1.360    0.265
        89  -9.2602     60.3693     21.1104   4.2050446763e+01   6.3147360351e+01    0.2091523    0.1386425  46.25  0.000418535    1.251    0.201
        90  -9.7411    189.4890     14.9929   1.9588610533e+01   3.6791752369e+01    0.1671325    0.1176918 -86.57 0.0008722261    1.141    0.123
        91 -14.6838      5.2571    245.0666   1.0507579539e+02   1.8137657783e+01     1.805285    0.6666541  25.22  0.006417236    2.360    0.576
        92 -10.2042    149.1291    228.1149   6.7486515114e+01   5.8940323432e+00    0.2183357     0.161706 -17.14  0.001241896    1.267    0.211
        93 -11.2558     98.0255    227.4014   7.9614260220e+01   1.2333969127e+01    0.5039259    0.3093146  30.70   0.00244934    1.513    0.339
