#   1 NUMBER                 Running object number                                     
#   2 MAG_AUTO               Kron-like elliptical aperture magnitude                    [mag]
#   3 X_IMAGE                Object position along x                                    [pixel]
#   4 Y_IMAGE                Object position along y                                    [pixel]
#   5 X_WORLD                Barycenter position along world x axis                     [deg]
#   6 Y_WORLD                Barycenter position along world y axis                     [deg]
#   7 A_WORLD                Profile RMS along major axis (world units)                 [deg]
#   8 B_WORLD                Profile RMS along minor axis (world units)                 [deg]
#   9 THETA_WORLD            Position angle (CCW/world-x)                               [deg]
#  10 FWHM_WORLD             FWHM assuming a gaussian core                              [deg]
#  11 ELONGATION             A_IMAGE/B_IMAGE                                           
#  12 ELLIPTICITY            1 - B_IMAGE/A_IMAGE                                       
         1 -12.1121    125.6338     28.2818   3.7467243347e+01   4.9179697276e+01    0.5272332    0.4871562  81.11  0.003398961    1.103    0.093
         2 -12.4778    119.8734     37.6704   4.1618071875e+01   4.9448202765e+01    0.9076241    0.5161731 -52.40  0.003502352    2.278    0.561
         3 -11.0439    240.1192     32.6944   2.4823027703e+01   2.4382933520e+01    0.2340561    0.1904204 -44.84  0.001564025    1.255    0.203
         4 -11.6496    105.9958     20.4279   3.8981946751e+01   5.4595941106e+01    0.4156023    0.3851114 -88.98  0.001585297    1.210    0.174
         5 -11.9234    107.7091     30.8542   4.2173132383e+01   5.3082584190e+01    0.8652042    0.4623955   7.42  0.003131022    4.169    0.760
         6 -12.2224     20.0691     22.0002   7.4071603278e+01   7.0718905465e+01     0.526408    0.2766225 -33.82  0.001913804    1.825    0.452
         7 -10.5664     22.0602      4.2169   6.3681449400e+01   7.2955038046e+01     0.227149     0.170016 -36.89 0.0007326427    1.795    0.443
         8 -11.9676     27.0766     27.9025   7.2512907301e+01   6.8933761016e+01    0.5513038    0.3883185  11.41  0.001071461    1.190    0.160
         9 -11.4562     35.7501     18.9604   6.3476996237e+01   6.9041799831e+01    0.6808789    0.4275097 -28.68  0.003911172    1.667    0.400
        10 -12.5082     16.1288     14.3755   7.2941479354e+01   7.2340242668e+01    0.8754866    0.5366681  -8.73  0.003893182    1.537    0.349
        11 -11.7816     22.6476     11.3260   6.7182118104e+01   7.1962912899e+01    0.4692275    0.2800565   7.83  0.001932425    1.614    0.380
        12 -10.8629    189.1537     27.7144   2.8262943771e+01   3.4821435206e+01    0.3069842    0.2638781   5.02  0.001794805    1.648    0.393
        13 -10.4570    147.8826     16.1961   3.0312989129e+01   4.5195383635e+01    0.4752756    0.1809391  43.12  0.001832763    3.633    0.725
        14 -11.4733    122.3647      5.5457   3.0954664312e+01   5.2086318704e+01    0.3200867    0.2388991 -23.94  0.001141554    1.631    0.387
        15 -12.0708    136.4078     22.8466   3.3908545349e+01   4.7218109925e+01    0.7642502    0.5595421  63.45  0.004535134    1.172    0.147
        16 -10.7978    121.3044     11.7779   3.3086518224e+01   5.1815026300e+01     1.028338    0.2226143  63.86  0.003197708    3.481    0.713
        17 -11.1685    127.3621     16.3023   3.3457837727e+01   4.9981506641e+01    0.3689762    0.2414248  36.77  0.001413357    1.725    0.420
        18 -11.4339    134.4689     14.9893   3.1915137251e+01   4.8434065586e+01    0.5725814    0.2241851  59.94   0.00260539    2.043    0.511
        19 -12.1578    160.0096     29.7916   3.2269611752e+01   4.1014114339e+01    0.4421315    0.4213113  69.70 0.0005043655    1.149    0.130
        20 -10.6941     90.8826     21.9998   4.3302617888e+01   5.7895430360e+01    0.3629295    0.2798785 -17.48  0.001822845    1.507    0.336
        21 -11.7673     86.3606     14.5445   4.1668333580e+01   5.9652580324e+01    0.7279683    0.4366493 -36.06  0.003486393    2.007    0.502
        22  -9.9128     88.8223      7.4827   3.8281645389e+01   5.9722300255e+01    0.2937135    0.1899414  33.28 0.0009361341    1.544    0.352
        23 -11.0661    178.9530     20.8937   2.7768100607e+01   3.7735312750e+01    0.4559318    0.2241782  43.44  0.002151186    2.881    0.653
        24 -13.2801    163.9571     18.9955   2.8997287733e+01   4.1250017091e+01    0.4020842    0.2613059  47.96  0.001295196    1.696    0.410
        25 -11.8025     67.8254     17.9821   4.8869204657e+01   6.3303923068e+01    0.5353131    0.3964953  54.23  0.002950153    1.338    0.253
        26 -11.4534    244.1984     14.2623   2.1256624258e+01   2.5646426100e+01     0.220846    0.1050578 -47.36  0.001424595    1.653    0.395
        27 -11.7436    228.6771     15.9548   2.2532719155e+01   2.8238250560e+01    0.2969087    0.1894997  79.09 0.0004250022    1.484    0.326
        28 -10.9332    225.4689     12.9871   2.2190544062e+01   2.9131842089e+01    0.2459895    0.1427846 -52.38 0.0006820532    1.431    0.301
        29 -12.3678    104.7091     12.9436   3.6656424407e+01   5.5600409620e+01    0.4852881    0.3853474 -12.11  0.003014149    1.524    0.344
        30 -10.9930    105.5558      2.1784   3.2743422509e+01   5.6280019472e+01    0.4076045    0.2594592  87.33   0.00161219    1.751    0.429
        31 -11.5898    192.2491      8.7770   2.3793681612e+01   3.6093619228e+01    0.5006345    0.3122728  -4.28  0.002749148    2.936    0.659
        32 -12.1420     48.2834     12.9812   5.4381997374e+01   6.7659190877e+01    0.6499256    0.2588294  47.02  0.002928306    2.221    0.550
        33 -11.4079    211.9678      9.3544   2.2411798727e+01   3.2062068239e+01    0.4383302    0.2940275  -1.60  0.002590283    2.860    0.650
        34 -10.2594      5.0156     10.8123   7.8957195534e+01   7.4014125248e+01    0.3550701    0.2044664 -35.14  0.001616482    1.580    0.367
        35 -11.6114    115.1834      2.6902   3.1215154756e+01   5.3991609414e+01    0.6080381    0.2362542  72.06   0.00263943    2.362    0.577
        36 -10.4993    169.3581      9.4446   2.6044028609e+01   4.0952446730e+01    0.3676388    0.1499975  56.65  0.001526093    2.307    0.566
        37 -10.8801    145.4914      9.5242   2.8805342654e+01   4.6356164908e+01    0.2269267    0.1792941  51.00 0.0005630442    1.306    0.234
        38  -9.8993     65.6133     10.2843   4.6257436839e+01   6.4541206133e+01    0.2385233    0.1615468  61.77 0.0009254542    1.589    0.371
        39  -9.8226     62.8785      6.6426   4.5559838089e+01   6.5443822469e+01    0.2160979    0.1576575  11.60  0.001317984    1.431    0.301
        40 -11.4927    247.4719      6.3122   1.9705470974e+01   2.5877377110e+01    0.2316017    0.2210383 -59.06  0.002082744    1.457    0.314
        41 -11.2290    243.6698      3.3225   1.9391211424e+01   2.6817138975e+01    0.2288411    0.1403246 -67.62  0.001329085    1.284    0.221
        42 -10.2470    163.4741      9.5035   2.6675728052e+01   4.2258311355e+01    0.1874181    0.1185061 -29.31  0.001108783    1.828    0.453
        43 -10.4396    232.9607      7.5043   2.0714332772e+01   2.8302308651e+01    0.1850141    0.1631327 -69.61  0.001073838    1.236    0.191
        44 -12.0738    234.3951      3.1144   1.9846746399e+01   2.8466597414e+01    0.4899794    0.2013189 -70.19  0.002714661    2.425    0.588
        45 -10.9765    185.6041      7.1674   2.3999040410e+01   3.7638771907e+01    0.2088759    0.1578188  60.18 0.0006661033    1.412    0.292
        46 -11.0906    183.3354      4.6995   2.3642665633e+01   3.8344141817e+01    0.2350128     0.173941  75.73 0.0008786495    1.203    0.169
        47  -9.4171      1.0000      7.8428   8.0514963434e+01   7.4819453966e+01    0.1683808   0.05966687 -47.68 0.0007867803    2.835    0.647
        48  -9.7281     77.9834      7.4833   4.1153119500e+01   6.2144879213e+01    0.2306311    0.1396058  60.90 0.0009137892    1.482    0.325
        49 -10.8995     74.7175      3.5952   4.0451435690e+01   6.3181411779e+01    0.4914665      0.23317  57.56  0.002455193    1.712    0.416
        50 -11.0752    176.9386      5.8782   2.4471518349e+01   3.9613071375e+01    0.3071832    0.1625417  83.14 0.0007226003    1.696    0.410
        51 -11.3484    206.6267      3.1733   2.1552906145e+01   3.3694996055e+01    0.3887917    0.2288287 -89.83    0.0025201    1.484    0.326
        52 -12.2715    132.7748      2.9324   2.8631826342e+01   4.9856347132e+01    0.8503188    0.2509227  69.06  0.003436237    2.732    0.634
        53 -10.6874    218.8534      3.7842   2.0876916532e+01   3.1268123528e+01    0.2348545    0.1630071  76.26  0.000817855    1.379    0.275
        54 -11.1379    223.8769      2.4798   2.0328444144e+01   3.0446236075e+01     0.205672    0.1588498 -80.81 0.0006494107    1.084    0.078
        55  -9.7063     57.8709      4.1613   4.6198596257e+01   6.6687697262e+01    0.1631508    0.1120332  31.06            0    1.239    0.193
        56 -10.4909    158.1424      2.5772   2.5504710244e+01   4.4055799674e+01    0.3029433    0.1491264  52.52  0.001596225    2.049    0.512
        57 -11.0533      2.7141      1.8617   7.6000969427e+01   7.5565477394e+01    0.3409557    0.1599969  11.43  0.001725562    1.969    0.492
        58 -10.5883    137.5418      4.4831   2.8437514726e+01   4.8623281424e+01      0.30076    0.1690722  73.38  0.000523454    1.495    0.331
        59  -9.8822    152.6053      1.3920   2.5790232245e+01   4.5405749156e+01    0.2236303   0.09964726  78.44 0.0008191764    1.999    0.500
        60 -10.1329     41.6377      3.8412   5.2810504879e+01   6.9828619470e+01     0.293966    0.1618042  19.58 0.0009710336    1.922    0.480
        61 -10.3811     82.0848      1.3243   3.7523624858e+01   6.1724701095e+01     0.184913   0.09619882  60.27 0.0003700737    1.557    0.358
        62  -9.6542     13.3789      1.6838   6.7966457143e+01   7.4423029384e+01    0.2061003   0.08872099  29.01 0.0009181746    1.952    0.488
        63  -9.9394     32.0382    137.6857   9.8870573622e+01   4.3639202904e+01    0.2960474    0.2372848  32.77 0.0009548293    1.308    0.235
        64 -10.9750    248.7772    249.8613   6.2843022365e+01  -7.7092900914e+00    0.2034828    0.1335054  22.56  0.001440448    1.653    0.395
        65  -9.4210     47.4676    134.9962   9.2989944187e+01   4.2820956691e+01    0.2245654    0.1409323 -62.17 0.0007882325    1.559    0.359
        66  -9.9966     39.3503    133.3331   9.5608800327e+01   4.4095227935e+01    0.2406053     0.197364 -22.62 0.0005265699    1.231    0.187
        67  -9.7338     73.5865    133.2219   8.3480200790e+01   3.9931476179e+01    0.2243819     0.135396 -44.74 0.0009003425    1.635    0.388
        68  -9.5056     93.0113    129.7085   7.6191831270e+01   3.7722100196e+01    0.2276034    0.2055007  22.39  0.001168013    1.075    0.069
        69 -10.8527     11.0288    126.6807   1.0487299723e+02   4.8016589323e+01    0.3139666    0.1884797 -70.10 0.0009675429    1.516    0.340
        70 -10.5443     22.8707    126.9844   1.0061334354e+02   4.7162686540e+01    0.2130376    0.1930792 -12.75 0.0002728954    1.124    0.110
        71  -8.8588     95.2567    126.2571   7.4656153801e+01   3.8160562846e+01    0.1497445    0.1160901 -11.90 0.0006784946    1.434    0.303
        72 -10.2582      2.2141    126.0903   1.0794825835e+02   4.8619260764e+01    0.2272155     0.193707  48.48  0.000788471    1.308    0.236
        73 -12.6447    103.9179    122.4389   7.0973264015e+01   3.7501680833e+01    0.3614854    0.3217043  17.76 0.0004117443    1.076    0.071
        74  -9.7396     27.3190    124.3040   9.8570463094e+01   4.7513282747e+01    0.1527019   0.09419051 -34.75 0.0006041903    1.629    0.386
        75  -9.3563     84.8588    123.1968   7.7387942971e+01   4.0654546977e+01    0.2159398    0.1704704  -2.04 0.0003922762    1.362    0.266
        76  -9.4390     56.3178    122.0010   8.7304646193e+01   4.5116155454e+01    0.2070548    0.1872339 -45.28 0.0004479321    1.090    0.083
        77  -9.9805     49.8711    122.6885   8.9841916226e+01   4.5719601769e+01    0.2933573    0.1382663  13.04  0.001081811    2.531    0.605
        78  -9.9864     48.8614    112.4837   8.8134052994e+01   4.8417589729e+01    0.3230622    0.2024201 -51.64  0.001195026    1.502    0.334
        79 -10.0242     45.0152    120.2416   9.1191557651e+01   4.6888730671e+01    0.2292944    0.2008942  56.15 0.0007218924    1.320    0.242
        80 -10.3186     43.9303    116.6988   9.0913483781e+01   4.7908144763e+01    0.3240187     0.267525  12.64  0.001249372    1.216    0.178
        81 -10.4400      6.9984    114.7002   1.0487428265e+02   5.1302209151e+01    0.4331597    0.2206545 -61.85  0.002007704    1.653    0.395
        82 -12.2759      2.4603    111.9452   1.0626271218e+02   5.2210368131e+01    0.4457097     0.257531 -71.50  0.000736099    1.560    0.359
        83 -11.2792      3.8886    105.2221   1.0484394340e+02   5.3845303065e+01    0.4538279    0.3588997  -5.12  0.002078152    1.330    0.248
        84  -9.6535     79.2334    114.9617   7.7363712721e+01   4.3550552657e+01    0.2205893    0.1981616 -30.01  0.001146079    1.089    0.082
        85  -9.5990     68.0156    115.0444   8.1436882341e+01   4.5258808527e+01    0.2478193    0.1856973  61.22   0.00113382    1.779    0.438
        86 -10.4042     27.9197     99.8557   9.4016464422e+01   5.3675205349e+01    0.5884729    0.1873125 -38.32  0.001911482    3.459    0.711
        87 -11.7500      9.6082     97.3976   1.0133450445e+02   5.5528118759e+01    0.5555028    0.4574164   3.58 0.0004789269    1.276    0.217
        88 -12.6368      7.3959     89.5554   1.0098935770e+02   5.7569097081e+01     0.619207    0.3752194  22.75 9.475694e-05    1.789    0.441
        89 -11.4397     35.0608     92.1051   8.9272415847e+01   5.4914652378e+01     1.259319    0.5889581 -65.40  0.005056093    2.420    0.587
        90 -11.2994     27.2295     86.0225   9.1346035942e+01   5.7092988218e+01    0.7730491    0.6545756  10.27  0.003989708    1.196    0.164
        91 -11.7280     42.2034     85.4662   8.4489898888e+01   5.5712193998e+01    0.9207472    0.4181077  20.17  0.003364766    2.253    0.556
        92 -11.9784     17.6585    101.1800   9.8581184002e+01   5.4111836155e+01    0.4716054    0.4046308 -67.95  0.001223405    1.195    0.163
        93 -12.0561     25.0533    107.1959   9.6596554343e+01   5.2070201928e+01      1.07856    0.6780464 -20.43  0.005212489    1.674    0.403
        94 -11.3469     21.5165    114.4585   9.9234391966e+01   5.0487953202e+01    0.5310763     0.276184  -9.95  0.001395739    2.313    0.568
        95 -11.3428     28.2558    113.1813   9.6375950942e+01   5.0295160218e+01    0.6112321    0.3110967   2.13  0.002545089    2.318    0.569
        96 -11.7802     22.4623     94.3949   9.5264396190e+01   5.5454842215e+01    0.3975078    0.3009922 -31.91 0.0007372805    1.190    0.160
        97 -11.8936     18.0957     90.5256   9.6417115874e+01   5.6711558546e+01    0.4315156     0.317827 -69.07 0.0004707546    1.417    0.294
        98  -9.3943     93.7836    112.5810   7.1766537624e+01   4.1614240647e+01    0.2204499    0.1409831  44.30 0.0008117889    1.640    0.390
        99  -9.4189     66.1331    110.8098   8.1131980999e+01   4.6563847719e+01    0.2161296     0.169755 -12.35  0.000619372    1.321    0.243
       100  -9.6497    170.7537    110.1917   5.0703873203e+01   2.6642591252e+01    0.1959547    0.1645047  -5.85 0.0005416176    1.345    0.257
       101 -10.8405     15.4143    109.3077   1.0083220277e+02   5.2207128083e+01    0.3786678    0.1976039  33.01  0.001735761    2.087    0.521
       102  -9.1095    120.2965    109.3473   6.2719874129e+01   3.7211211773e+01    0.1597101    0.1190845  -4.66 0.0007033888    1.676    0.403
       103 -10.0621    102.3880    108.4543   6.7887837607e+01   4.0941887593e+01    0.4427908    0.2309681 -30.98  0.001613444    2.457    0.593
       104 -11.2657     79.8222    108.1337   7.5440477306e+01   4.5066268307e+01    0.5506295    0.2957512  26.46 0.0006187952    1.915    0.478
       105  -9.1124    175.6659    106.6840   4.8900079801e+01   2.6282101624e+01    0.1422985    0.1094656   6.12 0.0007047327    1.691    0.409
       106  -9.6837    143.2651    106.1131   5.5810058667e+01   3.3100720143e+01     0.272348    0.1996848  76.65   0.00121504    1.991    0.498
       107  -9.9682     86.9923    104.2227   7.1882567256e+01   4.4730612133e+01    0.4616767     0.187403  40.72   0.00162121    2.449    0.592
       108 -10.6952     51.8155     98.9728   8.3850739018e+01   5.1369288803e+01    0.6886428    0.2110123 -44.40  0.002221457    3.173    0.685
       109  -8.6011    145.6855     99.6818   5.3571823631e+01   3.3814904809e+01    0.1502488    0.1154517   7.12 0.0007037902    1.650    0.394
       110 -10.2556     80.7833     98.2281   7.2454802927e+01   4.7165165308e+01    0.5316144    0.2568669  48.89  0.001901194    2.682    0.627
       111 -11.1663     83.1209     93.0601   7.0159599545e+01   4.7888710273e+01    0.2971507    0.2355632  23.35 0.0002918168    1.205    0.170
       112 -10.7158     77.6307     92.8707   7.2108804168e+01   4.8894531134e+01    0.4608823    0.4035233 -22.58   0.00190933    1.116    0.104
       113 -11.3222    125.7688     94.7979   5.7281509025e+01   3.9009758312e+01    0.2786331      0.26407  11.47  0.000222704    1.033    0.032
       114 -10.3803    121.7851     93.9626   5.8137912802e+01   4.0020053594e+01    0.2933115    0.2050212 -36.50  0.001374103    1.490    0.329
       115 -11.2656     69.1590     95.6139   7.6078837913e+01   4.9679480606e+01      0.37457    0.2560973  30.20   0.00059228    1.413    0.292
       116 -10.4165     42.7321     94.7604   8.6602293580e+01   5.3466110621e+01    0.3277807     0.310959 -31.11  0.001228827    1.117    0.104
       117 -11.1856     98.4594     91.1066   6.4340281318e+01   4.5399697458e+01    0.2715905    0.2330142  30.55 8.293981e-05    1.099    0.090
       118 -11.6785     89.2722     89.8636   6.7063623668e+01   4.7434893541e+01    0.4236624    0.3216748 -26.58  0.000442537    1.385    0.278
       119 -10.4179     49.3392     91.3620   8.2951710671e+01   5.3481322385e+01    0.2804326     0.257251  25.39   0.00129421    1.183    0.155
       120 -10.0624    104.0425     88.1995   6.1710570904e+01   4.4860785252e+01    0.2689038    0.2166872 -31.79 0.0008885211    1.288    0.224
       121  -9.9939     66.1768     88.7635   7.5329842018e+01   5.1685121007e+01    0.3535864    0.2151814  -6.05  0.001404995    2.331    0.571
       122 -10.5849     80.2713     84.0607   6.8548244358e+01   5.0306995970e+01    0.4058349     0.301672 -39.85  0.001611345    1.383    0.277
       123 -11.4414     74.8654     78.3443   6.8817552006e+01   5.2446168578e+01    0.6419744    0.5213977  48.09  0.003333015    1.397    0.284
       124 -10.5518    113.2523     82.9794   5.7405104764e+01   4.3934361975e+01    0.3913829    0.3165436 -74.44  0.001924952    1.672    0.402
       125  -9.1216    165.5090     83.5104   4.5207908482e+01   3.2377717396e+01    0.1355942     0.132985 -84.33 0.0008105357    1.003    0.003
       126  -9.9647     66.8252     81.7392   7.3008492555e+01   5.3105464056e+01    0.4467455    0.2862694  22.20  0.002063974    1.553    0.356
       127 -11.4911     53.4942     76.3695   7.6946524941e+01   5.6282597646e+01    0.5629945    0.4210699 -45.72  0.002939021    1.374    0.272
       128 -11.1680     58.2584     77.9806   7.5393282938e+01   5.5242751434e+01    0.3200767       0.2639 -17.63 0.0009578604    1.147    0.128
       129 -11.6853     14.0197     74.4972   9.4933201074e+01   6.0787013345e+01    0.5807977    0.3924135 -72.30  0.002595994    1.696    0.411
       130 -10.2934     13.9898     67.3854   9.3268871067e+01   6.2412092806e+01     0.374355    0.1993365   8.81  0.001828864    1.874    0.466
       131 -10.2187    233.5103     77.5245   3.3953133501e+01   1.9901351728e+01    0.1173376   0.09825987 -53.53 0.0001063161    1.005    0.005
       132 -10.4678     95.0660     76.5273   6.1056815652e+01   4.8946137482e+01    0.4613441     0.276167  46.52  0.001522054    1.643    0.391
       133 -11.0162     81.6897     60.0218   6.0223134958e+01   5.4601410756e+01     1.432815     1.103005  75.13  0.006941827    2.054    0.513
       134 -11.6193     85.4081     73.4786   6.3388620340e+01   5.1441817590e+01    0.9926377    0.4120163  38.22  0.003725411    2.277    0.561
       135 -11.3266     79.3279     67.9773   6.3788367002e+01   5.3640204997e+01    0.8140712    0.5778602 -77.58   0.00340084    2.851    0.649
       136 -11.8490     74.8697     53.1585   6.0296652670e+01   5.7089230870e+01    0.5188774    0.3575826 -60.03  0.002428411    2.299    0.565
       137 -10.9073     72.5233     47.5080   5.9096936556e+01   5.8451681865e+01    0.2748241    0.2594695  48.83 0.0008604012    1.280    0.219
       138 -10.8171    249.1726     76.1710   3.2069130288e+01   1.7465907479e+01    0.1652259    0.1136664 -61.04  0.001101454    1.367    0.269
       139 -10.2295     24.5075     73.7930   8.9646709563e+01   6.0167321417e+01     0.276099    0.2403014 -36.24  0.001389946    1.105    0.095
       140 -10.3845     29.3248     71.8483   8.6788430562e+01   6.0166324270e+01    0.2750589    0.1995033  18.55  0.001031526    1.359    0.264
       141 -11.0709     34.9602     71.6371   8.4012501641e+01   5.9635909438e+01    0.5611917     0.264845  25.05  0.002461857    2.041    0.510
       142 -10.9936     41.0923     72.7535   8.1445265042e+01   5.8691368459e+01    0.3712844    0.2621336 -40.90  0.001117627    1.338    0.253
       143 -11.3872    186.9773     71.0843   3.8550414455e+01   2.9731592848e+01    0.5657175    0.2988868 -40.85  0.002243522    1.800    0.444
       144 -10.6751    143.2512     84.4870   5.0108123792e+01   3.7091777405e+01    0.2452314    0.2391643 -25.60 0.0003536385    1.055    0.052
       145 -11.0301      2.0177     71.6594   1.0023548471e+02   6.2069623425e+01     0.377616    0.1996835 -61.01  0.001356979    1.646    0.393
       146 -12.5113      6.3834     62.2053   9.5964031337e+01   6.4020149263e+01    0.7820032    0.4185459 -11.98  0.003163917    1.832    0.454
       147  -9.0114    153.6866     72.6483   4.4698055441e+01   3.6727511630e+01    0.1423925    0.1085036  17.65  0.000704593    1.728    0.421
       148 -11.1603    122.9863     68.8893   5.0557397625e+01   4.4261720017e+01    0.4607316    0.2879067  43.05  0.001404188    1.520    0.342
       149 -10.2303     40.0020     69.0000   8.0828832386e+01   5.9629282016e+01    0.3159395    0.1675405  14.17   0.00117462    1.984    0.496
       150 -10.9411    219.9336     66.7782   3.3311993445e+01   2.3819490297e+01    0.3942321     0.221401  68.00  0.002046966    1.957    0.489
       151 -10.6462     58.8117     63.9211   7.0626522713e+01   5.8013473705e+01    0.5077986    0.2649264 -47.31  0.002234064    2.082    0.520
       152  -9.6559    103.9966     74.5486   5.7604356764e+01   4.7454545857e+01    0.2356427     0.137769  45.32  0.001031521    1.605    0.377
       153 -10.6310     91.7147     62.7712   5.7707565770e+01   5.2098482698e+01    0.4178452    0.2476507  55.30  0.001622931    1.929    0.482
       154  -9.8000     51.1625     56.4904   7.1439112570e+01   6.0618836789e+01    0.2945636    0.2912129  39.82  0.001820945    1.360    0.265
       155 -10.3852     51.7317     48.3885   6.8184724609e+01   6.1992087210e+01    0.2885502     0.223355   4.97 0.0007701765    1.183    0.155
       156 -11.7378     25.2345     57.7416   8.4726082652e+01   6.3597053358e+01    0.9051492    0.5149995  22.56  0.004584359    1.694    0.410
       157 -10.3950     33.3376     52.4131   7.8718069255e+01   6.3805521770e+01    0.5646634    0.2519247  15.16  0.002315402    2.510    0.602
       158 -11.3082     40.7767     57.0504   7.6573241246e+01   6.1976906217e+01    0.5730743    0.2813536  33.14  0.002311878    1.978    0.494
       159 -11.3415     45.2102     48.3457   7.1254428025e+01   6.2995773190e+01    0.5519306    0.4063821 -33.00  0.003100503    1.363    0.266
       160 -11.8165     42.5536     43.9963   7.0885964535e+01   6.4149051037e+01    0.7362823    0.2442544  32.12  0.001416005    2.774    0.640
       161 -11.3453     43.4766     62.3611   7.7063400122e+01   6.0567516931e+01    0.3030609    0.2329493 -37.51 0.0004859086    1.282    0.220
       162 -10.9059     46.3150     59.0122   7.4583983050e+01   6.0844814309e+01    0.4593572    0.2719784 -49.10  0.001610134    1.847    0.459
       163  -9.8267    158.4439     62.9500   4.1227682543e+01   3.7129157332e+01    0.4794272    0.1266959  48.98  0.001542319    3.793    0.736
       164 -11.5556    234.9711     60.9639   3.0580086150e+01   2.1868952022e+01    0.3160156    0.2646674  61.61  0.002300989    1.400    0.286
       165  -9.3015     65.3151     62.0141   6.7227946611e+01   5.7290242666e+01     0.167634    0.1280081 -33.60 0.0006241153    1.349    0.259
       166 -10.5402     50.8110    249.6136   1.0522455169e+02   1.5121530767e+01     0.190373   0.08786765  36.59 0.0009547118    1.729    0.422
       167 -11.6580    118.5572     56.6870   4.7946284401e+01   4.7175354429e+01     1.585425    0.8928204 -69.29  0.005123269    4.629    0.784
       168 -10.3938    109.4837     41.9225   4.5472371513e+01   5.1317263043e+01    0.5891364    0.4624201  -2.42  0.003255447    1.532    0.347
       169 -11.8979    117.7856     44.0218   4.4125639475e+01   4.9128904038e+01    0.5244584    0.4810121 -55.50  0.002341279    1.232    0.188
       170 -11.0331     30.1072    132.9560   9.8862812688e+01   4.5037401635e+01    0.4464733     0.256521 -38.30  0.000927304    1.761    0.432
       171  -9.4865    135.5438     58.4386   4.4509780051e+01   4.3016039961e+01    0.2448656    0.1396054 -18.84  0.001027108    2.534    0.605
       172 -10.1093    106.5682     58.6977   5.1797648531e+01   4.9567654011e+01    0.2354164    0.1758031  71.50  0.001002732    1.680    0.405
       173 -10.1935     87.6950     56.5870   5.6939834789e+01   5.3959466740e+01     0.501309    0.2218612 -34.67  0.002005421    2.519    0.603
       174 -10.1578     91.6683     57.1481   5.5816802488e+01   5.3039464919e+01    0.3252773    0.2285485  61.86 0.0006183115    1.741    0.426
       175 -10.3291    157.7220     54.7973   3.9202695886e+01   3.8445818597e+01    0.3947041     0.253103 -72.96  0.001882739    2.073    0.517
       176  -9.3618    125.3549     56.3003   4.6172909542e+01   4.5675096445e+01    0.1477652    0.1026308  28.17 0.0003764389    1.703    0.413
       177  -9.8004     67.0468     54.5367   6.3858408721e+01   5.8321482201e+01    0.3040921    0.2059398 -54.99  0.001459052    2.078    0.519
       178  -9.8749      7.4543     54.3042   9.3385949947e+01   6.5688495199e+01    0.2460782    0.1378524 -41.35  0.001305091    1.464    0.317
       179 -11.4548     60.6988     47.9333   6.4031780885e+01   6.0568629177e+01     0.776388    0.3410071 -35.93  0.003260402    2.458    0.593
       180  -9.2056     58.0165     42.0000   6.2870278187e+01   6.1998707232e+01    0.3571302   0.06982375  40.59  0.001013647    4.598    0.783
       181 -10.3053    146.0276     47.7805   3.9373263748e+01   4.2068578829e+01    0.3378226     0.209905 -18.85  0.001629139    2.141    0.533
       182  -9.9816    245.3180     51.3298   2.7833715521e+01   2.1295969679e+01   0.09595638   0.08555044   7.20 0.0005001126    1.685    0.407
       183 -10.2415    240.1969     50.8127   2.8172232071e+01   2.2237086599e+01    0.1361708    0.1291362 -36.12 0.0006423267    1.336    0.251
       184 -10.0616    201.5276     48.9569   3.1628012662e+01   2.9746030485e+01    0.2197449    0.1583164 -12.29 0.0009617381    2.030    0.507
       185 -10.0582    200.4664     45.1634   3.0918530742e+01   3.0435222142e+01    0.4056908    0.1648473  80.91  0.001557328    3.867    0.741
       186  -9.8869    175.0367     49.2259   3.5063574773e+01   3.5315442037e+01    0.1762438   0.09868078  63.76 0.0008865541    1.697    0.411
       187 -11.6196     20.8631     46.2037   8.3322419590e+01   6.6340291817e+01    0.3526888    0.2624102 -37.23 0.0008684469    1.253    0.202
       188 -10.7479     26.4909     43.0264   7.9012977457e+01   6.6373217455e+01    0.2859572    0.1714694   8.10 0.0006265001    1.592    0.372
       189  -9.7669      2.2009     49.1466   9.4986890917e+01   6.7064007278e+01    0.2389998    0.1586708  18.20  0.001390483    1.591    0.372
       190 -10.1340     13.1537     47.3945   8.8128600507e+01   6.6754138492e+01    0.3528346    0.1635322 -35.97  0.001687782    1.886    0.470
       191  -9.3137     89.9680     47.2267   5.2891152693e+01   5.4927052903e+01    0.1989397     0.162789  38.28 0.0002005016    1.071    0.066
       192  -9.3056     82.4076     46.8201   5.5254819658e+01   5.6577327046e+01    0.1873272    0.1308662 -15.33 0.0007022036    1.665    0.399
       193 -10.0567    133.8756     45.8248   4.1155530133e+01   4.5148531854e+01    0.2397238    0.1739188  57.63 0.0003480524    1.239    0.193
       194 -10.2246    138.7500     44.2096   3.9720115476e+01   4.4220843876e+01    0.3917937    0.2097663  30.52  0.001338025    3.004    0.667
       195 -10.9062     51.7892     61.7881   7.3004570063e+01   5.9513076347e+01    0.4173158    0.2233519  40.56  0.001215198    2.001    0.500
       196 -10.6875    155.8095     42.3007   3.6195840819e+01   4.0512543876e+01    0.2682012    0.2485044  45.38  0.001053052    1.183    0.154
       197 -10.5652     92.5264     41.3518   4.9984488213e+01   5.5201584685e+01     0.405932     0.229248  50.18  0.001540961    1.564    0.360
       198  -9.7325     17.6277     41.8508   8.3659216957e+01   6.7481264724e+01    0.2542346    0.1396369 -11.94  0.001251959    1.869    0.465
       199 -11.3009     78.3609     37.1707   5.3017570043e+01   5.8791236230e+01    0.5012239    0.3578888 -75.77  0.001966091    2.829    0.646
       200 -11.3021     80.0119     32.6861   5.0713588421e+01   5.9034561594e+01    0.5936977    0.2829314  36.33  0.002590174    2.060    0.515
       201  -9.2336    194.0793     38.8495   3.0232772140e+01   3.2516556330e+01    0.1508318    0.1354849  51.15  0.000424046    1.327    0.247
       202  -9.9527     67.6659     32.2163   5.4941495054e+01   6.1620828768e+01    0.5204418    0.3349734  44.51  0.002204438    1.382    0.276
       203  -9.9950     43.0150     28.2018   6.4027652303e+01   6.6604631545e+01    0.1976737    0.1580678  10.68  0.001215888    1.029    0.028
       204 -11.2831     60.6513     36.5370   5.9533282702e+01   6.2354801068e+01    0.3705545    0.2906341 -20.93  0.001226202    1.338    0.252
       205 -11.9467     57.7515     30.2699   5.8131412944e+01   6.3774199281e+01    0.4588571     0.357192  11.11  0.001560934    1.190    0.160
       206 -11.4730     48.5949     30.6054   6.2383653014e+01   6.5340728789e+01     0.706381    0.2484204  35.78  0.002824292    2.551    0.608
       207 -10.6383     21.7141     36.9713   7.9438676284e+01   6.7996569050e+01    0.4805042    0.1990591  35.00  0.002123148    2.634    0.620
       208 -10.2471    183.4492     38.0259   3.1274197530e+01   3.4868241112e+01    0.2035305    0.1497211 -85.58 8.211321e-05    1.318    0.241
       209  -9.9033    133.0988     37.1943   3.8741530580e+01   4.6409422049e+01    0.3147708    0.1916656 -84.39  0.001398929    2.445    0.591
       210  -8.8895    206.4786     37.4642   2.8631473366e+01   3.0146867329e+01     0.116927   0.09911979 -73.11  0.000377431    1.004    0.004
       211 -10.1409    176.7171     35.7740   3.1566912661e+01   3.6596460918e+01    0.2515783    0.1719221 -53.14 0.0008632385    1.439    0.305
       212 -11.1680      4.7680     36.0243   8.9484294665e+01   6.9588399382e+01    0.3834542    0.2780277  -4.58  0.001268223    1.187    0.158
       213 -10.2385     11.0511     30.7341   8.3551302079e+01   7.0126729376e+01    0.2857584    0.1722734 -23.96  0.001037215    1.437    0.304
       214  -9.9132      7.0104     30.4828   8.6069236951e+01   7.0488204154e+01    0.2948879    0.1410192  -4.70  0.001419066    2.155    0.536
       215  -9.8279    227.0507     36.4850   2.6560377953e+01   2.6302823721e+01    0.1570281    0.1006163  77.13 0.0006589703    1.553    0.356
       216 -10.0591    153.0748     36.0823   3.4958316900e+01   4.1889367628e+01    0.1958541     0.171847  75.36 0.0005203776    1.015    0.014
       217  -9.5051     94.0208     35.9279   4.7579691530e+01   5.5582454330e+01    0.2001901    0.1635837  89.23 0.0007771695    1.632    0.387
       218  -9.0031    229.3521    248.2735   6.5961679879e+01  -5.6669815705e+00    0.1210948   0.06682085  -5.44 0.0004401921    1.637    0.389
       219 -11.7275    164.3297     27.6715   3.1145013979e+01   4.0265732311e+01    0.2763532    0.2328726 -87.09 0.0004936691    1.074    0.069
       220  -9.7771    174.7363    246.5634   7.6410188272e+01   6.1871740864e-01    0.2505934    0.1053055  22.83   0.00114853    2.127    0.530
       221 -11.9733    126.5810    241.9374   8.6557834102e+01   7.5058463628e+00    0.3803886    0.3144184  36.79  0.001734258    1.285    0.222
       222 -11.6717    114.3660     24.9906   3.8696521259e+01   5.2176478679e+01    0.5894131    0.2709634  59.31  0.002335986    1.824    0.452
       223  -9.7136    170.1081     33.2357   3.1789870752e+01   3.8351103316e+01    0.2457239    0.1200718  53.45  0.001198919    2.024    0.506
       224 -10.0308     99.2237     30.1783   4.4070588270e+01   5.5107162378e+01    0.3383832    0.2234755  88.35  0.001563033    2.414    0.586
       225  -9.9753    231.3618     38.6148   2.6611694012e+01   2.5266455757e+01     0.221517    0.1241748 -37.64  0.001360874    1.663    0.399
       226 -11.2963    146.7865    237.9267   8.1300753893e+01   5.5988640150e+00    0.4159432    0.2949207  29.08  0.002382247    1.291    0.225
       227  -9.3663    234.6768    239.6878   6.3671930221e+01  -5.0272058615e+00     0.122617   0.06749582  -9.22 0.0007039572    1.656    0.396
       228  -9.7120    233.2962    235.3469   6.3222702173e+01  -4.2865078398e+00     0.124526   0.06834191 -11.74 0.0007033485    1.674    0.403
       229  -9.6832    199.5356    234.5523   6.9428069175e+01  -4.5347097311e-01    0.1277602    0.0962455  -3.08 0.0001391823    1.013    0.013
       230  -8.9474     15.4785    233.9977   1.1224604517e+02   2.1708539429e+01    0.1639468   0.07997209 -50.53 0.0008094979    2.530    0.605
       231 -11.4341     67.9356    240.6977   1.0046254354e+02   1.5030800659e+01    0.3831636    0.2244937   4.63  0.001714771    2.202    0.546
       232 -10.3262    197.9294     29.2427   2.7713426746e+01   3.2819904467e+01    0.2642115    0.1859103  72.08  0.001700947    1.342    0.255
       233 -11.0613    247.1301    230.9544   6.0149158189e+01  -5.0632297910e+00    0.2392163    0.1380592  14.78  0.001533175    1.622    0.384
       234  -8.7107    190.2664    229.6835   7.0515998483e+01   1.4355650087e+00    0.1062504    0.1008758  21.08 0.0003226745    1.551    0.355
       235 -10.5317    233.4668    226.9950   6.1838505007e+01  -3.1215864760e+00    0.2286895    0.0914613 -33.85  0.001156279    2.115    0.527
       236  -9.2966     75.4834    224.5072   9.6944909146e+01   1.7539791440e+01     0.135584    0.1196857  30.76 0.0002135654    1.012    0.012
       237 -10.3056    117.9877     16.4941   3.5192313398e+01   5.2168963958e+01    0.5914443   0.08424214  56.98  0.001867124    3.984    0.749
       238 -10.1099    164.7446    212.0108   7.3079975040e+01   7.8854150553e+00    0.2308111    0.1782048  16.79 0.0005793904    1.150    0.131
       239 -10.1341    152.8706    207.2043   7.5006268374e+01   1.0504839748e+01    0.2899209    0.2123503 -64.53  0.001449175    2.039    0.510
       240  -8.9021     61.4963    206.5027   9.8589734436e+01   2.3247461356e+01    0.1375108    0.1258031  38.84 0.0008105502    1.025    0.024
       241 -10.2029    230.5003     26.8689   2.4450392917e+01   2.6749515951e+01    0.1562036   0.09275766 -40.75 0.0008902663    1.530    0.346
       242 -11.2720    183.1594     25.5331   2.8398882229e+01   3.6337896166e+01    0.3813996    0.2268253  56.99  0.001892097    1.694    0.410
       243  -9.8379    150.0463     27.2841   3.3031613909e+01   4.3574929674e+01    0.2684227    0.1429909  56.15 0.0007049781    1.684    0.406
       244 -11.1279    153.8725     24.2744   3.1668567107e+01   4.3009965310e+01    0.3899466     0.205964  83.13  0.001862724    2.083    0.520
       245 -11.3608    144.0614     24.6016   3.3195213127e+01   4.5248063594e+01    0.5848463    0.2028664  48.13  0.002290281    3.029    0.670
       246  -9.0987     78.4837    203.5624   9.3636980068e+01   2.1857166042e+01    0.1415334     0.129263  24.30 0.0001076292    1.007    0.007
       247  -9.4238    214.2410     25.2068   2.5399534304e+01   2.9994985056e+01    0.1747477   0.07906079  85.18 0.0008786092    2.446    0.591
       248  -9.9209    139.3426    198.6873   7.6816401250e+01   1.4233794019e+01    0.1412404    0.1123805  56.86 0.0007046647    1.703    0.413
       249  -9.8151    234.0038    196.6404   5.6584398230e+01   1.3481838161e+00    0.2493166    0.1448613 -29.03  0.001229082    1.412    0.292
       250 -11.7711      4.7500    185.7785   1.1204880517e+02   3.3462559205e+01     0.501061    0.4156931 -78.37  0.002619499    1.137    0.120
       251  -9.8147     59.6418     23.6183   5.4452882397e+01   6.4283477887e+01    0.2108665    0.1539654 -26.66 0.0006082859    1.531    0.347
       252 -10.3136     13.8831     23.4029   7.8672230668e+01   7.1150453947e+01    0.2064015    0.1465296 -21.99  0.000423952    1.202    0.168
       253 -10.9238      2.6115    181.7877   1.1236616246e+02   3.4566719278e+01     0.264209    0.2116793 -83.13  0.000991433    1.151    0.131
       254  -9.5292    169.4362     23.5276   2.9472169738e+01   3.9559837662e+01    0.2260471   0.08821049  58.05  0.001032312    2.300    0.565
       255  -9.0660    217.6543    186.6848   5.7659006632e+01   5.0064057639e+00    0.1355884   0.08516153  -8.87  0.000372438    1.717    0.418
       256 -10.9722    157.0617     20.3859   3.0212963439e+01   4.2675904655e+01    0.3489449    0.1489219  69.79   0.00162197    2.080    0.519
       257  -9.0444     86.4806    185.5067   8.8835257885e+01   2.5055125812e+01    0.1477156    0.1380866  14.34  0.000810337    1.001    0.001
       258  -9.7952     74.4848     19.7340   4.7331192979e+01   6.1723672215e+01    0.2340123    0.1660486  42.43 0.0005783754    1.153    0.133
       259  -9.5318    171.8004    190.4092   6.7624196415e+01   1.0929801193e+01    0.1975234    0.1228265  17.14  0.000938632    1.659    0.397
       260 -10.0828     46.7061     19.4361   5.8201671014e+01   6.7175416550e+01    0.2628658    0.2047713  20.75   0.00163942    1.028    0.027
       261 -10.4496    176.6994     30.5850   3.0321188846e+01   3.7191007685e+01    0.2331914    0.1016522  63.20   0.00103301    2.056    0.514
       262 -11.4470    246.0035     19.4725   2.2060113149e+01   2.4798225887e+01    0.2427129   0.09841421 -49.47 0.0009558202    1.914    0.478
       263  -9.1736    175.5092    180.4619   6.4907495422e+01   1.2264073557e+01    0.1426617    0.1236051  -6.79 0.0002952357    1.008    0.008
       264  -9.0705    250.3436    177.3204   5.0549383088e+01   2.3470099926e+00    0.1233747   0.07587478 -12.08 0.0007049823    1.725    0.420
       265 -11.3727    239.2945     15.8599   2.1833541660e+01   2.6337982194e+01    0.2172233    0.1413761 -69.59  0.001576959    1.265    0.209
       266  -9.2142    211.4285     16.4529   2.3865206484e+01   3.1462760083e+01    0.1112772   0.08892715 -72.93 6.196192e-05    1.010    0.009
       267 -10.2877    186.6315     15.0242   2.5658980765e+01   3.6673987326e+01    0.2212154    0.1508931  79.40 0.0005159793    1.286    0.222
       268  -9.4177     28.1665    175.8283   1.0469226489e+02   3.4138785095e+01    0.1904828    0.1518288 -40.00 0.0005860355    1.331    0.249
       269  -9.4809     51.7836    173.5948   9.7381733913e+01   3.2379781310e+01    0.2024044    0.1233276  36.27 0.0004212424    1.588    0.370
       270  -9.0310    207.2906    172.6672   5.6928764886e+01   8.8414711656e+00    0.1197249     0.104614 -63.13 0.0004485767    1.630    0.387
       271  -9.4083    198.1864    167.8445   5.7725532958e+01   1.1069955000e+01    0.1896868    0.1423772 -11.09 0.0005348521    1.306    0.234
       272  -9.3351     74.5079     13.4411   4.4689365608e+01   6.2359973799e+01    0.1312356     0.106363  42.93 0.0001311848    1.027    0.026
       273 -11.5742      9.3163    167.1415   1.0943312627e+02   3.7755049862e+01     0.312284    0.3034066 -61.09  0.001235938    1.078    0.072
       274 -11.7569     13.5735    160.0232   1.0754554026e+02   3.9274117722e+01    0.5306914     0.228855 -52.76  0.001061343    2.161    0.537
       275  -9.2365    187.4817    167.5301   5.9805901188e+01   1.2814541498e+01    0.1414501    0.1208238 -12.21 5.265264e-05    1.032    0.031
       276  -8.7008    152.3016    166.6756   6.7535812878e+01   1.8852624831e+01    0.1396548    0.1216462  78.41  0.000555141    1.636    0.389
       277 -10.0374     18.7551    164.8926   1.0642738983e+02   3.7665126960e+01    0.3041982    0.1877579 -12.75  0.001463604    2.011    0.503
       278 -10.1597    205.0193    163.2444   5.5515010826e+01   1.0835497793e+01    0.2437235    0.1768156 -39.01 0.0006475952    1.284    0.221
       279  -9.7997     28.6027    160.7902   1.0296817581e+02   3.7932326863e+01    0.1946421     0.127907 -87.92  0.000630281    1.636    0.389
       280 -10.3190      9.4335    155.6798   1.0842348938e+02   4.0650508628e+01    0.2509991    0.1232002 -81.05  0.001121768    1.988    0.497
       281 -10.0521    104.6144    154.5441   7.7957869467e+01   2.9782424137e+01    0.2924368    0.2550592 -30.27  0.001494176    1.140    0.123
       282  -9.0651     53.3030    155.3457   9.4318083890e+01   3.6887893416e+01    0.1583002    0.1039046 -31.95 0.0007039944    1.687    0.407
       283 -12.0298     22.2566    149.4389   1.0370614477e+02   4.1375665617e+01    0.7110707    0.3256995 -31.47  0.002776795    2.763    0.638
       284 -10.4167      3.3432    152.7159   1.1004863487e+02   4.1760253307e+01    0.3062856    0.1842377  58.85  0.001544925    1.800    0.444
       285 -10.4270      3.1558    147.3894   1.0965714289e+02   4.3125733913e+01    0.3443283    0.1468609 -62.45  0.001072918    1.979    0.495
       286  -9.7580    141.4023    152.4773   6.7277550731e+01   2.3805587275e+01    0.3130286     0.145552  37.09 0.0009607924    2.117    0.528
       287 -10.1564     30.6716    152.0854   1.0127064025e+02   4.0007153441e+01    0.2722344    0.2108226   0.23  0.001111728    1.403    0.287
       288  -9.5558     64.0242    150.4615   9.0000821821e+01   3.6848092339e+01    0.2203199    0.1259142  -7.73 0.0008092194    2.586    0.613
       289 -11.3530     47.9438    146.6181   9.4742359571e+01   3.9749342104e+01    0.5755407    0.4103537 -11.09   0.00277161    1.591    0.372
       290 -11.0237     16.0373    147.8935   1.0556577358e+02   4.2221543372e+01    0.2919602    0.2738962  25.24 0.0008221586    1.140    0.123
       291 -11.4738      5.8781    142.1655   1.0830636007e+02   4.4316372069e+01    0.5171326    0.2531365  81.49 0.0003131064    2.451    0.592
       292 -11.5342      1.8006    141.1434   1.0954313641e+02   4.4788828354e+01    0.4805516    0.2760541  89.94  0.001358752    1.764    0.433
       293  -9.1510    239.6741    146.6871   4.6544289788e+01   8.4763169324e+00    0.1228348   0.08448933 -11.05 0.0005787452    1.664    0.399
       294  -9.4044     74.3986    145.8127   8.5726664204e+01   3.6633914434e+01    0.2154224    0.1340036 -45.10 0.0004424065    1.597    0.374
       295 -11.1069     33.1476    144.4281   9.9439719907e+01   4.1783213112e+01     0.287627    0.2726131  69.94 0.0007585626    1.117    0.105
       296 -11.7237     12.5214    136.8485   1.0553250888e+02   4.5303295104e+01    0.5656727    0.3385593 -55.51  0.002840049    1.485    0.327
       297  -9.2691    231.9893    143.0000   4.6989340415e+01   1.0174275394e+01    0.1802143   0.07152759  43.82 0.0008070651    2.975    0.664
       298  -9.6504    217.0644    138.6902   4.8494763817e+01   1.3183790648e+01     0.173111    0.1586799  -7.41 0.0005317724    1.114    0.102
       299  -9.6267     79.1511    137.7154   8.2531248735e+01   3.7979280522e+01    0.2650442    0.2174014 -69.95  0.001250646    1.398    0.285
       300  -9.9968     40.3766    138.0329   9.5997670064e+01   4.2770998836e+01    0.2590634    0.1902708  51.42 0.0008788911    1.539    0.350
       301 -11.5701     22.3298    136.0575   1.0204484885e+02   4.4846655270e+01    0.5208473    0.4081238  42.80  0.002545117    1.382    0.276
