#   1 NUMBER                 Running object number                                     
#   2 MAG_AUTO               Kron-like elliptical aperture magnitude                    [mag]
#   3 X_IMAGE                Object position along x                                    [pixel]
#   4 Y_IMAGE                Object position along y                                    [pixel]
#   5 X_WORLD                Barycenter position along world x axis                     [deg]
#   6 Y_WORLD                Barycenter position along world y axis                     [deg]
#   7 A_WORLD                Profile RMS along major axis (world units)                 [deg]
#   8 B_WORLD                Profile RMS along minor axis (world units)                 [deg]
#   9 THETA_WORLD            Position angle (CCW/world-x)                               [deg]
#  10 FWHM_WORLD             FWHM assuming a gaussian core                              [deg]
#  11 ELONGATION             A_IMAGE/B_IMAGE                                           
#  12 ELLIPTICITY            1 - B_IMAGE/A_IMAGE                                       
         1 -10.4154    104.0108     18.8926   8.6559436503e+01   5.7027667780e+01    0.4208415    0.2025877  -9.28  0.001478562    2.905    0.656
         2 -11.0258    217.6779     15.9916   6.7670465331e+01   2.8940869433e+01    0.4847187    0.2253245  47.15  0.001899321    2.433    0.589
         3 -11.1332     19.8132     18.7221   1.2339539382e+02   7.1660591696e+01    0.2836809    0.1977663 -47.73 0.0004637046    1.187    0.157
         4  -9.4149    108.2152     17.1843   8.4671512997e+01   5.6235078873e+01    0.1899621     0.170603 -58.79 0.0004706295    1.310    0.237
         5 -10.2814     60.9398     14.4914   9.9142933842e+01   6.6771257649e+01    0.4303132    0.2069595 -21.48  0.001744569    2.484    0.597
         6 -10.5104    130.7595     14.9961   7.8707138820e+01   5.0863696489e+01    0.2654529    0.2205507  -3.52 0.0009103668    1.208    0.172
         7 -11.2420    133.3643     11.7645   7.6883038711e+01   5.0528037206e+01    0.2984413    0.2224817  -7.05 0.0008596509    1.379    0.275
         8 -10.6793     99.4300     13.1583   8.5076437114e+01   5.8810193862e+01    0.5010796    0.2054053 -36.62  0.001931305    2.476    0.596
         9 -10.9928     26.2377     13.3922   1.1682289775e+02   7.2092129054e+01    0.2788433    0.1693046 -36.15 0.0005321217    1.399    0.285
        10 -11.7027     81.0137      6.5530   8.7122041944e+01   6.3784884796e+01    0.4372783    0.2584995  17.01  0.000549001    2.013    0.503
        11  -9.4057      9.1694      8.2439   1.2565359981e+02   7.4677208930e+01    0.2157439   0.08793478 -30.46 0.0008847864    2.736    0.635
        12 -10.1543     75.3038      5.0859   8.8209971035e+01   6.5195234319e+01    0.2818808    0.1216782 -17.34  0.001096451    2.569    0.611
        13  -9.6803     59.6015      5.2477   9.4352612670e+01   6.8352221748e+01     0.356543   0.09114653  45.01  0.001203846    3.765    0.734
        14  -9.9097     91.6267      3.9703   8.2565222388e+01   6.1655717953e+01    0.1942368    0.1632037  -9.69 0.0004314917    1.146    0.127
        15 -11.4881     27.0273      3.1411   1.1037782325e+02   7.3871204758e+01    0.3187068    0.2394516  11.09  0.000669906    1.354    0.261
        16 -10.6245    174.7706    238.5999   1.2377334728e+02   7.3840398600e+00    0.3311529    0.1464157  27.78  0.001876688    1.960    0.490
        17 -10.3489    243.0395    247.6503   1.1399243921e+02  -1.8825418323e+00    0.1599021    0.1291556  16.27 0.0006070345    1.488    0.328
        18 -10.9330    247.7025    249.9663   1.1361413556e+02  -2.5959567719e+00    0.3595445    0.1025244  32.84  0.001953291    2.622    0.619
        19 -10.8007    250.3156    244.5965   1.1249860219e+02  -2.4605372541e+00     0.296328    0.1390658 -20.76  0.002028926    2.139    0.532
        20 -12.2631    225.8857    245.9794   1.1637401889e+02   2.5885311516e-01    0.5744709     0.294463  12.92  0.003740447    1.851    0.460
        21 -11.4781    181.7177    248.0573   1.2373087939e+02   5.4729731966e+00    0.3918323    0.2283833 -17.89  0.002634838    2.228    0.551
        22 -10.3095    127.9084    249.6521   1.3305601548e+02   1.1981552955e+01    0.1490894    0.1321498  -0.06  0.001040983    1.371    0.271
        23  -9.5555     72.9073    249.9877   1.4260242159e+02   1.8259426556e+01    0.1350142    0.1117526   4.31  0.001118186    1.714    0.416
        24  -9.3248     45.6973    250.6648   1.4725237929e+02   2.0928234541e+01   0.07885882   0.07132504   0.16 0.0007037006    1.662    0.398
        25 -11.8219     27.8898    246.0957   1.5003546837e+02   2.3245710471e+01    0.3092132    0.1627403  87.96  0.002327116    1.980    0.495
        26 -12.4121     21.4677    248.9066   1.5118816285e+02   2.3400433104e+01    0.4056641    0.1431727  42.15  0.002723319    1.834    0.455
        27 -11.5448     14.2242    244.3238   1.5223342933e+02   2.4690698837e+01    0.2356521    0.1035072  66.50   0.00154696    1.908    0.476
        28 -11.5348    177.5697    234.9663   1.2284675404e+02   7.4310753222e+00    0.2707604    0.1762673   9.93  0.001322994    1.567    0.362
        29 -10.8537     18.1879    237.6170   1.5136974988e+02   2.5365169128e+01    0.2087608    0.1303899  27.82  0.001249326    1.691    0.409
        30 -10.5761     12.4825    238.4703   1.5235335188e+02   2.5715165184e+01    0.1693848   0.04683006  41.42 0.0009830688    2.198    0.545
        31  -9.6509    135.3767    237.2848   1.3053122613e+02   1.2621910742e+01    0.1071688   0.07110726  14.16 0.0007015044    1.719    0.418
        32 -10.8544    159.9683    235.6928   1.2599397398e+02   9.6461299621e+00     0.228609    0.1305331  22.41 0.0008763741    1.639    0.390
        33 -11.0431     73.6486    232.8919   1.4135429056e+02   2.0656742211e+01       0.2152    0.1602621  63.53 0.0009440555    1.256    0.204
        34 -10.5995    167.0887    233.8780   1.2453022841e+02   8.9309370551e+00    0.1896039    0.1416985  26.62  0.000799024    1.001    0.001
        35 -10.9860    153.3763    233.8038   1.2693961614e+02   1.0738729991e+01    0.1979356     0.138208   4.89 0.0009443295    1.663    0.399
        36 -10.1825     86.2201    233.5609   1.3910919311e+02   1.9140472343e+01    0.1844334    0.1043145  73.39  0.001132529    2.385    0.581
        37  -9.7617     53.6631    234.7092   1.4507336907e+02   2.2496574053e+01   0.08637957   0.07457592   5.53 0.0004967881    1.640    0.390
        38  -9.5246    240.8013    231.3226   1.1204873953e+02  -2.2630454989e-01    0.1380052   0.09981454   4.55 0.0005134564    1.146    0.128
        39 -10.0328     79.5429    231.2884   1.4016069579e+02   2.0240844703e+01     0.191954    0.1110753  37.78 0.0005893543    1.355    0.262
        40  -9.7137    235.9995    230.3106   1.1263982762e+02   4.4777942054e-01    0.1499145   0.09867379  16.94 0.0005215328    1.070    0.065
        41 -12.1765    155.6682    241.3591   1.2739057836e+02   9.5229189099e+00    0.3300532     0.180212  28.96  0.001515681    1.464    0.317
        42 -10.2727    169.8918    228.8599   1.2341805622e+02   9.1587210053e+00    0.1711814    0.1211374  17.97  0.001107004    1.235    0.190
        43 -10.7249    144.6114    227.6617   1.2781106245e+02   1.2680097444e+01    0.2205224    0.1084299 -61.98  0.001116802    3.863    0.741
        44 -10.8057    116.3829    229.1960   1.3316919106e+02   1.6129554838e+01    0.1866496    0.1040106 -68.88  0.001121172    2.697    0.629
        45  -9.2835     93.6659    229.3306   1.3739634310e+02   1.8896798550e+01    0.1120282   0.06436704  56.39 0.0007052135    1.727    0.421
        46 -10.4734    129.7891    226.8466   1.3044461991e+02   1.4739164069e+01    0.3305396    0.1418109  47.48    0.0017466    2.278    0.561
        47 -10.3323    190.4180    226.4558   1.1953282558e+02   6.6949803849e+00    0.1875425    0.1458021   0.90 0.0007094914    1.234    0.190
        48  -9.9254    152.6807    227.6842   1.2634819995e+02   1.1604234597e+01     0.109675   0.07394652  10.65 0.0007039755    1.655    0.396
        49 -10.5413     88.0307    226.8557   1.3824079689e+02   1.9934633455e+01    0.1648412    0.1505334  76.37  0.001375302    1.243    0.195
        50 -10.6862     66.5982    226.4845   1.4221112854e+02   2.2413359250e+01    0.2588767    0.1239826  42.20  0.001409366    1.573    0.364
        51  -9.7470      6.6673    227.3010   1.5302466558e+02   2.7927410632e+01    0.1042122   0.04517833  55.35 0.0007034045    1.653    0.395
        52 -10.6846     81.4263    224.8843   1.3932135153e+02   2.1005279155e+01    0.1999115    0.1649816  63.51 0.0008631743    1.174    0.148
        53  -9.5547     24.9851    226.0000   1.4977375819e+02   2.6593965912e+01    0.1528032   0.04518562  30.80 0.0007478549    2.889    0.654
        54 -10.3200    181.8775    222.8877   1.2053019644e+02   8.2556974279e+00    0.2511909    0.1183759 -28.85  0.001386371    2.690    0.628
        55  -9.1803    109.3595    223.3002   1.3390451544e+02   1.7870557283e+01    0.1057785   0.07836659   8.49 0.0007036299    1.715    0.417
        56 -10.8041     13.1465    222.1968   1.5173992054e+02   2.8223539398e+01    0.1545779    0.1350069  65.32 0.0003863478    1.251    0.201
        57 -11.5377    141.4755    221.4056   1.2766007409e+02   1.3940719488e+01    0.2905613    0.1810359  17.90  0.001295561    1.759    0.432
        58  -9.4164    134.6351    222.7657   1.2909287061e+02   1.4667994702e+01    0.1095641   0.07316902  17.86 0.0006906298    1.594    0.372
        59 -11.0495    123.4037    221.4117   1.3105337980e+02   1.6341958802e+01    0.2542445    0.1768875  33.82  0.001073062    1.160    0.138
        60  -9.2695     51.6627    222.6845   1.4474729884e+02   2.4589598153e+01   0.08976801   0.07833223  -9.96 0.0005123369    1.697    0.411
        61 -10.1306    165.8358    220.4194   1.2306032432e+02   1.0750863296e+01    0.1585653    0.1258981 -17.92 0.0004807796    1.424    0.298
        62 -10.5480    174.3210    219.8036   1.2145208575e+02   9.6611363047e+00    0.2298719    0.1473735  17.09 0.0008272296    1.477    0.323
        63 -10.0662     21.8737    220.1694   1.5010254819e+02   2.7815537150e+01    0.1163386    0.1030024  53.55 0.0003934431    1.263    0.208
        64  -9.8955    250.3334    219.0755   1.0877480826e+02  -2.8545021569e-01    0.1474052    0.1019715   1.83 0.0006179337    1.124    0.110
        65 -12.1408    232.8779    246.2086   1.1533040498e+02  -5.8683450172e-01    0.4458673    0.2487133   8.58  0.003156244    1.584    0.369
        66 -10.8879    191.5333    216.9867   1.1802165539e+02   7.6282354991e+00    0.2262246    0.1485428 -20.14   0.00129892    1.666    0.400
        67  -9.9342    194.6713    215.3245   1.1723646879e+02   7.3892415320e+00     0.183101   0.08933601  38.01 0.0004096274    1.735    0.424
        68  -9.6287     50.0523    218.2344   1.4478400038e+02   2.5480170790e+01    0.1358583    0.0720806  34.60 0.0005439319    1.612    0.380
        69 -10.7430     10.0891    216.8574   1.5211364278e+02   2.9353159646e+01    0.2567952    0.1429613  55.85  0.001283655    1.326    0.246
        70 -10.6443    201.6203    215.9512   1.1613180659e+02   6.3632912125e+00     0.212421    0.1309445  24.32  0.001389874    1.285    0.222
        71  -9.5715    137.1946    215.6358   1.2777887335e+02   1.5328951971e+01    0.1673987   0.08903859  28.54 0.0009438928    1.712    0.416
        72  -9.3790    115.0000    214.9709   1.3196935688e+02   1.8397739025e+01    0.1523261   0.06516126 -56.62 0.0005940134    2.888    0.654
        73 -11.1067    208.9928    212.1606   1.1431369146e+02   5.7779816815e+00    0.3341205    0.1742664  15.71 0.0004737184    2.042    0.510
        74 -10.1820    170.0783    213.2593   1.2132713404e+02   1.1077686663e+01    0.1669509    0.1246924  28.81  0.001156182    1.069    0.065
        75  -9.7509    142.7886    213.3974   1.2644066395e+02   1.4878999499e+01      0.16074   0.09084782  28.08 0.0004822925    1.589    0.371
        76 -10.8224    217.8811    207.8044   1.1215240984e+02   5.0388694743e+00    0.3351703    0.1386471 -16.90  0.001465705    3.774    0.735
        77 -11.5142      5.2941    207.4733   1.5269537675e+02   3.1323441426e+01    0.3948003    0.1625118  82.02  0.002417803    2.248    0.555
        78  -9.1482     32.2850    209.6764   1.4769390185e+02   2.8649803538e+01    0.1093057   0.05701204  59.36 0.0004709265    1.599    0.375
        79 -10.1721     10.4031    208.6550   1.5178545062e+02   3.0716451925e+01    0.1748022    0.1321075 -38.71  0.001024902    2.108    0.526
        80 -11.2642     20.6037    211.4780   1.4998822270e+02   2.9383209424e+01    0.2565581    0.1264119  64.08 0.0007491555    1.706    0.414
        81  -9.4023    247.5069    207.5168   1.0738253578e+02   1.1418039603e+00    0.1093938   0.08012994   9.56 0.0001069045    1.079    0.073
        82  -9.4996     27.5677    205.4938   1.4839624401e+02   2.9806503931e+01    0.1053725   0.07754051  59.99 0.0004757903    1.051    0.049
        83 -10.6851    193.3795    202.7841   1.1558076554e+02   9.0719980557e+00    0.1527203   0.09864628 -16.62 0.0005417718    1.667    0.400
        84  -9.5604    238.8035    201.2057   1.0770285656e+02   2.9017986514e+00     0.159136   0.09916247  10.78 0.0005405006    1.328    0.247
        85  -9.9704    218.2809    201.3513   1.1105629020e+02   5.6938448593e+00    0.1192153   0.07152642   6.38 0.0007013937    1.651    0.394
        86 -10.6081    210.4849    201.0131   1.1231840799e+02   6.8311992801e+00    0.1596338     0.104788 -25.69 0.0007442646    1.595    0.373
        87 -10.1739    186.0194    200.9918   1.1662599949e+02   1.0366697879e+01    0.1957905    0.1229142   9.64  0.001139492    1.719    0.418
        88 -11.2879    227.2431    196.7073   1.0881050015e+02   4.9540592474e+00    0.3129387    0.1676384   8.29  0.001183021    2.075    0.518
        89 -11.8119    231.9878    191.7471   1.0720012953e+02   4.8313148066e+00     0.390541    0.1896724  14.19  0.001947042    2.462    0.594
        90 -11.8434    192.1223    194.7889   1.1454072073e+02   1.0260326015e+01    0.2824998     0.253853  30.83  0.002032906    1.348    0.258
        91  -9.8931    203.0127    195.9723   1.1279416778e+02   8.5056148193e+00    0.1835664    0.1427535  12.18  0.000672329    1.030    0.029
        92 -10.0521      1.4790    207.4853   1.5339960285e+02   3.1613211862e+01    0.1678012    0.1080512  84.97  0.000849954    1.380    0.275
        93 -11.6067    215.5491    194.0419   1.1031211456e+02   6.9131865506e+00     0.309817    0.1591428 -29.60   0.00176746    2.015    0.504
        94 -10.1865    163.4886    190.9010   1.1930149142e+02   1.5113473317e+01    0.2439923    0.1130978 -35.45  0.001195363    2.549    0.608
        95 -10.6496    250.2895    190.1373   1.0405051312e+02   2.4892273121e+00    0.1851474    0.1349674 -25.06 0.0009113529    1.557    0.358
        96  -9.7228    198.6402    191.2231   1.1278490733e+02   9.7409790127e+00    0.1608453    0.1011401 -18.88 0.0009501756    1.668    0.401
        97  -9.2320    205.5355    190.4523   1.1143578421e+02   8.8085831776e+00    0.1215635   0.09370003  13.49 0.0003045172    1.024    0.024
        98 -11.2843    187.7663    189.1331   1.1441160581e+02   1.1654922209e+01    0.3051581    0.2205444 -10.14   0.00189225    1.412    0.292
        99  -9.4919    179.3397    189.3275   1.1601420525e+02   1.2915830430e+01     0.128304   0.08289126   8.42 0.0007051605    1.733    0.423
       100 -10.4560    218.2932    187.8183   1.0878819044e+02   7.2405265818e+00    0.2171692   0.09494775 -37.54  0.001088976    2.636    0.621
       101  -9.0882    200.5077    185.5305   1.1148851662e+02   1.0182531989e+01    0.1223639    0.0981592  14.65 0.0002073296    1.025    0.024
       102 -10.0881    166.5341    183.4813   1.1752510738e+02   1.5734540953e+01    0.2054233    0.1437819  27.48 0.0008158337    1.243    0.195
       103  -9.5703     61.5347    185.0021   1.4001806989e+02   3.0140332918e+01    0.1621206    0.1071029 -76.16 0.0007921507    1.582    0.368
       104  -9.8809    154.3029    184.3082   1.2009268427e+02   1.7513570407e+01    0.1236794   0.08852109   5.82 0.0003445498    1.604    0.376
       105 -10.1768    236.4757    182.4879   1.0485886853e+02   5.2109754644e+00    0.1186502   0.09015815   7.06 0.0008099397    1.025    0.024
       106 -11.9621     16.2316    183.1531   1.4960778809e+02   3.4869607280e+01    0.3311261    0.1991848  77.30  0.001765545    1.442    0.306
       107 -10.9372    188.2842    181.0087   1.1294099869e+02   1.2672907092e+01    0.1750985    0.1435763   5.12 0.0004769683    1.085    0.078
       108 -12.0451    244.6415    177.7398   1.0271612157e+02   4.5656194465e+00    0.3289912    0.1727767   3.67  0.001731852    2.154    0.536
       109 -10.5899      2.2696    180.1837   1.5238704842e+02   3.6505518210e+01    0.1909058    0.1265133  55.65  0.000555272    1.203    0.169
       110 -11.8998    224.1083    178.3441   1.0613273280e+02   7.4952095972e+00    0.2716369     0.216279   9.37 0.0005250726    1.063    0.059
       111  -9.2063     70.3965    177.5300   1.3734125210e+02   3.0546433952e+01    0.1142874    0.1025089  61.35 0.0001419139    1.043    0.041
       112  -9.9660    100.9836    176.0136   1.3027310179e+02   2.6877440552e+01    0.1706425    0.1527963  46.20            0    1.007    0.007
       113  -9.9155    211.2812    175.3452   1.0777675508e+02   9.8198334343e+00    0.1277377   0.08059756   5.10 0.0007012435    1.638    0.389
       114 -11.8091    249.0365    182.3111   1.0286400033e+02   3.4642769072e+00    0.3893447    0.1955957  12.76  0.002067113    2.175    0.540
       115 -10.5951    241.6267    173.2106   1.0235391014e+02   5.4957481241e+00    0.1664787   0.09294076 -14.17 0.0009466407    1.668    0.401
       116  -9.9168    218.3330    173.3093   1.0618518077e+02   8.9815049470e+00    0.1297687   0.07922226   9.55 0.0004105014    1.672    0.402
       117 -10.3555    193.2493    172.7058   1.1054199532e+02   1.3025691192e+01    0.1899801   0.09547989 -22.97 0.0008922351    2.353    0.575
       118 -10.8016     17.7834    172.9954   1.4876597008e+02   3.6717494366e+01    0.3315007    0.1123731  47.95  0.001709956    2.357    0.576
       119 -11.2089    200.5478    176.4132   1.0987718790e+02   1.1361986674e+01    0.2488329    0.1831972   9.60 0.0009844012    1.208    0.172
       120  -9.9549     74.7095    171.6175   1.3572347959e+02   3.1177474678e+01    0.1686776    0.1413515  25.75   0.00111339    1.295    0.228
       121  -9.3574     59.7720    172.0170   1.3921145778e+02   3.2858113394e+01    0.1480776    0.0924306 -73.67 0.0008726533    1.634    0.388
       122 -10.4537    197.0185    169.0319   1.0916798828e+02   1.2921661456e+01    0.1744381    0.1611774  68.56 0.0007437729    1.663    0.399
       123  -9.8037      4.5423    168.0144   1.5143491299e+02   3.8715468391e+01    0.1645319   0.08880729 -86.75  0.001038608    1.618    0.382
       124 -10.3075    210.0795    166.2020   1.0628098011e+02   1.1186231784e+01    0.2003208    0.1433514   9.08 0.0006611187    1.264    0.209
       125 -10.2897     51.8642    164.2854   1.4031805117e+02   3.5289413918e+01    0.3395545    0.1819009 -35.16  0.001552795    3.402    0.706
       126 -10.0844     55.0360    160.2945   1.3916421851e+02   3.5771361426e+01    0.2006284    0.1545049 -63.70 0.0006055424    1.350    0.260
       127  -9.2240    229.4980    164.5604   1.0266341828e+02   8.3197826641e+00    0.1258343   0.09643734   6.43 0.0001518099    1.040    0.038
       128 -11.4355    247.9259    158.9258   9.8658668550e+01   6.1656751600e+00    0.3549108    0.2269967 -27.17  0.002189093    1.504    0.335
       129 -10.7122     40.9687    165.1593   1.4296797908e+02   3.6226254479e+01    0.1796052    0.1444363  83.43 0.0002544415    1.121    0.108
       130  -9.5971    200.0247    162.7713   1.0742837740e+02   1.3290900747e+01    0.1649919   0.09540784  37.96 0.0004255525    1.606    0.377
       131 -10.7204     36.1076    160.8500   1.4376685352e+02   3.7584227905e+01    0.2699033    0.1512549 -81.46  0.001414887    1.702    0.412
       132  -9.8785     48.1644    158.8760   1.4069101599e+02   3.6802381768e+01    0.1503622    0.1366163 -55.07 0.0004738128    1.287    0.223
       133 -10.1076    238.4815    158.5285   1.0004299408e+02   7.6473227002e+00    0.1257553    0.0958373   3.58 0.0001377776    1.035    0.034
       134 -10.5506     22.4620    156.3780   1.4669686891e+02   3.9725695043e+01    0.3595496    0.1579401  36.42  0.001969776    2.051    0.512
       135  -9.1024     23.6932    152.6770   1.4614246920e+02   4.0405942937e+01    0.1852623    0.1012192 -74.03 0.0006081221    1.668    0.401
       136 -10.8686    178.3620    151.7578   1.0939735700e+02   1.8620163060e+01    0.3474653    0.2637137 -40.50  0.001985658    1.474    0.322
       137 -10.2374    217.7314    154.6096   1.0267648480e+02   1.1452038879e+01    0.2436569    0.1067426  37.64  0.001136776    2.155    0.536
       138  -9.9674    205.1447    152.3433   1.0443051603e+02   1.3873552214e+01    0.2334696    0.1604965 -14.13  0.001313547    1.408    0.290
       139 -10.1506    197.2050    153.6281   1.0614424772e+02   1.5054412603e+01    0.1896731    0.1076977  30.93 0.0008417349    1.675    0.403
       140  -9.2085    151.6467    153.3073   1.1527516418e+02   2.3041481062e+01    0.1309008    0.1056117  70.20  0.000620853    1.717    0.417
       141  -9.2947    105.6871    153.6348   1.2592312623e+02   3.0505312795e+01    0.1323624    0.1005546 -15.49 0.0007039272    1.762    0.432
       142 -10.3228     10.3331    152.6784   1.4937152027e+02   4.1442677764e+01    0.2232534    0.1109158  58.07  0.001290137    1.776    0.437
       143  -9.4913    169.3079    152.2934   1.1133948114e+02   2.0128460554e+01    0.1358361   0.09649077   7.11 0.0004220801    1.584    0.369
       144  -9.0100    154.5186    150.5402   1.1411738091e+02   2.3020346150e+01    0.1351295    0.1211822  17.44 9.511293e-05    1.007    0.007
       145  -9.6184     92.8127    148.1623   1.2822479583e+02   3.3520068503e+01      0.17479    0.1553116 -14.97  0.001069401    1.330    0.248
       146  -9.2344    233.5972    147.1986   9.8536703497e+01   9.7870507456e+00    0.1782906    0.1030022 -14.65 0.0008979351    1.648    0.393
       147 -10.4623    206.8790    145.9802   1.0280469807e+02   1.4459885715e+01    0.2205512    0.1737082  27.99 0.0006885885    1.193    0.162
       148  -9.1079     37.5128    146.4826   1.4217348037e+02   4.0513144774e+01    0.1191287    0.1030217  78.28 0.0002443687    1.008    0.008
       149 -10.3917     17.8373    146.6487   1.4716809958e+02   4.2167030431e+01    0.2101966    0.1116302   9.19 0.0008938626    2.791    0.642
       150 -11.0352      2.8167    144.0813   1.5074024319e+02   4.3780671428e+01    0.2171931    0.1816643 -15.28  0.001225171    1.662    0.398
       151 -10.6775    212.2043    141.9029   1.0100072907e+02   1.4093936306e+01    0.3905112     0.224274  27.17   0.00196481    1.764    0.433
       152  -9.5339     37.7885    142.3668   1.4170757790e+02   4.1389204747e+01    0.1509208    0.1152099  16.38  0.000940397    1.604    0.376
       153 -11.7010     12.2579    140.8293   1.4818951167e+02   4.3844143123e+01    0.5630295    0.3000069 -16.79  0.002682501    3.723    0.731
       154 -10.6522      5.9277    133.8006   1.4938521236e+02   4.5815500151e+01    0.2352794    0.1802683 -59.13 0.0004803533    1.408    0.290
       155 -11.8987     57.7057    138.5258   1.3598353454e+02   4.0159380588e+01    0.3562127    0.2126169  60.54 0.0005773718    1.806    0.446
       156 -10.7654     42.8568    136.9477   1.3979573128e+02   4.2100789226e+01    0.4783336    0.2209817  65.12  0.002099541    2.743    0.635
       157 -11.5597      9.1618    136.7653   1.4872599393e+02   4.4949359890e+01    0.2116245    0.1910682 -73.06 0.0002440565    1.224    0.183
       158  -9.4912    236.0020    139.0000   9.6441847993e+01   1.0405551019e+01    0.1878057   0.06813786  45.32 0.0007915172    2.867    0.651
       159  -9.1620    230.2529    137.3281   9.6996502246e+01   1.1581939896e+01    0.1307404   0.08489893   2.52  0.000231423    1.551    0.355
       160 -10.6393      2.7155    136.5240   1.5037198768e+02   4.5420512517e+01    0.2930097    0.1222764 -85.12  0.001160701    2.048    0.512
       161  -9.9256    138.3716    135.2632   1.1466810078e+02   2.8660194642e+01    0.2643254    0.1607773  29.75 0.0008447046    1.737    0.424
       162 -10.0164     67.7755    133.8849   1.3260913844e+02   3.9986027456e+01    0.1876086    0.1675909 -49.13  0.000502933    1.207    0.171
       163 -11.9155     36.3474    130.6817   1.4089227226e+02   4.4141208188e+01    0.4209439    0.2597082 -82.47  0.002019393    1.513    0.339
       164 -10.5027    249.4161    130.2409   9.2549882384e+01   9.2546352999e+00     0.219803    0.1998648 -13.20  0.001501915    1.319    0.242
       165 -10.0481    126.5211    129.5071   1.1631245334e+02   3.1900424914e+01    0.1385894    0.1325265  14.66 0.0008102479    1.012    0.011
       166 -10.3978     74.3020    129.0969   1.3006163914e+02   4.0211917368e+01    0.2314698    0.2137828 -19.04 0.0007185601    1.251    0.201
       167  -9.8968      1.2666    126.4818   1.5019068564e+02   4.7724695170e+01    0.2032662   0.08373308 -82.74 0.0006690216    2.029    0.507
       168 -10.7304     44.8166    125.8564   1.3793457556e+02   4.4420144285e+01    0.1917228     0.177185  45.94 0.0005733497    1.164    0.141
       169 -10.4394    219.4611    124.5919   9.5945000226e+01   1.5163122160e+01    0.2295844    0.1926514  -0.12 0.0004476571    1.009    0.009
       170 -12.2651     16.5699    108.8537   1.4439748837e+02   5.0804198173e+01    0.4633954    0.3431238  78.55 0.0009095574    1.239    0.193
       171 -11.7836     10.2429    122.4333   1.4744731499e+02   4.8085216632e+01    0.4412653     0.295149 -12.42  0.002643898    2.168    0.539
       172 -10.8433     17.3004    116.6435   1.4492861341e+02   4.8934818513e+01    0.2865519    0.1995776 -59.73  0.001657453    1.388    0.280
       173 -10.4232     20.8372    121.7111   1.4437118122e+02   4.7504109819e+01    0.2087293    0.1458952 -87.56 0.0003300999    1.245    0.197
       174 -10.3031     16.5416    125.2215   1.4589983546e+02   4.7017983195e+01    0.1811658    0.1566811  48.18 0.0003342832    1.226    0.184
       175  -9.6087     41.0540    120.3142   1.3831838730e+02   4.6076822397e+01    0.1692101     0.152601  67.14 0.0003234084    1.097    0.089
       176  -9.6151    166.4990    119.0442   1.0465678603e+02   2.6248486661e+01    0.2057797    0.1369652 -33.22 0.0004726314    1.489    0.329
       177 -10.2440    179.1650    116.1616   1.0132860127e+02   2.4198459371e+01    0.2162612    0.1788806   7.57 0.0003912041    1.180    0.152
       178 -10.2921     35.1882    113.8683   1.3924921298e+02   4.8137355767e+01    0.3730533    0.1310861 -73.24  0.001514751    2.682    0.627
       179 -10.7758     36.8009    110.3920   1.3829243788e+02   4.8808655707e+01    0.3498338    0.1711329  54.01  0.001630067    2.313    0.568
       180 -10.1728     66.7994    113.0552   1.2947320925e+02   4.4852570795e+01    0.1930444    0.1657725  83.18 0.0002804459    1.190    0.160
       181 -10.2982     42.3500    110.4755   1.3657470546e+02   4.8255426289e+01    0.2169385    0.1767261 -68.91 0.0002899348    1.110    0.099
       182  -9.6684    167.4703    109.0485   1.0197925382e+02   2.7773367158e+01    0.2168089    0.1384756 -33.34 0.0004699646    1.535    0.349
       183 -10.0207    242.0086    108.2429   8.8707088664e+01   1.3193226841e+01    0.1568168    0.1074389  43.98 0.0008828265    1.598    0.374
       184 -11.1230     23.3470    106.8162   1.4206127186e+02   5.0792651788e+01     0.312216    0.1816931 -72.15 0.0006714834    1.466    0.318
       185  -9.4301    133.0560    107.4692   1.0956374315e+02   3.5052006182e+01    0.2048058    0.1248216  19.08 0.0004873349    2.403    0.584
       186 -10.5036     76.4379    106.9840   1.2535920748e+02   4.4943309282e+01    0.2169665    0.1284982 -57.77 0.0004258749    1.607    0.378
       187 -10.6449      5.7565    106.4105   1.4750949900e+02   5.2054101190e+01     0.245089    0.1630139 -57.41 0.0008259411    1.459    0.314
       188 -10.5791      2.6859    105.2967   1.4836604663e+02   5.2481806801e+01    0.1839688    0.1762696  77.15  0.000559146    1.206    0.171
       189 -10.7585     93.1390    103.9596   1.1965476399e+02   4.3062683985e+01     0.306179    0.2323468 -66.92  0.001498935    1.430    0.301
       190  -9.7436    223.3095    103.9390   9.0465346120e+01   1.7232136504e+01    0.1930534    0.1519648 -16.69 0.0004656491    1.110    0.099
       191  -9.5198     32.2789    104.6386   1.3893809437e+02   5.0580338454e+01      0.13295   0.08595864  72.20 0.0007011911    1.669    0.401
       192 -11.3904     70.4300    102.6192   1.2632056632e+02   4.6792878506e+01    0.4052517    0.2160623  25.10   0.00126691    2.265    0.558
       193 -10.5256    247.6209    102.1907   8.6527290938e+01   1.2928496339e+01    0.1896582    0.1057136 -15.39 0.0009023171    1.675    0.403
       194  -9.7655      9.9420    102.4799   1.4585327148e+02   5.2731946117e+01     0.159617    0.1221059  16.78  0.001031341    1.599    0.375
       195 -10.0009    120.4336    101.2438   1.1125151483e+02   3.8761394367e+01    0.2611799    0.1797562  27.16 0.0004878853    1.634    0.388
       196  -9.7545     37.2167    101.4381   1.3686882975e+02   5.0898565753e+01    0.1798699    0.1090551  44.02 0.0009470357    1.743    0.426
       197 -10.1826     27.9115    100.9857   1.3986270291e+02   5.1819480819e+01     0.178863      0.15879 -81.99 0.0003451154    1.036    0.034
       198 -10.6613      4.1118    100.8048   1.4755797810e+02   5.3456275905e+01    0.2779588    0.1769727  38.43  0.001706278    1.690    0.408
       199 -11.2144     20.6341     98.8335   1.4198649027e+02   5.2891989297e+01    0.3312056    0.1818089 -69.80  0.001040955    1.524    0.344
       200 -10.8060     65.9880     98.1666   1.2681087090e+02   4.8430498646e+01    0.2948062    0.1917135 -27.79  0.001009042    2.046    0.511
       201 -10.1593     62.0368     98.4696   1.2816408074e+02   4.8872483685e+01    0.2710338     0.198379  -7.60   0.00139018    1.866    0.464
       202 -10.3021     92.8294     97.3689   1.1816072225e+02   4.4578120245e+01    0.2498941    0.1902163 -60.47 0.0005421583    1.351    0.260
       203  -9.3172     49.5258     97.8213   1.3217877804e+02   5.0511080232e+01    0.1754933    0.1192826 -82.14 0.0003551139    1.539    0.350
       204 -12.1206      8.5974     94.2401   1.4548246201e+02   5.4761395326e+01    0.3874447    0.1842535 -58.29  0.002020933    1.829    0.453
       205 -10.4520     15.6849     93.9321   1.4305502004e+02   5.4403267854e+01     0.181806    0.1374522 -80.86  0.001139622    1.118    0.106
       206 -10.4790      2.0787     92.8717   1.4753410405e+02   5.5429081458e+01    0.3686165    0.1349509 -58.81  0.001745429    2.283    0.562
       207 -10.5415    109.5214     92.5654   1.1197344848e+02   4.2645182956e+01    0.3169387    0.1413806 -46.41  0.001011907    2.187    0.543
       208  -9.2556     31.2649     93.6574   1.3767716137e+02   5.3296970551e+01    0.1301962   0.08858614  75.11 0.0003612557    1.600    0.375
       209  -8.7515    138.3046     92.2842   1.0419430788e+02   3.6924212990e+01    0.1498374     0.114808   6.33 0.0002765036    1.560    0.359
       210 -10.5631     78.6845     90.8629   1.2099050703e+02   4.8311094402e+01    0.4263955    0.2580546  79.57  0.001540262    3.550    0.718
       211 -10.7373     96.5839     90.3210   1.1519667558e+02   4.5485934225e+01    0.3285114    0.2175059  -3.73  0.001340712    2.547    0.607
       212  -9.0776     25.4976     91.5237   1.3935623812e+02   5.4281168490e+01    0.1275427    0.1088989 -74.80 -6.483267e-05    1.003    0.003
       213  -9.5326    103.5093     88.5569   1.1262612925e+02   4.4616974161e+01    0.1447314    0.1400562 -29.08 0.0001445239    1.013    0.013
       214 -11.0911     47.3545     84.2814   1.3026390803e+02   5.3984758558e+01    0.5130684    0.2914765  69.34  0.001843458    2.766    0.638
       215 -10.9456     67.5301     84.8173   1.2323219256e+02   5.1337917982e+01    0.2567679    0.2033314 -27.11 0.0004870074    1.405    0.288
       216 -10.2457     24.0477     85.2867   1.3893582124e+02   5.5895735543e+01    0.1719115    0.1587625 -73.88 0.0008408571    1.090    0.082
       217  -9.2332      1.4526     85.4844   1.4706476011e+02   5.7210579718e+01    0.1216759   0.09763557 -85.60 -0.0001111382    1.047    0.044
       218 -11.3113    118.3270     82.9164   1.0672648521e+02   4.2901771723e+01     0.359578    0.2706143 -10.93  0.001189833    1.608    0.378
       219  -9.1582    130.3098     82.3115   1.0332326898e+02   4.0519620467e+01    0.1541615    0.1166532   4.07 0.0005249492    1.625    0.385
       220 -12.1478     73.0517     78.4192   1.1963837958e+02   5.2005652301e+01      0.55175     0.436785 -31.88 0.0009918077    1.308    0.235
       221 -11.1947     78.0484     71.8958   1.1600585697e+02   5.2685245021e+01    0.3574634    0.2699897  48.35  0.000999478    1.485    0.327
       222 -10.7674     18.7547     79.4490   1.3999674250e+02   5.7683927558e+01    0.2171608    0.1292269 -56.46  0.001192407    1.447    0.309
       223 -10.2351      7.5205     79.8204   1.4425644300e+02   5.8266897177e+01    0.4474151    0.1593202  48.98  0.001868122    3.393    0.705
       224  -9.8813      3.0000     78.0645   1.4573329411e+02   5.8909640524e+01    0.2721749    0.1316947 -75.65 0.0009251168    1.655    0.396
       225 -12.0927      5.8829     73.5970   1.4410124174e+02   5.9843699685e+01    0.5308025    0.2583507  20.65   0.00207936    2.418    0.586
       226 -11.0843     58.9425     76.4610   1.2418350344e+02   5.4445161060e+01     0.446326    0.3014447 -64.37  0.001606669    1.454    0.312
       227 -10.6332     54.8209     72.1565   1.2460665483e+02   5.5977361241e+01    0.2396256    0.1963032 -83.37 0.0003218646    1.370    0.270
       228 -10.0439     65.3066     73.7202   1.2110728637e+02   5.4213411993e+01     0.236145    0.2070902  -0.83 0.0003991324    1.268    0.212
       229 -11.3183     62.2972     71.9221   1.2171919740e+02   5.5046858214e+01    0.3108806    0.2031504 -48.78 0.0004899396    1.382    0.276
       230  -8.9484     12.2971     78.2861   1.4226785934e+02   5.8371547149e+01    0.1253876    0.0782726 -47.64 0.0003673788    1.549    0.354
       231 -10.3154     88.4522     77.4629   1.1414471834e+02   4.9713856026e+01    0.1442581    0.1365112 -42.64  3.39055e-05    1.031    0.030
       232 -10.3986     85.9878     83.0261   1.1654716281e+02   4.8910092618e+01     0.231179    0.1794918  82.21  0.001131895    1.755    0.430
       233 -11.8765    108.8068     74.5321   1.0688509651e+02   4.6511329234e+01    0.5752603    0.3695495 -21.81  0.002219265    1.952    0.488
       234 -10.6533     93.9101     75.6647   1.1183252410e+02   4.9129962837e+01    0.2917192    0.2101015 -52.36  0.001246799    1.396    0.283
       235 -10.3112     40.5149     73.0540   1.3036995356e+02   5.7391301492e+01    0.2931857    0.2119533  87.31  0.001575468    1.631    0.387
       236 -10.1079    150.2004     77.8709   9.7124343642e+01   3.6944389421e+01    0.2253982    0.2015692 -50.87 0.0007241616    1.228    0.185
       237 -11.2374    151.7759     72.1451   9.5002744931e+01   3.7563478305e+01    0.3528818    0.2043383  46.81  0.001510904    1.743    0.426
       238 -11.0607     68.5527     67.4085   1.1806941745e+02   5.5169476477e+01    0.5494555    0.2303775 -45.72  0.001985433    2.197    0.545
       239 -10.3765    136.8661     70.3316   9.7924808131e+01   4.1288209680e+01    0.2853186    0.2160375 -25.28 0.0007748524    1.315    0.240
       240 -11.9093     49.5027     69.7343   1.2602980062e+02   5.7191248812e+01    0.4520266    0.3451513 -24.47  0.001984267    1.470    0.320
       241  -9.1143    215.3020     70.6714   8.3137602224e+01   2.3294176488e+01    0.1414253    0.1010151 -52.15 0.0004481583    1.646    0.392
       242 -11.7950     96.0631     67.6789   1.0860227302e+02   5.0400694421e+01     0.582665     0.387269  -2.43  0.002406801    2.380    0.580
       243 -10.2287    131.3223     68.6303   9.8762593044e+01   4.2840850610e+01    0.2836027    0.1791006 -46.07 0.0007830724    1.666    0.400
       244 -10.4619     37.3014     67.5863   1.3038024324e+02   5.9014886743e+01    0.3939393    0.2170299 -44.78  0.001937706    1.707    0.414
       245 -10.9087     40.9687     63.4906   1.2784524900e+02   5.9610561426e+01    0.3062254    0.1793654 -74.49   0.00144099    1.953    0.488
       246  -9.4981    232.0804     69.0000   8.0437911356e+01   1.9967577360e+01    0.1956898   0.07801532  59.29 0.0007907302    2.862    0.651
       247  -9.7370    123.0000     67.9396   1.0072192286e+02   4.4810396522e+01     0.250601   0.08380608 -38.08 0.0007960543    2.898    0.655
       248 -10.4570    119.1199     65.8701   1.0109143530e+02   4.6040567221e+01    0.3418994    0.2631866  34.01 0.0005339095    1.347    0.258
       249 -10.3116    121.9202     61.6925   9.8896332503e+01   4.6191910229e+01     0.243298    0.2029334   9.75 0.0009095591    1.290    0.225
       250 -11.3860     23.6805     78.1432   1.3791477821e+02   5.7648494786e+01    0.2396305    0.1368035 -61.46  0.001060009    1.448    0.310
       251 -10.6133     43.0816     67.8847   1.2810941295e+02   5.8350205150e+01    0.2060568    0.1760416 -84.16  0.001224516    1.253    0.202
       252 -10.8678     31.2222     66.4777   1.3262372641e+02   5.9844152935e+01    0.2849452    0.1963869 -64.86 0.0008288247    1.256    0.204
       253 -10.0104      6.6647     67.9630   1.4302950242e+02   6.1158283123e+01    0.1862675    0.1517146 -40.02 0.0006997401    1.299    0.230
       254 -10.2628     14.1013     66.7028   1.3977958050e+02   6.1055134597e+01    0.3172556    0.1729559 -21.74  0.001313994    2.416    0.586
       255 -11.1109      2.2214     65.2098   1.4446914286e+02   6.2021676386e+01      0.42685   0.09240492 -58.94  0.001680981    2.960    0.662
       256  -9.1454    146.6948     66.2704   9.4277556510e+01   3.9728339007e+01    0.1448608     0.120242 -71.44  0.000227755    1.536    0.349
       257 -10.4318    138.1292     65.4479   9.6020055698e+01   4.1854434366e+01     0.239462    0.2095734 -57.67 0.0005316281    1.301    0.231
       258 -11.4564     84.4247     63.4418   1.1107805664e+02   5.3425048523e+01    0.5403525    0.3522495 -61.26  0.002439272    1.886    0.470
       259 -10.7336     86.2699     58.3561   1.0867936020e+02   5.4143561341e+01     0.336761    0.2403118 -58.18 0.0008918407    1.619    0.382
       260 -11.5781    174.2705     63.8770   8.7848574353e+01   3.3588401376e+01    0.2965227    0.2525884 -44.58 0.0003598804    1.234    0.189
       261 -10.0530    165.7214     64.9589   8.9817315846e+01   3.5452647825e+01    0.2136011    0.1816667 -25.06 0.0003831437    1.123    0.109
       262 -10.9729     21.3269     66.1528   1.3667336008e+02   6.0711301195e+01    0.2624846    0.1545909  32.59 0.0008428971    1.933    0.483
       263 -10.8501     76.8958     65.2417   1.1433475261e+02   5.4330827831e+01    0.3617052     0.183178  48.22  0.001483077    2.378    0.579
       264  -9.9411     51.8509     62.5280   1.2310079168e+02   5.8580247319e+01    0.2912242    0.1457778 -42.22  0.001182225    1.936    0.484
       265 -11.0929     11.2842     61.9858   1.4015847693e+02   6.2351574643e+01    0.3272274    0.2181398 -43.96  0.001262151    1.435    0.303
       266  -9.3939    140.6618     62.3152   9.4371547103e+01   4.1799195120e+01    0.1536548    0.1205198 -69.80 0.0004544465    1.698    0.411
       267  -9.9102     70.7033     61.4638   1.1537997766e+02   5.6151118970e+01    0.3873092    0.1862842  45.91 0.0005731147    2.450    0.592
       268 -10.5427     70.5522     58.0900   1.1430407311e+02   5.6904913084e+01     0.282779    0.1999371 -43.37 0.0003170217    1.292    0.226
       269 -10.8659     27.1325     61.2135   1.3315892879e+02   6.1447600126e+01    0.3859171    0.1892414  21.43  0.001566891    2.388    0.581
       270 -10.1057     32.7250     60.3040   1.3052337461e+02   6.1176398323e+01     0.273582    0.1697251 -31.88  0.001327022    1.783    0.439
       271 -10.9189     57.9394     60.5715   1.2005268764e+02   5.8228762332e+01    0.3547942    0.2015846 -26.79   0.00150001    2.390    0.582
       272 -10.3553     64.4902     60.1278   1.1732150690e+02   5.7394469879e+01    0.2741127     0.178019  51.06  0.001247202    1.920    0.479
       273 -10.4384     18.1117     59.3261   1.3668477595e+02   6.2570240618e+01    0.2411636    0.1612309 -78.04 0.0005586406    1.406    0.289
       274 -12.3289    127.9492     51.5637   9.3717189553e+01   4.6561276509e+01    0.3831353    0.3179503 -20.78 0.0003753736    1.176    0.150
       275 -11.4595    137.6489     55.6087   9.2790222362e+01   4.3615228162e+01    0.5245689    0.2869152 -24.66  0.002117605    1.944    0.486
       276 -11.4548    134.7814     49.7277   9.1380677862e+01   4.5238641762e+01    0.4284312    0.3098209 -79.86   0.00136569    2.115    0.527
       277 -10.7485    113.8763     57.3856   9.9612027810e+01   4.8744586586e+01      0.47517    0.2101437  39.56  0.001079314    2.514    0.602
       278  -9.1606     47.6314     58.2739   1.2358644761e+02   6.0072278117e+01    0.1320244     0.103466  69.92 0.0003791669    1.675    0.403
       279 -10.3518    115.8720     71.0012   1.0370388890e+02   4.5758392956e+01    0.3518942    0.2089334 -40.40  0.001157534    1.628    0.386
       280 -11.0466    121.9950     56.0703   9.6894724284e+01   4.7171155595e+01    0.2246081    0.2120965 -15.20  0.000357104    1.024    0.023
       281 -10.9212     98.9003     56.0297   1.0363779637e+02   5.2156992685e+01    0.5589927     0.209489  40.14  0.001923189    2.937    0.660
       282 -10.2235     96.2600     52.9930   1.0336121544e+02   5.3269689801e+01    0.2207369    0.2041505 -11.19 0.0002601413    1.024    0.024
       283 -11.1463    157.2388     53.2034   8.7699111418e+01   3.9266613903e+01    0.2989027    0.2463257 -13.42 0.0004386984    1.205    0.170
       284 -10.0861    111.6729     51.6976   9.8156394355e+01   5.0245349436e+01    0.2658111    0.1793775  42.33 0.0006751489    1.512    0.338
       285 -11.2467    115.0143     49.3737   9.6334499302e+01   4.9902971123e+01    0.2875164    0.2395067 -22.55 0.0002788042    1.161    0.138
       286 -11.1793     38.3180     51.4979   1.2560734555e+02   6.2674896368e+01    0.5876316     0.329309 -42.88   0.00291819    1.622    0.384
       287 -11.1332      3.9895     52.8482   1.4182561555e+02   6.4897344913e+01    0.4394988    0.2060469 -24.86  0.001802258    2.661    0.624
       288 -11.8662     13.3453     49.9445   1.3686840345e+02   6.5102891847e+01    0.5742313    0.2229442 -51.06  0.002583171    2.039    0.510
       289 -12.3008      8.0004     44.5438   1.3828818633e+02   6.6672355284e+01      0.59491    0.5104601 -73.93  0.004043638    1.131    0.116
       290 -10.1026    180.2020     51.5760   8.2989098375e+01   3.3899705549e+01    0.2016541    0.1312789  45.06 0.0004077783    1.579    0.367
       291 -11.5699    101.4271     48.6644   1.0006597579e+02   5.3000674918e+01    0.4569433    0.3569531  78.83  0.002190229    1.837    0.455
       292 -10.0328     83.2872     51.0226   1.0703525265e+02   5.6165165762e+01    0.2153402    0.1748267 -32.96 0.0008404531    1.146    0.128
       293 -11.8308     51.5758     48.7010   1.1877811323e+02   6.1721076521e+01    0.7018175    0.3388066 -59.91  0.002605786    2.299    0.565
       294 -10.1654     46.4408     47.0009   1.2046161727e+02   6.2753197097e+01    0.2069118    0.1195666 -52.69  4.24873e-05    1.535    0.348
       295 -10.1709     44.9422     51.0016   1.2247939978e+02   6.2043975400e+01    0.2545474    0.2026198   3.37  0.001241584    1.430    0.301
       296  -9.7908     86.9497     52.5214   1.0631166647e+02   5.5183788278e+01    0.2136824    0.1446638  41.24  0.001021096    1.558    0.358
       297 -10.6784    163.1057     48.0457   8.4842008651e+01   3.8566029042e+01    0.3249854    0.2461649 -53.52 0.0008606029    1.498    0.332
       298 -12.0781    142.4084     46.0283   8.8310852914e+01   4.3955786262e+01    0.5005502     0.421462 -51.26  0.002320491    1.308    0.235
       299 -11.3563    123.4776     38.4836   8.9883323531e+01   4.9672450744e+01    0.3179423     0.272491  53.34  0.001517341    1.213    0.176
       300 -10.9020    122.0314     45.2531   9.2878012679e+01   4.8970025354e+01    0.3114368    0.2731083  35.58 0.0005313657    1.137    0.121
       301 -11.0156    121.5200     41.5251   9.1570773452e+01   4.9676786954e+01    0.4704405    0.3356934 -79.38  0.002027052    2.231    0.552
       302  -9.3451     22.9515     46.0583   1.3125914339e+02   6.5349321898e+01    0.1548304    0.1212761 -56.57 0.0004045087    1.067    0.063
       303  -9.9204    233.1456     45.1718   7.4094649898e+01   2.2510863309e+01    0.1941094     0.163478  -1.20 0.0004573215    1.189    0.159
       304 -10.2193     91.8013     45.8793   1.0207887828e+02   5.5497016914e+01    0.3186513    0.1822522 -44.18  0.001048828    1.749    0.428
       305  -9.4582     74.9509     43.8053   1.0728630047e+02   5.9094198521e+01    0.1822815    0.1119349  38.80 0.0008461755    1.733    0.423
       306 -11.8550     64.0094     41.5670   1.1074585903e+02   6.1393012062e+01    0.3100879    0.2600596   8.17 0.0006115029    1.257    0.204
       307 -10.3584     67.9650     36.7973   1.0711157869e+02   6.1665237155e+01    0.3908437    0.2525569 -59.09  0.001570191    2.094    0.523
       308 -10.4276    163.1636     42.1854   8.2857267872e+01   3.9347062292e+01    0.2029521    0.1724885 -55.05 0.0004072842    1.292    0.226
       309 -10.2572     23.9981     41.5633   1.2943433856e+02   6.6299779688e+01    0.2379285    0.1898247 -60.30  0.001272896    1.128    0.114
       310 -10.0485    226.2289     40.8210   7.3670937774e+01   2.4484652060e+01    0.2040367    0.1706632 -44.59 0.0008431113    1.175    0.149
       311 -11.0269     95.0536     40.3893   9.8766838250e+01   5.5804587524e+01    0.4072943    0.2609877  57.85  0.001176206    1.888    0.470
       312 -10.1052     90.1610     40.6698   1.0050461288e+02   5.6768549734e+01    0.2439087    0.1932086 -43.91 0.0005332428    1.304    0.233
       313  -9.6166     56.1459     41.1861   1.1395662022e+02   6.2681938694e+01    0.1811498    0.1612225 -68.49  0.000392581    1.349    0.259
       314 -10.0476     44.1710     39.9447   1.1894262910e+02   6.4569667075e+01    0.2584212    0.1590448 -48.05 0.0009846026    1.409    0.290
       315  -9.5639    177.7793     38.1702   7.9101606009e+01   3.6213497551e+01     0.196067    0.1616451  22.63  0.000381215    1.280    0.219
       316 -11.5699     82.5442     36.5158   1.0139229785e+02   5.9026264061e+01    0.3542015    0.2896861 -31.48 0.0008669895    1.148    0.129
       317  -9.3724     19.3897     37.8136   1.3067348557e+02   6.7518813046e+01    0.1844496   0.09157943 -51.71 0.0004397104    1.590    0.371
       318 -11.1209     73.6317     52.4343   1.1112340562e+02   5.7591131569e+01    0.3414845    0.2538379 -89.49  0.001567052    2.273    0.560
       319 -10.7339    135.0049     37.5039   8.6789646712e+01   4.7006921118e+01    0.2356686    0.1461667  55.53  0.001043073    1.623    0.384
       320 -10.8678    110.9586     33.7841   9.1240603290e+01   5.3334556538e+01    0.4633774    0.3997554 -36.37  0.002482425    1.190    0.160
       321 -11.0212    103.3975     37.0000   9.4752587064e+01   5.4560061399e+01    0.4051383    0.2148338  51.22  0.001321152    1.948    0.487
       322 -10.7057    105.6678     34.2971   9.2945165781e+01   5.4474210608e+01    0.2566656     0.245212 -45.75  0.000506842    1.169    0.145
       323  -9.9719    163.9900     36.4945   8.0770435044e+01   3.9873419993e+01    0.2148166     0.145805  61.44 0.0004525073    1.516    0.340
       324 -11.1813     24.5346     35.4580   1.2719067055e+02   6.7633227671e+01    0.2459967    0.2346204   4.65 0.0006892816    1.223    0.182
       325 -10.3142     76.1343     33.8542   1.0259037189e+02   6.0731457755e+01    0.2889642    0.2256006   1.04 0.0009201929    1.380    0.276
       326 -10.7274     81.7999     29.5244   9.8517039449e+01   6.0368478565e+01    0.3059905    0.2575459 -48.92 0.0007358792    1.359    0.264
       327 -10.0848     78.2859     30.0310   1.0003649980e+02   6.0981003229e+01    0.2581837    0.1786575 -22.87 0.0003175555    1.420    0.296
       328 -10.5466      9.2939     33.6632   1.3492744222e+02   6.9129311591e+01    0.2883697    0.1854336 -83.22  0.001610754    1.724    0.420
       329 -11.8985      6.0129     29.9851   1.3576053762e+02   7.0143915258e+01    0.4945303    0.2816932 -27.48  0.001693862    1.842    0.457
       330 -11.2714      8.3305     26.3483   1.3331815864e+02   7.0840756627e+01     0.452904    0.1903356 -34.36  0.002050651    2.422    0.587
       331 -10.8190    150.1149     33.6948   8.2267634491e+01   4.3733991578e+01    0.3974221    0.2323262 -66.99  0.001490875    2.798    0.643
       332 -11.1833    145.1911     31.7055   8.2477206630e+01   4.5233135018e+01    0.2873796    0.2572691 -69.91 0.0003085003    1.268    0.212
       333 -10.7071     53.6763     33.8848   1.1202744431e+02   6.4525317672e+01    0.4336009    0.2518781   8.26  0.001691167    2.801    0.643
       334 -10.5764     57.2623     29.2669   1.0831677645e+02   6.4864200042e+01    0.2344686    0.2122163 -45.91  0.001152319    1.234    0.190
       335  -9.8622     31.4034     34.0411   1.2306029907e+02   6.7294563176e+01    0.1798265    0.1604109 -13.47 0.0002988667    1.160    0.138
       336 -10.4047     97.9244     31.6814   9.4124107624e+01   5.6614689360e+01    0.2613578    0.2043704 -31.95 0.0003709278    1.242    0.195
       337  -9.3069     90.2062     31.4301   9.6483133905e+01   5.8322892979e+01    0.1755275    0.1430187  57.64 0.0003803682    1.423    0.297
       338  -9.9201     63.8259     30.1810   1.0586764266e+02   6.3609055278e+01    0.2004511    0.1534773  -3.85  0.001065807    1.401    0.286
       339 -10.3796     50.0732     28.0409   1.1108980469e+02   6.6199537544e+01    0.3246871    0.1597882 -33.87  0.001060685    2.017    0.504
       340 -11.5046    151.9911     26.7127   7.9370058676e+01   4.4110686157e+01    0.4638342    0.2839354  71.74  0.001440916    1.824    0.452
       341  -9.9920    172.3038     27.0417   7.6241088610e+01   3.8888142300e+01    0.2048373    0.1769858 -27.45 0.0004287176    1.123    0.110
       342  -9.6378     90.7704     26.7963   9.4179644034e+01   5.8928137306e+01    0.1849715    0.1701858 -58.47  0.000405336    1.312    0.238
       343 -11.3624     70.8708     26.1361   1.0104165275e+02   6.3057141079e+01    0.4319113    0.2323156  37.50   0.00194973    1.964    0.491
       344 -11.2480     66.8043     22.0397   1.0065744376e+02   6.4494222339e+01    0.3238931    0.3193565  26.23  0.002009385    1.247    0.198
       345 -10.3867    130.9615     26.6875   8.3442744774e+01   4.9455354487e+01    0.3049443    0.1352873  55.59  0.001178528    2.149    0.535
       346 -10.8634    113.3353     24.9148   8.6822576215e+01   5.4022651586e+01     0.366333    0.2295351 -31.16  0.001141197    1.558    0.358
       347 -10.7460     99.6860     22.8598   8.9608878248e+01   5.7511074817e+01    0.4073501    0.2963462  28.89   0.00203823    1.406    0.289
       348 -10.2826     54.0387     23.4452   1.0699207789e+02   6.6449450762e+01    0.2508215    0.1677469 -23.69 0.0006083589    1.469    0.319
       349 -10.3082     17.5900     23.7783   1.2685502365e+02   7.0775736606e+01    0.1940689    0.1638995  -6.70 0.0002898059    1.268    0.212
       350 -10.8785     84.2241     22.5648   9.4352437526e+01   6.0962060655e+01    0.2557467    0.2025938   4.91 0.0005919377    1.276    0.216
       351 -10.1852     86.8619     18.8778   9.1653191015e+01   6.0928711003e+01    0.2469046    0.1954724  -6.99 0.0003675622    1.223    0.182
       352 -10.3422     60.5694     22.5985   1.0359936045e+02   6.5513715756e+01    0.3263614    0.2333012 -77.84  0.001409294    3.073    0.675
       353 -11.7557    123.9768     21.5883   8.2870627656e+01   5.1831504934e+01    0.3550944    0.2454383  50.27 0.0003562614    1.400    0.286
       354 -10.9406     25.3820     19.9543   1.2056413482e+02   7.0877982190e+01    0.4798736    0.2374047 -22.88  0.002070858    2.778    0.640
       355 -10.3535    137.0168     20.0888   7.9573263394e+01   4.8706867343e+01    0.2153461     0.211995  20.92 0.0003318721    1.049    0.047
       356  -9.4187    168.2274    250.6312   1.2627457295e+02   6.8817711714e+00    0.1440109   0.07255883  28.39 0.0003251367    1.559    0.359
       357  -9.7578     45.0457     20.5321   1.0992611473e+02   6.8347034343e+01    0.1868299    0.1291167  30.78 0.0005437622    1.563    0.360
       358 -10.1934    137.2871    246.9888   1.3117611373e+02   1.1158870985e+01     0.137346    0.1137348  28.98 0.0006739039    1.127    0.113
       359 -10.4955     81.5730     18.4757   9.3234560542e+01   6.2117588272e+01    0.3231842    0.1349936 -24.51  0.001211774    2.570    0.611
       360  -9.4432     34.4561     19.6910   1.1518408603e+02   6.9918211669e+01    0.2015935    0.1173828  28.19 0.0006356618    1.903    0.475
       361 -10.6722      6.3959    245.2523   1.5353013226e+02   2.5195634129e+01     0.190011    0.1124882  76.56 0.0008419146    1.483    0.326
       362 -10.0504    188.4916     16.9278   7.0851995767e+01   3.5863510835e+01    0.2048043    0.1328649 -20.41 0.0004055769    1.498    0.333
       363 -11.5909      8.4922    241.6854   1.5310064514e+02   2.5556949484e+01    0.3356986     0.134498  60.58  0.002325449    1.885    0.469
       364  -9.7127      9.5975     16.6715   1.2907352879e+02   7.2885188155e+01    0.1585674    0.1043397 -65.59 0.0003455245    1.484    0.326
       365  -9.5203     76.0072     16.2240   9.4058393570e+01   6.3595450904e+01     0.179388      0.11264  47.27 0.0008676971    1.637    0.389
       366 -11.1348    146.9951    244.0624   1.2919087697e+02   1.0300753582e+01    0.2264616    0.1130152  35.13   0.00106207    1.489    0.328
       367  -9.7966    115.4382    244.2792   1.3474901780e+02   1.4182722671e+01    0.1174857   0.09630171  80.62 0.0009440592    1.575    0.365
       368 -10.4802    109.8798    243.3220   1.3564840207e+02   1.4979057447e+01    0.2041934    0.1334604  59.53  0.001458623    1.677    0.404
       369 -10.2666     71.9788    244.0048   1.4238995992e+02   1.9203823336e+01    0.1544402    0.1181234  44.08 0.0007213908    1.067    0.062
       370  -9.3378     35.4963     14.9204   1.1213689596e+02   7.0692465148e+01    0.1809013    0.1120567 -40.95 0.0009678222    1.402    0.287
       371  -9.8967    166.0615     14.5169   7.2814867204e+01   4.1790487408e+01    0.2161824    0.1396285  69.22 0.0006927858    1.569    0.363
       372 -11.8351     34.5164    241.8060   1.4875489448e+02   2.3278899108e+01    0.3577138    0.1847983  33.78    0.0025723    1.639    0.390
       373  -9.7399     57.1216     16.8597   1.0213910415e+02   6.7071559171e+01    0.1887121    0.1734706 -26.94  0.001157151    1.189    0.159
       374  -9.3825     90.4627     12.9507   8.7542757714e+01   6.0908142865e+01      0.19753    0.1332559 -21.84 0.0001325787    1.431    0.301
       375 -10.5849     31.5949    237.1763   1.4906547340e+02   2.4247226392e+01    0.2476492     0.114441  65.46 0.0009172469    1.950    0.487
       376 -10.4059     28.7059    232.9062   1.4939370958e+02   2.5168500258e+01    0.4024402   0.09586544  36.15  0.002149803    2.720    0.632
       377  -9.6594     88.7779    240.9495   1.3920973057e+02   1.7778141444e+01    0.1093323   0.08340167 -71.10 0.0006842478    1.648    0.393
       378 -11.5236     74.2840    238.4900   1.4162219012e+02   1.9753901137e+01    0.4371175    0.1862158  41.43  0.002727822    1.703    0.413
       379  -9.4940     50.0242    240.4869   1.4602335478e+02   2.1989691783e+01    0.1428841   0.07596976  36.12 0.0005824309    1.503    0.334
