#   1 NUMBER                 Running object number                                     
#   2 MAG_AUTO               Kron-like elliptical aperture magnitude                    [mag]
#   3 X_IMAGE                Object position along x                                    [pixel]
#   4 Y_IMAGE                Object position along y                                    [pixel]
#   5 X_WORLD                Barycenter position along world x axis                     [deg]
#   6 Y_WORLD                Barycenter position along world y axis                     [deg]
#   7 A_WORLD                Profile RMS along major axis (world units)                 [deg]
#   8 B_WORLD                Profile RMS along minor axis (world units)                 [deg]
#   9 THETA_WORLD            Position angle (CCW/world-x)                               [deg]
#  10 FWHM_WORLD             FWHM assuming a gaussian core                              [deg]
#  11 ELONGATION             A_IMAGE/B_IMAGE                                           
#  12 ELLIPTICITY            1 - B_IMAGE/A_IMAGE                                       
         1 -12.0602     34.7154     86.8096   6.3749773384e+01   5.7043248422e+01    0.8285576    0.2788266 -64.05  0.002907892    2.675    0.626
         2 -14.8260    247.5030     38.3877   3.5806891211e+02   2.0056920377e+01       1.9571    0.4871927 -30.71  0.007770678    3.319    0.699
         3 -13.9512    232.5697     31.7462   3.5765545202e+02   2.3667152907e+01    0.7110977    0.4773222 -29.96  0.004358022    1.426    0.299
         4 -12.8843    245.8832      8.7106   3.5190488747e+02   2.3555421715e+01     0.469113    0.2560411  85.80  0.002880306    1.910    0.476
         5 -10.1095    204.3316    236.6717   4.2551072891e+01  -1.3359169349e-01   0.09751038    0.0817947  33.87 0.0007051597    1.715    0.417
         6 -10.7957    195.3213    232.6489   4.3600770710e+01   1.4216277183e+00    0.1005301   0.08559765  39.54 0.0007048101    1.747    0.428
         7 -11.5227    184.5100    227.5432   4.4887774534e+01   3.4213287991e+00    0.1781485    0.1136857 -50.12  0.001040289    2.403    0.584
         8 -10.5226    198.4152    215.2146   4.0433327195e+01   3.3033851975e+00    0.1461031    0.1080846 -40.40 0.0009474662    1.738    0.425
         9 -10.8437     92.4035    213.1913   6.3157695354e+01   1.8409634978e+01    0.1681165    0.1249732  87.92 0.0009558205    1.738    0.425
        10 -10.5677     76.5969    212.8148   6.6989915716e+01   2.0586319907e+01    0.1705631    0.1201726  83.39 0.0009557097    1.724    0.420
        11 -11.5727     98.8769    205.5480   6.0698340019e+01   1.9000734296e+01    0.2494851    0.1772076  81.91  0.001323721    1.931    0.482
        12 -10.9530    197.5139    204.1476   3.8839690489e+01   4.9386602651e+00    0.1876947    0.1568626  28.35  0.001189525    1.366    0.268
        13 -11.9499    184.4806    203.5000   4.1217860999e+01   6.8206986116e+00    0.3037623    0.1916264  50.66   0.00157174    2.440    0.590
        14 -11.2870    123.9954    198.0051   5.3563659411e+01   1.6750764942e+01    0.3083752    0.1978469 -72.70  0.001475171    2.450    0.592
        15 -12.0822     88.1975    197.0422   6.2381142356e+01   2.2244233321e+01    0.3308102    0.2357734 -85.72  0.001767282    1.768    0.434
        16 -10.2893    216.1925    195.4142   3.4046133048e+01   3.6611769032e+00    0.1503052    0.1025084  36.50 0.0007873583    1.643    0.391
        17 -10.8746    185.1811    194.5647   3.9603037887e+01   8.0645753055e+00    0.2211581     0.092641 -43.10 0.0009973207    2.637    0.621
        18 -11.4439    246.5298    193.2450   2.8811484103e+01   2.0179650941e-01    0.2355858    0.1694714 -43.73  0.001578325    2.060    0.514
        19 -11.1606    224.9970    193.2227   3.2191549113e+01   2.8173004411e+00    0.2481293    0.1578881 -38.28  0.001540651    1.745    0.427
        20 -11.2846    102.4969    192.5533   5.8135048420e+01   2.1093063530e+01    0.2275563     0.139521 -78.34  0.001038564    2.400    0.583
        21 -11.7991     76.9934    192.7675   6.4821176491e+01   2.4714582634e+01    0.2432085    0.1741246  80.37  0.001290969    1.640    0.390
        22 -11.3168    129.8116    188.3549   5.0705656018e+01   1.7690579576e+01    0.3636282     0.246922  62.35  0.001745285    2.097    0.523
        23 -11.7749     95.4926    187.9928   5.9341161623e+01   2.3098566618e+01    0.2510684    0.1449378 -69.60  0.001153534    2.190    0.543
        24 -11.1641    111.8198    196.9713   5.6388677860e+01   1.8798632761e+01    0.2184877    0.1527124  70.07  0.001089094    2.003    0.501
        25 -11.1963    147.6211    179.8125   4.5070400178e+01   1.6418076187e+01     0.264149    0.1831446 -80.23  0.001155025    2.888    0.654
        26 -11.2105      2.4805    172.4862   8.3838055921e+01   3.7384538813e+01    0.2383881   0.09386148  76.92  0.001036628    2.410    0.585
        27 -11.0084    150.2514    169.6165   4.2629040719e+01   1.7893490820e+01    0.2414657    0.1842448 -59.01  0.001260051    1.663    0.399
        28 -11.1686    120.5850    169.3247   4.9880252432e+01   2.3067701309e+01    0.2628257     0.147685 -58.63  0.001137741    2.132    0.531
        29 -11.4964     54.9020    168.3275   6.8323801714e+01   3.3272100113e+01      0.40633    0.1962046 -89.54  0.001588283    2.742    0.635
        30 -10.1563    169.6628    169.6795   3.8327855536e+01   1.4574075436e+01    0.1438737   0.09897108   0.74 0.0007050009    1.709    0.415
        31 -10.3430     88.0000    167.0152   5.8436993857e+01   2.8930002892e+01    0.2282839   0.08506823 -61.17 0.0008053725    2.963    0.662
        32 -11.6305    212.9297    162.0430   2.8585361512e+01   8.8520325047e+00    0.3557214    0.1670845 -37.21   0.00174409    1.983    0.496
        33 -10.9175      2.3137    161.6537   8.3499794945e+01   3.9992878373e+01    0.1455726   0.07234029  55.87 0.0004163573    1.715    0.417
        34 -10.5544     91.6163    158.8487   5.6111132669e+01   3.0275233579e+01    0.2077638    0.1442701 -78.66 0.0009547935    1.765    0.434
        35 -10.6313     81.3287    154.6635   5.8506908581e+01   3.2916942705e+01    0.1616946     0.106111  61.97 0.0007051947    1.728    0.421
        36 -10.3847     91.3270    151.6632   5.4986903040e+01   3.2037073286e+01     0.161449    0.1104032  63.95 0.0007051731    1.725    0.420
        37 -10.8717    249.3391    150.6724   2.0848746845e+01   5.2148775067e+00    0.1071856   0.08497808 -50.50 0.0007051672    1.732    0.423
        38 -11.4369    189.5577    147.2947   2.9850216320e+01   1.5011591407e+01    0.2644723    0.1237528 -42.51  0.001148852    2.142    0.533
        39 -10.8549     38.3121    146.6560   7.1186504699e+01   4.0671947898e+01    0.1577875   0.09251019  59.34 0.0007046325    1.705    0.414
        40 -11.2827     55.0078    144.7311   6.5413450183e+01   3.9194857864e+01    0.3234707    0.1668066  74.11  0.001188146    2.738    0.635
        41 -12.0654    194.6519    143.5174   2.8108437052e+01   1.4749074957e+01    0.3032365    0.1529525 -36.56  0.001397231    1.872    0.466
        42 -12.7881    192.5090    136.0075   2.6904909463e+01   1.6384367261e+01    0.3041923    0.1947238 -35.41  0.001553899    1.468    0.319
        43 -11.3803      2.0000    138.9800   8.2649968660e+01   4.5676715126e+01    0.2216247   0.06799208 -83.52 0.0008077373    2.979    0.664
        44 -10.5448    207.4800    136.9857   2.4476581574e+01   1.3579247321e+01    0.1823193    0.1046225 -54.19 0.0008099255    2.518    0.603
        45 -12.0311    197.2961    136.9956   2.6247835653e+01   1.5358294343e+01    0.1984826    0.1652628 -25.61 0.0009252482    1.099    0.090
        46 -12.7829    187.9955    135.0179   2.7531834847e+01   1.7380845524e+01    0.3397629    0.1929733 -44.99  0.001587475    1.814    0.449
        47 -10.3930     69.0359    135.7928   5.9338796722e+01   3.9548586997e+01    0.2075136    0.1899727  48.56 0.0003852974    1.030    0.029
        48 -12.0546    179.6629    132.9145   2.8680850090e+01   1.9317810662e+01    0.3662367     0.230623 -55.46  0.001669009    2.044    0.511
        49 -11.2961    144.1575    131.6588   3.6248574947e+01   2.6614586584e+01    0.3195619    0.2495277 -79.66  0.001495894    1.781    0.438
        50 -12.1196    152.9802    128.7777   3.3474089255e+01   2.5399273178e+01    0.5317745    0.2973425 -55.84  0.002128464    2.269    0.559
        51 -10.4778    205.0233    130.5069   2.3511898847e+01   1.5036255524e+01    0.1701106    0.1212774  77.90  0.000810152    2.536    0.606
        52 -12.7376    192.8307    129.5568   2.5436447208e+01   1.7410227805e+01    0.2883292    0.2281573 -28.24  0.001513856    1.177    0.150
        53 -12.9831    169.3651    128.9977   2.9898585020e+01   2.2042926232e+01     0.457888    0.3214642 -54.74  0.002210933    1.667    0.400
        54 -13.5582    180.4433    124.1695   2.6547849022e+01   2.0719731549e+01    0.5185744    0.3527005 -53.10  0.002525369    1.691    0.409
        55 -10.9929     98.3297    127.2069   4.8046941934e+01   3.6740087661e+01    0.3903886    0.1531929 -64.33  0.001095281    4.093    0.756
        56 -11.1770     57.8411    121.8330   6.0848757301e+01   4.4828130217e+01    0.3992805     0.181869 -89.17  0.001097418    4.690    0.787
        57 -11.3435     42.5961    122.3821   6.6622750646e+01   4.6619324648e+01    0.3818719    0.1437596 -85.71  0.001065676    4.524    0.779
        58 -11.9641     11.9982    128.1158   7.8566572543e+01   4.7865913033e+01    0.5296232    0.1914867  82.58  0.001871755    3.154    0.683
        59 -12.7487    172.8053    120.7206   2.7261155762e+01   2.2875974347e+01    0.3619906    0.2667038 -43.26  0.001836812    1.346    0.257
        60 -11.8515    130.3773    116.5094   3.6148881876e+01   3.2708404062e+01    0.4954376    0.1913352 -46.57  0.001664424    2.670    0.625
        61 -11.7175      2.1335    115.0060   8.1310325601e+01   5.1906223917e+01    0.5184163   0.08772099 -87.22  0.001194622    7.258    0.862
        62 -12.7452    186.0158    115.3562   2.3443573469e+01   2.1151156204e+01    0.3441366    0.2011462 -38.13  0.001610043    1.611    0.379
        63 -11.2962    108.7572    113.4807   4.1575604007e+01   3.7963238406e+01    0.3390993    0.1973684 -63.54  0.001286214    2.191    0.544
        64 -11.7572     77.9278    110.1316   5.1060351258e+01   4.4723638303e+01    0.5557491    0.2424988 -66.34  0.001799018    3.013    0.668
        65 -11.5046    122.0064    109.7495   3.6721122307e+01   3.6000310358e+01    0.3742223    0.2200214 -38.37   0.00150279    1.870    0.465
        66 -10.8611     13.2539    109.5077   7.6512608960e+01   5.2736562830e+01    0.3134139   0.09822977  85.52 0.0009029828    4.483    0.777
        67 -12.4886    128.7249    101.2107   3.2580802237e+01   3.6361930134e+01    0.5690127    0.3339267 -58.02   0.00221981    2.082    0.520
        68 -11.0690    107.3889     98.2111   3.7943808663e+01   4.1785392518e+01    0.2278434    0.1525434 -60.02 0.0008103772    1.699    0.411
        69 -11.9633     94.5949     96.8108   4.1738566657e+01   4.4828026428e+01    0.3968021    0.3408301  66.94  0.001523554    1.241    0.194
        70 -11.5899     94.5986     93.1796   4.0707042379e+01   4.5684091768e+01    0.4085479    0.2809438 -27.25  0.001692147    1.896    0.473
        71 -11.8407      4.7306     90.2133   7.8301348414e+01   5.8360970339e+01     0.449092    0.2388329  81.25  0.002055629    1.922    0.480
        72 -12.5315    124.7954     88.4105   2.9991498888e+01   3.9957560900e+01    0.7428948    0.3693994 -36.15  0.002718179    2.270    0.559
        73 -10.7163    169.3257    242.6740   4.9889996899e+01   3.3031120920e+00    0.1079543   0.08084042  43.00 0.0003839949    1.695    0.410
        74 -11.7503     48.2631     83.9950   5.6790135424e+01   5.6144414866e+01    0.6309836    0.3273051  70.38  0.001919138    4.179    0.761
        75 -12.4779    119.3136     79.3522   2.8738937250e+01   4.3119185737e+01    0.4480125    0.2550377 -49.34  0.001782411    1.866    0.464
        76 -11.3358     74.5643     79.4812   4.4060722458e+01   5.2950231704e+01    0.5276206    0.2452227 -62.71  0.001741271    2.975    0.664
        77 -11.4092     23.6694     77.5245   6.7296398904e+01   6.0542251029e+01    0.5499663    0.1243256 -70.08  0.001590892    4.174    0.760
        78 -11.3657    167.6137     77.2087   1.7061407219e+01   3.1768726562e+01    0.2055077    0.1404643 -25.85 0.0009149973    1.626    0.385
        79 -12.4655    127.9676     75.0879   2.5057245826e+01   4.1849509132e+01    0.4681554    0.2439728 -54.11   0.00171559    2.325    0.570
        80 -15.0282    240.3733     66.1688   4.6320359840e+00   1.7970323416e+01     1.136473     1.077922  54.21  0.008283539    1.304    0.233
        81 -12.2461     62.5169     71.2958   4.6587780622e+01   5.7102369844e+01    0.6241457    0.1540734 -54.30  0.001695995    4.237    0.764
        82 -11.7053    115.6830     71.4021   2.7192480968e+01   4.5586488478e+01    0.4045159    0.1944547 -43.51  0.001498528    2.141    0.533
        83 -11.8075    105.9037     71.1682   3.0036820837e+01   4.7995176990e+01    0.3967889    0.2205947 -52.50  0.001533319    2.034    0.508
        84 -11.8889     95.0261     70.4179   3.3354898360e+01   5.0686797388e+01    0.6060264    0.2802384 -55.09   0.00203861    2.787    0.641
        85 -12.6062    105.0031     81.9275   3.3847301490e+01   4.5944898384e+01    0.8073108    0.4160871 -56.22  0.002903674    2.382    0.580
        86 -11.1391    160.9981    241.2850   5.1352073493e+01   4.5302332634e+00    0.1970791    0.1561349  81.50  0.001183164    2.759    0.638
        87 -11.5656     51.6149     70.8098   5.1526894557e+01   5.8995776592e+01    0.2854526    0.1528352 -70.95  0.001066649    2.523    0.604
        88 -11.0542    170.6695     70.3336   1.4599453503e+01   3.2171398820e+01    0.1566465    0.1071531 -67.95 0.0007052113    1.725    0.420
        89 -10.7125    157.6978     69.3485   1.6664973695e+01   3.5489048437e+01    0.1593315    0.1111282 -67.95 0.0007039427    1.692    0.409
        90 -12.6376    203.7753     65.4996   8.4597469087e+00   2.5341002279e+01    0.2696196    0.1755992 -36.22  0.001415173    1.384    0.277
        91 -12.6257     86.4217     85.1448   4.1233775366e+01   4.9263184314e+01    0.7602873     0.398087 -61.22  0.002741809    2.424    0.587
        92 -11.8974     72.9264     56.6857   3.6750401589e+01   5.8397467926e+01    0.6929267    0.2266241 -45.60  0.002208825    3.165    0.684
        93 -11.6546    121.6124     64.5667   2.3264373692e+01   4.5411191195e+01    0.4514837    0.1521777 -37.94  0.001412866    3.082    0.676
        94 -12.0208     62.7864     52.4175   3.9579553552e+01   6.1312962324e+01     0.683674     0.201422 -50.07   0.00205316    3.752    0.733
        95 -11.8151     21.9181     53.5622   6.2670073128e+01   6.6812843557e+01    0.3799297    0.2013711 -88.80  0.001488935    2.914    0.657
        96 -11.4090    159.4663     54.5183   1.1905299687e+01   3.7410089036e+01    0.1475875    0.1373985 -77.44 2.994195e-05    1.003    0.003
        97 -11.2528     53.6362     52.2942   4.4028882237e+01   6.2996382620e+01    0.4075351    0.1901715 -62.57  0.001382828    3.293    0.696
        98 -11.2371     27.8233     46.1435   5.6589702253e+01   6.8024168577e+01    0.2029968    0.1514708 -26.98 0.0006483321    1.343    0.256
        99 -10.5347     44.6671     44.3238   4.5613963048e+01   6.6199751909e+01    0.1427158    0.1135931  69.46  0.000705061    1.707    0.414
       100 -12.5789     82.5373     72.7184   3.8703921679e+01   5.2918929781e+01     0.566539    0.3639336 -76.83  0.002105354    2.623    0.619
       101 -10.5190     28.4785     42.4791   5.4818910881e+01   6.8799140379e+01    0.1389415    0.1253869 -22.26 0.0001043343    1.022    0.021
       102 -11.7333    184.5054     41.4889   4.5250603543e+00   3.3041845596e+01    0.1380516    0.1240172 -66.48 1.823684e-05    1.023    0.023
       103 -11.3613     36.9712     38.3296   4.7626537365e+01   6.8633900957e+01    0.5691463    0.1693329 -41.76  0.001801582    3.801    0.737
       104 -10.6497    194.4820    239.4971   4.4717752057e+01   6.7066241020e-01    0.1141154   0.08412828  11.60 8.067148e-05    1.041    0.039
       105 -11.2434    176.5346     33.4685   3.2131543142e+00   3.6009898271e+01     0.139533    0.1237904 -71.33 3.815697e-05    1.010    0.010
       106 -11.0450     26.9883     30.8326   5.0934984517e+01   7.1539268532e+01    0.5039436    0.1082106 -43.37  0.001425096    4.995    0.800
       107 -10.9739     13.0000     29.0123   6.0861967708e+01   7.3316979698e+01    0.2147424   0.06966827 -62.93 0.0008060407    2.967    0.663
