#   1 NUMBER                 Running object number                                     
#   2 MAG_AUTO               Kron-like elliptical aperture magnitude                    [mag]
#   3 X_IMAGE                Object position along x                                    [pixel]
#   4 Y_IMAGE                Object position along y                                    [pixel]
#   5 X_WORLD                Barycenter position along world x axis                     [deg]
#   6 Y_WORLD                Barycenter position along world y axis                     [deg]
#   7 A_WORLD                Profile RMS along major axis (world units)                 [deg]
#   8 B_WORLD                Profile RMS along minor axis (world units)                 [deg]
#   9 THETA_WORLD            Position angle (CCW/world-x)                               [deg]
#  10 FWHM_WORLD             FWHM assuming a gaussian core                              [deg]
#  11 ELONGATION             A_IMAGE/B_IMAGE                                           
#  12 ELLIPTICITY            1 - B_IMAGE/A_IMAGE                                       
         1 -13.8940    160.3276     52.9758   7.9813390309e+01   3.8052024042e+01     1.724985     1.254633  21.00  0.005981868    1.775    0.436
         2 -13.7451    172.2293     37.2590   7.2888844385e+01   3.7144045473e+01    0.9468275    0.9152069 -56.68  0.003308762    1.099    0.090
         3 -11.6778    189.9629     14.9792   6.4009071040e+01   3.5141352393e+01    0.3271641    0.2272492 -66.36  0.001158817    1.467    0.318
         4 -13.5494    189.4201      5.1447   6.1396333787e+01   3.6267399519e+01     1.012612    0.6630974  70.67  0.004109993    1.338    0.253
         5 -10.5781    168.8559    234.5622   1.1894256002e+02   3.2734292284e+00    0.1851694    0.1781088 -18.79 0.0004945103    1.276    0.216
         6 -18.6030     66.5803    245.1405   1.3941001336e+02   1.7495720024e+01     5.844779     4.722277  47.50    0.0378249    1.306    0.234
         7 -19.0288     50.8212     95.1495   1.2364716657e+02   5.1849865119e+01     18.92367     1.230266 -59.11   0.03077369   15.010    0.933
         8 -12.7831    193.2401    192.3910   1.0729632083e+02   5.4815155950e+00     0.777405    0.4894299 -49.11   0.00268393    1.956    0.489
         9  -9.9204    180.1785    192.2297   1.0988635689e+02   7.9719333945e+00    0.1863091     0.156163  60.07 0.0005577882    1.352    0.260
        10 -11.4336    167.6045    190.0956   1.1209940709e+02   1.0744560108e+01    0.3811085    0.2777762 -21.04  0.001813939    1.746    0.427
        11 -10.7341    163.1527    210.1441   1.1639880573e+02   8.1061564340e+00     0.215445    0.1903263 -57.08  0.001073274    1.366    0.268
        12 -10.1093    176.5254    187.9770   1.0985964697e+02   9.4026147917e+00    0.1981663    0.1396591 -41.64  0.001028202    1.580    0.367
        13 -11.9358    155.0037    196.7982   1.1591020607e+02   1.1928827486e+01    0.3803632    0.2748643 -88.13  0.001877516    2.115    0.527
        14 -10.3443      9.7825    210.8372   1.4746687219e+02   3.0457066325e+01     0.190853    0.1046871  76.26 0.0007425373    1.454    0.312
        15 -11.8673     36.9225    183.8911   1.4017632736e+02   3.3150161525e+01    0.2060478    0.1665822  55.70 0.0004245726    1.206    0.171
        16 -11.7882    207.1182    179.7283   1.0217420498e+02   4.9109202517e+00    0.7112811    0.3913598  27.29  0.003161034    2.075    0.518
        17 -10.1160    198.7926    222.3926   1.1141443511e+02  -4.3722471961e-02    0.1806074    0.1709552 -15.89 0.0004684544    1.284    0.221
        18 -11.2447     10.8868    206.3801   1.4702038325e+02   3.1220413780e+01    0.3429512    0.2431896  25.40  0.002394708    1.976    0.494
        19  -9.5216     27.8582    180.0000   1.4179740869e+02   3.4959110517e+01    0.1702405   0.06308362  32.42 0.0007906191    2.861    0.650
        20 -11.1732     29.8588    208.0827   1.4352758947e+02   2.8936280751e+01    0.1609612    0.1415201  -6.08 0.0006397427    1.945    0.486
        21 -12.0358    196.0239    171.5955   1.0272259657e+02   8.4179510867e+00    0.6755134    0.3980904 -48.87  0.002300483    2.015    0.504
        22  -9.5113     11.7902    168.5698   1.4438248112e+02   3.8949483973e+01    0.1134797   0.06816047 -61.11 0.0005208782    1.687    0.407
        23 -10.7210    160.9334    198.2770   1.1491427273e+02   1.0555569591e+01     0.268427    0.1943881  66.79  0.001213304    1.723    0.420
        24 -10.7491    122.7634    165.9110   1.1775458270e+02   2.4163348815e+01    0.2598683    0.1932088  52.51 0.0002800167    1.265    0.210
        25 -10.4306    194.4601    165.9592   1.0188224349e+02   9.7079206843e+00    0.2759323    0.2220498 -76.06   0.00088222    1.786    0.440
        26 -11.0726    158.8154    204.8734   1.1644127274e+02   9.7932585800e+00    0.3534934    0.2069966  58.23  0.001456124    2.028    0.507
        27 -10.2908    223.7983    163.7496   9.5814023659e+01   4.2869255533e+00     0.236762    0.1744733 -59.52 0.0007878306    1.954    0.488
        28 -10.6653    163.4617    204.1651   1.1537023856e+02   9.0622206444e+00    0.2730619    0.2330884 -58.43  0.001128123    1.411    0.291
        29 -11.5633    110.9243    158.2073   1.1922198630e+02   2.8038390160e+01     0.371098     0.217008  50.61  0.001080724    1.667    0.400
        30 -11.6805     24.8460    156.6380   1.4036495663e+02   4.0387938986e+01    0.4723784    0.2825076  47.81  0.002146862    1.639    0.390
        31 -11.6174     27.9287    151.2092   1.3906352036e+02   4.1314601171e+01    0.3888457    0.1908357  56.80  0.001957609    2.112    0.526
        32 -11.0788    139.8222    156.4380   1.1188091981e+02   2.2833090440e+01    0.2551482    0.2445461  71.85 0.0003068286    1.045    0.043
        33 -13.3073    139.0392    200.5549   1.1990286897e+02   1.4183125421e+01    0.6725476    0.3586341  41.68  0.003189446    1.634    0.388
        34  -7.5329      6.6931    154.6244   1.4444961838e+02   4.2405891910e+01    0.2244982    0.1163042 -52.50  0.001184475    2.162    0.538
        35  -9.9425      9.6633    152.6701   1.4359842165e+02   4.2601002670e+01     0.184393    0.1403506 -60.16  0.001264066    1.392    0.282
        36 -10.1441    161.4842    153.4933   1.0626781015e+02   1.8926918952e+01    0.1500965    0.1415756  39.52 1.171255e-05    1.011    0.011
        37 -12.9632    134.0242    145.4933   1.1100216382e+02   2.6347606248e+01     1.260839    0.3318939 -54.20  0.003164782    5.441    0.816
        38 -10.3704    174.8736    149.1344   1.0236807937e+02   1.6910979288e+01    0.2284431    0.2075286  78.67 0.0006018818    1.244    0.196
        39 -11.9728    144.8048    146.1789   1.0854824341e+02   2.3959792872e+01    0.4317464    0.3150227  87.01  0.001912378    1.937    0.484
        40 -11.8574      3.6888    145.0095   1.4437795541e+02   4.4749166178e+01    0.6416661    0.3791567 -16.27   0.00345717    3.176    0.685
        41 -11.7231      3.8090    137.9812   1.4374737315e+02   4.6299484563e+01    0.7131798    0.3171477 -65.84  0.003903036    1.815    0.449
        42 -13.3867      2.9831    127.7926   1.4301846825e+02   4.8629805719e+01     1.274344    0.7041953  89.41  0.007415317    1.620    0.383
        43 -13.0323    113.0709    139.2483   1.1496676638e+02   3.1880868789e+01    0.8530741    0.5795408  10.22  0.003490605    2.539    0.606
        44 -12.1277    103.9426    138.3919   1.1718214467e+02   3.3774065848e+01    0.2983026    0.2563291  43.31 0.0004563489    1.173    0.147
        45 -12.0426      5.1096    112.2847   1.4079719831e+02   5.1975974590e+01    0.4436648      0.43512  89.52  0.003209301    1.249    0.199
        46 -10.1258    152.6485    139.3205   1.0517114264e+02   2.3710022394e+01    0.1592358    0.1212926  83.60  0.000704782    1.746    0.427
        47 -11.4328     13.6976    142.0313   1.4165779600e+02   4.4649717501e+01    0.2201705     0.187819  55.48 0.0004009888    1.266    0.210
        48 -11.9271    106.0239    130.8597   1.1504237517e+02   3.5108400954e+01    0.4104493    0.3547902 -73.94  0.001213555    1.179    0.152
        49 -10.9912    107.7644    125.4222   1.1336628201e+02   3.6015993062e+01    0.2885706    0.2563171  -0.98 0.0007125389    1.358    0.264
        50 -12.0369    119.0623    129.4263   1.1125608697e+02   3.2913058780e+01    0.3984723    0.3540779 -62.71  0.000997562    1.140    0.123
        51 -12.1655    124.2061    126.6292   1.0926618103e+02   3.2489535183e+01    0.6076273    0.3900777  80.08  0.002284551    2.696    0.629
        52 -12.1595    135.4669    122.1714   1.0530750312e+02   3.1077445921e+01    0.6712467    0.2347195 -50.20  0.002112545    3.140    0.681
        53 -10.7498    160.7670    127.8772   1.0060016795e+02   2.4248685319e+01    0.3030544    0.2234828 -64.10  0.001369906    1.641    0.391
        54  -9.6303    142.9408    127.8040   1.0481073359e+02   2.8246085102e+01    0.2563524    0.1758866  73.02 0.0007744435    2.000    0.500
        55 -11.0335    113.0407    118.4606   1.1030137517e+02   3.6558209445e+01    0.3501544    0.2761953  76.32  0.001214512    1.507    0.336
        56 -10.3075    117.8951    116.1287   1.0841444701e+02   3.6099363030e+01    0.2358322    0.2006361  78.39 0.0005806409    1.313    0.238
        57 -10.5726    168.2121    113.0946   9.5231869095e+01   2.5465062236e+01    0.4385311    0.2926994 -87.50  0.001643794    2.629    0.620
        58 -11.3557     17.4948    141.6045   1.4066119029e+02   4.4433734915e+01    0.2121872    0.1664809  61.57 0.0004758193    1.262    0.207
        59 -11.9712     84.4056    110.1971   1.1652022972e+02   4.3644740103e+01    0.3223292    0.2477221 -55.77  0.001684678    1.246    0.197
        60 -11.8209     12.4026    116.0722   1.3916204885e+02   5.0630996024e+01    0.2727842    0.1793669  16.17  0.001674672    1.971    0.493
        61 -10.2243    205.6671    110.1221   8.6936350784e+01   1.7191741743e+01    0.2837673    0.2164308  44.38 0.0006952366    1.337    0.252
        62 -10.2043     91.6866     78.9527   1.0591911100e+02   4.9192329390e+01    0.2005873    0.1781034 -40.06  0.000247185    1.096    0.088
        63 -11.0128    208.2032    196.8529   1.0522320280e+02   2.0385979556e+00    0.1955484    0.1738673  41.27 0.0006570884    1.228    0.186
        64  -7.5587     13.4831    244.9360   1.4848753161e+02   2.3827284366e+01    0.1651388   0.08111669 -77.57  0.001101016    1.934    0.483
        65 -12.7117    176.2942     29.7926   7.0039641567e+01   3.7014257583e+01    0.5210668    0.4420319  17.13  0.001434158    1.429    0.300
        66  -9.8352     13.3842     59.7960   1.2918009009e+02   6.2983870617e+01     0.172048    0.1262485 -68.44  0.000446509    1.329    0.247
        67 -10.0279    128.4040     27.8384   7.8145455095e+01   4.9532279287e+01    0.2427479    0.1825626  69.21 0.0006106688    1.364    0.267
        68 -11.9881    159.1114    235.7464   1.2096947209e+02   4.7356387778e+00    0.3240581    0.2484404  24.56  0.001223288    1.323    0.244
