#   1 NUMBER                 Running object number                                     
#   2 MAG_AUTO               Kron-like elliptical aperture magnitude                    [mag]
#   3 X_IMAGE                Object position along x                                    [pixel]
#   4 Y_IMAGE                Object position along y                                    [pixel]
#   5 X_WORLD                Barycenter position along world x axis                     [deg]
#   6 Y_WORLD                Barycenter position along world y axis                     [deg]
#   7 A_WORLD                Profile RMS along major axis (world units)                 [deg]
#   8 B_WORLD                Profile RMS along minor axis (world units)                 [deg]
#   9 THETA_WORLD            Position angle (CCW/world-x)                               [deg]
#  10 FWHM_WORLD             FWHM assuming a gaussian core                              [deg]
#  11 ELONGATION             A_IMAGE/B_IMAGE                                           
#  12 ELLIPTICITY            1 - B_IMAGE/A_IMAGE                                       
         1 -14.0673     68.1624    144.3160   1.0396996014e+02   3.7540892335e+01      3.66036     1.745527 -84.55  0.004693489    4.196    0.762
         2 -13.7357    233.3936     13.8383   3.4430725857e+01   2.5669560145e+01    0.9154119    0.8596032  15.48  0.002684934    1.483    0.326
         3 -12.8530    197.4208     47.4400   4.6424791965e+01   2.9862257768e+01     1.351723     1.117184  85.53  0.007601651    1.175    0.149
         4 -13.5147    212.6820     33.5923   4.0971442591e+01   2.8039670292e+01      1.11998    0.8028918 -50.47  0.004155602    1.312    0.238
         5 -12.8069    219.8302     26.9691   3.8620532721e+01   2.7194473479e+01    0.6023843    0.4797404  41.70  0.001511931    1.596    0.373
         6 -10.0366      2.3892      2.7868   9.1805978552e+01   7.4154928092e+01    0.1640729   0.07363278 -35.82 0.0009593799    1.715    0.417
         7  -9.2770    120.1247      1.7824   4.5223842753e+01   5.4076087942e+01    0.2552043     0.143896  89.66   0.00111984    2.577    0.612
         8 -11.0387     61.2753    234.6570   1.1642319186e+02   1.8094199170e+01    0.3158598    0.1984936  84.51 0.0006264705    1.618    0.382
         9  -9.6072    173.9772    249.9450   9.5431710615e+01  -1.2651954690e+00    0.1859465     0.140056  56.09  0.001127853    1.716    0.417
        10 -14.9989     77.2711    247.1750   1.1435203700e+02   1.3642196746e+01     9.445667     3.136372  26.97   0.02493829    8.665    0.885
        11  -9.1184     33.4268    226.4618   1.2125929114e+02   2.3019660539e+01    0.1166323   0.08886018  69.24 1.525547e-05    1.017    0.017
        12  -9.9684     37.0387    223.8630   1.2037872015e+02   2.3140205918e+01    0.2709776    0.1566925  74.35 0.0009500664    1.577    0.366
        13 -14.4409     10.2910    207.8174   1.2461041015e+02   2.9154712982e+01    0.9202562    0.7536359  71.15   0.00271157    1.117    0.105
        14 -10.3642     40.4917    246.7578   1.2124206545e+02   1.8328699520e+01    0.4412165    0.2342321 -80.48  0.002713046    1.879    0.468
        15 -11.9563     43.9330    216.6873   1.1845983586e+02   2.3821764387e+01     0.505074    0.3144652  88.93  0.002052094    1.513    0.339
        16 -13.2235      5.9522    185.6758   1.2417059859e+02   3.4272785495e+01     1.333883     0.635914  76.76  0.007139763    1.951    0.487
        17  -9.5984     93.3601    219.9363   1.0830498347e+02   1.6575315075e+01    0.1746295    0.1571862  86.21 0.0008723447    1.149    0.130
        18 -14.5890      7.6390    239.0492   1.2666442110e+02   2.3226587113e+01     1.996464     1.344575 -76.03   0.01474326    1.521    0.343
        19 -13.2493     86.8421    227.4358   1.1052671480e+02   1.6036722417e+01     1.508106    0.7790957  48.05  0.001782223    1.651    0.394
        20 -10.5551     36.7773    248.4214   1.2201440164e+02   1.8447157255e+01    0.3185261    0.2125415  68.17  0.002079014    1.187    0.157
        21 -11.8000     30.8311    248.5650   1.2308191397e+02   1.9083473519e+01    0.4833994    0.3450047  14.23  0.003131323    2.379    0.580
        22  -8.9144    113.0238    207.5069   1.0233548400e+02   1.6047793880e+01    0.1978512    0.1217924  39.89 0.0009829403    1.448    0.310
        23 -10.5280    192.4639    193.6401   8.2299198890e+01   4.7926580246e+00    0.6722133    0.3504209 -58.01     0.002466    3.695    0.729
        24 -10.9138     28.6734    245.6810   1.2330462160e+02   1.9848457949e+01    0.3916005    0.2763813   4.26  0.002014806    2.951    0.661
        25 -12.0138     57.7084    180.1341   1.1182737450e+02   3.0241170142e+01    0.4294572    0.2893647 -35.01  0.001673881    2.116    0.527
        26 -12.0239     63.3922    174.4493   1.0972175132e+02   3.0852458769e+01    0.3326299    0.2726801 -46.45  0.000954703    1.398    0.285
        27 -11.6495     73.7000    164.5221   1.0568527768e+02   3.1830824610e+01    0.3188365     0.311298  77.92 0.0003516425    1.103    0.093
        28 -13.5413     80.0277    158.0235   1.0297180597e+02   3.2491693780e+01     2.689788     1.054744  54.23  0.001028522    3.849    0.740
        29 -13.1790     28.7201    208.0623   1.2092925318e+02   2.7308644308e+01     0.529732    0.3590856 -48.83  0.001808245    1.979    0.495
        30 -11.7572     33.0627    156.7375   1.1531586052e+02   3.8554369330e+01    0.4338171    0.2641574 -85.45  0.001796244    1.546    0.353
        31 -12.4739     17.3781    217.5334   1.2379440477e+02   2.6485813407e+01     0.358315    0.2875348 -59.48  0.002587937    1.584    0.369
        32  -9.0076    124.8434    153.8868   9.0175963981e+01   2.5834253138e+01    0.2040592    0.1771584  84.19 0.0004128242    1.314    0.239
        33  -8.7017    174.6935    149.3168   7.6928262764e+01   1.6730624853e+01    0.1497183    0.1248981 -88.87 0.0006210734    1.629    0.386
        34 -10.3522    133.6135    144.0441   8.5754502798e+01   2.6382261611e+01     1.027686    0.2415869 -54.00  0.002160012    6.990    0.857
        35 -10.1686     89.8320    148.1333   9.8529497742e+01   3.3392304286e+01    0.2019975     0.177852 -18.12 0.0004942064    1.326    0.246
        36 -10.7077     96.0385    143.7187   9.5930509292e+01   3.3448714287e+01    0.3504041    0.2831093  45.15 0.0008014377    1.250    0.200
        37  -9.9173     99.2014    140.2254   9.4323288857e+01   3.3757885767e+01    0.3992977    0.2752301 -15.53  0.001285408    2.198    0.545
        38 -12.1645     84.1234    142.1530   9.9011732217e+01   3.5756738998e+01    0.3235511    0.2625938 -50.56 0.0005110717    1.213    0.176
        39 -11.2291     29.7591    143.4359   1.1464181088e+02   4.2083049093e+01    0.3507742    0.2648094 -38.48  0.002070008    1.538    0.350
        40  -9.3764    159.0300    135.0905   7.7260475211e+01   2.3045278670e+01    0.2456418    0.1966608 -84.17 0.0008267343    1.695    0.410
        41 -10.8545    107.0387    131.5986   9.0210789633e+01   3.4439263224e+01    0.4575922    0.3678448  43.00  0.001340864    1.260    0.206
        42 -11.4616     19.2055    131.2138   1.1611374776e+02   4.5925670461e+01     0.307947    0.1991471  45.47  0.001389379    1.699    0.411
        43 -11.1445     47.5416    130.2850   1.0766294286e+02   4.3545326275e+01     0.259831    0.1926613  86.27  0.001395568    1.455    0.313
        44  -9.4833    137.5129    170.5229   9.0306112396e+01   1.9663352166e+01    0.1496817    0.1426058  36.69 0.0001532028    1.005    0.005
        45 -10.4964     95.4553    128.0442   9.2782703811e+01   3.7354935034e+01    0.3244939    0.2553006 -23.25 0.0009483867    1.494    0.331
        46 -13.4151     60.4753    160.7507   1.0862899806e+02   3.4514735055e+01     0.579089    0.3494036 -41.85  0.001634028    2.012    0.503
        47 -10.2799    239.4982    126.9755   5.9214895416e+01   7.7671088662e+00    0.2144442    0.1230392 -35.96 0.0005462012    1.548    0.354
        48  -8.5029    125.6521    127.3184   8.3974600866e+01   3.1835551567e+01    0.1624906    0.1261178  80.43 0.0007048529    1.731    0.422
        49 -10.0983    115.1504    125.6919   8.6512672912e+01   3.4303257309e+01      0.30173    0.2014324 -22.85  0.001224765    2.042    0.510
        50  -9.7918    105.8444    120.0930   8.7847862972e+01   3.7394423423e+01    0.2211529    0.2115159 -18.16 0.0003426478    1.057    0.054
        51 -10.2942     23.8657    116.8695   1.1282145134e+02   4.9046198081e+01    0.1956201    0.1524075 -54.82  0.000406438    1.150    0.131
        52  -9.6027    168.2695    113.3009   6.9612842559e+01   2.5537076008e+01    0.3084282    0.2262231 -79.59  0.001054161    2.023    0.506
        53 -11.1167    245.4949    108.4954   5.4181155478e+01   9.6871043615e+00    0.2535768     0.120131 -36.65  0.001120618    1.850    0.459
        54 -10.1684     35.3697    111.5729   1.0831153653e+02   4.9363351739e+01    0.2835425    0.1523511  51.70  0.001301331    2.375    0.579
        55 -10.1594    205.1429    110.6728   6.1336841849e+01   1.7682788132e+01    0.3407583    0.2561952  32.34  0.001341935    1.497    0.332
        56  -9.8993    134.4862    102.9670   7.5202917253e+01   3.5373611532e+01    0.2418706    0.1556859 -42.15 0.0005534436    1.558    0.358
        57  -9.8823    239.2951     98.3606   5.2800124692e+01   1.2562149375e+01    0.1371435    0.1052098  -0.96 0.0007031746    1.705    0.413
        58 -15.8882     38.3918    196.0497   1.1792491480e+02   2.8878686462e+01     9.153407     3.440768  81.29   0.02874303    5.051    0.802
        59 -10.3487    161.0091     82.2650   6.2749272675e+01   3.3264602595e+01    0.2245725    0.2016534  48.44 0.0005539494    1.098    0.089
        60  -8.8610    184.5142     77.4666   5.6601237901e+01   2.8382166739e+01     0.147835    0.1445413  27.33 -4.909169e-05    1.080    0.074
        61  -9.6794     31.1011     61.2375   9.8637898753e+01   6.1309520528e+01    0.3841442    0.1571028  40.07   0.00161025    3.345    0.701
        62 -10.7950     13.4331     60.2531   1.0595142844e+02   6.2827200162e+01    0.2112381    0.1845007 -52.43 0.0004263082    1.160    0.138
        63 -10.2146      2.2005     58.1836   1.1029737124e+02   6.3841723042e+01    0.1482576    0.1332713 -83.16  0.001069141    1.346    0.257
        64  -9.3389     33.5055     55.1727   9.5788069350e+01   6.2341432188e+01      0.22556    0.1530574  40.78  0.001260958    1.910    0.477
        65  -9.1829     15.4813     54.4562   1.0357001542e+02   6.3924013635e+01     0.120745    0.1005403 -42.19 7.885492e-05    1.084    0.077
        66  -9.6528     44.0783    229.6849   1.1941614496e+02   2.1172056699e+01    0.2614157     0.133202  79.07  0.001396744    2.056    0.514
        67 -11.3614     56.9331    238.7089   1.1759573476e+02   1.7864813391e+01    0.2980576    0.1959996  85.16 0.0009056595    1.481    0.325
        68 -12.8852    205.0200     38.7955   4.3181073030e+01   2.9189986973e+01    0.7764724    0.5751283 -65.48   0.00226806    1.332    0.249
        69 -11.4970     40.1339    234.4960   1.2051226912e+02   2.0687446552e+01    0.2505632    0.1888917  81.16 0.0004770526    1.157    0.136
        70 -11.2582     37.7841    230.9644   1.2072244937e+02   2.1643591398e+01    0.2773293    0.2020421 -73.66 0.0003477573    1.439    0.305
        71  -9.0923     24.7833     44.1872   9.6212097973e+01   6.5302705109e+01    0.1761551    0.1276381  65.51 0.0009314617    2.710    0.631
        72 -10.8970    132.7211     39.8534   5.5928758799e+01   4.6991269382e+01    0.3289093    0.2593171 -80.43  0.000553851    1.627    0.385
        73  -9.1341    142.4010     40.1571   5.3893773069e+01   4.4574930500e+01     0.190747    0.1316456 -44.39 0.0001652255    1.594    0.373
        74 -10.3170    189.4945     15.1679   3.9011716468e+01   3.5741645845e+01    0.2179955    0.1620694 -78.02 0.0006863689    1.296    0.229
        75 -10.0400     34.4921    238.0122   1.2179862361e+02   2.0648845735e+01     0.202805    0.1133819  55.05 0.0003790451    1.412    0.292
