#   1 NUMBER                 Running object number                                     
#   2 MAG_AUTO               Kron-like elliptical aperture magnitude                    [mag]
#   3 X_IMAGE                Object position along x                                    [pixel]
#   4 Y_IMAGE                Object position along y                                    [pixel]
#   5 X_WORLD                Barycenter position along world x axis                     [deg]
#   6 Y_WORLD                Barycenter position along world y axis                     [deg]
#   7 A_WORLD                Profile RMS along major axis (world units)                 [deg]
#   8 B_WORLD                Profile RMS along minor axis (world units)                 [deg]
#   9 THETA_WORLD            Position angle (CCW/world-x)                               [deg]
#  10 FWHM_WORLD             FWHM assuming a gaussian core                              [deg]
#  11 ELONGATION             A_IMAGE/B_IMAGE                                           
#  12 ELLIPTICITY            1 - B_IMAGE/A_IMAGE                                       
         1 -10.0502    249.7621     16.8696   2.1930676346e+01   2.4313234510e+01    0.4990457    0.1780137 -35.83  0.002627699    2.300    0.565
         2  -7.5069    191.6691      5.0851   2.3200980711e+01   3.6977938296e+01      0.14933    0.1092158 -15.36 0.0005274151    1.811    0.448
         3  -7.5417     12.3199      2.6654   6.7263625765e+01   7.5327324318e+01   0.09828635   0.09494293  42.51 0.0007049422    1.701    0.412
         4  -9.2130      4.9244    239.6983   1.1384664421e+02   2.1186181260e+01     0.318032    0.1509362  82.22  0.000677418    2.007    0.502
         5  -7.4533    152.4996    250.5173   8.3444055920e+01   2.0284872952e+00    0.1226889   0.09974131  12.62 -1.233981e-05    1.011    0.011
         6  -8.4616    153.9850    247.0453   8.2675266689e+01   2.3990030200e+00    0.1865505    0.1637615 -17.87 0.0003674214    1.201    0.167
         7  -7.3313    126.0258    249.9384   8.8878820698e+01   5.4807316466e+00    0.1397797    0.1260963  14.70 0.0004802673    1.088    0.081
         8  -9.9054     27.4960    248.2973   1.0966981699e+02   1.7366621833e+01    0.4951999    0.2564519  33.37  0.002866965    1.661    0.398
         9  -8.7496     21.2459    244.1630   1.1073129183e+02   1.8793799584e+01    0.4157757    0.1804672 -66.24  0.001812328    2.434    0.589
        10  -9.7172     17.2888    250.1595   1.1182323570e+02   1.7991858220e+01     0.693783    0.2002518  24.84  0.002875255    3.703    0.730
        11 -10.1704      4.4454    249.2044   1.1431286281e+02   1.9347832171e+01    0.6403916    0.2788565  28.33  0.003483017    2.154    0.536
        12 -10.1687     13.2840    244.5637   1.1236976095e+02   1.9463109986e+01     0.674832    0.2653187  74.17  0.003227708    2.737    0.635
        13  -8.6497     13.4732    239.9938   1.1212124537e+02   2.0361429523e+01    0.2452613    0.1390336  53.76  0.001311926    1.426    0.299
        14  -8.3528      1.3923    240.9985   1.1460484803e+02   2.1229766145e+01    0.1563314   0.09483388 -87.02 0.0004503887    1.557    0.358
        15  -7.9268    150.0902    238.5265   8.2311205871e+01   4.3131841445e+00    0.1762069    0.1543781  -7.49 0.0004098641    1.115    0.103
        16  -9.4488     50.8315    237.3517   1.0400622227e+02   1.7102416663e+01    0.2844898    0.2051773  60.21  0.001060614    1.265    0.209
        17  -8.1298     94.4154    236.1888   9.4181180615e+01   1.2076200529e+01    0.1556627    0.1216202 -89.03 0.0004405794    1.559    0.359
        18  -8.0994     75.1276    236.2933   9.8518653814e+01   1.4476609128e+01    0.2047355    0.1257572 -21.61  0.000953493    2.795    0.642
        19  -9.0013    121.8253    234.2336   8.7831578503e+01   8.8402799752e+00    0.2812613    0.2083879 -35.12  0.001046686    1.497    0.332
        20  -8.4784     41.7579    233.5236   1.0571753854e+02   1.8882823848e+01    0.2897163    0.2098221 -35.50   0.00171682    1.921    0.479
        21  -8.3087     82.8597    233.4741   9.6494925222e+01   1.4085352302e+01    0.2374801    0.1490979 -44.63  0.000885625    1.906    0.475
        22  -8.0966     57.5706    234.1472   1.0225618250e+02   1.6997880792e+01    0.1643295     0.109689 -56.14 0.0006693135    1.705    0.413
        23  -8.6452     36.2859    232.8117   1.0687031928e+02   1.9608764111e+01    0.2989512    0.1332752  48.79 0.0008487988    1.915    0.478
        24 -10.0869     26.5597    181.3756   1.0525700306e+02   3.2441969197e+01    0.4365349    0.2962086  17.75 0.0002349213    1.709    0.415
        25 -11.1199     17.8185    218.9673   1.1009330260e+02   2.4404373065e+01     1.123767    0.5500274  65.46  0.004110554    1.957    0.489
        26 -10.4667      9.4295    228.5255   1.1242496485e+02   2.3098586854e+01    0.6787645    0.4156335  68.31  0.004169687    1.408    0.290
        27 -11.0505      2.1831    222.2105   1.1368150192e+02   2.5067382598e+01     1.717905    0.3745724 -78.03  0.006479554    4.099    0.756
        28 -11.9659     23.6977    195.6072   1.0715508060e+02   2.9230276011e+01     1.575493    0.9267815  12.84  0.007944459    2.165    0.538
        29  -8.6749     90.7646    229.9759   9.4317663261e+01   1.3782692488e+01    0.1902037    0.1651374   1.73 0.0007424012    1.274    0.215
        30  -7.5440     61.4633    229.4607   1.0097103239e+02   1.7520652838e+01    0.1255774    0.1100699  50.05 0.0001254804    1.015    0.014
        31  -7.6264     63.7908    227.0552   1.0021802269e+02   1.7752395758e+01    0.1593651    0.1480626 -29.44 0.0002858805    1.290    0.225
        32  -9.5237     26.7067    228.4323   1.0868897203e+02   2.1504097798e+01    0.3571284    0.1811687  30.29 0.0009627594    1.833    0.455
        33  -8.5412    103.3632    227.2102   9.1105205294e+01   1.2678719532e+01    0.1670057    0.1251007 -78.86 0.0004179971    1.668    0.400
        34  -8.3868     73.5325    225.3071   9.7793423761e+01   1.6937469499e+01    0.2020386     0.171204 -71.95 0.0002205519    1.276    0.216
        35  -8.8400     91.5991    223.7359   9.3409552648e+01   1.4952421848e+01      0.20338     0.149188 -20.81 0.0008391385    1.764    0.433
        36  -8.2173     87.0968    222.1017   9.4273585747e+01   1.5885083808e+01    0.1865301    0.1683529  -6.79 0.0003043902    1.245    0.197
        37  -8.3347    146.0180    221.0752   8.0644921610e+01   7.9683027738e+00    0.1913582    0.1703188  10.57 0.0003416002    1.030    0.030
        38  -8.3208     50.2491    219.4245   1.0267716461e+02   2.0973821931e+01     0.328339    0.2128752  -5.09   0.00161245    2.455    0.593
        39  -7.9792    250.3092    218.9715   6.0560599640e+01  -4.7905702121e+00    0.1602446     0.110777 -21.81 0.0004025059    1.115    0.103
        40  -8.4186     36.9057    223.2286   1.0606110767e+02   2.1589578500e+01    0.2732212    0.1629043  41.20  0.001531892    1.449    0.310
        41  -9.5892     31.4730    217.6055   1.0690143891e+02   2.3385696774e+01    0.3351736    0.2429882   2.41  0.001928071    1.879    0.468
        42  -8.2324     84.5581    215.0126   9.4048199420e+01   1.7735618817e+01    0.1834718    0.1305377 -63.47 0.0003409975    1.508    0.337
        43 -10.0204     28.3010    211.9281   1.0723682812e+02   2.4978537961e+01    0.6108925    0.4053205  10.60  0.001818574    1.942    0.485
        44  -7.8216     95.7575    211.9612   9.0968330366e+01   1.6889299053e+01    0.1740206    0.1146279 -59.59 0.0008904564    1.629    0.386
        45  -7.3767    118.3366    208.2868   8.5040588276e+01   1.4470365388e+01    0.1390778    0.1027416  -8.50 0.0002431265    1.631    0.387
        46  -7.4768     64.5034    208.5133   9.8198319309e+01   2.1744612419e+01    0.1296136    0.1238628  51.33  0.000809468    1.073    0.068
        47  -7.0732    159.2920    206.6942   7.5449374289e+01   8.7574772406e+00    0.1224273    0.1074323  65.63 0.0005499417    1.577    0.366
        48  -7.8217     91.8706    204.4878   9.0935327438e+01   1.9071554440e+01    0.1981875    0.1275585  32.53 0.0003984389    1.454    0.312
        49  -8.6574     27.0497    204.0756   1.0696605429e+02   2.6908572187e+01    0.1988853    0.1735672  65.15  0.001065154    1.032    0.031
        50  -7.1068    115.7249    203.2964   8.4918192080e+01   1.5911757449e+01    0.1333992    0.1052724  63.92 0.0001982829    1.528    0.346
        51  -8.0345     97.0023    200.4594   8.9104985010e+01   1.9255429219e+01    0.2115355    0.1859363 -60.76 0.0006547229    1.199    0.166
        52  -7.1166    113.3063    200.3212   8.5053517624e+01   1.6913199144e+01    0.1423159    0.1055362 -16.08 0.0001694091    1.639    0.390
        53 -10.7849     32.1693    189.1704   1.0447473250e+02   2.9969562288e+01    0.6207887     0.480029 -72.62  0.003450488    1.243    0.196
        54  -8.6480    101.1121    198.6532   8.7818772742e+01   1.9071631152e+01    0.2287169    0.1973403 -49.78 0.0003979973    1.212    0.175
        55  -8.6301     51.9992    199.7434   1.0040401471e+02   2.5276390246e+01    0.3062517    0.1074414  34.59 0.0009274487    2.474    0.596
        56  -7.6396     78.7977    198.1480   9.3393903728e+01   2.2304603998e+01    0.1837146    0.1597042 -27.05 0.0004713555    1.320    0.242
        57  -7.7186     89.2867    197.0050   9.0567530252e+01   2.1133279057e+01     0.291978    0.1779339  -3.85  0.001169689    2.809    0.644
        58 -10.5132     14.4636    202.6333   1.0988484233e+02   2.8408364767e+01    0.3431158    0.2889299 -66.76 0.0007369519    1.286    0.223
        59 -11.0876     10.1455    208.2682   1.1122660178e+02   2.7485292232e+01    0.5399567    0.3671451  49.47 0.0004195572    1.288    0.224
        60  -9.1831      9.2583    188.3524   1.1024978195e+02   3.2237722972e+01    0.3226518    0.1675891  60.38  0.001617973    1.816    0.449
        61  -7.0599     65.0000    187.4337   9.5631122395e+01   2.6667706578e+01    0.2976509   0.07773092 -65.69 0.0009230813    3.841    0.740
        62  -7.1654    106.7353    187.2952   8.4652462737e+01   2.0823390836e+01     0.138571    0.1098599  68.86 0.0001513673    1.509    0.337
        63  -7.5566     61.5808    187.1624   9.6508558985e+01   2.7163444118e+01    0.1936533    0.1215187 -55.00 0.0005015138    1.620    0.383
        64  -8.8038     12.2080    182.1992   1.0908565660e+02   3.3500135536e+01    0.4073743    0.1867181 -54.84  0.001874355    2.277    0.561
        65  -8.8487      3.3852    181.9701   1.1132834636e+02   3.4244583953e+01    0.4740207    0.1423477 -59.12  0.001862444    3.140    0.682
        66  -7.7073     59.2720    182.9857   9.6615608798e+01   2.8479789832e+01    0.1902573    0.1725544 -73.93 0.0002510937    1.091    0.083
        67  -8.4446     42.7065    181.9497   1.0098176567e+02   3.0659318394e+01    0.4178839    0.1657781 -66.19  0.001705014    2.316    0.568
        68  -7.9239     18.4548    182.9221   1.0751882718e+02   3.2793463062e+01    0.2032386    0.1158261 -77.27  0.001007188    1.595    0.373
        69  -9.9183     47.1317    177.5925   9.9290541533e+01   3.1265309159e+01    0.4847331    0.3326918 -75.10  0.001328875    1.404    0.288
        70  -7.4444    244.6586    180.3119   5.4712211149e+01   1.4434079578e+00    0.1081444   0.09094421 -54.06 0.0007046102    1.698    0.411
        71  -8.0448     80.8370    179.5947   9.0291243798e+01   2.6472289715e+01    0.2473548    0.1822815 -53.03 0.0004493546    1.371    0.271
        72  -7.2282    117.0000    178.0119   8.0449652849e+01   2.1356102241e+01    0.2270734   0.08293197 -54.12 0.0004184849    2.777    0.640
        73  -7.2457     86.6863    177.7221   8.8417026491e+01   2.6094682997e+01     0.143619    0.1117847 -20.09 0.0002837288    1.566    0.361
        74  -8.1452     64.1959    177.0999   9.4505734334e+01   2.9332549615e+01    0.1944629    0.1560136  66.88 0.0004867981    1.277    0.217
        75  -6.9849     76.7087    176.2622   9.0925824599e+01   2.7872680183e+01    0.1436684    0.1052075  62.29 0.0001605063    1.498    0.332
        76  -9.4208     54.1827    171.4140   9.6560351285e+01   3.2017608417e+01    0.3662606    0.2573279 -45.65 0.0006741654    1.537    0.349
        77  -8.5296     28.0273    173.5058   1.0413546879e+02   3.4286680642e+01    0.2763055    0.1638235 -68.80 0.0003775766    1.544    0.352
        78  -7.9718      1.5087    175.0562   1.1138446968e+02   3.6081308713e+01    0.1962459    0.1098082 -81.46 0.0006466258    1.550    0.355
        79  -8.7811    247.9750    172.7888   5.2827354890e+01   2.1798517351e+00    0.3142444    0.1408401 -53.62  0.001107027    5.144    0.806
        80  -8.5924     35.5220    173.2308   1.0202895708e+02   3.3620804980e+01     0.225301    0.2070974 -44.09 0.0002757261    1.223    0.182
        81  -8.0174    241.3128    173.6415   5.3995905150e+01   2.9019197049e+00    0.1150296   0.09006888 -54.65  0.000355432    1.744    0.427
        82  -9.1578    175.3268    172.3904   6.5705025814e+01   1.2902238461e+01    0.2715078    0.2318757 -11.46 0.0007492943    1.101    0.092
        83  -9.5321     16.0791    170.7211   1.0717381545e+02   3.6054041264e+01    0.3139523    0.2440527 -46.59  0.001007369    1.442    0.307
        84  -9.1683     24.7065    169.7850   1.0470222956e+02   3.5544222655e+01    0.4516576    0.2480521 -17.57  0.001862376    3.110    0.678
        85  -9.8364     26.1630    163.0938   1.0362831957e+02   3.7135853379e+01    0.4328243    0.2931659 -68.73 0.0002863446    1.341    0.254
        86  -8.3859     32.9450    162.0303   1.0154286907e+02   3.6769116789e+01    0.2981896    0.1589912 -37.85  0.001036636    2.422    0.587
        87  -7.7146    156.7201    169.0038   6.9090853867e+01   1.6702547563e+01    0.1982624    0.1738984 -30.58 0.0001889629    1.077    0.072
        88  -7.0682     42.7089    168.6774   9.9489179649e+01   3.4033133100e+01    0.1416517    0.1006693 -40.52 0.0003057706    1.609    0.379
        89  -8.4619      3.3454    167.0103   1.1036736568e+02   3.7964113156e+01    0.2460953    0.1499865  55.89  0.001316561    1.573    0.364
        90  -9.1337     11.3308    162.3555   1.0780053359e+02   3.8567361432e+01     0.287458    0.1621736 -45.59  0.001397129    1.994    0.498
        91  -8.7506     66.3145    161.9080   9.1706302261e+01   3.2930965730e+01    0.2471996    0.2141993  19.19 0.0003714468    1.253    0.202
        92  -8.5535     18.7981    162.0660   1.0564789333e+02   3.8046136305e+01    0.2086336    0.1128534  88.07 0.0002997436    1.858    0.462
        93  -7.4275     99.8043    161.3658   8.2004655209e+01   2.8109048868e+01    0.1953257    0.1434719  20.76 0.0002388839    1.497    0.332
        94  -8.6567     52.3276    157.8722   9.5257639593e+01   3.5749285188e+01    0.2521611    0.2115592  20.99 0.0005545889    1.308    0.235
        95  -9.7408     74.7271    155.7761   8.8220757509e+01   3.3353731256e+01    0.5175053    0.3677623   1.03   0.00207106    1.863    0.463
        96  -8.5291     19.0319    156.0538   1.0500119921e+02   3.9588614347e+01    0.3603349    0.1481403  87.16  0.001309102    3.019    0.669
        97  -9.4034     17.2972    151.8638   1.0510051577e+02   4.0825199076e+01    0.6187738    0.1943166  21.51  0.002286588    3.426    0.708
        98  -8.9379     22.4241    149.4553   1.0328874290e+02   4.1035399048e+01    0.4284339    0.2324277 -16.12  0.001237449    2.904    0.656
        99  -7.1236     26.2979    155.6905   1.0280257688e+02   3.9055070395e+01    0.1440817   0.09420243  64.87  0.000340101    1.596    0.373
       100 -10.8579     68.5942    144.7958   8.8154467919e+01   3.7077127988e+01    0.8215767    0.5429313  70.18  0.002621126    1.979    0.495
       101  -7.9136     53.9989    148.9682   9.3414343556e+01   3.7891538090e+01    0.1803051    0.1658926 -73.93 0.0007058246    1.020    0.020
       102  -8.3682      1.8147    146.6221   1.0927426845e+02   4.3287403908e+01    0.3382249    0.1207966 -61.85  0.001407884    2.312    0.567
       103  -9.4911    246.7696    145.8009   4.7883830932e+01   6.5604422229e+00    0.3821571    0.2291023   3.60  0.001819367    2.959    0.662
       104  -7.7025     50.5370    150.4755   9.4721018218e+01   3.7909066919e+01    0.1449951    0.1348652 -69.45 2.568463e-07    1.031    0.030
       105  -7.6373    234.6904    146.6699   4.9806192883e+01   8.1662325696e+00     0.129233   0.08781955 -13.17 0.0007041231    1.666    0.400
       106  -8.4637     90.5960    143.9942   8.1274142055e+01   3.3949638742e+01    0.3179461    0.1549417  49.46  0.001152914    2.457    0.593
       107 -10.3515    242.4418    140.5847   4.7470685496e+01   8.0141914687e+00    0.4234553    0.2481135 -34.95   0.00238024    1.367    0.269
       108  -9.5519     78.7899    140.7437   8.4213703788e+01   3.6641898692e+01    0.2750914    0.2621846 -21.49 0.0003103524    1.095    0.086
       109  -7.3107     38.3148    138.3590   9.6805429663e+01   4.2487649640e+01    0.1560097   0.09779504 -39.63  0.000704342    1.751    0.429
       110  -7.9851    108.8164    136.8615   7.4419965291e+01   3.2594452488e+01    0.2647602    0.2202852  55.39 0.0008595161    1.317    0.240
       111  -7.9548      5.9855    138.0000   1.0722928033e+02   4.5275575043e+01    0.1931837   0.07806949  16.40 0.0007351073    2.885    0.653
       112  -9.5277     12.0152    135.0271   1.0499059197e+02   4.5655740232e+01    0.3602355    0.2348613  78.48  0.001503038    1.571    0.363
       113  -7.6752     30.0557    133.0100   9.8764576908e+01   4.4726886455e+01     0.221117    0.1512966 -38.37 0.0005771891    1.575    0.365
       114  -9.8706    245.1877    131.4508   4.5281899991e+01   9.0701845154e+00    0.2492373     0.174208 -17.96  0.001181038    1.536    0.349
       115  -7.4663     54.4206    141.2271   9.2024691172e+01   3.9889417230e+01    0.1954424    0.1371922 -80.03 0.0003522347    1.495    0.331
       116  -8.2665     49.9227    130.6309   9.1672918821e+01   4.3250807195e+01    0.2441529    0.1861272 -53.02 0.0003775166    1.228    0.185
       117  -8.2361     66.9819    129.9833   8.5839750475e+01   4.1183003682e+01    0.1817449     0.179112  22.61   0.00100375    1.070    0.065
       118  -7.7695     95.2588    127.0147   7.6162266990e+01   3.7429314059e+01    0.2112247    0.1979096 -54.34 0.0003370518    1.044    0.042
       119  -7.2985     36.6749    124.2941   9.5140135014e+01   4.6406137326e+01    0.1468896    0.1047185  64.52 0.0002854469    1.621    0.383
       120  -9.0042    248.2539    123.4376   4.3286101090e+01   9.8775428930e+00      0.20109    0.1199436  42.09  0.001143796    2.147    0.534
       121  -7.3482     21.9764    122.0067   9.9966331193e+01   4.8358736864e+01    0.1616544    0.1544957 -63.90 0.0005474579    1.084    0.078
       122  -7.2973     36.5709    117.4503   9.3990036549e+01   4.8231310252e+01    0.1457341    0.1284599 -53.97 2.620795e-05    1.047    0.045
       123  -9.4521    246.4129    116.1394   4.2060587835e+01   1.1304485220e+01    0.2343559    0.1586897  56.13   0.00142013    1.920    0.479
       124  -7.4243     71.9921    116.0360   8.1117192933e+01   4.4040327051e+01    0.1768795    0.1725349 -34.04            0    1.032    0.031
       125  -7.5323     13.6179    115.1835   1.0200181065e+02   5.0787164526e+01    0.1920526     0.105931 -60.11 0.0001483669    1.521    0.342
       126  -9.3079     17.5745    110.7557   9.9893720163e+01   5.1669878380e+01     0.239989    0.2205668 -58.65 0.0003056788    1.058    0.055
       127  -7.0684     82.7082    109.3167   7.5846088850e+01   4.3975370289e+01    0.1522108    0.1220827  81.06  0.000312635    1.599    0.374
       128  -8.1984     71.3152    108.9194   7.9640499258e+01   4.5939563730e+01    0.2392379     0.205318  48.56 0.0004341456    1.262    0.208
       129  -8.0342     38.7024    100.3168   8.9782994559e+01   5.2468646192e+01    0.1421305    0.1093327  70.78 0.0007016975    1.610    0.379
       130  -9.3099     74.9661     97.8138   7.5459267329e+01   4.8067992067e+01    0.2589012    0.2224765 -45.15   0.00134192    1.111    0.100
       131  -6.9208     62.7089     98.3429   8.0059553833e+01   4.9873760867e+01    0.1488749    0.1178715  79.44 0.0007026391    1.654    0.395
       132  -8.9056     18.8258     96.4118   9.6988694839e+01   5.5300257980e+01    0.2650202    0.1744338 -51.84 0.0002659869    1.311    0.237
       133  -9.0342      4.2642     94.6430   1.0264164118e+02   5.6681224943e+01    0.2383069    0.2079436 -77.77 0.0003636302    1.119    0.106
       134  -7.1947     48.6951     95.2643   8.4652864097e+01   5.2567235114e+01    0.1385047    0.1121174  65.99            0    1.526    0.345
       135  -7.4105      2.0126     87.7853   1.0252104010e+02   5.8530573117e+01    0.1538472     0.107612   7.59 0.0003926358    1.641    0.391
       136  -7.2576     37.5346     82.4192   8.5965586836e+01   5.7049608390e+01    0.1415767    0.1261965 -35.04 7.538875e-05    1.018    0.018
       137  -8.1481     23.4920     82.5030   9.2129443942e+01   5.8420428194e+01    0.1380585    0.1222128 -47.40 -2.792478e-06    1.026    0.025
       138  -7.4145    213.1510     62.1117   3.4487237245e+01   2.5537678056e+01    0.1771144    0.1239819 -57.53  0.001022875    1.284    0.221
       139  -7.9476      1.3889     62.0219   9.7969133184e+01   6.4819753942e+01    0.1867925    0.1060415 -62.84 0.0003172423    1.508    0.337
       140  -7.4816     11.5206     61.4782   9.2648342889e+01   6.4349168150e+01     0.133822    0.1095073 -38.84 2.487063e-05    1.027    0.027
       141  -8.0434      5.5151     54.4981   9.3955438110e+01   6.6319622331e+01    0.1286027     0.107596 -40.30 0.0008103626    1.026    0.025
       142 -11.0429    225.7259     39.6041   2.8228736805e+01   2.6095612198e+01    0.6763045     0.505935 -67.87  0.004493944    1.166    0.143
       143 -10.1265    231.5169     34.0813   2.6582938721e+01   2.5668746334e+01    0.3594734     0.256763  43.60  0.001311242    2.089    0.521
       144  -6.8950    105.6833     40.2966   4.6528763390e+01   5.2952415587e+01    0.1373903     0.107721 -77.22  0.000351921    1.608    0.378
       145  -8.8733     40.5059    246.0000   1.0683608124e+02   1.6485471956e+01    0.3026505    0.1264156  29.73  0.001502484    2.128    0.530
       146  -8.7319     56.5206    239.5099   1.0292797987e+02   1.6024601171e+01    0.1982654      0.15324  78.72  0.001267534    1.319    0.242
