#   1 NUMBER                 Running object number                                     
#   2 MAG_AUTO               Kron-like elliptical aperture magnitude                    [mag]
#   3 X_IMAGE                Object position along x                                    [pixel]
#   4 Y_IMAGE                Object position along y                                    [pixel]
#   5 X_WORLD                Barycenter position along world x axis                     [deg]
#   6 Y_WORLD                Barycenter position along world y axis                     [deg]
#   7 A_WORLD                Profile RMS along major axis (world units)                 [deg]
#   8 B_WORLD                Profile RMS along minor axis (world units)                 [deg]
#   9 THETA_WORLD            Position angle (CCW/world-x)                               [deg]
#  10 FWHM_WORLD             FWHM assuming a gaussian core                              [deg]
#  11 ELONGATION             A_IMAGE/B_IMAGE                                           
#  12 ELLIPTICITY            1 - B_IMAGE/A_IMAGE                                       
         1 -10.2697     24.6496     16.4828   1.1610552880e+02   6.9346722317e+01    0.3401539    0.2790242   1.36 0.0007228283    1.359    0.264
         2  -9.0488     31.8841     10.3553   1.0972675900e+02   6.9866178066e+01     0.451617    0.1902608 -32.91  0.001650836    2.289    0.563
         3  -9.7326     63.9443     14.3872   9.6666764406e+01   6.5013984731e+01    0.4106422    0.2624045  12.03 0.0009222658    1.819    0.450
         4  -9.4075     74.5739     13.5001   9.1986330060e+01   6.3369232405e+01    0.3380916    0.2497746   4.00  0.001678416    1.321    0.243
         5  -8.8980     80.1794     12.7427   8.9523678941e+01   6.2458285428e+01     0.315441    0.2579753 -17.84 0.0009955521    1.106    0.096
         6  -8.2915    134.8207     13.2630   7.4173825253e+01   5.0122524916e+01    0.2856289    0.1689049  14.96 0.0006444088    1.970    0.492
         7  -8.5210     88.4187     13.3059   8.6913963263e+01   6.0782131025e+01    0.3254958    0.1768706  25.08  0.001368697    2.179    0.541
         8  -8.6875     97.2241     12.0555   8.3462023092e+01   5.9127613071e+01    0.2851148    0.2045765  24.33 0.0007564627    1.342    0.255
         9 -10.7296     20.0652      8.8974   1.1538752465e+02   7.1191993158e+01    0.3078822    0.2018739 -10.07    0.0004629    1.637    0.389
        10  -8.3124    136.6808      8.4284   7.1762609275e+01   5.0157124999e+01     0.265343    0.1343147 -17.87   0.00107841    1.990    0.497
        11  -8.1790     39.4367      8.7467   1.0509181354e+02   6.9337597548e+01    0.1919416   0.09400879 -33.69 0.0009529234    1.738    0.425
        12  -8.3539      2.1760      7.8495   1.2503197202e+02   7.2483620504e+01    0.2457851     0.166473 -57.43  0.001587014    1.181    0.154
        13  -8.3116    128.4135      7.7661   7.3255638527e+01   5.2325621512e+01    0.2023955     0.134555  -0.17  0.000509303    1.549    0.354
        14  -9.2544    235.2748      5.0902   5.7225899814e+01   2.4616943656e+01    0.3588418    0.2378309 -16.93  0.001859661    1.477    0.323
        15  -7.8393    119.5186      6.9926   7.4977065511e+01   5.4606012127e+01    0.2117577    0.1120247  12.72 2.237269e-05    2.386    0.581
        16  -7.7089     84.9646      6.0154   8.4443156155e+01   6.2441654897e+01    0.2401598    0.1467101  15.78   0.00112603    1.798    0.444
        17  -8.9636     56.9097      4.5051   9.4573760038e+01   6.7654865213e+01    0.3565784    0.2017214   8.37  0.001568399    2.388    0.581
        18  -9.9476     49.0513      4.6822   9.8272767317e+01   6.8784100014e+01    0.2725872    0.1920613 -12.39 0.0003957957    1.271    0.213
        19  -8.9631    110.9883      4.4089   7.5916465747e+01   5.6922603101e+01    0.3262911    0.1984271 -25.98  0.000443915    1.620    0.383
        20  -8.3402    103.6316      4.6980   7.8027578498e+01   5.8595244817e+01    0.2442081    0.1444583  23.81  0.001001797    1.763    0.433
        21  -7.9359    104.5299      1.5219   7.6235809855e+01   5.8727829090e+01    0.2143078    0.1752564 -46.30 0.0008252303    1.541    0.351
        22  -8.6446     68.9047      3.7586   8.9139306006e+01   6.5771888501e+01    0.3143628    0.1699423 -13.02  0.001360836    1.994    0.498
        23  -8.5149    125.4361      3.7380   7.2154284504e+01   5.3474164684e+01     0.228888    0.1980881  -9.96  0.000495386    1.152    0.132
        24  -8.3205     13.4755      4.5952   1.1723176810e+02   7.2497995398e+01    0.2475634    0.1090836  20.39  0.001322308    2.693    0.629
        25  -8.1356    153.7752      3.2267   6.6478560639e+01   4.6155806998e+01    0.2075615    0.1526928  34.65 0.0003090557    1.286    0.223
        26  -7.8845    143.0360      2.0144   6.7873931451e+01   4.9109225591e+01    0.2778806    0.1465409  47.24 0.0003522178    1.701    0.412
        27  -7.9743    182.1992      2.1468   6.1922857549e+01   3.8589393619e+01    0.2160649    0.1851558  36.79 0.0004048355    1.124    0.110
        28  -7.9007      3.0125      1.3856   1.2211027023e+02   7.3731472963e+01    0.1362322    0.1031432  -0.84 0.0003654392    1.519    0.341
        29  -9.3321    247.5439    225.7845   1.0626103464e+02  -2.2511027960e+00    0.3463111    0.1675691 -17.06  0.002126215    2.290    0.563
        30  -8.9162    249.5186    238.9108   1.0788175483e+02  -3.5759990360e+00    0.3249898    0.1145401 -16.62  0.001592071    4.080    0.755
        31  -8.6974    249.8307    245.0303   1.0869404608e+02  -4.0822411488e+00    0.2773444     0.107387 -13.21  0.001443261    3.736    0.732
        32  -9.9252    200.6890    249.0418   1.1681571754e+02   2.3364480244e+00    0.3556818    0.1576485  30.90  0.001653828    1.809    0.447
        33  -9.0585    151.0155    249.6563   1.2481465458e+02   9.1927504344e+00     0.226558    0.1196824  35.64 0.0009941295    1.464    0.317
        34  -7.8875    123.3633    250.4650   1.2931047664e+02   1.2790404676e+01    0.1886453   0.07490511  37.34 0.0007649541    2.006    0.501
        35  -7.7943    195.1969    229.0387   1.1518304033e+02   5.0935430136e+00    0.1722613    0.1155353  21.82  0.001195455    1.315    0.239
        36  -8.4337    229.4074    227.3626   1.0935843950e+02   2.1079598270e-01    0.1966188   0.08765261 -11.21 0.0009563627    3.569    0.720
        37  -7.5540    174.9975    228.0101   1.1844570602e+02   8.2136964704e+00    0.1376175   0.09613603  36.15  0.000409722    1.053    0.050
        38  -8.3268    186.7522    226.7477   1.1629704381e+02   6.5996909033e+00    0.2826969    0.1123567  31.27  0.001396084    2.399    0.583
        39  -7.6088     70.2142    226.0201   1.3609908577e+02   2.2626619954e+01    0.1281306    0.1009211  29.07 0.0009891303    1.601    0.376
        40  -7.9202    223.8374    224.7405   1.0987471838e+02   1.2666964386e+00    0.1916386   0.09020966  16.33 0.0007891976    2.769    0.639
        41  -7.4982     51.6538    221.6910   1.3889535572e+02   2.5309918481e+01   0.07992883    0.0756444   3.15 0.0007044441    1.703    0.413
        42  -8.9144    239.3593    219.4728   1.0658975098e+02  -5.3151553424e-01    0.2621311    0.1441697  -3.25  0.001594829    2.021    0.505
        43  -8.0450    182.2927    219.8186   1.1614281611e+02   8.0536763587e+00    0.2102969     0.113077  24.77 0.0009370782    1.937    0.484
        44  -7.4601    114.5231    220.4876   1.2807577997e+02   1.7888053049e+01    0.1091568   0.08239706  50.38 4.880452e-05    1.044    0.042
        45  -7.6226     39.9685    220.5412   1.4074097843e+02   2.6677477214e+01    0.1121387   0.08216728  10.20 0.0008091124    2.578    0.612
        46  -7.5285    130.4836    220.4550   1.2527216258e+02   1.5675384507e+01    0.1104443   0.08474211  43.55 0.0001696645    1.020    0.020
        47  -7.6418    227.7611    217.3874   1.0814271255e+02   1.3783023967e+00    0.1626754    0.0775033  31.79 0.0004285446    1.596    0.373
        48  -7.4547    203.4893    216.4861   1.1205133043e+02   5.1661589752e+00    0.1192349   0.08403853  25.28 0.0002836634    1.107    0.097
        49  -8.4338    193.6630    215.5947   1.1360255797e+02   6.7834187931e+00    0.2399536    0.1427453  21.43 0.0009276429    1.666    0.400
        50  -9.0706    248.4780    213.0987   1.0414140719e+02  -1.2989736886e+00    0.2781428     0.192858 -14.98  0.001159203    1.533    0.348
        51  -7.2125    179.6192    214.7056   1.1591650017e+02   9.0659427016e+00    0.1205485   0.07358076  20.72 0.0007020056    1.754    0.430
        52  -8.1278    232.1578    212.2723   1.0663370238e+02   1.2047205849e+00    0.1923532    0.1260843   5.47  0.001145617    1.430    0.301
        53  -8.1489    122.2996    213.4067   1.2597629369e+02   1.7825092799e+01    0.2077182   0.08883157  36.98 0.0006952478    2.012    0.503
        54  -7.7975    186.4663    210.4367   1.1411918420e+02   8.5040240741e+00    0.1190879   0.08883511  29.85 0.0001419514    1.039    0.038
        55  -8.0791    163.0152    207.9826   1.1796019894e+02   1.2495841160e+01    0.1822752    0.1241554  16.77  0.001095503    1.705    0.413
        56  -7.9133    215.4407    205.6842   1.0838443469e+02   4.4566099546e+00    0.2109199     0.106618  26.84 0.0009930617    1.761    0.432
        57  -7.6600    246.6141    205.1742   1.0314648872e+02  -3.0842977455e-01    0.1564401   0.09012967  -4.87 0.0009492611    1.752    0.429
        58  -8.1951    236.1419    204.9856   1.0481240542e+02   1.3000152650e+00    0.2068716    0.1287351   8.08 0.0007409164    1.503    0.334
        59  -8.7579    227.1086    203.5497   1.0607328269e+02   2.8439152861e+00    0.2622257    0.1679054   2.54  0.001090548    1.570    0.363
        60  -8.1691    229.3235    199.3198   1.0500568141e+02   2.9290467607e+00    0.1972215    0.1173007   7.31 0.0007881586    1.744    0.427
        61  -7.7460    117.7494    205.0025   1.2589699925e+02   1.9713372424e+01    0.1567967    0.1075128  27.12 0.0006375365    1.621    0.383
        62  -8.2654    175.8439    204.3704   1.1514154486e+02   1.0936391025e+01    0.1730216   0.08803596  33.16   0.00030639    1.689    0.408
        63  -8.0247    250.4359    199.2448   1.0153658191e+02  -3.3547223004e-01    0.1937539   0.09933305 -15.54  0.001111508    2.012    0.503
        64  -7.7633    196.5033    200.4152   1.1085000042e+02   8.0894270278e+00    0.1226238   0.09206437  27.99 0.0001850705    1.028    0.028
        65  -7.4929    184.4859    200.4601   1.1300702250e+02   1.0037941197e+01    0.1236234    0.0930189  26.58 0.0004027346    1.104    0.094
        66  -7.9002    243.8765    197.8643   1.0235777118e+02   7.9873535820e-01    0.1823502    0.1179615  15.45 0.0003946392    1.245    0.197
        67  -7.2216    222.6582    198.6973   1.0602691400e+02   4.0545400919e+00    0.1271041   0.07275732  18.43 0.0007039112    1.678    0.404
        68  -7.5024    211.0000    197.9857   1.0791508832e+02   6.0133556855e+00     0.162737   0.06670047 -32.43 0.0005342146    2.850    0.649
        69  -8.0723    166.1140    197.3402   1.1590934322e+02   1.3429183544e+01    0.1917032    0.1202065  31.05 0.0006572803    1.410    0.291
        70  -7.6425    237.5066    194.0305   1.0274397506e+02   2.1743239356e+00    0.1607583    0.1057854 -15.66 0.0006451241    1.547    0.354
        71  -7.9289    193.0217    193.8917   1.1044365404e+02   9.4562962969e+00    0.2000848    0.1258617  16.34  0.001126485    1.719    0.418
        72  -7.6868      1.8483    194.3638   1.4589975372e+02   3.4251220050e+01    0.1109982   0.08318677  28.53 0.0009468721    1.752    0.429
        73  -7.6381     90.5053    192.5127   1.2971592432e+02   2.5437923490e+01    0.1119539   0.09109772  57.61 5.246512e-05    1.005    0.005
        74  -7.5310    231.4447    191.4865   1.0331580734e+02   3.4066308793e+00    0.1244588   0.09087951  19.10 0.0008076152    1.039    0.037
        75  -8.2529    246.3580    190.0652   1.0059555136e+02   1.1742348415e+00    0.2018582    0.1237828  24.08 0.0005237539    1.270    0.213
        76  -7.7141    161.7540    189.9777   1.1564584654e+02   1.5170505772e+01    0.1362038    0.1056215 -38.73 0.0003968433    1.554    0.357
        77  -7.6120    224.4982    189.4897   1.0414984916e+02   4.7532083044e+00    0.1271057   0.09247986  19.93 0.0008095747    1.072    0.067
        78  -8.1738     64.4591    189.5872   1.3442113078e+02   2.9132588206e+01    0.2404217    0.1003259  30.86  0.001233329    2.752    0.637
        79  -7.8075    250.0185    182.0207   9.8545708079e+01   1.3955916009e+00     0.151253    0.1114751  13.66 0.0007071636    1.021    0.021
        80  -7.8523    156.0755    181.0050   1.1537737279e+02   1.7436920320e+01    0.1959439    0.1407346  12.69  0.001123031    1.694    0.410
        81  -7.5946    224.8328    180.1453   1.0242866554e+02   5.7445608143e+00    0.1810095    0.1176226  18.63  0.000751393    1.349    0.259
        82  -7.4657    183.4992    180.5265   1.1000548208e+02   1.2820413039e+01    0.1286161    0.1042453  28.32 0.0008100931    1.005    0.005
        83  -7.9933     96.0502    178.7097   1.2713262416e+02   2.7072345921e+01    0.2168861    0.1349309  18.38   0.00113328    2.540    0.606
        84  -7.9548    148.8356    174.7087   1.1583358177e+02   1.9631766197e+01    0.2028521    0.1412384  25.55 0.0005331257    1.493    0.330
        85  -7.9272     47.4407    175.5063   1.3658455379e+02   3.3504386611e+01    0.1773158    0.1043361  19.98  0.001037722    2.557    0.609
        86  -8.1406     15.4040    170.3777   1.4246224493e+02   3.7390461001e+01    0.1589189   0.09532791   7.28 0.0009562083    3.247    0.692
        87  -7.3183    105.6847    168.6781   1.2388779379e+02   2.7500205975e+01    0.1135456   0.09508272  -5.78 0.0007041213    1.660    0.398
        88  -7.8648    198.8418    166.9809   1.0468313001e+02   1.1947200225e+01    0.2125884     0.134111   2.12  0.001047856    1.976    0.494
        89  -8.0137    177.4628    167.4797   1.0889189635e+02   1.5745942019e+01    0.1331955     0.110447  25.20 0.0008087304    1.046    0.044
        90  -7.4771    150.6838    165.6693   1.1398174772e+02   2.0777893570e+01    0.1298738   0.09651719   8.51 0.0006598199    1.683    0.406
        91  -8.0577    168.5357    163.8477   1.1001572102e+02   1.7905480491e+01    0.2833923    0.1519082  29.08  0.001312221    1.998    0.499
        92  -7.6971    122.6647    162.6855   1.1940900558e+02   2.5978005652e+01    0.1231428   0.09783734   2.95 0.0007046737    1.690    0.408
        93  -7.5712    160.3087    160.3160   1.1105806129e+02   1.9948280685e+01    0.1329409   0.09723406  10.53 0.0004550648    1.632    0.387
        94  -7.5602    205.3504    159.2896   1.0197487920e+02   1.1793468184e+01    0.1414111   0.08888873  17.59 0.0007026261    1.668    0.400
        95  -7.4391    138.2115    158.3752   1.1537370671e+02   2.4165086590e+01    0.1889106    0.1089607  48.94 0.0005827238    1.659    0.397
        96  -7.7396     21.3054    157.3762   1.4054168693e+02   3.9355987356e+01    0.1007127   0.07037206 -53.52  0.000702883    1.772    0.436
        97  -7.6397    151.9920    156.5327   1.1211383405e+02   2.2066725303e+01    0.1834225     0.107004  21.58 0.0007060148    2.337    0.572
        98  -7.4516    168.6603    151.6830   1.0770912671e+02   1.9807414683e+01    0.1416117   0.09897941  12.43  0.000704873    1.707    0.414
        99  -7.7350    107.2123    151.6526   1.2111341900e+02   3.0444295341e+01    0.1781549    0.1128809  31.46  0.000692324    1.681    0.405
       100  -7.7575    133.1832    147.7710   1.1462379552e+02   2.6929483787e+01    0.1790795    0.1530793   6.70 0.0008096751    1.343    0.256
       101  -7.1620    120.3004    148.3793   1.1762627370e+02   2.8991899617e+01    0.1298738    0.1014442 -10.50 0.0007024349    1.766    0.434
       102  -9.5032     67.3860    144.8391   1.2929669753e+02   3.7241446921e+01    0.4757711    0.2550633  64.36  0.002431816    2.182    0.542
       103  -8.6157    124.8210    145.9374   1.1618053129e+02   2.8699904156e+01    0.1858717    0.1764519  47.92 0.0003710343    1.023    0.023
       104  -7.9490    139.9490    137.9973   1.1125494164e+02   2.7522268509e+01     0.217185    0.1638343   4.89   0.00070898    1.715    0.417
       105  -7.6063     55.3202    135.3039   1.3098324401e+02   4.0587480576e+01     0.112118   0.08730242 -39.32 0.0006522666    1.631    0.387
       106  -8.3276      4.5709    134.1304   1.4264500824e+02   4.5185196248e+01    0.1776428    0.1358466 -20.71  0.001312573    2.026    0.506
       107  -7.7354    122.1718    130.7422   1.1397792141e+02   3.2077012431e+01    0.1708503    0.1525545  -4.50 0.0003612563    1.273    0.214
       108  -8.3024     23.9884    129.8718   1.3789607691e+02   4.4663268329e+01    0.2384478     0.141782 -18.90  0.001260388    3.358    0.702
       109  -9.1044    235.7205    128.4965   8.9893764440e+01   1.0028042709e+01    0.2638225    0.2202569  16.72 0.0006134518    1.072    0.067
       110  -8.1541     67.4638    127.4787   1.2696490361e+02   4.0849991747e+01    0.1218692    0.1096853 -87.07 0.0008091308    1.017    0.017
       111  -7.7601    132.6754    124.7142   1.1022597127e+02   3.1371583897e+01    0.1390652    0.1085306   4.55 0.0002604364    1.603    0.376
       112  -9.4785     14.0590    119.8091   1.3942848063e+02   4.7510863166e+01     0.353573    0.1708445 -38.41  0.001801529    3.287    0.696
       113  -8.0267    119.3032    119.4186   1.1237300234e+02   3.4834649161e+01    0.2648222    0.1321438  35.59 0.0009352684    2.109    0.526
       114  -7.2079     99.9994    119.0000   1.1719628718e+02   3.8139567196e+01    0.2121225   0.07481553  38.09 0.0007907129    2.862    0.651
       115  -7.6208    182.6949    114.3116   9.6497133779e+01   2.3093650914e+01    0.2065609     0.124537  39.79 0.0009232245    1.569    0.363
       116  -7.9850     59.6549    113.7153   1.2693992089e+02   4.4740708935e+01     0.120777   0.09150417 -33.32 0.0002526497    1.645    0.392
       117  -7.4864    142.6262    111.7105   1.0488086188e+02   3.1956717501e+01    0.1519135    0.1113429   9.92 0.0005383732    1.724    0.420
       118  -9.1190      2.7543    109.7208   1.4143749976e+02   5.0351743637e+01    0.3314859     0.185587 -37.87  0.002009911    2.449    0.592
       119  -8.1428    239.1698    110.1180   8.4972902176e+01   1.1673003797e+01    0.1772682    0.1641367 -24.44 0.0007896201    1.302    0.232
       120  -8.0511    133.7973    106.8927   1.0588000891e+02   3.4635857064e+01     0.365921    0.1840961 -33.94  0.001201641    2.316    0.568
       121  -9.4384     15.4122    104.7689   1.3772447968e+02   5.0645049579e+01    0.4409642    0.2243577 -34.59  0.002305356    2.960    0.662
       122 -10.1089      9.3458     96.3966   1.3854978058e+02   5.2846726109e+01    0.4715281    0.2465626 -17.47  0.002471651    3.354    0.702
       123  -8.8200     44.8525     91.9011   1.2762357332e+02   5.1147541883e+01    0.3454099    0.2110442 -29.06  0.001796401    2.270    0.559
       124  -7.1486     53.3125     92.6690   1.2521166321e+02   5.0118389716e+01    0.1287038   0.09074575  76.85 0.0005546903    1.675    0.403
       125  -7.7171    110.0094     91.2198   1.0821450357e+02   4.2298718582e+01    0.1888442    0.1170192  40.17 0.0006527933    1.664    0.399
       126  -8.2332     96.5110     90.4687   1.1186467796e+02   4.4777764772e+01    0.3193547    0.2105702 -12.64  0.001379907    2.457    0.593
       127  -8.3779     66.7389     86.1706   1.1980285498e+02   5.0024071556e+01    0.4182502    0.2145867  11.94   0.00158343    3.917    0.745
       128  -9.5355     36.0270     82.0952   1.2867907247e+02   5.4156893598e+01    0.6371316    0.2727241 -39.79  0.002803899    2.924    0.658
       129  -8.3149     88.8920     78.7087   1.1110148479e+02   4.8529390205e+01     0.343629    0.2156093   7.75  0.001438702    2.682    0.627
       130  -9.8524      8.0269     77.5360   1.3687844879e+02   5.7080071030e+01    0.4497412    0.1976798 -38.63  0.002298104    2.755    0.637
       131  -7.7305    184.3773     78.1846   8.6361948855e+01   2.8533126128e+01    0.2130789    0.1379579 -37.63  0.000442099    1.587    0.370
       132  -8.8674     48.7849     76.9963   1.2357092095e+02   5.4120869103e+01     0.303451    0.2341201 -29.18  0.001513727    1.459    0.315
       133  -9.9265     24.4389     72.8330   1.3088045249e+02   5.7142329801e+01    0.7242993     0.276409 -39.80  0.003116923    3.230    0.690
       134  -8.3221     23.4627     69.4805   1.3064012924e+02   5.7964773962e+01    0.1989218    0.1611553 -33.07 0.0009315629    1.374    0.272
       135  -7.8487     74.9182     74.6922   1.1445290442e+02   5.1484605547e+01    0.2020221    0.1644245  -2.14 0.0004885198    1.461    0.316
       136  -8.7719     42.6927     68.4189   1.2378941836e+02   5.6648388547e+01    0.3135207    0.2014772 -24.11  0.001573604    1.981    0.495
       137  -7.9376    106.4742     67.5976   1.0247840887e+02   4.7791579424e+01    0.2721521    0.1778927  10.55  0.001141962    2.264    0.558
       138  -8.0638     80.5976     68.1416   1.1079690983e+02   5.2077866406e+01    0.3223948    0.1784941 -34.46  0.001166481    1.977    0.494
       139  -8.5246     84.0929     63.7673   1.0834354468e+02   5.2464102610e+01    0.3263713    0.2194023 -11.70  0.001164409    2.065    0.516
       140  -8.1977     61.7849     66.9891   1.1681926095e+02   5.4901279954e+01    0.3018456    0.1510893 -43.78   0.00102499    1.847    0.458
       141  -9.6443     65.5926     60.9157   1.1381596270e+02   5.5745488926e+01    0.3729129    0.2964616 -19.52 0.0002511244    1.361    0.265
       142  -7.9169    190.6768     66.3097   8.1584783997e+01   2.8786459348e+01     0.214546    0.1647811  15.91  0.001015416    1.348    0.258
       143  -9.6172     17.5800     62.4818   1.3147664922e+02   5.9915223030e+01     0.487237    0.1917183 -52.91   0.00184105    1.986    0.496
       144  -8.8271     51.2572     60.5522   1.1884801425e+02   5.7537235345e+01    0.3667254    0.2901672  84.31  0.001403291    1.622    0.383
       145 -10.8234     38.2919     57.6093   1.2287759946e+02   5.9469391455e+01    0.5095114    0.2871318 -21.85 0.0005376365    2.485    0.598
       146  -7.6703    111.2239     58.5670   9.8095426434e+01   4.8627476298e+01    0.2020631    0.1376961  29.34 0.0007808483    1.600    0.375
       147  -9.5787      2.9863     55.6072   1.3562552883e+02   6.2189148630e+01    0.4425244    0.2426861 -63.31  0.002733774    1.340    0.254
       148 -10.0600      9.9860     47.7138   1.3161806262e+02   6.3622647928e+01    0.6393691    0.2465178 -38.25  0.001868774    2.708    0.631
       149  -9.8398     17.7358     38.0873   1.2627729958e+02   6.5312269462e+01     0.895542    0.1083668 -47.17  0.002904267    4.721    0.788
       150  -8.0385     99.5880     54.1787   1.0015564655e+02   5.1721942713e+01    0.2741968    0.1758683 -32.65  0.001177124    1.492    0.330
       151  -9.4159    245.9820     53.6624   6.9369016500e+01   1.7132989793e+01    0.2586776    0.2307569  -3.44 0.0006175825    1.023    0.022
       152  -9.2335     75.0837     50.4644   1.0714586473e+02   5.6610162094e+01    0.3765008    0.2437159 -21.22 0.0003540998    1.827    0.453
       153  -7.5881    118.2751     51.4041   9.3520548734e+01   4.8479480435e+01      0.19976     0.146986  56.36  0.000636168    1.592    0.372
       154 -10.2339     45.3714     49.0983   1.1789993212e+02   6.0662570548e+01    0.2640073    0.2000808 -31.97 0.0004957517    1.269    0.212
       155  -8.2834    106.8729     48.1343   9.5708299028e+01   5.1436669164e+01    0.2465525    0.1956466 -15.48 0.0004012428    1.239    0.193
       156  -9.8793     24.6666     47.0576   1.2560584736e+02   6.2892873444e+01    0.5093399    0.2577578  -8.23   0.00242802    3.112    0.679
       157  -8.9628     31.5572     44.2761   1.2208428282e+02   6.2980145922e+01    0.2507067    0.1806196 -15.81 0.0008845787    1.595    0.373
       158  -8.6002    249.3688     49.2702   6.7782089796e+01   1.6865650703e+01    0.2522487    0.1996516  19.34 0.0008781831    1.294    0.227
       159  -9.2049      2.0675     45.8770   1.3441283631e+02   6.4377178997e+01    0.2696769    0.1696798 -84.37 0.0009995052    1.491    0.329
       160  -8.5707     93.3650     42.2701   9.7817716353e+01   5.5120913062e+01    0.2830805    0.2006448  -2.88 0.0008988954    1.670    0.401
       161  -8.9668     38.3246     42.0383   1.1864663757e+02   6.2872955532e+01    0.1855183    0.1409019 -49.95 0.0007338742    1.076    0.071
       162 -10.1322     83.2153     40.0490   1.0044876259e+02   5.7342495424e+01    0.2682452    0.2299183  -2.32  0.001532882    1.135    0.119
       163  -9.0834      3.6731     39.8851   1.3266353791e+02   6.5630051445e+01    0.4092549    0.1195835 -72.92  0.001699926    3.015    0.668
       164  -7.2772    123.2931     40.3747   8.8000683483e+01   4.9232852789e+01     0.162718    0.1116486   8.81 0.0004672211    1.735    0.424
       165  -8.9448     46.0941     39.2239   1.1452506197e+02   6.2689025289e+01    0.3199994    0.1708063 -24.48  0.001457073    2.451    0.592
       166  -8.6748    106.1635     36.7985   9.1560271092e+01   5.3554472275e+01    0.4040036     0.244561  21.87  0.001547944    2.075    0.518
       167  -8.6106     92.4661     36.5512   9.5866115121e+01   5.6315456486e+01    0.2871511    0.2186796  12.77 0.0008137357    1.396    0.284
       168  -9.3505     96.0458     33.3933   9.3384318871e+01   5.6171335330e+01    0.3291829    0.2388752  -7.15 0.0003348614    1.452    0.311
       169  -9.2829     54.8128     36.6024   1.1000653186e+02   6.2216627970e+01    0.2986276      0.20975 -11.28 0.0009902746    1.625    0.385
       170  -8.9556     37.6679     35.6939   1.1692433501e+02   6.4280444589e+01    0.3413346    0.2113399 -16.62  0.001612269    1.970    0.492
       171  -8.9628     70.1939     35.5394   1.0348826437e+02   6.0298688785e+01    0.3737824    0.1350643  37.21  0.001442329    3.077    0.675
       172  -7.5069    143.9648     33.9710   8.0350906771e+01   4.5230344166e+01    0.1841205    0.1677273  21.40 0.0003240514    1.029    0.028
       173  -8.3724     76.8559     34.0576   1.0037730194e+02   5.9520851420e+01    0.2098724    0.1834799 -43.96 0.0009040137    1.258    0.205
       174  -9.0355      7.2154     33.3287   1.2973513950e+02   6.6906695736e+01    0.3193237    0.2071222 -29.86  0.001750287    1.591    0.371
       175  -7.7628    104.6594     31.6795   8.9929841594e+01   5.4703539012e+01    0.2355623    0.1615229   8.26  0.001071192    1.694    0.410
       176  -8.0566     81.9711     32.0738   9.7685674358e+01   5.9010814025e+01    0.2138036    0.1850362 -11.47 0.0003434083    1.028    0.027
       177  -8.6004    127.8875     30.2161   8.2784376328e+01   4.9695467741e+01    0.2454368    0.2034528   2.14 0.0002576099    1.156    0.135
       178  -7.7050     88.2888     31.3611   9.5151864595e+01   5.7996845818e+01      0.15026    0.1027515  -3.72 0.0007025147    1.691    0.409
       179  -8.9943      1.5837     29.9048   1.3149195188e+02   6.7881507336e+01    0.2664741    0.1076133 -65.43   0.00121546    1.791    0.442
       180  -8.3540    112.4697     30.1025   8.6939844601e+01   5.3264442438e+01    0.3352154    0.2043157  24.38  0.001437091    1.908    0.476
       181 -10.1732     72.6089     25.6420   9.8425042889e+01   6.1725174902e+01    0.4519844    0.2550352  27.29 0.0008710279    2.035    0.509
       182  -8.6102     61.8511     26.9650   1.0329572409e+02   6.3141064808e+01    0.2137554    0.1558778 -17.25 0.0007169964    1.324    0.245
       183  -8.6682     57.4695     25.3000   1.0441726573e+02   6.4063877606e+01    0.2443884    0.2138891  -7.89 0.0008299662    1.123    0.109
       184  -8.9136     48.0739     25.8379   1.0871961065e+02   6.5164404949e+01    0.2975208    0.1909856   9.99  0.001089006    1.886    0.470
       185  -9.3023     83.6712     22.0749   9.2702592219e+01   6.0388484897e+01    0.5090942    0.2400213  35.75  0.001127096    2.295    0.564
       186  -8.5238     92.2155     21.1199   8.9316319856e+01   5.8891650058e+01    0.3031825    0.2174317  -3.50  0.001539296    1.411    0.291
       187  -7.6386    131.1202     21.6087   7.8480128825e+01   5.0063974293e+01    0.2189112     0.124787  43.00  0.000420547    1.670    0.401
       188  -9.9026      8.8003     20.0630   1.2544847920e+02   6.9658351788e+01    0.2397656    0.2134147 -27.57 0.0003662235    1.252    0.201
       189  -8.4365     12.6545     18.6504   1.2304164683e+02   6.9742014503e+01    0.2075727    0.1176941 -44.78 0.0006863122    1.333    0.250
       190  -7.9578    116.9907     19.9852   8.1375507897e+01   5.3668363270e+01    0.1816496    0.1562431  -4.48 0.0003298936    1.074    0.069
       191  -8.0351     45.4568     19.7882   1.0734916036e+02   6.6627158494e+01    0.2462378    0.1105162 -48.69  0.001132716    2.037    0.509
       192  -7.0010    161.6846     19.2822   7.1192187459e+01   4.2458530396e+01     0.149357    0.1169711 -61.40 0.0002911238    1.577    0.366
       193  -7.6547     36.3080     19.6296   1.1159845163e+02   6.7664341858e+01    0.1163271   0.09673984 -77.24 0.0007034339    1.763    0.433
       194  -7.9705    103.3026     18.0041   8.4382652058e+01   5.7024108695e+01    0.2350075    0.1103073  -4.85 0.0007012123    4.062    0.754
       195  -9.6684    242.7805    244.5643   1.0969693884e+02  -3.1012146114e+00    0.4136205    0.2432759 -37.94  0.002784081    2.903    0.656
       196  -9.2496    209.0791    248.0851   1.1537740122e+02   1.2500253211e+00    0.2125015    0.1269268   6.09  0.001429853    2.015    0.504
       197  -8.2619    127.8281     16.9165   7.7310000411e+01   5.1452066650e+01    0.2342001    0.1824239  22.65 0.0003918228    1.223    0.182
       198  -7.6118     74.0102    247.5009   1.3684795368e+02   1.9180751443e+01    0.1190199   0.07591796  21.98 0.0008102929    2.533    0.605
       199  -7.4697    189.4830     15.5093   6.5452823965e+01   3.5415436371e+01     0.150701     0.137984  28.79 -3.763989e-05    1.052    0.049
       200  -7.7365     17.9791    248.0000   1.4517235687e+02   2.4756795922e+01    0.1333651   0.03672933  36.71 0.0008013359    2.935    0.659
       201  -8.2094    218.3481    245.5218   1.1359890538e+02   1.8097741820e-01    0.1730039    0.1186742  -9.40  0.001325236    1.669    0.401
       202  -7.9574    146.6590     14.1097   7.2053519950e+01   4.6980501816e+01    0.2079975    0.1771473   3.82 0.0003617811    1.133    0.117
       203 -10.1645    192.7979    244.5221   1.1752770589e+02   3.8782913457e+00    0.3150769    0.1826435  19.46  0.001503598    1.814    0.449
       204  -9.3479    156.9465    244.8409   1.2336786551e+02   8.9115443321e+00    0.1619363     0.111249  29.99 0.0006759267    1.281    0.219
       205  -8.2794    176.4500    243.5413   1.2005318283e+02   6.3032107151e+00    0.1076468   0.07590637  35.16 5.773506e-05    1.008    0.008
       206  -7.7141     95.5362    243.5345   1.3320318216e+02   1.7178258284e+01   0.09919494   0.07178608  50.26 0.0001148663    1.024    0.023
       207  -8.0100    106.2383     10.6181   8.0116025824e+01   5.7321606195e+01    0.2006133    0.1227172  41.59 0.0003943272    1.545    0.353
       208  -9.0613    170.5568    239.6057   1.2056795977e+02   7.5661485419e+00     0.225584    0.1384508  25.89 0.0008423776    1.544    0.352
       209  -7.5907     26.0043    241.0000   1.4377945640e+02   2.5002748790e+01     0.137471   0.03851122  36.67 0.0007237677    2.917    0.657
       210  -8.7177    224.2912    238.3577   1.1171583672e+02  -3.1263872170e-02    0.2102936    0.1281615  37.23  0.001332326    1.293    0.227
       211  -9.0412    166.5537    248.7182   1.2222273519e+02   7.1499380600e+00    0.1546413    0.1017034 -33.57  0.001149778    2.146    0.534
       212  -8.8192    233.6104    243.9903   1.1102404522e+02  -1.8057792484e+00    0.2227328    0.1164005  17.18   0.00119763    1.804    0.446
       213  -7.8387    122.2907    239.3271   1.2851433670e+02   1.4308765486e+01    0.0930113   0.07196251  20.21 0.0007016548    1.618    0.382
       214  -7.9566     79.7768    238.4192   1.3536765137e+02   1.9751491710e+01    0.1302517   0.07682382  36.33 0.0006247741    1.582    0.368
       215  -8.7236     50.5420     14.9955   1.0281963245e+02   6.6858676419e+01     0.268617    0.1756175  18.16 0.0009034829    1.694    0.410
       216  -8.9121    242.1929    236.5360   1.0866646640e+02  -2.3854104408e+00    0.2255583    0.1405188  28.16  0.001046844    1.102    0.092
       217  -8.2550    230.3952    237.2180   1.1059895857e+02  -7.9471477619e-01    0.1151631   0.09564491 -14.85 0.0004294126    1.592    0.372
       218  -8.6331    195.2541    236.4150   1.1612832915e+02   4.3286910038e+00    0.2055996    0.1295516  20.71 0.0007711393    1.484    0.326
       219  -7.5307    147.7143    237.7057   1.2414314324e+02   1.1029460328e+01   0.09859276   0.06969328  22.59 0.0003057296    1.543    0.352
       220  -9.6082    187.8347    234.7028   1.1713162133e+02   5.5872775940e+00    0.4979815    0.1594465  37.97  0.002223216    2.325    0.570
       221  -8.3630    161.9785    234.3997   1.2140045709e+02   9.3868131587e+00    0.1735116    0.1342342  11.94 0.0007273981    1.495    0.331
       222  -7.5428    129.5206    234.5294   1.2686479190e+02   1.3946563837e+01    0.1065061   0.07865559  44.42 2.804247e-05    1.006    0.006
       223  -7.4433     91.6599    234.6864   1.3317509020e+02   1.8846789695e+01   0.08929472   0.07334736  19.51 0.0003346671    1.699    0.412
       224  -8.0027    248.3292    233.0321   1.0721568411e+02  -2.9517633012e+00    0.1476612    0.1019771  13.77  0.000437726    1.139    0.122
       225  -7.8932    204.6524    230.8345   1.1385982107e+02   3.5100711737e+00    0.1567829   0.09971458  28.18  0.000451207    1.182    0.154
       226  -8.1277    236.4721    230.0456   1.0862625255e+02  -1.0411664391e+00    0.1352659   0.09516628  -9.94 0.0004538029    1.516    0.340
