#   1 NUMBER                 Running object number                                     
#   2 MAG_AUTO               Kron-like elliptical aperture magnitude                    [mag]
#   3 X_IMAGE                Object position along x                                    [pixel]
#   4 Y_IMAGE                Object position along y                                    [pixel]
#   5 X_WORLD                Barycenter position along world x axis                     [deg]
#   6 Y_WORLD                Barycenter position along world y axis                     [deg]
#   7 A_WORLD                Profile RMS along major axis (world units)                 [deg]
#   8 B_WORLD                Profile RMS along minor axis (world units)                 [deg]
#   9 THETA_WORLD            Position angle (CCW/world-x)                               [deg]
#  10 FWHM_WORLD             FWHM assuming a gaussian core                              [deg]
#  11 ELONGATION             A_IMAGE/B_IMAGE                                           
#  12 ELLIPTICITY            1 - B_IMAGE/A_IMAGE                                       
         1 -13.2953      5.0500     54.4061   8.1671125269e+01   6.5886121812e+01     1.019071    0.7630449 -56.28  0.006321739    1.100    0.091
         2 -10.4000     40.2548     23.7576   5.2400113659e+01   6.9168265484e+01     1.459676    0.6977611 -31.92  0.006576451    2.192    0.544
         3 -10.9759     31.1029     21.3137   5.6103755812e+01   7.0830198039e+01     0.885828    0.4260479 -39.79   0.00435289    1.825    0.452
         4 -14.5488     42.7177     75.3176   7.0060779605e+01   5.7678327760e+01     1.822305       1.3584 -39.12   0.01001303    1.370    0.270
         5 -12.6184     25.6895     39.3611   6.6928185625e+01   6.7793991812e+01     2.344005    0.3185657 -53.36  0.007148955    4.426    0.774
         6 -13.6610     92.4362     66.4007   4.8929325913e+01   5.1754055103e+01     2.233074     1.232636 -63.56  0.008129842    2.770    0.639
         7 -13.5776     72.0459     21.3144   3.7077671932e+01   6.4043969014e+01     1.354778     1.331323  45.62  0.001595989    1.174    0.148
         8 -13.5096     57.2649     12.2761   3.8036012040e+01   6.8191099371e+01     2.479767     1.392429  -9.45   0.01115073    2.368    0.578
         9 -13.7719     12.9495     34.3180   7.2118589784e+01   6.9978215412e+01     1.481757     1.141208 -30.90  0.005980281    1.226    0.185
        10 -13.7634     38.3764     56.0479   6.6430893282e+01   6.2731876429e+01     1.457181     1.081463 -31.57  0.004505649    1.379    0.275
        11 -13.2987     49.8098     49.9396   5.9204200135e+01   6.2632379646e+01     1.321924    0.5300381 -41.26  0.004603228    2.468    0.595
        12 -14.1973      7.2897     68.3127   8.3288320673e+01   6.2432876951e+01      1.71105    0.9981236  22.20   0.00822733    2.057    0.514
        13 -13.0898     58.1664     34.5932   4.9151797333e+01   6.4424161026e+01     2.353751     1.122979  35.18   0.01021686    2.338    0.572
        14 -13.3993    236.5951     61.8041   1.8680641367e+01   1.8584689616e+01     1.663986     1.109856 -54.29  0.008856661    1.475    0.322
        15 -11.6176    243.3653     22.5693   8.4031634275e+00   2.2081809181e+01    0.7880421    0.4862857  50.32  0.003375873    2.068    0.516
        16 -11.7682    222.7978     10.2962   6.8240943121e+00   2.8005906751e+01    0.7683918    0.5667596 -61.03   0.00453199    1.189    0.159
        17 -13.4135    226.6651     21.2719   9.3552722677e+00   2.5917141321e+01     1.953837      1.06359  13.17  0.006965302    4.569    0.781
        18 -14.2104    221.8313     38.1903   1.4199705134e+01   2.4986992173e+01     1.020129    0.6772026  73.02  0.003264215    1.624    0.384
        19 -12.0356    210.2841     21.2125   1.0745445286e+01   2.9758156384e+01    0.5499722    0.3357257  44.89  0.002662058    2.061    0.515
        20 -11.1835    216.8748     20.8423   1.0059499928e+01   2.8233238495e+01    0.4212936    0.2622589  -6.54 0.0005621453    2.194    0.544
        21 -13.1820    249.5087     10.6368   5.1726021753e+00   2.2092712017e+01    0.5346271    0.4438193  75.75   0.00357706    1.376    0.273
        22 -13.5081    242.1631      7.1934   4.7958227514e+00   2.4011256788e+01    0.7881421    0.3418783 -64.63  0.003623193    2.367    0.577
        23 -13.9920    217.2053     59.1044   2.0263328606e+01   2.3226659231e+01     1.368747     1.007242  27.45  0.006963744    1.794    0.442
        24  -9.9888    201.6637     18.5136   1.0795271246e+01   3.2159166712e+01    0.5521227     0.452537  70.99  0.003186635    1.265    0.210
        25 -12.0746    190.2689     22.8311   1.3217317455e+01   3.4509149856e+01    0.7734722    0.4610533  42.32  0.003523325    2.085    0.520
        26 -12.6317    204.0316     41.1609   1.6958204107e+01   2.8806424233e+01     1.119921    0.5938753 -83.78  0.004451329    2.676    0.626
        27 -11.9400    201.5049     32.1634   1.4697595802e+01   3.0582157257e+01    0.6246063    0.5914767  28.09  0.002126392    1.242    0.195
        28 -12.8767     59.0582     60.7635   5.9146127510e+01   5.8910529335e+01     1.438964    0.7909888 -58.68  0.006382485    1.867    0.464
        29 -12.3599    172.4776     44.7034   2.2350036385e+01   3.6223060451e+01      1.14093    0.7459692 -73.01  0.005028352    1.870    0.465
        30 -12.7253    190.7351     33.9491   1.6479572455e+01   3.3032614004e+01     1.638998    0.3083845 -38.04  0.004887749    3.792    0.736
        31 -11.3770    160.0105     14.8783   1.4312266054e+01   4.3228450766e+01    0.3096232    0.1907388 -33.75 0.0004689398    1.581    0.368
        32 -10.4469    138.9985     16.2641   1.7913603381e+01   4.8607876548e+01    0.3108455    0.2090016 -39.53 0.0008436089    1.491    0.329
        33 -10.7077    153.6672     16.3031   1.5676337263e+01   4.4744952145e+01    0.3247127    0.2667885  24.04  0.001117804    1.410    0.291
        34 -11.7253    150.0475     13.1844   1.5079479232e+01   4.6030190979e+01    0.4420324    0.2677394  68.45 0.0004604305    1.571    0.363
        35 -11.2048    123.5856     11.1543   1.8574228739e+01   5.3155269571e+01    0.4230477    0.2749008   9.21  0.001959644    1.939    0.484
        36 -11.3109    173.0892      6.6411   1.0050524840e+01   4.0644927646e+01    0.5758269    0.3049588 -10.01  0.001360875    2.404    0.584
        37 -10.3906    187.4043     13.4953   1.0718973505e+01   3.6273247288e+01    0.3577702    0.1636115 -62.87  0.001394141    2.573    0.611
        38  -9.9399    213.2294     12.4720   8.1193751889e+00   3.0018335707e+01     0.327767    0.1565699 -56.44  0.001016636    2.021    0.505
        39 -10.5684    131.3650     11.1692   1.7209972171e+01   5.1139129366e+01    0.4246185    0.3298341 -60.28  0.001500624    1.381    0.276
        40 -12.3025    116.5271      8.7162   1.8875791992e+01   5.5205175342e+01    0.6750473    0.3652586  -5.06  0.002125855    2.346    0.574
        41 -10.2628    110.3295      8.9350   2.0218494548e+01   5.6746766397e+01    0.3827561    0.1146435 -27.13  0.001337751    3.129    0.680
        42 -10.4042    112.1748      4.1531   1.7717044600e+01   5.6737940161e+01      0.28734    0.1880599  65.99 0.0007925837    1.452    0.311
        43 -11.4058     94.0317     11.7738   2.5373972340e+01   6.0417142190e+01    0.2346175     0.194049  30.03 0.0002482296    1.180    0.153
        44  -9.9550     88.5838     11.9999   2.6972128757e+01   6.1660846844e+01    0.2034613    0.1300537 -24.64 0.0007602129    1.566    0.362
        45 -11.5966     76.8264      5.1359   2.6857336258e+01   6.5057686090e+01    0.3966566    0.3418067 -47.62 0.0003120389    1.357    0.263
        46 -10.2247     84.8757      8.6159   2.6310358174e+01   6.2885413444e+01    0.3147729    0.1670768 -19.37  0.001438356    1.963    0.491
        47 -10.8354     27.3225      9.3375   5.1639756249e+01   7.3391171418e+01    0.2136023    0.1752476  13.72  0.001372535    1.229    0.186
        48 -10.7242    145.7957      6.5640   1.3261915988e+01   4.7804657429e+01    0.3956812    0.2363927 -39.87  0.001881109    1.666    0.400
        49 -10.7451    142.0693      2.0107   1.2071166498e+01   4.9194238951e+01    0.2708377    0.2231182 -66.76 0.0007791696    1.228    0.186
        50 -11.1789    193.5773      7.6065   8.3963185421e+00   3.5323743991e+01    0.3110223    0.2385676  53.81  0.001575045    1.445    0.308
        51  -9.8691    210.4667      6.5536   6.7370457648e+00   3.1291790430e+01    0.1323999    0.1156515 -62.16 0.0007668276    1.025    0.024
        52  -9.6275    160.0247      5.9897   1.1269644849e+01   4.4116598133e+01    0.1700024    0.1396184  80.05 0.0004438994    1.152    0.132
        53 -10.5906    101.7236      5.0443   2.0282543653e+01   5.9255599887e+01    0.3292246    0.2481459 -27.05   0.00179489    1.369    0.269
        54  -9.4203     91.3308      6.7019   2.3577759915e+01   6.1591169130e+01    0.1354614    0.1038511 -63.65 0.0002910568    1.642    0.391
        55 -10.4404      2.9509      6.1677   6.6688851053e+01   7.6413778355e+01      0.22834    0.1497093  -1.17 0.0009885654    1.629    0.386
        56 -11.6806    182.3761      2.5207   7.8695815457e+00   3.8646297850e+01    0.4788298    0.2612051  82.48  0.002247196    1.795    0.443
        57 -10.5753    217.6595      2.4712   5.1486072073e+00   2.9995427717e+01     0.229655    0.2120266 -89.93  0.001412234    1.175    0.149
        58 -11.3718     86.3395      1.6763   2.2301197526e+01   6.3242711805e+01    0.5125075    0.1560548  53.59  0.001940276    2.710    0.631
        59 -10.9714    231.8146      1.7021   4.0754548351e+00   2.6835780132e+01     0.361174    0.1667096  84.94  0.001274185    2.249    0.555
        60  -9.0547    212.6851      2.6629   5.5344426599e+00   3.1149119491e+01    0.1267945   0.09754249  36.27 0.0007047306    1.695    0.410
        61  -9.5280    207.4882      2.5489   5.8690614373e+00   3.2403576468e+01    0.1283275    0.1188088 -71.87 -1.070988e-05    1.105    0.095
        62 -11.3367     48.3992      1.4917   3.5332837474e+01   7.1197077639e+01    0.4129518    0.1313412  48.00  0.001668353    3.025    0.669
        63 -10.5444    250.3367      1.4333   3.0038041347e+00   2.2867971354e+01    0.1491353   0.09888301 -70.63 0.0003432319    1.375    0.273
        64  -9.4738      1.2594      1.2021   6.5220913466e+01   7.7449312865e+01    0.1047186   0.06772754 -24.28 0.0001987553    1.377    0.274
        65 -10.1582    180.5045    243.4895   6.4633256065e+01   1.7102580560e+00    0.1120787   0.08628839  27.63 -2.962287e-05    1.027    0.026
        66  -9.4827    223.3961    125.1228   3.5786217981e+01   1.1801640967e+01    0.2509193    0.1529777 -41.72   0.00103206    1.596    0.373
        67 -10.1864    220.1239    123.4864   3.5938611012e+01   1.2683974283e+01    0.4038775    0.1724234 -29.87  0.001625522    2.297    0.565
        68  -9.7930    152.9042    124.1412   4.9112903593e+01   2.6473051834e+01    0.2135759    0.1976678 -82.39 0.0002627031    1.173    0.148
        69 -10.4540     57.4986    120.0760   7.4251105915e+01   4.4690010871e+01    0.2279909    0.2025962 -11.44 0.0006084301    1.453    0.312
        70  -9.6945    140.9940    119.7680   5.0838352402e+01   2.9907927310e+01    0.1976457     0.126551  45.75 0.0003579578    1.577    0.366
        71 -12.9655     10.3945     82.0405   8.4233527952e+01   5.8882366319e+01    0.7712615    0.2587849 -60.69  0.001606394    2.224    0.550
        72 -12.4864     14.1889     45.8848   7.5044891732e+01   6.7307219935e+01    0.6458439    0.4105366 -70.85   0.00130285    1.486    0.327
        73  -9.1772     72.9934    119.0088   6.9327486817e+01   4.2768000861e+01    0.1699467    0.1555411 -86.45 0.0009596676    1.015    0.015
        74 -10.2790    165.7843    118.0303   4.4774465780e+01   2.4926879569e+01    0.4349172    0.1475383  41.09  0.001346606    3.425    0.708
        75 -10.1926    203.5793    116.0273   3.6961623194e+01   1.7213202324e+01    0.3741583    0.2065327  70.27  0.001363963    3.435    0.709
        76 -13.5074     80.1324     41.0971   4.3385754473e+01   5.9189335025e+01     1.541358    0.5969183  36.71  0.005215151    3.393    0.705
        77 -12.9895     79.4429     59.2854   5.0844764372e+01   5.5775365396e+01    0.7521162    0.5602255  36.32  0.003800708    1.443    0.307
        78 -13.3968     79.4360     50.6072   4.7552116926e+01   5.7537034192e+01     1.314062    0.7030429  30.58  0.005288171    2.439    0.590
        79 -12.9750    136.8011     82.0720   4.1494184938e+01   3.8705325124e+01     1.867542     0.608137 -46.96  0.001160081    3.261    0.693
        80  -9.9954    250.1750     93.4814   2.4686798457e+01   1.1434347417e+01    0.1746868    0.1324994  54.31   0.00102544    1.572    0.364
        81 -10.0130    227.2058     92.1863   2.7397904463e+01   1.6140642717e+01    0.1854105    0.1530879 -56.73 0.0004367671    1.299    0.230
        82 -10.4354    172.7372     91.1631   3.6240760777e+01   2.8455953164e+01    0.3035966    0.2477412 -85.50  0.001130379    1.479    0.324
        83 -11.6108     96.4600     90.8920   5.5338270551e+01   4.5529418000e+01    0.5349789    0.3893228  60.51  0.002506411    1.567    0.362
        84 -11.3248     79.7574     90.8290   6.0663474508e+01   4.8583724973e+01    0.2431382    0.2320365 -57.54 0.0003147822    1.047    0.045
        85 -12.5800     55.3472     72.0232   6.4168904040e+01   5.6858048119e+01    0.6987989    0.3724485 -61.64 0.0004867787    1.837    0.456
        86 -12.0017    224.3107     88.4325   2.6876479762e+01   1.7314303618e+01    0.5073652    0.2593947 -21.35  0.002094059    2.261    0.558
        87 -10.8744    221.3070     88.3452   2.7281094932e+01   1.7962084739e+01    0.2528566    0.1339431  51.35 0.0008250962    2.080    0.519
        88 -13.7135    195.6525     85.3956   3.0483394893e+01   2.4122085277e+01     0.876379    0.6418808  35.82  0.004031703    1.583    0.368
        89 -11.8546    188.5669     81.8874   3.0726921981e+01   2.6359944393e+01     0.345665     0.268335  11.48 0.0003957301    1.650    0.394
        90 -12.7425    199.3553     76.1800   2.7379422155e+01   2.4769988631e+01    0.5687277     0.312649  60.93  0.001447787    1.998    0.500
        91 -11.8215    192.6140     75.8744   2.8373452358e+01   2.6402501342e+01    0.3704236    0.2851494 -10.78 0.0002991532    1.514    0.340
        92 -10.0373    167.9256     89.9639   3.6868948168e+01   2.9809438676e+01    0.2478845    0.1872759 -74.24 0.0007533937    1.672    0.402
        93 -10.2934    179.9546     99.5315   3.7109894575e+01   2.5259788755e+01    0.2445468    0.1942846 -36.28 0.0006667352    1.197    0.165
        94 -11.1552    210.4152     88.8218   2.9020338344e+01   2.0240469941e+01    0.2226268    0.1736344  48.06 0.0005335894    1.406    0.289
        95 -11.9329    236.9135     86.2663   2.4649164846e+01   1.5044336249e+01    0.4967569    0.3217493  77.52  0.001683961    2.176    0.540
        96 -11.9217     51.9637     86.5408   6.9291389434e+01   5.3797671019e+01    0.3691989    0.2423676 -17.65   0.00109389    2.335    0.572
        97 -12.1100     48.5477     85.4990   7.0306419403e+01   5.4485351664e+01    0.3747489    0.2246717  32.29  0.001820275    1.865    0.464
        98 -10.3682    181.1796    115.6459   4.1020887148e+01   2.2036293600e+01    0.2154695    0.1871085 -44.46  0.001142697    1.140    0.123
        99 -11.2291    184.8785     86.7091   3.2712022286e+01   2.6400986809e+01    0.2060024    0.1977165  79.54 0.0006990278    1.105    0.095
       100 -11.8307    175.7071     85.9930   3.4214203331e+01   2.8689374466e+01     0.533588    0.2781553  39.25   0.00100771    2.371    0.578
       101 -11.8182    162.4512     84.2695   3.6360019929e+01   3.2168197929e+01    0.7051733    0.4169947  51.91  0.002987155    1.744    0.427
       102 -11.4990    250.0680     83.0135   2.2265039232e+01   1.2921157960e+01    0.4926737    0.2729447 -32.79  0.001723592    1.490    0.329
       103 -12.2236    249.8089     75.3499   2.0492742667e+01   1.4031616331e+01    0.3176583    0.2255532 -28.49  0.000288883    1.224    0.183
       104 -10.5407    249.6962     67.4231   1.8627706670e+01   1.5134098913e+01    0.4987425    0.1884639 -31.20  0.001523914    2.202    0.546
       105 -11.7395    147.6660     83.5445   3.9368329414e+01   3.5844457278e+01    0.6871341    0.4538259 -52.20  0.002953922    1.583    0.368
       106 -10.0917    106.3171    116.3465   5.9022809443e+01   3.7697139683e+01    0.1534507     0.120757 -17.00 0.0007048404    1.724    0.420
       107 -12.3009    214.3586     77.2284   2.5423894124e+01   2.1184497993e+01    0.4184225    0.2191496 -42.35  0.001231301    1.728    0.421
       108 -10.9915    217.2554     84.9886   2.7014338140e+01   1.9350449663e+01    0.2303739    0.1828384 -55.24 0.0006263086    1.302    0.232
       109 -12.1027    213.7181     83.1812   2.7065307692e+01   2.0405136839e+01    0.3492595    0.2657205  19.03  0.001372308    1.664    0.399
       110 -12.0272    168.7858     80.4238   3.3956814758e+01   3.1343004370e+01    0.4434789    0.4123895 -74.05  0.001132791    1.110    0.099
       111 -11.2086    167.4536     76.5391   3.3073760391e+01   3.2357795640e+01    0.3470652    0.2595613  42.09 0.0007206032    1.456    0.313
       112 -11.0737     55.1815     81.8462   6.6931282586e+01   5.4523535959e+01    0.2345759    0.2125177 -68.94 0.0002481143    1.044    0.042
       113 -12.4352    221.8400     79.8279   2.5051493491e+01   1.9146967473e+01    0.3966302    0.2969564  86.97  0.001144205    1.692    0.409
       114 -11.0931     26.2702     81.0416   7.7869778694e+01   5.7938463542e+01    0.2039237    0.1771378  57.56 0.0003961798    1.281    0.219
       115 -10.9787    179.5392     78.3368   3.1322262713e+01   2.9113464400e+01    0.2878476    0.2279105  41.86  0.001424431    1.379    0.275
       116 -12.0032    177.0172     70.7806   2.9577867109e+01   3.1007109098e+01    0.7170438    0.3807004 -56.69   0.00115902    2.400    0.583
       117 -10.0335    232.4943     78.5161   2.3317514225e+01   1.7079463609e+01    0.2607938    0.1404002  62.41  0.001211803    2.185    0.542
       118 -11.2187    225.8238     76.4330   2.3655732498e+01   1.8795971887e+01    0.3078088    0.1471184 -44.74  0.001319462    1.946    0.486
       119 -10.8622    155.4677     76.6199   3.5547409361e+01   3.5270461438e+01    0.3902949    0.2825213  72.47  0.001024221    1.615    0.381
       120 -10.2935    104.0272     75.3180   4.8283129401e+01   4.7467570340e+01    0.3333319    0.2085092  38.81 0.0003743062    1.750    0.429
       121 -10.1030    106.0000     71.9736   4.6591085947e+01   4.7752441910e+01    0.3820421    0.1800114 -53.76  0.001135212    2.477    0.596
       122 -10.5874     90.7600    115.9857   6.3392473517e+01   4.0617800835e+01    0.2073109    0.1843506 -74.02  0.001113789    1.069    0.064
       123 -13.4607    234.6523     47.8258   1.5390000396e+01   2.0876490052e+01    0.8228613    0.6044926 -48.71  0.002249146    1.190    0.159
       124 -10.2816     88.3080    114.3355   6.3747621951e+01   4.1440421615e+01    0.2852979    0.2359956 -16.17  0.001158754    1.591    0.371
       125  -8.8203    234.1844     24.6259   9.6041479431e+00   2.3843388395e+01    0.4024792    0.2984618  -1.87  0.002161163    1.780    0.438
       126 -11.1557    133.8941    113.8801   5.1115037543e+01   3.2677180857e+01    0.2374288    0.2138037  -0.12 0.0005975499    1.283    0.220
       127 -11.1947     96.7340    110.2663   6.0315805543e+01   4.0922658017e+01    0.3821187      0.19966 -42.59  0.001510643    2.091    0.522
       128 -11.1361    215.5866     43.4229   1.6255418656e+01   2.5756359746e+01    0.3216107    0.2559669 -36.21 0.0008410765    1.145    0.127
       129  -9.2850    211.0605    112.0000   3.4715876723e+01   1.6338299616e+01     0.219335   0.08183664  51.93 0.0008004626    2.929    0.659
       130 -12.1526    219.1018     29.6744   1.2211420661e+01   2.6674906834e+01     0.757662    0.4400052 -85.55  0.002452102    1.985    0.496
       131 -11.0300    196.1958    108.0668   3.6303599222e+01   2.0136888074e+01    0.4362774    0.3125021 -81.03  0.001956925    2.176    0.540
       132  -9.4328    153.2940    108.3087   4.5042700235e+01   2.9611242925e+01    0.1523358    0.1223673   1.92 0.0003706624    1.587    0.370
       133 -10.9360    161.8329    107.1587   4.2844941809e+01   2.7927502690e+01    0.2155074    0.1855066   1.49 0.0009833351    1.341    0.254
       134 -10.4682    210.4817    105.4551   3.3211626997e+01   1.7530547974e+01    0.2791952    0.2569483  57.87 0.0008820833    1.222    0.181
       135 -10.0522    243.1683     73.0831   2.0701745615e+01   1.5663675053e+01    0.1988644    0.1715247  -0.12 0.0009841697    1.319    0.242
       136  -9.8044    151.2432     72.9767   3.5331479264e+01   3.6971789119e+01    0.2212942    0.1825751 -38.72 0.0004258193    1.175    0.149
       137 -13.7345    219.4917     69.1279   2.2608546916e+01   2.1258555395e+01     2.302843    0.6104333  63.85  0.006973174    4.777    0.791
       138 -13.1887    194.7514     67.8448   2.5781138666e+01   2.7178845926e+01    0.7637132    0.5334871  58.84  0.002321731    1.522    0.343
       139 -10.7899    183.8814    104.4640   3.7654196683e+01   2.3480758952e+01     0.479396    0.2551721 -44.17  0.001055833    1.834    0.455
       140 -13.5416    204.1626     61.2756   2.2565773412e+01   2.5941570510e+01    0.8002713    0.6443583 -64.42  0.003165178    1.276    0.216
       141 -11.7778    209.6203     58.5300   2.1076430130e+01   2.5060726619e+01    0.3298145    0.2684368 -63.09 0.0002101027    1.233    0.189
       142 -13.2172    183.6368     65.1742   2.6789641298e+01   3.0298346061e+01     1.276407    0.5494402 -43.64  0.004777627    2.214    0.548
       143 -10.3088    181.2067     46.7500   2.1646494437e+01   3.3703709970e+01    0.5407273    0.2553186  40.04  0.001924199    3.008    0.668
       144 -11.4749    155.8238    105.1715   4.3641698178e+01   2.9674496787e+01    0.3323484    0.2086069 -51.79  0.001417621    1.680    0.405
       145 -10.5689    187.0138     45.4550   2.0411614199e+01   3.2423125463e+01    0.3306963    0.3054011  -0.45 0.0005557063    1.228    0.185
       146 -10.3324     15.4056    106.2270   8.5675388888e+01   5.2515583358e+01    0.1835988    0.1043366 -87.40 0.0004430621    1.574    0.365
       147 -11.8722    209.8283     46.4763   1.7748717693e+01   2.6702957170e+01    0.5983492    0.3670664 -64.50    0.0027801    1.833    0.454
       148 -12.2325    192.3772     58.1222   2.3364502659e+01   2.9248301826e+01    0.6591898    0.5614974  24.93  0.003185665    1.397    0.284
       149 -12.1160    180.9374     52.6309   2.3479356571e+01   3.2910742480e+01     1.231062    0.6151091  86.00  0.004080068    3.512    0.715
       150 -13.0416    198.2785     48.6397   1.9805938450e+01   2.9184909748e+01    0.7570054    0.6158381   7.98  0.003960887    1.541    0.351
       151 -12.1995    192.4974     49.9315   2.0966145700e+01   3.0421820288e+01    0.5969188    0.4286663 -44.82  0.002214787    1.286    0.223
       152 -11.2085    144.9270    102.9086   4.5543730137e+01   3.2589258252e+01    0.4107404    0.3177509   5.20  0.001856688    1.769    0.435
       153 -11.0580    109.6777    103.4116   5.4854532286e+01   4.0040214093e+01    0.3051937    0.1921828 -46.63  0.001330783    1.550    0.355
       154 -10.2064    164.1591     70.7890   3.1987142254e+01   3.4176142616e+01    0.2418648    0.1887514  15.11 0.0005045789    1.653    0.395
       155 -11.7730    166.3133     65.0975   2.9823408731e+01   3.4611774622e+01    0.7746373    0.5892373  47.61   0.00375128    1.392    0.281
       156 -11.4520     75.8850    103.8740   6.5189784473e+01   4.6056239087e+01    0.2214144    0.1956106 -43.07 0.0002888513    1.198    0.165
       157 -10.5662    248.4533     61.1256   1.7255542723e+01   1.6227268553e+01    0.2176661     0.192787  59.20 0.0005275717    1.343    0.255
       158 -11.5102    248.0141     56.3696   1.6160122017e+01   1.6945169324e+01     0.332595    0.3130075 -28.30  0.002198505    1.162    0.140
       159 -11.8222    126.7989     59.1250   3.6442824897e+01   4.5476588698e+01    0.5874785     0.344013  35.19  0.002326239    2.151    0.535
       160  -9.7713    125.9508     54.4926   3.5007063248e+01   4.6504739852e+01    0.2790419    0.1543799  61.25 0.0008801491    1.982    0.495
       161 -11.6248    162.0095     56.1191   2.7798349147e+01   3.7169260124e+01    0.5729182    0.3981748 -39.61  0.002672981    1.375    0.273
       162 -11.4057    174.0076     54.0499   2.5032759343e+01   3.4445436114e+01    0.4232616    0.2585883 -40.31  0.001071763    1.536    0.349
       163 -10.0426    170.0541     55.7673   2.6240801484e+01   3.5181343741e+01    0.2751628    0.2010909 -45.79  0.001315443    1.315    0.239
       164 -10.1877    105.5030     43.6607   3.6332451811e+01   5.3238958658e+01    0.3626926    0.2653979  -8.74 0.0007896152    1.672    0.402
       165 -11.2533    100.4746     53.9243   4.1836591340e+01   5.2546183181e+01    0.5253744    0.3386485  49.45  0.001563558    1.603    0.376
       166 -10.7323     99.0740     47.8907   3.9923042895e+01   5.3963592339e+01    0.4384819    0.3102681   8.82  0.001573273    1.991    0.498
       167 -11.1267    208.0239     52.6397   1.9667655614e+01   2.6277688051e+01    0.3864896    0.2587458 -63.64  0.001873978    1.624    0.384
       168 -10.9233    137.4692     52.8451   3.1704194420e+01   4.3930842962e+01    0.4127362    0.2804117  70.07 0.0002854013    1.650    0.394
       169 -10.1153    132.6832     53.3294   3.2969392188e+01   4.5045832695e+01    0.2536196     0.223367 -65.21  0.001300425    1.192    0.161
       170 -11.2859     90.4639     51.0757   4.3923119302e+01   5.5231602486e+01    0.2373611    0.2225589  43.71 0.0003387632    1.115    0.103
       171 -11.2229    241.2971     39.7806   1.2761948134e+01   2.0472129452e+01    0.3125478    0.2082027 -23.79 0.0004825315    1.488    0.328
       172 -10.0579    245.3014     50.0454   1.4897607952e+01   1.8326391685e+01     0.185402    0.1383871 -37.52 0.0002038049    1.120    0.107
       173 -10.5320    248.0417     47.0000   1.3908416433e+01   1.8150002108e+01    0.3259006     0.143548  76.08   0.00141773    2.940    0.660
       174 -12.0561    246.8160     42.9543   1.3045138229e+01   1.8913677919e+01    0.5411526    0.2735421 -48.29 0.0009765067    1.730    0.422
       175 -10.7723    162.5099     47.8363   2.5021328422e+01   3.8326379862e+01    0.5702275    0.3008067  69.95  0.002266356    2.122    0.529
       176 -10.2466    169.0050     32.9788   1.9109431061e+01   3.8726036139e+01    0.3251104    0.1846412  57.42  0.001131642    1.751    0.429
       177 -10.2298    169.1586     36.6078   2.0267312314e+01   3.8205787860e+01    0.4332247     0.211311  47.43  0.001704957    2.283    0.562
       178 -12.5993    120.2160     99.6268   5.0915986097e+01   3.8715740400e+01    0.7859388    0.2780862 -48.24  0.002543972    2.789    0.641
       179 -10.5948    174.0224     39.7213   2.0532188989e+01   3.6525640028e+01    0.2431129    0.2247139 -53.71 0.0003533884    1.025    0.025
       180 -11.4419    177.9471     38.0280   1.9424644801e+01   3.5747420060e+01     0.532135    0.2788452  47.56  0.002122036    2.143    0.533
       181 -11.0156    160.7000     40.6809   2.2968155231e+01   3.9839041131e+01    0.2989961    0.2336788  40.56 0.0004848079    1.417    0.294
       182 -11.9865    160.4653     37.5035   2.1942953423e+01   4.0343869165e+01    0.4317816    0.3727409 -80.32   0.00229258    1.178    0.151
       183 -10.6417    133.9730     40.7060   2.8094802303e+01   4.6739672375e+01    0.6617439     0.459066 -81.88  0.002915718    1.899    0.473
       184 -11.2200    129.9519     46.3378   3.1075033338e+01   4.6881112545e+01    0.8005425    0.3386744  61.28  0.002843864    2.551    0.608
       185 -10.8173    125.5531     43.7002   3.1122068077e+01   4.8399638474e+01    0.3588424    0.2687622 -20.47  0.001582128    1.443    0.307
       186 -10.9253    142.5660     46.2681   2.8290793599e+01   4.3695878452e+01    0.4244559    0.2717258  34.57  0.001804544    1.923    0.480
       187  -9.9164    150.7577     45.4030   2.6360378070e+01   4.1723091689e+01    0.3862948     0.251745  -7.39  0.001608798    2.102    0.524
       188 -11.4158    148.6215     39.7324   2.4795899951e+01   4.3111636223e+01    0.5818649    0.4161298 -33.50  0.002793856    1.378    0.274
       189 -10.1197     90.8827     39.0884   3.8872372263e+01   5.7294021213e+01    0.2109826    0.1861961 -62.05   0.00042384    1.286    0.223
       190 -10.4964     99.7443     41.0228   3.6938255550e+01   5.5001752153e+01    0.3153129     0.291719  66.57  0.001336338    1.164    0.141
       191 -10.0410     94.2684     43.1347   3.9492458256e+01   5.5862786833e+01    0.3894781    0.2668692 -36.29  0.001873141    1.416    0.294
       192 -10.2194    250.0729     38.3404   1.1662782776e+01   1.8810380922e+01    0.2511443    0.1517092 -40.57 0.0007858318    1.330    0.248
       193 -12.3931    117.2216     93.7109   5.0076371254e+01   4.0660375533e+01    0.4215548    0.3771006 -31.81  0.001294043    1.172    0.147
       194 -10.7937    109.9954     36.0374   3.1997222296e+01   5.3400210810e+01    0.2777202    0.2330864  18.35 0.0003994981    1.304    0.233
       195 -10.5214    112.6982     32.6732   2.9912585998e+01   5.3245524972e+01     0.255518    0.2175015  15.65 0.0005476733    1.276    0.216
       196 -10.4055    122.7805     33.8954   2.7980743262e+01   5.0571165319e+01    0.3672431    0.1726058 -40.10  0.001441702    2.112    0.527
       197  -8.5979    239.8263     30.6647   1.0647413983e+01   2.1899454947e+01    0.4110626    0.3434614  73.87  0.002584828    1.343    0.255
       198 -10.1922    131.7485     33.8670   2.5998896482e+01   4.8299765720e+01    0.2668769    0.1841004 -50.62 0.0004165194    1.543    0.352
       199 -11.5235     92.5169     33.3201   3.5847407214e+01   5.7873381059e+01    0.3486531    0.2692313 -18.70 0.0008253408    1.338    0.252
       200 -10.4904     74.9882     33.4722   4.1874511108e+01   6.1541926681e+01    0.2932718    0.2387032  42.67  0.000909996    1.275    0.216
       201 -10.1045    247.2402     32.8880   1.0590242730e+01   2.0057450625e+01    0.1914274    0.1319315 -48.63 0.0003035015    1.208    0.172
       202 -11.7157    198.6561     25.9384   1.3222089963e+01   3.2044523783e+01    0.4412232    0.3649995  54.72  0.001499598    1.339    0.253
       203 -10.9714    182.0948     31.2717   1.6759376565e+01   3.5565623604e+01    0.3662472    0.3138743   8.98  0.001732699    1.404    0.288
       204 -10.5799    163.1360     30.0892   1.9030075787e+01   4.0628489927e+01    0.3393251    0.1712273 -59.41  0.001277418    2.506    0.601
       205 -11.9359     86.1521     28.2006   3.5549667335e+01   6.0061168292e+01    0.2981896    0.2632769  51.49 0.0004892331    1.185    0.156
       206 -11.2732    146.8599     25.6706   2.0089991624e+01   4.5450953862e+01    0.4062733    0.2700303  48.06   0.00104082    1.550    0.355
       207 -11.5415    150.5909     22.1382   1.8210815105e+01   4.4895715831e+01    0.4165651    0.3441333  60.52  0.001135993    1.191    0.160
       208 -10.7319    123.6866     26.9887   2.5024954016e+01   5.1287296165e+01    0.4031869    0.2589777 -26.98  0.001876204    1.585    0.369
       209 -10.1622    114.0796     28.1542   2.7694519112e+01   5.3540965259e+01    0.2426045    0.1413757  39.22  0.001038284    1.883    0.469
       210 -10.6278    176.3038     24.0261   1.5230017476e+01   3.7942652850e+01    0.3829581     0.226434 -29.09  0.001769201    1.658    0.397
       211  -9.5594    167.5570     25.8012   1.6962427852e+01   4.0005122570e+01    0.2069394    0.1242515 -41.13 0.0005289168    1.586    0.369
       212  -9.7562    105.0005     29.8059   3.0703639556e+01   5.5516681362e+01    0.2642507    0.2351791  28.67  0.001455524    1.132    0.117
       213 -10.1411    149.6550     27.6959   2.0348058993e+01   4.4465412592e+01    0.2841426    0.2232135  16.55  0.001415651    1.540    0.351
       214 -10.0005    135.9309     24.8921   2.1742036559e+01   4.8403422001e+01    0.2627223    0.1694563 -44.22 0.0009591682    1.581    0.368
       215  -9.8180    137.8292     21.6583   2.0164531594e+01   4.8300252785e+01    0.2200714    0.1962977  36.36 0.0002745547    1.176    0.149
       216  -9.3118     98.0704     21.9274   2.9081047105e+01   5.8237677075e+01    0.3408675    0.2509339  43.51   0.00140841    1.329    0.248
       217  -8.4167    103.0000     22.9874   2.8241979342e+01   5.6928260878e+01     0.300371    0.1836775 -23.82 0.0008073919    1.686    0.407
       218 -10.6039    103.2574     19.3654   2.6548360408e+01   5.7325785651e+01    0.2562649    0.1898401  21.62 0.0007236771    1.501    0.334
       219 -10.1327    163.2783     21.0133   1.5957371208e+01   4.1690460211e+01    0.1997488     0.186607  24.23 0.0004559844    1.199    0.166
       220 -11.4113    130.2147     19.5241   2.0727788046e+01   5.0530890878e+01    0.3147854    0.2765661  45.19 0.0006164282    1.140    0.122
       221  -9.0528    118.7194     21.3291   2.3782128134e+01   5.3260101227e+01    0.1475806    0.1068769 -59.46 0.0001716727    1.602    0.376
       222 -10.1877    180.0943     20.1334   1.3545426485e+01   3.7415057495e+01    0.2065778    0.1790861  47.74 0.0003993942    1.278    0.217
       223  -9.7368    170.2444     19.0519   1.4391816425e+01   4.0090532134e+01    0.2842909     0.168944   9.35   0.00114883    2.653    0.623
       224 -11.2669    186.9812     37.1970   1.7931641803e+01   3.3556877251e+01    0.4737837    0.3217635 -29.56   0.00161107    1.439    0.305
       225  -9.8985    158.5125     19.4939   1.6102740374e+01   4.3115700773e+01    0.2701699    0.1091869  56.37 0.0008724518    2.334    0.572
       226 -10.0453    236.5898    102.4300   2.8549244235e+01   1.2726431397e+01    0.3704855    0.1401709  57.20  0.001451717    3.259    0.693
       227  -9.8456     19.9674     19.1667   6.1631731863e+01   7.2486615709e+01    0.1642004      0.15753 -27.71 0.0008399522    1.244    0.196
       228  -9.6947     14.0141     18.4067   6.5048113774e+01   7.3192846853e+01    0.2271166    0.1824461 -43.48  0.001520335    1.097    0.088
       229 -10.2181    165.1488    101.8481   4.0721867674e+01   2.8207783021e+01    0.2371935    0.2094917 -65.94 0.0006972747    1.214    0.176
       230 -13.0267     86.4592     98.7628   6.0582975378e+01   4.5521839538e+01    0.6988756    0.4224934  32.98  0.002845684    1.897    0.473
       231 -11.4123     89.3002     93.9884   5.8430329058e+01   4.6149443952e+01    0.2677937    0.2462169  45.49 0.0001711992    1.152    0.132
       232 -11.0499     33.8199     99.3822   7.8429663489e+01   5.2641408344e+01    0.3443462     0.167198 -85.46  0.001419541    2.417    0.586
       233  -9.9256    121.9348     17.0124   2.1317472212e+01   5.2949235469e+01    0.2700145    0.1838355  52.80 0.0007901157    1.403    0.287
       234 -10.4391    112.4423     17.1721   2.3392238946e+01   5.5330340008e+01    0.3046061    0.2078518  75.59 0.0008770355    1.619    0.382
       235  -9.6024    174.4594     12.4896   1.1773742462e+01   3.9703061784e+01    0.1988425    0.1794674 -69.39  0.001116388    1.021    0.021
       236 -10.1337    159.0046     99.2490   4.1336338006e+01   3.0120662943e+01    0.2065833    0.1979501  61.63 0.0002875225    1.079    0.074
       237 -10.3532     93.9402     15.9682   2.7421351387e+01   5.9953939595e+01    0.2604625    0.1829696  48.18 0.0008404535    1.362    0.266
       238 -10.1807     36.7689     14.6827   4.9353605236e+01   7.1226152817e+01    0.1740617    0.1552064  32.81 0.0001331923    1.319    0.242
       239 -12.1704    153.6218     95.9998   4.1628252131e+01   3.2002176354e+01    0.8140506    0.4180562  51.66  0.001461525    2.017    0.504
       240 -12.1586    106.3831     97.1560   5.4117304402e+01   4.2134517864e+01    0.4032784    0.3219939 -23.36 0.0007855804    1.517    0.341
       241  -9.1739    192.2523     12.2616   9.8797806568e+00   3.5178536872e+01    0.1232193    0.1031183  37.15 -0.000275831    1.435    0.303
       242 -12.3511    107.8158     92.2197   5.2316330761e+01   4.2963510260e+01    0.5857407    0.2802522  38.18  0.001949584    2.374    0.579
       243 -10.5104    225.4990     97.9545   2.9052866333e+01   1.5608473387e+01      0.21892    0.1229571 -33.58  0.000504868    1.561    0.359
       244 -11.3152    199.6601     95.6766   3.2532831157e+01   2.1493119231e+01     0.502157    0.2262077 -41.99  0.001280389    2.076    0.518
       245 -10.6509    170.3510     97.5760   3.8485766286e+01   2.7823877057e+01    0.3181882    0.2870265 -50.25  0.001289694    1.093    0.085
       246 -11.7391    107.1504     85.3251   5.0484949524e+01   4.4638216107e+01    0.8416304    0.3949991  47.35  0.001384874    2.228    0.551
       247 -13.7380    126.9802     92.2577   4.7030286266e+01   3.8847485399e+01     1.182397    0.9384569  81.12   0.00261832    1.534    0.348
       248 -11.7429    145.0057     68.7785   3.5375861461e+01   3.9270802477e+01    0.9878712     0.635608  89.11  0.003773529    2.490    0.598
       249 -11.1799    146.2342     52.4766   2.9687773760e+01   4.1774656212e+01    0.4188074    0.2885719  28.31 0.0007286867    1.877    0.467
       250 -12.9721    152.0927     62.0174   3.1654601255e+01   3.8701946935e+01     1.723419    0.9202685  68.70   0.00586886    2.311    0.567
       251 -10.8715    141.0036     61.8699   3.4005268000e+01   4.1499252948e+01    0.4114556    0.2827021  63.55 0.0003515232    1.553    0.356
       252 -13.5465    124.2863     83.0978   4.5005640829e+01   4.1383023535e+01     1.373131    0.9546013  14.58  0.005564816    2.262    0.558
       253 -12.2345    113.9607     81.2553   4.7268821608e+01   4.4066754303e+01    0.7953839    0.3571037 -47.65  0.002900976    2.194    0.544
       254 -12.1191    133.4439     70.5207   3.8658378324e+01   4.1758038875e+01     1.020952     0.627107  65.18  0.003979853    1.936    0.483
       255 -11.9362    124.0349     69.8729   4.0834313314e+01   4.4113720197e+01    0.4467094     0.348519 -70.40 0.0002575312    1.521    0.342
       256 -11.9432    112.6553     67.8507   4.3260703497e+01   4.7127738205e+01    0.5091026    0.3273733  53.30 0.0007468276    1.635    0.388
       257 -13.7954    117.1395     61.1413   3.9677231133e+01   4.7402642599e+01     1.258084    0.8743204  48.29  0.001719458    1.473    0.321
       258 -10.5593     27.9696     97.2223   8.0121129948e+01   5.3740077708e+01    0.2946039    0.1470384  81.45  0.001205357    2.671    0.626
       259 -11.3444     11.7106     97.2438   8.5829912186e+01   5.5019977428e+01    0.2851209    0.2035052 -79.62  0.001039938    1.144    0.126
       260 -11.5078     73.2019     96.3336   6.4258335142e+01   4.8331165381e+01    0.2809771    0.2667894 -59.56 0.0008534675    1.066    0.062
       261 -12.4262     48.3704     95.1161   7.2507677408e+01   5.2113355919e+01    0.4283301    0.3104906  37.30  0.001834599    1.519    0.342
       262 -11.6850    232.9939     94.6450   2.7192449410e+01   1.4594450344e+01    0.2687751    0.1742735 -29.86 0.0007370119    1.357    0.263
       263 -14.8139     63.4632     86.5386   6.5128588316e+01   5.2211137838e+01     2.088836      1.53345   8.25   0.01025909    1.866    0.464
       264 -13.3181     80.2650     73.2142   5.5316012158e+01   5.2594776640e+01     1.972226    0.5385996  41.83  0.004663687    3.872    0.742
       265 -10.5931     36.4122    248.7787   9.1092669318e+01   1.9754110712e+01    0.1284893   0.08789606 -73.80 0.0009642187    1.724    0.420
       266 -11.2964    113.3654    246.8534   7.7081712211e+01   1.0562830024e+01    0.2573892    0.2035093 -11.33  0.001644188    1.930    0.482
