#   1 NUMBER                 Running object number                                     
#   2 MAG_AUTO               Kron-like elliptical aperture magnitude                    [mag]
#   3 X_IMAGE                Object position along x                                    [pixel]
#   4 Y_IMAGE                Object position along y                                    [pixel]
#   5 X_WORLD                Barycenter position along world x axis                     [deg]
#   6 Y_WORLD                Barycenter position along world y axis                     [deg]
#   7 A_WORLD                Profile RMS along major axis (world units)                 [deg]
#   8 B_WORLD                Profile RMS along minor axis (world units)                 [deg]
#   9 THETA_WORLD            Position angle (CCW/world-x)                               [deg]
#  10 FWHM_WORLD             FWHM assuming a gaussian core                              [deg]
#  11 ELONGATION             A_IMAGE/B_IMAGE                                           
#  12 ELLIPTICITY            1 - B_IMAGE/A_IMAGE                                       
         1 -11.2491     60.9531     36.0504   6.9551214578e+01   6.2906606158e+01      1.01279    0.5825041  10.50  0.003675042    2.773    0.639
         2 -11.3975     25.7899     43.6861   8.9749495287e+01   6.6672475016e+01     1.040296    0.6386292 -65.92  0.005123474    2.302    0.566
         3 -13.2031     42.9639     45.1806   8.1490003963e+01   6.4257445872e+01    0.9339922    0.6099264  43.78  0.001127825    1.809    0.447
         4 -12.4673     58.1306     29.9845   6.8059897456e+01   6.4340803481e+01    0.5754303    0.3301231 -18.39   0.00271769    2.121    0.529
         5 -10.4435     60.3582     46.6221   7.4179404282e+01   6.1252989169e+01       2.1652    0.8676085 -37.58  0.008590374    2.588    0.614
         6 -11.4117    154.5734     23.7438   4.1254625938e+01   4.3202884704e+01     1.860002    0.7771165  47.48  0.007653273    2.707    0.631
         7 -13.1606    109.7991     26.7962   5.0342024447e+01   5.3660909931e+01     1.215952    0.9238421  28.53  0.006700598    1.436    0.304
         8 -11.4968    156.8708     53.1081   4.9418830201e+01   3.8910379440e+01     1.521352     0.981692 -18.03  0.007122687    2.025    0.506
         9 -11.5022    165.4796     17.7781   3.8159625434e+01   4.1243217422e+01    0.5806451    0.3285731  37.72   0.00275376    2.485    0.598
        10 -12.0538    136.5449     23.2109   4.3850124790e+01   4.7619077889e+01     1.216746     0.598648  60.36  0.005665833    1.782    0.439
        11 -12.3826    130.6834     14.5928   4.2019280981e+01   4.9927489304e+01     2.085963    0.7236001  72.79  0.007628195    3.096    0.677
        12 -11.3902    145.7713     47.8461   4.9883448525e+01   4.2310620376e+01      1.05663    0.4814236 -27.47  0.003997854    2.588    0.614
        13 -12.4353    124.9918     27.5747   4.7383481030e+01   4.9931184270e+01    0.5660156    0.4612206  60.15   0.00327887    1.111    0.100
        14 -10.9618     79.7815     35.4962   6.2225495103e+01   5.9295690188e+01    0.9214786    0.5866001 -27.80  0.004654314    1.684    0.406
        15 -10.2022     47.2933     19.2856   6.7781416327e+01   6.7768470966e+01    0.3355623    0.2418505 -20.52  0.001368229    1.388    0.279
        16 -10.5323     13.9468     23.4147   8.8460036118e+01   7.1667644316e+01    0.7093434    0.4710688  41.31   0.00319359    2.051    0.512
        17 -12.2096     36.1977     17.5859   7.2428232293e+01   6.9812040386e+01    0.6558437    0.4190655 -33.42  0.003776188    1.594    0.373
        18 -11.9396     48.2768     12.9097   6.4072949626e+01   6.8408275769e+01    0.6994265    0.2982183  46.15  0.002437147    2.155    0.536
        19 -11.2963     27.0454     28.0099   8.2595170119e+01   6.9436581449e+01      1.09992    0.5185401  36.33  0.005343665    2.237    0.553
        20 -12.2933     20.1935     21.1126   8.3436353522e+01   7.1409638603e+01    0.6758431    0.2412694 -42.32   0.00127611    2.589    0.614
        21 -12.6220     17.2924     12.4464   8.0855034348e+01   7.3127289977e+01    0.7103079    0.5358846  -8.57  0.003026276    1.097    0.088
        22 -12.0529     22.7884     11.5504   7.6868696654e+01   7.2581157399e+01    0.4872427    0.3227535   5.43  0.002210236    1.433    0.302
        23 -10.6601     86.6174      7.3888   4.8261479211e+01   6.1041907939e+01    0.6905225    0.3165812  61.19  0.003213123    1.925    0.480
        24 -11.2069     90.6688     20.6337   5.2750956334e+01   5.8801058616e+01    0.6128051    0.3487583 -30.57  0.002696984    1.917    0.478
        25 -11.4872     85.8583     14.4215   5.1472712605e+01   6.0545785733e+01    0.7322678    0.4336744  16.68  0.002728522    2.231    0.552
        26  -9.5570     78.2719      7.4534   5.0538914807e+01   6.2905515798e+01    0.2674661    0.1992501  80.00 0.0009587464    1.646    0.392
        27 -11.1168     74.9057      3.4872   4.9682677733e+01   6.3994440241e+01    0.5450553    0.2966003  56.01  0.002769238    1.559    0.359
        28 -10.9695    178.7406     21.1185   3.7547509153e+01   3.7798213535e+01    0.5419023    0.2416651  50.17  0.001995044    2.598    0.615
        29 -11.9963     68.3774     17.9574   5.8532959789e+01   6.3931994265e+01    0.5071077    0.3979366  31.33  0.002164838    1.123    0.110
        30 -11.4059    211.8079      9.7292   3.1897875708e+01   3.1731181503e+01     0.460964    0.3158295   5.24  0.002083434    2.660    0.624
        31 -12.4603    245.8106      6.5865   2.9158076936e+01   2.5385543318e+01     1.109976    0.5673658 -38.03  0.006959055    1.685    0.406
        32 -11.6612    232.7800      6.0914   2.9784367468e+01   2.7890612185e+01    0.5561518    0.3850567 -65.56  0.003901878    1.145    0.127
        33 -11.8743    237.5112     16.1677   3.1509288129e+01   2.5930156753e+01    0.4663614    0.3559999  64.05  0.003144252    1.571    0.363
        34 -11.5025    227.5883     15.4774   3.2022665447e+01   2.7927319972e+01    0.4548853    0.2795451  88.17  0.001188071    1.550    0.355
        35 -11.0003    218.9798      2.9594   2.9967102668e+01   3.0932313137e+01    0.3193169    0.2300186 -35.89 0.0009896182    1.438    0.304
        36 -11.0570    223.8647      2.0472   2.9483973209e+01   3.0040466799e+01    0.4012171    0.2031322 -87.90  0.001989915    1.865    0.464
        37 -10.5161    211.1964     17.6049   3.3685081120e+01   3.1033502997e+01    0.3264003    0.1651248 -32.54  0.001761837    1.951    0.488
        38 -11.5996    192.0735      8.5051   3.3137324437e+01   3.6091512697e+01    0.6430954    0.4321461  -2.00  0.002715558    2.382    0.580
        39 -13.5387    117.1372     41.3710   5.3822944173e+01   5.0067594488e+01     1.569165     1.183577  29.86  0.005721477    1.472    0.321
        40 -12.2284    104.7590     12.5227   4.6111445105e+01   5.6358854476e+01    0.6141677    0.4954761 -11.51  0.002061966    1.425    0.298
        41  -9.8479    116.5230      2.5066   4.0203853669e+01   5.4412186014e+01    0.2136828    0.1936895 -16.75  0.000871163    1.290    0.225
        42 -10.9973    107.0418      1.9373   4.1640386568e+01   5.6724929841e+01     1.082134    0.2794018  71.72  0.003339687    4.524    0.779
        43  -9.9130      5.2639     12.6519   8.9270828199e+01   7.4308441379e+01     0.273258    0.1631082  22.77  0.001657166    1.659    0.397
        44  -9.0900      5.3272      9.3218   8.7511354862e+01   7.4852945534e+01    0.1441563     0.102028 -41.81 0.0006892728    1.440    0.306
        45 -10.1524     65.7494     10.3667   5.5856198333e+01   6.5302526204e+01    0.2845526    0.1983428  52.90 0.0009504545    1.341    0.254
        46  -9.9341     62.8120      6.9294   5.5196287060e+01   6.6249893195e+01    0.3360506    0.1935778  31.93  0.001556197    1.668    0.401
        47  -9.2847    163.0716     10.1315   3.6329951867e+01   4.2571682786e+01    0.1877092     0.157802  60.52 0.0005972759    1.229    0.187
        48  -9.6845      1.2170      7.5119   8.9655926395e+01   7.5496446362e+01    0.2642002   0.07778087 -49.91 0.0009815209    3.199    0.687
        49 -11.1232      2.4351      2.0029   8.5632655828e+01   7.6263811663e+01    0.2938476    0.1680968   2.19  0.001454866    1.670    0.401
        50  -9.8358     12.3747      1.4522   7.7842033854e+01   7.5298710717e+01    0.5080028    0.1467775  33.89  0.002184191    3.239    0.691
        51 -11.1666    177.0135      5.8938   3.3803669296e+01   3.9730113430e+01    0.4367584    0.1910014  84.53   0.00096766    2.293    0.564
        52  -8.9923    186.2733      1.6249   3.1951926354e+01   3.8030672627e+01    0.1668699     0.102865 -81.78 0.0004701712    1.473    0.321
        53  -9.3799    157.5534      6.9686   3.6060094368e+01   4.4170724538e+01     0.199856    0.1375035  35.33 0.0008696532    1.861    0.463
        54  -9.7302    157.4902      3.4716   3.5082309333e+01   4.4496260333e+01    0.2791782    0.2164562  34.37  0.001709374    1.609    0.379
        55 -10.8469    122.2033      5.1599   4.0211233579e+01   5.2829128765e+01     0.213697    0.1791572  68.25 0.0003869987    1.028    0.027
        56 -10.4883     41.3120      4.6667   6.2810988076e+01   7.0591588792e+01    0.3491783    0.2040112  10.55  0.001383777    2.010    0.502
        57 -11.7940    134.6188      2.8478   3.7631137373e+01   5.0022411237e+01    0.5130153    0.2779024  84.68  0.001980754    1.853    0.460
        58  -8.4695    126.3263      5.2698   3.9607186428e+01   5.1824387465e+01    0.1322669   0.08385532  45.99  0.000452106    1.576    0.365
        59 -10.0278    207.5152      2.5358   3.0613140219e+01   3.3339645681e+01    0.2160736     0.186677 -84.80 0.0009556059    1.146    0.127
        60 -10.4396    204.1975      1.6429   3.0639143159e+01   3.4125289327e+01    0.3126771    0.1789847  71.49  0.001166741    1.651    0.394
        61 -10.6498    183.6944      5.3483   3.3075751191e+01   3.8264367966e+01    0.3613214    0.2315409 -44.09   0.00109964    1.483    0.326
        62  -9.9645    169.0918      9.5413   3.5527202040e+01   4.1216263230e+01    0.3332694    0.1520903  51.97  0.001558591    2.355    0.575
        63  -9.3619    152.0154      1.3188   3.5060609116e+01   4.5977921515e+01    0.2435297    0.1036311  82.08 0.0009407156    2.324    0.570
        64 -10.0205    143.0061      3.6872   3.6810508390e+01   4.7933330014e+01    0.3460864    0.1930244  77.68  0.001596955    1.613    0.380
        65 -10.7226     82.2195      1.3290   4.6733078121e+01   6.2544576253e+01    0.2073561    0.1000107  59.29 0.0003209845    1.732    0.423
        66  -9.0200     33.5555      1.5321   6.4858387784e+01   7.2256923589e+01    0.1238065    0.0957431  16.17  0.000340171    1.052    0.050
        67  -9.4704     74.5361    153.9200   9.7511203140e+01   3.4138988958e+01    0.2645891    0.1855584 -70.83  0.001241298    1.501    0.334
        68 -10.2377    142.9653    249.7524   9.4572127436e+01   3.9288638367e+00    0.1823673    0.1372073  25.07  0.001162651    1.085    0.078
        69  -9.8902     71.1907    151.3927   9.8090294158e+01   3.5254091857e+01    0.3280232    0.1963197  49.85  0.001430669    1.809    0.447
        70 -12.1544     22.8562    148.8481   1.1260030092e+02   4.1364609691e+01    0.7015767    0.3425739 -38.70  0.002683851    2.574    0.611
        71 -10.7458     16.0351    147.7912   1.1456527742e+02   4.2183933009e+01    0.3508545    0.2977488  69.09  0.001010552    1.144    0.126
        72 -11.7273     13.0995    138.6022   1.1454995944e+02   4.4753728188e+01    0.7693424    0.4850918 -89.69  0.003992701    1.526    0.345
        73 -10.8273      3.2465    152.9071   1.1878372663e+02   4.1787833013e+01    0.5816869    0.3864836 -37.75  0.003221968    1.772    0.436
        74 -10.5029      3.4994    147.0332   1.1825433892e+02   4.3247017493e+01    0.2961426     0.203543 -65.23 0.0007771867    1.313    0.238
        75 -12.1257      2.0883    142.1735   1.1828408473e+02   4.4559855109e+01     0.653863    0.4165729  44.49  0.002066407    1.620    0.383
        76 -10.8135     62.9228    150.8755   1.0052903400e+02   3.6511183938e+01    0.4777991       0.3135  -1.98  0.002084631    2.163    0.538
        77  -8.9189     87.3823    150.8577   9.3131736323e+01   3.2975741749e+01    0.2138215    0.1318886 -46.12 0.0006248633    1.659    0.397
        78  -9.7539    234.1686    150.3280   5.9677218636e+01   7.3639448730e+00    0.1987405    0.1513127   4.73  0.001201343    1.452    0.311
        79 -11.1863     46.6452    146.4449   1.0490820764e+02   3.9643552477e+01     0.622263    0.3648932 -56.94  0.002342764    1.599    0.375
        80  -9.5194     41.6782    148.9469   1.0681150844e+02   3.9541538547e+01    0.2275907    0.2022013  28.86 0.0005606599    1.199    0.166
        81 -10.2650    239.6703    146.6138   5.8105546982e+01   7.1284808422e+00    0.2235988    0.1685892 -25.97 0.0007344577    1.117    0.105
        82  -9.2951     93.8434    146.8295   9.0443284885e+01   3.2933722203e+01     0.203812    0.1716007  61.22 0.0002719187    1.299    0.230
        83 -10.8391    249.2072    141.7677   5.5779725894e+01   6.4769832448e+00    0.4594201    0.2038831 -30.73  0.002196798    2.066    0.516
        84 -11.0107     33.2906    144.4914   1.0884843887e+02   4.1545952257e+01    0.4954821    0.3198814  38.84  0.002044475    1.581    0.368
        85  -8.9332    233.6846    143.3205   5.8353752573e+01   8.5652738405e+00    0.1219091   0.09457727 -59.67 0.0007040302    1.657    0.397
        86  -9.2575    104.9219    142.9051   8.6402033420e+01   3.2004218765e+01    0.2281285    0.1836077  77.96 0.0003793545    1.557    0.358
        87  -9.5430    132.8689    140.3964   7.8179357721e+01   2.7424974729e+01    0.2742075    0.2125666 -57.03  0.000947497    1.389    0.280
        88 -10.4912    217.0075    138.3629   5.9988384931e+01   1.2090014836e+01     0.308965     0.244096 -42.92  0.001042623    1.206    0.171
        89  -9.2729     70.3215    139.3235   9.6209693061e+01   3.8454776863e+01    0.1560247    0.1118892 -27.08  0.000338433    1.678    0.404
        90 -10.7906     22.9312    127.0213   1.0995790810e+02   4.7000233437e+01    0.3227841    0.1905088  31.31 0.0003295262    1.789    0.441
        91 -11.7156     23.1126    135.4813   1.1098095354e+02   4.4791865084e+01     1.123484    0.3758338  32.64  0.004386473    2.853    0.649
        92 -11.5905     30.1144    132.9912   1.0834743105e+02   4.4829901010e+01     0.487082    0.3583508 -85.40 0.0003881619    1.345    0.257
        93  -9.8046     79.7193    137.5573   9.2897817250e+01   3.7506218226e+01    0.3651753    0.2363218 -30.43  0.001558254    1.919    0.479
        94 -10.1429     47.0465    135.1792   1.0304907353e+02   4.2521912426e+01    0.4844016    0.2332077 -71.46  0.001769906    2.151    0.535
        95 -10.1940     39.3021    137.5531   1.0596380826e+02   4.2746902919e+01    0.4281203    0.1939865  41.01  0.001767713    2.266    0.559
        96 -10.0031    245.1116    134.8449   5.4991778198e+01   8.1540014796e+00    0.1847549    0.1482253 -43.45 0.0004220816    1.202    0.168
        97  -9.8987     93.3730    135.1851   8.8176897493e+01   3.5883385053e+01    0.2161463    0.1462888 -67.49 0.0004993543    1.692    0.409
        98 -10.3095     73.9669    132.5799   9.3732401677e+01   3.9640627656e+01    0.3449873    0.2427821 -15.00  0.001528388    1.888    0.470
        99 -10.1136     61.6600    132.2373   9.7693790691e+01   4.1472845713e+01    0.4630721    0.3418855  -9.23  0.002208109    1.700    0.412
       100  -9.4916     38.3137    133.3476   1.0566480789e+02   4.3943196847e+01    0.2480951    0.1775656  42.43 0.0008916911    1.461    0.316
       101  -9.7699    103.8563    130.9007   8.4071400531e+01   3.5084153675e+01    0.2253883    0.2034354 -10.89 0.0002927469    1.175    0.149
       102  -9.4454     93.0104    129.3217   8.6999654880e+01   3.7386502041e+01    0.2873024     0.226127  87.30  0.001338093    1.626    0.385
       103 -10.8545      9.4914    128.3123   1.1463752899e+02   4.7639643662e+01    0.5069154    0.3064288 -55.35  0.002646933    1.500    0.333
       104 -10.0570     81.5064    125.2378   8.9734839976e+01   4.0317794654e+01    0.3893336    0.2629043  10.03  0.001673009    1.921    0.479
       105  -9.7725     40.8663    126.6455   1.0373961972e+02   4.5421209660e+01    0.2460251    0.1736801 -55.16 0.0005445048    1.310    0.236
       106  -9.9531      2.1516    125.9268   1.1682412794e+02   4.8683473683e+01    0.2964688    0.1881217  72.10  0.001027939    1.642    0.391
       107  -9.8077     56.4948    122.1048   9.7496690013e+01   4.4759096854e+01    0.2420471    0.1723415 -42.92 0.0009370177    1.401    0.286
       108  -9.5044     53.4842    125.4670   9.9183577392e+01   4.4274481412e+01     0.311179    0.1378082 -62.56  0.001203912    2.142    0.533
       109 -10.0651     49.5692    123.2444   1.0012509213e+02   4.5324452458e+01    0.3510429      0.26274   9.20  0.001090555    1.529    0.346
       110 -10.7858     44.6583    118.9992   1.0107214237e+02   4.6988829165e+01    0.5889052    0.3608776 -83.49  0.001963839    1.979    0.495
       111 -12.6530    103.7469    122.3908   8.2103083882e+01   3.7134883199e+01    0.4322374    0.3826376   5.29 0.0006488457    1.214    0.176
       112  -9.9418     18.9395    122.7787   1.1076887952e+02   4.8410857680e+01    0.2607916    0.1717836 -65.07  0.000871829    1.327    0.246
       113  -9.2385     71.3577    120.9117   9.2145306935e+01   4.2984987429e+01    0.2141324    0.1840318 -50.19 0.0005201058    1.123    0.110
       114  -8.9881    221.4609    120.5025   5.5486790770e+01   1.4329231380e+01    0.1330232      0.11393 -37.76 0.0001482811    1.032    0.031
       115  -9.0859    148.6463    119.6536   6.9304600655e+01   2.8763680579e+01     0.161574    0.1199348  -0.71 0.0007037168    1.826    0.452
       116 -10.3715     33.8971    118.7871   1.0488701648e+02   4.8165873925e+01    0.2282138    0.1727426 -39.96 0.0007032944    1.327    0.247
       117  -9.6864    113.6819    116.0639   7.7599248724e+01   3.6700467548e+01    0.2791956     0.245092 -33.97   0.00141527    1.144    0.126
       118 -11.9446     49.1079     99.1875   9.5294770479e+01   5.1490532117e+01     1.975172    0.8131789 -43.75  0.007410742    2.442    0.590
       119  -9.9156     43.0031     94.7680   9.6672903484e+01   5.3310601348e+01    0.5784166    0.3994053 -35.05  0.002891933    1.453    0.312
       120 -10.9220     16.0838    109.6733   1.0998011052e+02   5.1991640829e+01    0.3868524    0.2253277  44.14 0.0009315432    1.936    0.483
       121 -11.7176      9.6091     97.3606   1.1064163523e+02   5.5530883771e+01     0.607174     0.490688  -0.92  0.001396334    1.385    0.278
       122 -11.9587      7.4064     88.8595   1.1020635206e+02   5.7775800471e+01    0.6688873    0.4440608  19.36  0.001999757    1.690    0.408
       123 -12.0400     42.4162     85.6249   9.4686003121e+01   5.5599959843e+01    0.9972662    0.4576206  20.18  0.002497284    2.484    0.597
       124 -11.1005     18.6807    106.0332   1.0844914036e+02   5.2737353635e+01    0.2619055    0.2470815 -59.03 0.0001812038    1.064    0.060
       125 -12.1777     34.7012     94.0381   9.9864506256e+01   5.4383827478e+01      1.29701    0.7845622 -35.54  0.006166993    1.695    0.410
       126 -11.3763     26.5749     86.4199   1.0159587306e+02   5.7024285020e+01    0.8448027    0.5207091  24.60  0.004274945    1.735    0.424
       127 -11.8545     17.4132    100.9781   1.0812754352e+02   5.4113829348e+01    0.5979075    0.3149619  15.97   0.00205532    2.126    0.530
       128 -11.7190     22.6985     94.8048   1.0492219393e+02   5.5272017820e+01    0.4890952    0.3598599  -1.76 0.0007446323    1.513    0.339
       129 -11.4614     18.4807     90.3591   1.0582723360e+02   5.6701343064e+01    0.4208637    0.2845889 -59.88  0.000560598    1.286    0.223
       130 -12.0424     25.0457    108.0765   1.0636091382e+02   5.1718726966e+01     1.155217    0.6344643 -20.28  0.005037422    2.387    0.581
       131 -11.2798     22.4675    114.0426   1.0827337702e+02   5.0394879821e+01     1.113925    0.3783877   7.34  0.003469891    4.914    0.797
       132 -11.5615     28.1565    113.1929   1.0604858614e+02   5.0139124936e+01    0.5854923    0.3640965  15.03  0.002879476    1.817    0.450
       133 -12.7016      2.1749    111.3548   1.1529622708e+02   5.2391513084e+01    0.6291664     0.373127  77.71 0.0004486081    1.852    0.460
       134 -11.6096      5.6023    107.2995   1.1355908672e+02   5.3242852498e+01    0.7023865    0.3575361  88.97  0.003094312    2.179    0.541
       135  -9.4123     79.1362    114.3278   8.8007346477e+01   4.3404661997e+01    0.2762614    0.1992416 -42.59  0.001297104    1.376    0.273
       136  -9.4613     66.9964    114.4811   9.2216167227e+01   4.5248685239e+01    0.3238193    0.2386485  60.84   0.00152388    1.655    0.396
       137  -9.8487     65.7454    110.9858   9.1858266609e+01   4.6305694345e+01    0.4729767    0.3159249  12.05   0.00212009    1.817    0.450
       138  -9.3231    126.9799    113.5046   7.3230965999e+01   3.4580679258e+01    0.2321735    0.1524137  41.11 0.0005964314    1.537    0.349
       139 -10.6195    108.6544    112.3523   7.8119449390e+01   3.8537548221e+01    0.7992025    0.5818119  88.22  0.003359757    2.132    0.531
       140  -9.5527    103.3734    105.7917   7.7984815238e+01   4.1066368785e+01    0.3682159    0.3171971  35.88 0.0009630766    1.164    0.141
       141  -9.4830    103.6866    112.3548   7.9615644046e+01   3.9499903068e+01    0.2699267    0.2267476 -80.20 0.0005930153    1.438    0.304
       142 -10.1953    101.5088    109.4688   7.9534418685e+01   4.0584450456e+01    0.3673702    0.2713672  26.86  0.001006087    1.451    0.311
       143  -9.4582     94.0292    112.5770   8.2684888025e+01   4.1253192666e+01    0.2948854    0.2220112 -70.79  0.001292222    1.602    0.376
       144 -10.1769     49.2702    112.2365   9.8086856332e+01   4.8187696148e+01    0.3627654    0.2878778 -24.62  0.001889504    1.359    0.264
       145 -10.7905    170.5850    110.4747   6.2170566174e+01   2.5997160337e+01     0.421818    0.2981927 -38.06  0.001382505    1.356    0.262
       146  -9.9930    147.1248    111.7154   6.7664661158e+01   3.0723534520e+01    0.2848661    0.2068269 -52.00  0.001334269    1.430    0.300
       147 -10.3211    131.3061    110.8283   7.1386295744e+01   3.4257976921e+01    0.5169769    0.3555745  72.08  0.002132137    2.163    0.538
       148 -10.0766    120.4653    108.9549   7.3823383332e+01   3.6921826968e+01     0.342275    0.2821176   6.30 0.0009888523    1.422    0.297
       149 -11.5475     79.6414    108.1652   8.6324275042e+01   4.4823142956e+01    0.6400002    0.3429853  28.78 0.0006367614    2.027    0.507
       150 -10.3982    143.4511    106.0061   6.7061687970e+01   3.2676363870e+01    0.3416152    0.2927487 -87.08  0.001272087    1.400    0.286
       151 -11.5048    145.5313    100.2380   6.5032312661e+01   3.3381808954e+01    0.4589207    0.3105404 -32.17 0.0005066023    1.568    0.362
       152 -11.4891     88.5858    104.0815   8.2251800120e+01   4.4241865157e+01    0.5996566    0.3674552  37.52   0.00117143    1.644    0.392
       153  -9.6617    181.4525    103.6789   5.8376088522e+01   2.4979721411e+01    0.2772335    0.1292354 -43.35  0.001122658    2.014    0.503
       154  -9.9300     57.2040    102.4847   9.2982038817e+01   4.9622564366e+01     0.278197    0.2013131 -55.58 0.0008310479    1.318    0.241
       155  -9.4386    120.6873    101.4737   7.1739502682e+01   3.8494919939e+01    0.2747844    0.1925166 -21.52  0.001186465    1.793    0.442
       156  -9.8358     65.0015     99.2343   8.9269938819e+01   4.9303886232e+01    0.4479873    0.1598727 -50.00  0.001559824    2.580    0.612
       157 -10.9768     67.9052     95.2088   8.7139196573e+01   4.9823789771e+01    0.4884382    0.3376684  40.67  0.002326491    1.516    0.341
       158 -11.1772     79.8019     92.9609   8.2207821083e+01   4.8377668577e+01    0.7907546    0.4193152  38.81  0.003265476    1.900    0.474
       159 -10.0994     80.5946     98.2287   8.3392918981e+01   4.7022580732e+01    0.3027222    0.2501982 -18.02   0.00147929    1.309    0.236
       160  -9.7707     77.6695     96.6995   8.4002709274e+01   4.7881024520e+01    0.2519089    0.2033927  17.29 0.0004721367    1.316    0.240
       161 -10.0814    210.9949     97.3949   5.1963867748e+01   2.0083308350e+01    0.4306515    0.2685741  25.78  0.001949727    2.638    0.621
       162  -9.6879    157.7443    106.1199   6.3795701851e+01   2.9568780835e+01    0.2901835    0.1952675  21.51 0.0008736402    2.086    0.521
       163 -11.1389     89.8012     89.5091   7.7762856991e+01   4.7326822152e+01    0.6515688    0.3566396 -35.40  0.002606526    2.044    0.511
       164 -10.8066    116.6016     94.6137   7.0962002397e+01   4.0809889194e+01     1.670284    0.6431682 -33.72  0.004912898    3.782    0.736
       165 -10.6493    121.1670     89.2476   6.8140459781e+01   4.0929828507e+01    0.5898241    0.3190121 -33.34  0.002323149    2.094    0.522
       166 -10.7815    125.9426     94.1013   6.8247586683e+01   3.8906304912e+01    0.3930744    0.3566075  32.37 0.0006819018    1.116    0.104
       167 -10.2383    122.3066     93.6574   6.9101399945e+01   3.9785855090e+01     0.285473    0.2238548 -61.13 0.0005918331    1.447    0.309
       168  -9.6021    160.4037     93.8411   6.0023131209e+01   3.1323097166e+01    0.3488389    0.2058436  69.13  0.001394528    2.384    0.580
       169 -10.8484    152.6600     92.0405   6.1198548933e+01   3.3382164883e+01     0.427366     0.342885  39.66  0.002174892    1.311    0.237
       170 -10.7483     98.7757     91.1686   7.5319372423e+01   4.5218908251e+01    0.3343096    0.2614358  40.51  0.001637225    1.276    0.216
       171 -10.7662    183.0000     84.0055   5.3206791273e+01   2.8076579433e+01    0.5739727    0.2929038 -56.72  0.002292829    2.478    0.596
       172 -10.1151     66.5906     88.8174   8.5875560433e+01   5.1527084599e+01    0.3297485    0.2344681  -5.22 0.0009594369    1.769    0.435
       173  -8.6527    211.6902     88.3031   4.9791162032e+01   2.1410753434e+01    0.1351037   0.09446977 -64.86 0.0002794547    1.607    0.378
       174 -10.7209    104.9386     86.9910   7.2160937651e+01   4.4851741193e+01    0.7391171    0.3774263 -24.18  0.002319112    3.673    0.728
       175 -11.0178    113.9989     83.8117   6.8528975874e+01   4.3576749396e+01    0.6181425    0.4345665 -69.87  0.002674269    2.019    0.505
       176 -10.8989    109.2553     80.5543   6.8908082208e+01   4.5246519618e+01    0.3236046     0.259597 -41.68 0.0009315315    1.264    0.209
       177 -10.8510    142.9440     84.4374   6.1274357823e+01   3.6990249966e+01    0.4840783    0.3181028  39.17  0.001645103    1.646    0.393
       178  -9.0722    135.0234     86.5059   6.3750548058e+01   3.8393507113e+01     0.294554    0.1421981  43.87 0.0007262275    2.122    0.529
       179 -10.5572     80.4602     83.7055   7.9258229226e+01   5.0330141336e+01    0.4611032    0.3603123 -32.99  0.002317112    1.290    0.225
       180 -10.1289     75.5111     75.4884   7.8492783993e+01   5.2982698274e+01    0.2894036    0.2815179  -1.52  0.001653589    1.067    0.063
       181 -10.9364     76.6448     80.9094   7.9780912458e+01   5.1621513886e+01     0.420586    0.3890971 -31.91 0.0005613381    1.063    0.059
       182 -10.5566     72.6705     78.1332   8.0393008113e+01   5.2917333096e+01    0.4341695    0.3490275 -56.42  0.002241332    1.361    0.265
       183 -10.2382    165.6392     83.7101   5.6278872182e+01   3.1972369551e+01    0.3554253    0.2619594 -54.79  0.001292843    1.400    0.286
       184 -10.2476     67.1315     82.2969   8.3776361617e+01   5.2926644760e+01    0.4040091    0.3061024 -40.59   0.00205028    1.275    0.216
       185  -9.5893     46.9676     75.7177   9.0045397760e+01   5.7353655432e+01    0.3529506    0.2059347 -42.96  0.001651126    1.604    0.376
       186 -10.6630     60.5921     83.6322   8.6721392999e+01   5.3642197092e+01    0.2820728    0.2545168 -51.39 0.0002755515    1.139    0.122
       187 -11.6480     53.4161     76.1161   8.7427391108e+01   5.6390963974e+01    0.6524408    0.4414949 -52.23  0.003242586    1.456    0.313
       188 -10.9971     58.3567     77.5986   8.5836316666e+01   5.5341666144e+01    0.3467703    0.2679399 -47.60 0.0006756714    1.261    0.207
       189 -10.0023      1.4932     79.8427   1.1127420126e+02   6.0276053968e+01    0.3895458    0.1630068 -74.01  0.001711291    2.232    0.552
       190 -11.5317      2.0498     71.3561   1.0953675585e+02   6.2287113331e+01    0.5986004    0.2286526 -70.00  0.002579107    2.351    0.575
       191 -13.1804      4.2725     61.7950   1.0650971984e+02   6.4414102797e+01    0.4404665    0.3357162 -30.99 0.0006292461    1.178    0.151
       192 -11.7489      9.8640     62.0614   1.0375302466e+02   6.4039210358e+01    0.5637356    0.3654481 -46.59  0.002082825    1.282    0.220
       193 -10.8126    103.3933     75.6064   6.9110463787e+01   4.7470226577e+01    0.6925639    0.3777237 -51.00  0.002816043    2.085    0.520
       194  -8.8250     30.1038     80.1833   9.8621645583e+01   5.8208605516e+01    0.1698441    0.1554359  89.68 0.0003751609    1.276    0.217
       195 -11.5357     13.9747     74.6236   1.0463682731e+02   6.0843847337e+01    0.6404105    0.3943891 -73.61  0.002369559    1.692    0.409
       196  -9.9244     10.3360     68.2933   1.0496626674e+02   6.2569651840e+01    0.2446802    0.1330586 -48.39 0.0006167539    1.517    0.341
       197  -9.7212     14.7550     67.2696   1.0259099022e+02   6.2518988931e+01    0.3397699    0.2178722  15.07  0.001535705    1.669    0.401
       198 -10.0307    233.1267     77.4513   4.4660628444e+01   1.8956603213e+01    0.2533221    0.1897425 -40.26 0.0009052309    1.155    0.134
       199 -10.0176     94.4725     76.1847   7.2109413281e+01   4.9210515327e+01    0.5562756     0.349553  38.02  0.002428188    1.587    0.370
       200 -11.4749     85.6500     73.3935   7.4171599582e+01   5.1524554756e+01     1.006457    0.6924639  68.03  0.004343293    2.227    0.551
       201  -9.8698     92.0207     72.2731   7.1644300635e+01   5.0484201336e+01    0.3492424    0.1945479  45.68  0.001484891    1.789    0.441
       202 -11.1122     75.9726     63.5682   7.4320910641e+01   5.5309354765e+01    0.5757566    0.3424251 -55.87 0.0009208684    2.152    0.535
       203 -12.2546     75.0420     53.9454   7.1183431902e+01   5.7275500282e+01    0.8064664    0.7335183 -41.77  0.002737777    1.211    0.174
       204 -11.1266     72.9623     47.6771   6.9567304228e+01   5.8764406390e+01     1.024139    0.4131504  44.09  0.003366558    2.379    0.580
       205  -9.0506    134.7018     77.5639   6.1219228680e+01   4.0132293107e+01    0.2085013    0.1434228  64.26 0.0009445957    1.623    0.384
       206 -10.1820    126.9810     76.9652   6.2948939095e+01   4.2004409139e+01    0.2238776    0.2185309  42.35 0.0003272269    1.010    0.010
       207 -12.1967    186.3802     70.7528   4.9311680744e+01   2.9473024501e+01    0.8664024    0.5519814 -39.13  0.003296017    1.480    0.324
       208  -9.7510    184.1935     60.8931   4.7132913556e+01   3.1450952212e+01    0.2536025    0.2038481 -53.64 0.0009990246    1.167    0.143
       209  -9.7360    127.5584     82.8934   6.4575549382e+01   4.0761643486e+01    0.2799566    0.2158848  48.70 0.0009577412    1.285    0.222
       210  -9.6100     24.7158     74.1564   9.9567561082e+01   6.0128752616e+01    0.2744479    0.1420994 -58.67  0.001285036    1.732    0.423
       211 -11.9703     37.5675     71.6702   9.3022899450e+01   5.9415595958e+01     1.132528    0.5334401  17.28  0.004714452    2.476    0.596
       212  -9.8420    174.7811    247.3220   8.7745717026e+01   1.8195401366e-01     0.246651    0.1917034  18.15  0.001654386    1.086    0.079
       213 -12.1943     24.3753     57.2975   9.5081737916e+01   6.3979501363e+01     1.389473    0.5855935  26.65  0.006176036    2.409    0.585
       214 -11.0770     33.4170     53.0631   8.9134388995e+01   6.3931352776e+01     1.064143    0.3084216  34.09  0.003054428    3.434    0.709
       215  -9.3956    163.5812    243.7049   8.9493856019e+01   2.1786092038e+00    0.2024617    0.1326884  41.89  0.001028004    1.673    0.402
       216 -11.0536     20.7803     46.4257   9.3453287903e+01   6.6615078369e+01     0.346436    0.2705124 -50.83  0.001423152    1.286    0.223
       217 -11.8380     53.6946     50.2365   7.8479798662e+01   6.1701248881e+01    0.5944604    0.3933468  52.26 0.0009700642    2.015    0.504
       218 -11.3709    127.5156    241.9161   9.6868130900e+01   7.2992478193e+00     0.350514    0.2940127  39.05  0.001678001    1.178    0.151
       219 -10.0066     67.8868    240.6539   1.0984941747e+02   1.5253476609e+01    0.1903776    0.1441613  16.95  0.001173188    1.449    0.310
       220 -11.5903     48.9348     30.7191   7.2477125439e+01   6.5828188561e+01    0.7182441     0.266026  37.86  0.002941538    2.564    0.610
       221 -11.9097     52.1838     61.7936   8.3351713763e+01   5.9656093017e+01    0.3808227    0.3415219 -81.34  0.002180694    1.475    0.322
       222 -11.5139     43.5106     61.9983   8.7319442165e+01   6.0819294222e+01    0.3076042    0.2602554 -50.91 0.0003368349    1.249    0.200
       223 -12.1115     46.4849     58.7781   8.4863405856e+01   6.1092020342e+01    0.6654963    0.4336883  43.36  0.003331259    1.782    0.439
       224 -10.0943    153.7027     72.5629   5.5576711425e+01   3.6609997807e+01      0.38943    0.2040535  40.78  0.001231697    2.257    0.557
       225 -11.7643    123.0052     69.0869   6.1534635234e+01   4.4331721393e+01    0.5268259    0.4926497  40.63  0.001505406    1.050    0.048
       226  -8.9153     19.6607     71.6894   1.0131445707e+02   6.1125783738e+01     0.145951   0.08436025 -32.65 0.0007044977    1.690    0.408
       227  -9.8023    172.1803     68.8065   5.1109922042e+01   3.2962708425e+01    0.2980458    0.2121205 -40.41 0.0009226183    1.360    0.264
       228 -10.3969    169.9623     63.5218   5.0067380993e+01   3.4293081139e+01    0.4737543    0.3057848 -85.91  0.001956132    2.089    0.521
       229  -8.3776    221.3294    239.6618   7.7817247019e+01  -4.3693406966e+00   0.09708529   0.09064139  26.18 0.0007051904    1.734    0.423
       230 -11.4452    219.6101     66.5660   4.3843777409e+01   2.3120746959e+01    0.6599259     0.330145  57.23  0.003298057    2.194    0.544
       231 -11.4613    234.5992     61.0433   4.1013109162e+01   2.0994423159e+01     0.381466    0.3342108 -79.74  0.001468117    1.164    0.141
       232  -9.6225    162.1756     71.0608   5.3509389982e+01   3.4897010682e+01    0.2598678    0.2123258  87.70  0.001149186    1.336    0.252
       233 -10.7696     59.1260     63.1177   8.0830554604e+01   5.8319528406e+01    0.5485243    0.3333308 -47.46  0.002017296    1.656    0.396
       234  -9.6660    192.3886     65.7333   4.7164100621e+01   2.8920555704e+01    0.2513182    0.1879623 -71.77 0.0007089307    1.416    0.294
       235  -9.5002    201.2415     64.6001   4.5671992337e+01   2.7181985230e+01    0.2408463    0.2007523  52.84  0.000853579    1.351    0.260
       236  -9.5103    198.3151     62.6467   4.5589803196e+01   2.8092379605e+01    0.2319788     0.180881 -81.29 0.0007677287    1.333    0.250
       237  -9.7219     84.1941     61.1982   7.0524035387e+01   5.4169518108e+01    0.2798497    0.2472964 -64.52  0.001192958    1.369    0.270
       238 -11.2983     92.0246     63.0788   6.8538802833e+01   5.2228942361e+01    0.8725829    0.4272365  52.00  0.003464161    2.217    0.549
       239 -10.4683     91.8635     57.6855   6.6696254206e+01   5.3227075801e+01    0.3529268    0.2708754  51.08 0.0009183048    1.320    0.242
       240 -10.7046     87.6106     56.9220   6.7826255052e+01   5.4247153216e+01    0.5175025     0.241663 -35.38  0.001590086    2.288    0.563
       241  -9.7811    106.5520     63.9922   6.4370102317e+01   4.8942784895e+01    0.3306518    0.2262958  23.66   0.00149306    1.810    0.448
       242 -10.8011    106.2790     58.4715   6.2579267622e+01   4.9956420544e+01    0.4800638    0.3490273  76.90  0.001512405    1.861    0.463
       243  -9.5003    104.1367     54.0665   6.1666235693e+01   5.1165436799e+01    0.2625719    0.2001482  -7.63 0.0009064301    1.586    0.370
       244 -10.2033    159.0285     62.5688   5.1724929541e+01   3.6981650600e+01    0.5222412    0.2121082  48.40  0.001982425    2.579    0.612
       245  -9.0163    205.8600     61.8280   4.4418974687e+01   2.6607719573e+01    0.1777752    0.1346206 -63.60 0.0004220159    1.264    0.209
       246 -11.2002    148.0559    237.9591   9.1931902041e+01   5.1862527614e+00    0.4575613    0.2415517  28.89  0.001667152    1.621    0.383
       247 -10.0813    167.5210    238.0150   8.7872908894e+01   2.5531472102e+00    0.1717466    0.1188153 -38.73  0.001029784    1.584    0.368
       248  -9.3626    233.1813    235.8158   7.5152224369e+01  -5.1882485585e+00    0.1655487    0.1043454  -3.98 0.0008247428    1.354    0.262
       249 -10.6727    197.9528    233.0617   8.1088017276e+01  -6.4381588776e-01    0.3328982    0.3082086 -24.97  0.002379582    1.467    0.318
       250  -9.6144    205.0590    233.9789   7.9889803430e+01  -1.6613563532e+00    0.1513055    0.1111885  12.87 0.0009908198    1.135    0.119
       251  -9.4534     15.3627    233.6490   1.2069239402e+02   2.2274046174e+01    0.2085786     0.129786 -79.75  0.001303243    1.610    0.379
       252 -11.2384    155.6084     42.4279   4.6545470146e+01   4.0692209013e+01    0.5256666    0.3284999  64.74   0.00262784    1.522    0.343
       253 -13.0580    153.0097     35.7774   4.5019413123e+01   4.2169434225e+01    0.3712983    0.3237916  65.85 0.0005302446    1.097    0.088
       254 -11.9507    159.4599     31.0505   4.2670051860e+01   4.1198569016e+01    0.5473611    0.4015947 -70.97  0.003037315    1.406    0.289
       255 -11.3167    164.0889     27.7427   4.1095048382e+01   4.0483368095e+01    0.2907726    0.2592366  86.50 0.0005759884    1.025    0.025
       256  -9.7737     64.9328     61.4820   7.7867886773e+01   5.7689627304e+01    0.3137389      0.19085 -46.71 0.0009448376    1.689    0.408
       257 -11.8083    119.8948     57.3802   5.8557818738e+01   4.7025031209e+01     1.013607    0.6825965  64.50  0.003163889    1.603    0.376
       258  -9.7172    147.0249     60.7813   5.3513072904e+01   4.0088789071e+01    0.2665065    0.1629497  56.21 0.0007901488    1.586    0.369
       259  -9.9862    135.2842     51.0081   5.2947989747e+01   4.4369134611e+01    0.3942019     0.275503  36.48  0.001934146    1.613    0.380
       260 -11.0577    136.3730     56.9730   5.4580279598e+01   4.3208821244e+01    0.9168813    0.4952646 -12.26  0.003136949    3.752    0.734
       261 -10.3108    247.4671    232.0671   7.2177319584e+01  -6.2413142936e+00    0.1816216    0.1707038 -16.27  0.001120873    1.800    0.445
       262  -9.9590    238.0929     55.8450   3.9580791467e+01   2.1039146719e+01    0.1934087     0.142337 -46.03 0.0002681176    1.131    0.116
       263 -10.4165    240.3619     50.5809   3.8282822140e+01   2.1306105734e+01    0.2812473    0.2046647 -31.11 0.0008628542    1.429    0.300
       264 -10.1616     66.9043     54.5563   7.4554471787e+01   5.8669880669e+01    0.3849183    0.2207176 -49.98  0.001381709    2.002    0.500
       265  -9.2479    188.2691     55.0029   4.5056026113e+01   3.1388581583e+01    0.1841463    0.1697856 -62.93 0.0007019967    1.047    0.045
       266  -9.5573    211.6424     53.0452   4.1688572781e+01   2.6624155146e+01    0.2187554    0.1639972 -81.14  0.001307837    1.348    0.258
       267 -10.4610    206.7009     45.3135   4.0443201804e+01   2.8687714170e+01    0.5359697    0.2406915 -84.95  0.001880761    4.380    0.772
       268  -9.6733    201.6738     48.6718   4.1804399580e+01   2.9318938656e+01    0.2439687    0.1595908  48.48  0.000893951    1.826    0.452
       269 -11.1565    201.0019     45.5040   4.1125020301e+01   2.9882583723e+01    0.4913771    0.2670225  89.09  0.002308059    2.300    0.565
       270 -10.6050    175.6326     48.8488   4.5240027137e+01   3.5113561219e+01    0.3790936    0.2966825  59.92  0.001339618    1.291    0.226
       271  -9.9190    171.5163     47.5199   4.5487409644e+01   3.6249609202e+01     0.312851    0.2451274 -10.54  0.001409707    1.644    0.392
       272  -9.9160    201.6691     53.0461   4.2850461640e+01   2.8728191751e+01    0.4060325    0.3354339  55.45  0.002171232    1.362    0.266
       273 -10.0693    242.6647    232.0663   7.2963604082e+01  -5.7325856193e+00    0.2242325    0.2016102 -18.02  0.001731467    1.617    0.382
       274  -9.6385     91.0901     48.2637   6.3505734424e+01   5.4966107511e+01    0.3227856    0.1892042 -53.62  0.001382235    2.319    0.569
       275 -10.9017     12.7490     48.1389   9.8429230879e+01   6.6922627145e+01    0.3810617    0.1839707 -36.41  0.001690083    1.862    0.463
       276  -9.4812     17.3400     41.9652   9.3817249443e+01   6.7834808674e+01    0.3407832    0.1764123 -21.70  0.001155646    2.147    0.534
       277  -9.8562      2.0162     48.4031   1.0447833116e+02   6.7527527180e+01    0.3591695    0.1963674 -65.00  0.001703567    1.735    0.424
       278  -9.6431      5.9912     42.9642   1.0067759949e+02   6.8473266494e+01    0.3233481    0.1824706 -42.60  0.001790997    1.446    0.308
       279  -8.8485      3.9596     39.2321   1.0072510619e+02   6.9374726399e+01    0.1977597    0.1561612 -35.02 0.0007055067    1.026    0.025
       280 -10.1902      5.5593     36.0373   9.8717418026e+01   6.9931122184e+01    0.3278313      0.21261  26.35   0.00173149    1.722    0.419
       281  -9.9871      5.8275     31.1422   9.6827183181e+01   7.0888660661e+01    0.4820402    0.1950777 -23.75  0.002046295    2.936    0.659
       282 -10.5300    245.5407     51.4091   3.7997901607e+01   2.0249978037e+01    0.2459436    0.1419223  78.72  0.001437052    1.989    0.497
       283 -10.7487    134.9468     45.9116   5.1405546233e+01   4.5182289510e+01    0.4030688    0.1953439  63.04 0.0006018059    2.056    0.514
       284 -10.2862    139.0884     43.9029   4.9945780947e+01   4.4464087407e+01    0.3336361    0.2122884  42.29  0.001046383    1.697    0.411
       285  -9.8079    176.9421     43.2746   4.3576263861e+01   3.5558953764e+01    0.3553335    0.2030047  59.76  0.001765233    1.711    0.416
       286 -10.7922     94.1955     41.2709   5.9908905648e+01   5.5356644298e+01    0.7239919    0.2857256  51.30  0.002815862    2.339    0.572
       287  -9.4806     23.7288    231.6310   1.1881742891e+02   2.1891421640e+01    0.1687541   0.08601721  40.33 0.0007350513    1.598    0.374
       288  -9.7767     86.2563     30.9422   5.8260076561e+01   5.8535434806e+01    0.2755476    0.2053266 -23.60 0.0009694872    1.447    0.309
       289 -10.2541    189.2258     40.2174   4.1211571416e+01   3.3158212002e+01    0.5102997     0.215175 -25.03  0.002034993    3.065    0.674
       290 -10.0932    231.6600     39.0705   3.6645328176e+01   2.4410022198e+01    0.3104193     0.164765 -49.03  0.001169776    1.560    0.359
       291  -9.9961     10.9864     30.7111   9.3412702158e+01   7.0585254562e+01    0.3000798    0.2156196 -27.99  0.001289052    1.158    0.136
       292  -9.4057    217.4872     39.0473   3.7915251736e+01   2.7236859911e+01    0.1880032    0.1069318 -38.02 0.0007784288    1.589    0.371
       293  -9.3813    193.4972     38.7020   4.0334366517e+01   3.2397833666e+01    0.2060815     0.137609  50.25 0.0007205194    1.729    0.422
       294 -10.8589    176.8487     36.4707   4.1789771812e+01   3.6449344514e+01    0.4210769    0.3385961 -13.64  0.002452808    1.564    0.360
       295 -10.6842    174.6649     31.5088   4.0752508042e+01   3.7559265930e+01    0.6631703    0.2368471  49.76  0.001611093    3.281    0.695
       296 -11.1806    183.1082     25.4836   3.8191229452e+01   3.6314390696e+01    0.5132823    0.2572331  55.03  0.002512913    2.081    0.519
       297  -9.2891    183.8589     38.1582   4.1343542430e+01   3.4630471746e+01    0.1988904     0.153522 -71.32 0.0007682897    1.234    0.190
       298  -9.7915    133.2623     37.1718   4.8940389506e+01   4.6761771725e+01    0.3980353     0.237198 -78.73  0.001653493    2.592    0.614
       299  -9.2453    206.6400     37.0926   3.8534074705e+01   2.9743321155e+01    0.1717688    0.1439795 -48.31 0.0008268927    1.139    0.122
       300  -9.0530     47.9702     37.1807   7.5790363738e+01   6.4933609115e+01    0.1702567    0.1473391   1.86  0.001037695    1.003    0.003
       301  -9.1495     94.1033     36.0007   5.7912627520e+01   5.6122555873e+01    0.2051723    0.1666639 -76.98 0.0006315861    1.638    0.389
       302 -11.1640    240.1171     31.7875   3.4467474216e+01   2.3673521358e+01    0.4503868     0.285608 -38.82  0.001814352    1.405    0.288
       303  -9.5870    240.5039     26.4678   3.3368906783e+01   2.4218757266e+01    0.1810895    0.1384674 -60.64 0.0005602901    1.026    0.025
       304 -10.7441    198.9689     29.0514   3.7413113533e+01   3.2363890880e+01    0.4291627    0.3481514 -35.40  0.002038687    1.311    0.237
       305  -9.9134    182.9756     32.3025   3.9949065058e+01   3.5550281570e+01    0.1819157    0.1538273  88.43 0.0004376665    1.088    0.081
       306  -8.6292    190.2601    229.6575   8.2040433744e+01   8.5346326345e-01    0.1027923   0.09945204  49.38 0.0003252668    1.591    0.372
       307  -9.3869    181.2950    228.3247   8.3609412504e+01   2.2469895082e+00    0.1295012   0.08423305  -5.03 0.0005413163    1.622    0.383
       308 -10.0198    233.9872    223.4906   7.3028538281e+01  -3.6378395917e+00    0.1636183   0.09933771  23.67 0.0008393249    1.558    0.358
       309  -9.5846     10.0227    218.0259   1.2106505486e+02   2.6004533138e+01    0.1463858    0.1174552  70.91 0.0006449966    1.052    0.049
       310 -10.4752    164.8089    212.3842   8.4477361676e+01   7.2371526545e+00    0.2635183    0.2132573  36.62 0.0008369326    1.306    0.235
       311  -9.7335    153.0655    207.3508   8.6218138087e+01   9.9078039743e+00    0.2437796    0.2048066 -51.12 0.0007606759    1.401    0.286
       312  -9.4270     61.1369    206.4941   1.0820559564e+02   2.3227060109e+01    0.1900913    0.1720669  80.78 0.0007282413    1.098    0.089
       313  -9.7910    123.9938    205.9682   9.2708429850e+01   1.4598489790e+01    0.1969026    0.1766179  14.91 -0.005334738    1.047    0.045
       314  -9.0330    221.6428     30.1748   3.5593525975e+01   2.7464653872e+01    0.1589764    0.1071459 -26.89  0.000944007    1.685    0.407
       315  -9.2219     99.5453     30.4763   5.4263768823e+01   5.5611865763e+01    0.2293022    0.1255285  56.46 0.0005621205    1.676    0.403
       316 -10.4981     97.9688     26.6218   5.3188660751e+01   5.6445523696e+01    0.2799405    0.2485048  86.52  0.001666881    1.281    0.219
       317  -9.9650    230.1400     27.5220   3.4345906234e+01   2.6084307983e+01    0.3130929    0.1403973 -37.66  0.001665436    1.909    0.476
       318 -10.6086    189.2192     27.4572   3.8027912488e+01   3.4706981561e+01    0.3115758    0.2638989  26.83  0.001940265    1.596    0.373
       319  -9.1741     41.9885     28.6472   7.4875449392e+01   6.7262673524e+01    0.3516678    0.1762503  17.00  0.001188456    2.886    0.653
       320 -10.1691    250.2156     27.2738   3.2864931306e+01   2.2339364525e+01    0.1834674    0.1372213 -36.13 0.0006820697    1.363    0.266
       321 -10.1849    213.9599     24.2165   3.4930589901e+01   2.9726425237e+01    0.2671193    0.2305925 -69.56  0.001485439    1.072    0.067
       322 -10.8606    238.2636    204.7681   6.9147517731e+01  -1.5282706369e+00      0.24269    0.1828777 -17.65  0.001654141    1.071    0.066
       323 -10.7616    234.2976    197.4171   6.8519717648e+01   3.0604839961e-02    0.4874634    0.2901037 -31.15  0.002884565    1.429    0.300
       324  -9.1107    196.4152    205.1800   7.6768077640e+01   3.9024437647e+00    0.1658443    0.1177428 -45.64 0.0006790223    1.646    0.392
       325 -10.2780     16.9994    203.7853   1.1868635801e+02   2.8517275331e+01    0.3075491    0.1187867 -65.06  0.001416323    2.481    0.597
       326 -11.4671      6.0502    198.2271   1.2094060349e+02   3.0705523678e+01     1.034899   0.09749233 -68.32  0.003183333    5.591    0.821
       327  -9.4763    169.0156     23.8583   3.9395954272e+01   3.9758788185e+01    0.2374498    0.1603831  66.66  0.001137844    1.379    0.275
       328 -12.0714      4.7215    184.3060   1.2047813668e+02   3.4033065305e+01    0.6464304    0.4585375  69.21  0.003781616    1.237    0.192
       329  -9.3439    223.5592     22.0447   3.3692803299e+01   2.8010743664e+01    0.1822791    0.1347658  88.52  0.001079804    1.279    0.218
       330 -10.7288    245.9453    200.9736   6.7237045096e+01  -1.9097990491e+00     0.184212    0.1424253 -11.41 0.0008408339    1.039    0.038
       331  -8.7354    195.3144    199.6794   7.6012133820e+01   4.9710803978e+00    0.1143126    0.1072511  78.33 0.0004414367    1.655    0.396
       332  -9.4704     82.7355    196.2382   1.0155747896e+02   2.2743665884e+01    0.3433791     0.201988  14.69  0.001514426    2.162    0.537
       333 -10.5770    246.5641    193.7256   6.5866877876e+01  -9.5374308513e-01    0.2316521   0.09351245 -33.47  0.001145881    2.079    0.519
       334  -9.6671    170.1941    191.2473   7.9659304191e+01   1.0269487824e+01     0.349127    0.1773722  19.97   0.00141843    2.521    0.603
       335  -9.9613    212.7649    183.8838   6.9810266985e+01   5.0659878487e+00    0.3375548    0.2392121  76.19  0.001368733    4.510    0.778
       336  -8.4951    173.3186    184.3323   7.7706727126e+01   1.1066187798e+01    0.1461323    0.1005158  -6.98 0.0007048288    1.693    0.409
       337  -9.9038    250.4596    178.3155   6.2493523307e+01   7.9872815860e-01    0.3587156    0.0918228 -33.54  0.001312536    3.704    0.730
       338  -8.7567      1.2433     20.6743   9.5798644757e+01   7.3191263260e+01   0.09699883   0.09316764 -88.62 0.0005206352    1.532    0.347
       339 -10.1243    239.8443    184.5939   6.5299733719e+01   1.2292606950e+00    0.2417968    0.1687809 -16.89 0.0005844419    1.219    0.179
       340  -8.9633    194.7706     19.3628   3.5500447339e+01   3.4375662087e+01    0.1646633    0.1021453  66.09 0.0004197314    1.578    0.366
       341  -9.2190    205.4995     17.3696   3.4093816486e+01   3.2262815491e+01    0.1948232    0.1037977  75.84  0.001052155    1.789    0.441
       342  -9.4682    191.2315     16.8258   3.5216112131e+01   3.5430699982e+01     0.260813    0.1911663  25.48  0.001496458    2.087    0.521
       343  -9.6196    230.7543    175.5277   6.5105336704e+01   3.8460969437e+00    0.3016946    0.1413084  31.84  0.001468577    2.398    0.583
       344 -10.1156    186.4905     15.1674   3.5253531268e+01   3.6665118036e+01    0.2332352    0.1761764  89.10 0.0005133185    1.180    0.153
       345 -10.3327     51.9309    173.5466   1.0694441122e+02   3.2142915256e+01    0.5048589    0.2561071  88.95  0.001989197    2.689    0.628
       346  -9.7280     28.0148    176.0024   1.1380437768e+02   3.4064820628e+01     0.207588    0.1812521  70.63 0.0009066862    1.041    0.039
       347  -9.9946    247.4685    173.8842   6.2135824676e+01   1.8387919122e+00    0.3676229    0.1568879  25.54  0.001613156    3.435    0.709
       348  -9.8086     39.4956    173.5123   1.1040975568e+02   3.3535173930e+01     0.283504    0.1988904  66.02  0.001263608    1.436    0.304
       349  -9.6154     74.5130     19.5362   5.7149304868e+01   6.2470341556e+01    0.2535702    0.1843137  32.37  0.001155488    1.270    0.213
       350  -9.9291     75.8225     13.9119   5.4194694498e+01   6.2809243084e+01    0.2338016    0.1684802  56.47 0.0003688466    1.315    0.239
       351 -10.9076     35.1001    169.8150   1.1124602817e+02   3.4908398490e+01    0.4125344    0.2867535  74.64   0.00164728    1.459    0.315
       352  -8.6791    207.2807    172.3557   6.8609457086e+01   7.8255370640e+00    0.1385847   0.09220847 -11.18 0.0005129798    1.660    0.398
       353  -8.5506     94.6555     12.2823   4.8311254380e+01   5.8748262408e+01    0.1279989   0.09859972 -79.69  0.000281197    1.638    0.390
       354  -8.9024    170.5396    172.0283   7.5929967630e+01   1.3882921725e+01    0.2067982    0.1339665 -41.69 0.0006849457    1.515    0.340
       355  -9.9240      9.4749    155.9666   1.1723609896e+02   4.0597839941e+01     0.234634    0.1899294 -75.36  0.001087241    1.116    0.104
       356 -11.7034      9.5690    166.8499   1.1805939225e+02   3.7882071940e+01    0.5260713    0.4429478 -85.06  0.002702322    1.065    0.061
       357  -9.9633     12.5346    162.4873   1.1690089019e+02   3.8739572027e+01    0.2207883    0.1712471  62.43 0.0007057797    1.221    0.181
       358 -10.8442     13.7037    158.3542   1.1622428356e+02   3.9684807561e+01    0.4257089    0.2239492 -74.87  0.002092307    1.687    0.407
       359  -9.2892    198.1271    167.9244   6.9459459153e+01   1.0050811667e+01    0.1971634    0.1807501 -36.40   0.00072808    1.218    0.179
       360  -9.3503    156.3287    166.1278   7.7934570803e+01   1.7531223450e+01    0.2000779    0.1750893 -37.86 0.0004088677    1.147    0.128
       361  -9.0148    152.4545    166.5157   7.8914775183e+01   1.8135336695e+01    0.1467229    0.1356952  -4.03 0.0001056169    1.015    0.015
       362 -10.4532     18.8791    165.1715   1.1535124540e+02   3.7562409414e+01    0.3212418    0.2573334  -1.25  0.001698894    1.549    0.355
       363  -9.7281    188.7154    163.8566   7.0485459377e+01   1.2348680987e+01    0.2313477    0.1586459 -21.17  0.001164597    1.517    0.341
       364  -9.9747     39.4580    162.0612   1.0913632256e+02   3.6415052579e+01     0.465141    0.2349765  66.89  0.001877658    2.560    0.609
       365  -9.8491    204.9790    162.9579   6.7171810185e+01   9.8195681063e+00    0.2400197    0.1875836  18.53    0.0005899    1.321    0.243
       366  -9.5982    208.4861    160.5056   6.6035508426e+01   9.6812937918e+00    0.2474738    0.1559641 -36.71 0.0009175473    1.421    0.296
       367 -10.3480     27.7930    163.6088   1.1267990954e+02   3.7171357400e+01    0.2687517    0.2055705  41.43  0.001451678    1.306    0.234
       368 -10.1617    246.5134    158.7098   5.9431731265e+01   4.2620292795e+00    0.3383041    0.1003222 -36.44  0.001361598    2.820    0.645
       369  -9.5692    224.1821    157.4460   6.2696152541e+01   7.7274287337e+00    0.3120553    0.1745316 -45.95  0.001570057    1.813    0.448
       370  -9.2880    215.4724    157.4714   6.4182885966e+01   9.0843246337e+00    0.1347133    0.1121492 -17.62 4.743162e-05    1.058    0.055
       371 -10.4232    104.9053    154.2016   8.8711584580e+01   2.9287437341e+01    0.4157675    0.3260385 -16.33  0.002001905    1.523    0.343
       372  -9.5314     33.5082    154.5081   1.1001140289e+02   3.8943430933e+01    0.3300062    0.2357236  -0.62  0.001501177    1.774    0.436
       373 -10.8833     31.1632    151.8119   1.1040423993e+02   3.9860280232e+01    0.3526712    0.2642623 -43.00  0.001623407    1.442    0.307
       374  -9.5328     73.4197    147.3337   9.6702360577e+01   3.5968154778e+01    0.4685325    0.1235051 -48.89  0.001360302    3.831    0.739
