#   1 NUMBER                 Running object number                                     
#   2 MAG_AUTO               Kron-like elliptical aperture magnitude                    [mag]
#   3 X_IMAGE                Object position along x                                    [pixel]
#   4 Y_IMAGE                Object position along y                                    [pixel]
#   5 X_WORLD                Barycenter position along world x axis                     [deg]
#   6 Y_WORLD                Barycenter position along world y axis                     [deg]
#   7 A_WORLD                Profile RMS along major axis (world units)                 [deg]
#   8 B_WORLD                Profile RMS along minor axis (world units)                 [deg]
#   9 THETA_WORLD            Position angle (CCW/world-x)                               [deg]
#  10 FWHM_WORLD             FWHM assuming a gaussian core                              [deg]
#  11 ELONGATION             A_IMAGE/B_IMAGE                                           
#  12 ELLIPTICITY            1 - B_IMAGE/A_IMAGE                                       
         1 -17.4802    216.2032     75.2912   7.0256026928e+01   2.1715927646e+01     7.692355     4.310862 -87.34   0.03081291    3.082    0.676
         2 -17.7081    124.6515     57.3628   8.2510727035e+01   4.4956869648e+01     6.643414     3.434475  36.00   0.02882208    2.101    0.524
         3 -16.1325    144.8810     86.2656   8.6069420418e+01   3.5905847279e+01      2.14815     1.777953  43.08  0.008272493    1.179    0.152
         4 -18.1222     71.8472    119.0584   1.1462413014e+02   4.2980504516e+01     5.041385     3.496322  25.17   0.01699993    1.587    0.370
         5 -16.1611    166.4978     73.1088   7.7983959031e+01   3.3207632587e+01     3.750547      1.39499 -43.95   0.01374631    2.834    0.647
         6 -12.9748     39.1384      6.5440   8.9812398500e+01   6.6318731379e+01     0.418418    0.3175902  -7.25  0.002491772    1.219    0.180
         7 -14.8753     86.3047      3.7988   7.4309308865e+01   5.8634318272e+01     2.308614    0.2450467  52.03  0.007656306    4.573    0.781
         8 -12.0791    147.7054      3.3725   6.2629646243e+01   4.5739507701e+01    0.3282541    0.2678083  21.08  0.002208731    1.448    0.310
         9 -14.1512     58.1408      2.1147   8.1467323662e+01   6.3810008641e+01     1.758968    0.2441876  48.83  0.005844979    5.347    0.813
        10 -16.6294    127.2129     98.1958   9.3627810042e+01   3.7515056583e+01     3.876895      2.72201 -83.07   0.01591029    2.585    0.613
        11 -11.7295     75.7283    215.3259   1.3034042168e+02   2.0108090925e+01    0.2706873    0.1997336  69.76 0.0006794409    1.367    0.268
        12 -15.1634    210.8165    245.8268   1.0677296440e+02  -7.2216120659e+00     1.623207    0.9775262 -16.66  0.008615152    1.890    0.471
        13 -16.2665    231.5924    225.8733   9.9315930021e+01  -7.2610708031e+00     3.151602     1.642558 -17.84   0.01448882    2.401    0.584
        14 -16.1446     90.6205    245.3488   1.3089393422e+02   1.1767348961e+01     5.878177     2.017349  30.50   0.02052518    4.206    0.762
        15 -11.8409     63.8148    205.2613   1.3166334097e+02   2.3967147022e+01    0.3740978    0.2177357 -49.38  0.001540587    1.883    0.469
        16 -12.5422    200.6905    199.1171   1.0023710942e+02   2.2270993555e+00     1.108253    0.4902223 -35.13  0.004479955    2.361    0.576
        17 -11.9054     45.0404    203.7424   1.3556243555e+02   2.6665079755e+01      0.20473    0.1650419  87.72  0.000384878    1.097    0.088
        18 -12.5020    208.8283    197.1151   9.8214243798e+01   1.1806164745e+00     0.347048    0.3068437 -28.95   0.00203649    1.136    0.120
        19 -10.4256     66.8375    195.5996   1.2971935364e+02   2.5747675363e+01    0.1869264    0.1112221  50.09 0.0009129994    1.707    0.414
        20 -11.3272     71.1232    191.3248   1.2813056287e+02   2.6141797439e+01    0.2485475    0.1720467 -55.13  0.001241931    1.412    0.292
        21 -14.3034     55.8825    176.6923   1.2964154242e+02   3.1566828978e+01    0.8986444    0.5153952  47.32  0.002657369    1.848    0.459
        22 -10.2476     83.0305    177.4857   1.2312200915e+02   2.7647809839e+01    0.2245112    0.1814502 -37.50 0.0003958971    1.369    0.270
        23 -11.1087     86.2138    172.8679   1.2154233874e+02   2.8251640883e+01    0.4132021    0.2180581 -37.25  0.001652962    2.489    0.598
        24 -10.2276     93.1690    162.8106   1.1793742265e+02   2.9531802516e+01     0.189886    0.1631563 -30.12 0.0003598403    1.261    0.207
        25 -12.4873     82.1364    157.8441   1.1986268517e+02   3.2428736660e+01    0.3885129    0.2455657 -36.06  0.001157907    1.826    0.452
        26 -12.9488     68.4812    144.0824   1.2089830783e+02   3.7659243061e+01    0.6690599    0.4515158  70.61  0.003109539    2.113    0.527
        27 -19.3256     22.2907    137.6539   1.3243673531e+02   4.4278396719e+01     19.91399     1.838744 -65.54   0.03757673   12.031    0.917
        28  -9.9978      1.4498    238.4413   1.4684298422e+02   2.3959091157e+01    0.1062014   0.08270582  84.97 0.0008040344    1.089    0.082
        29 -12.5278     92.2681    234.7777   1.2929460754e+02   1.3613513035e+01    0.2569501     0.215367 -80.98 0.0005766058    1.217    0.178
        30 -16.4411     93.6253    135.4341   1.1213593621e+02   3.5868930482e+01     2.023407     1.586599  25.68   0.00788349    1.379    0.275
        31 -10.0107      4.9419    236.4981   1.4612553532e+02   2.4009899137e+01    0.1220198   0.09862361  51.72 -0.0002697054    1.339    0.253
        32 -11.4774     49.7403     81.5197   1.1213964803e+02   5.3822540008e+01    0.3130566     0.257066 -19.62  0.001632447    1.074    0.069
        33 -11.8554     60.3371    215.0162   1.3358976717e+02   2.2271212470e+01    0.3598806    0.1873483  56.66  0.001519854    2.019    0.505
        34 -10.8824     70.8282    228.3324   1.3293517273e+02   1.8019072751e+01    0.1954865    0.1538982  86.29 0.0003887934    1.211    0.175
        35 -10.7317     43.9635    209.9921   1.3647217591e+02   2.5407994612e+01    0.3226304    0.0939846  51.72  0.001119384    4.214    0.763
        36 -11.0169     40.7913    220.1037   1.3814990096e+02   2.3590002399e+01    0.2138472    0.1370031  55.58 0.0006660142    1.456    0.313
        37 -11.9787     45.1204    215.7921   1.3684144440e+02   2.4005479069e+01    0.4234155    0.1696599  53.14  0.001629876    2.630    0.620
