#   1 NUMBER                 Running object number                                     
#   2 MAG_AUTO               Kron-like elliptical aperture magnitude                    [mag]
#   3 X_IMAGE                Object position along x                                    [pixel]
#   4 Y_IMAGE                Object position along y                                    [pixel]
#   5 X_WORLD                Barycenter position along world x axis                     [deg]
#   6 Y_WORLD                Barycenter position along world y axis                     [deg]
#   7 A_WORLD                Profile RMS along major axis (world units)                 [deg]
#   8 B_WORLD                Profile RMS along minor axis (world units)                 [deg]
#   9 THETA_WORLD            Position angle (CCW/world-x)                               [deg]
#  10 FWHM_WORLD             FWHM assuming a gaussian core                              [deg]
#  11 ELONGATION             A_IMAGE/B_IMAGE                                           
#  12 ELLIPTICITY            1 - B_IMAGE/A_IMAGE                                       
         1 -15.1359    106.4931     18.2924   7.9023839151e+01   5.6528938664e+01     1.606874     1.044766  -9.07  0.004992286    1.634    0.388
         2 -15.7954     88.5394     53.5220   9.9228590436e+01   5.4290871783e+01     3.154073     1.399722  39.34   0.01264287    2.354    0.575
         3 -16.2326    105.0516     38.3793   8.7955857127e+01   5.3848334977e+01      2.61404     1.471809  33.91  0.008748051    1.879    0.468
         4 -15.0647    179.5176     32.6182   6.8134516620e+01   3.6206658011e+01     1.363396     0.963547  14.38  0.004589006    1.631    0.387
         5 -14.0622    183.6648     25.8348   6.5248415964e+01   3.5906216401e+01    0.6495063    0.5816487   8.89  0.001328955    1.139    0.122
         6 -15.2765    200.3746     14.1792   5.9286042419e+01   3.2740479131e+01     1.471802     1.245655 -82.75  0.004917784    1.245    0.197
         7 -13.3019    199.9740      2.1685   5.5711367893e+01   3.3955823165e+01    0.9580722    0.3022285  73.51   0.00325129    3.229    0.690
         8 -11.2348     50.3361      7.6631   9.5426070101e+01   6.8636755703e+01    0.1156378    0.1045561 -63.12  0.000705172    1.749    0.428
         9 -14.0055    107.9623    211.1563   1.2473410003e+02   1.9350145571e+01    0.6227173    0.2695191  47.92  0.003270718    1.945    0.486
        10 -11.6320    236.6774    250.6047   1.0662418151e+02  -4.0717154518e+00    0.5566128   0.07153489  38.49  0.001908464    5.393    0.815
        11 -12.8180    250.2305    247.2335   1.0400724656e+02  -5.5688196747e+00    0.4577513    0.2751048 -28.54   0.00281304    2.174    0.540
        12 -12.4006    245.0520    249.8418   1.0518889374e+02  -5.1080617223e+00    0.3985184    0.1995087  30.19  0.002465873    1.374    0.272
        13 -16.6402     62.7670     27.4872   9.9154624669e+01   6.3449122083e+01     3.888862     2.190529  -5.73   0.01575614    2.938    0.660
        14 -17.5390     84.6667    248.9166   1.3213055152e+02   1.6712318523e+01     4.867875     1.611704  30.52   0.01188101    4.255    0.765
        15 -12.5376     87.0112    203.4844   1.2807685198e+02   2.3439973649e+01    0.2608238    0.1889568  28.77  0.001738049    1.500    0.333
        16 -12.0157     86.5160    206.5190   1.2845552498e+02   2.2989179136e+01    0.2392151    0.1880048  19.53  0.001454678    1.619    0.382
        17 -12.7584    106.7638    205.9962   1.2442629454e+02   2.0353684085e+01    0.2519117    0.2168943 -76.77  0.001050211    1.354    0.262
        18 -12.8466    194.2402    193.8160   1.0547245289e+02   8.3627516357e+00    0.5028268    0.4144166 -38.15  0.003282126    1.569    0.363
        19 -11.8488    111.4875    197.2589   1.2250224559e+02   2.1136131046e+01    0.2585955    0.1356136  27.57  0.001295194    2.199    0.545
        20 -12.2787    103.2905    194.5392   1.2386906729e+02   2.2776743135e+01    0.3459928    0.1658981  31.30   0.00172512    2.144    0.534
        21 -12.5707    109.5130    203.5070   1.2361045169e+02   2.0375558998e+01     0.233328    0.1684982  48.18 0.0008355564    1.136    0.120
        22 -11.8983     92.9046    185.7616   1.2504986152e+02   2.5786352563e+01    0.2397115    0.1313433  52.78    0.0013101    1.690    0.408
        23 -10.8894     25.0940    184.9633   1.3890770878e+02   3.3587476297e+01    0.1449832    0.1143909  68.19 0.0002803898    1.041    0.039
        24 -11.7775    207.8029    183.8286   1.0118509222e+02   7.3796066170e+00    0.2442321    0.2080627  25.88 0.0009819878    1.182    0.154
        25 -12.1014    211.0200    179.9584   9.9881324900e+01   7.3317428355e+00    0.3792403    0.2321635 -13.90  0.002023218    1.830    0.453
        26 -12.0163     99.2310    180.7493   1.2310829640e+02   2.5823341627e+01    0.2408975    0.1915233  32.72 0.0008394714    1.265    0.210
        27 -12.3093     93.2835    198.4982   1.2633546094e+02   2.3469706829e+01    0.2348165    0.1581138  64.50 0.0007718959    1.474    0.321
        28 -12.3627    197.8068    174.8668   1.0145995224e+02   1.0336529719e+01    0.4367809    0.3002197 -39.94  0.002290079    1.767    0.434
        29 -11.7199    118.1894    173.3909   1.1797024818e+02   2.4338523702e+01    0.1955032    0.1019276  47.11 0.0008764634    1.749    0.428
        30 -12.8747    101.7205    169.5730   1.2112484847e+02   2.7567666410e+01      0.36277    0.1990922  38.33   0.00188442    1.642    0.391
        31 -11.0830    125.4950    172.4711   1.1621600846e+02   2.3339289129e+01    0.1300438    0.1136641  41.98 -2.843026e-06    1.009    0.009
        32 -11.4544    203.0553    167.4623   9.9039811913e+01   1.0436325218e+01    0.2286152    0.1942329 -47.52  0.001359335    1.634    0.388
        33  -9.9974    121.4015    164.5071   1.1591118844e+02   2.5477747766e+01    0.1298287    0.1164075  51.30 0.0001579252    1.048    0.046
        34 -12.1589     97.5323    162.6063   1.2113217982e+02   2.9538978205e+01    0.2316999    0.2228427  86.92  0.001566796    1.111    0.100
        35 -10.7882      5.6590    161.8037   1.4162330694e+02   3.9565206220e+01    0.1393738    0.1013386  75.49 0.0003876439    1.061    0.057
        36 -11.6954    101.0466    157.0449   1.1950980891e+02   3.0125299779e+01    0.2602156    0.2485594 -17.33 0.0004591565    1.225    0.183
        37 -11.9414    102.9629    153.4806   1.1851324405e+02   3.0551405066e+01     0.344811    0.2363428  48.05  0.001498126    1.363    0.267
        38 -11.6989    134.2746    146.7474   1.0984846635e+02   2.6661853328e+01    0.5633662     0.159794 -53.30  0.001705716    4.711    0.788
        39 -12.6124     93.3012    207.2941   1.2720368752e+02   2.1973397312e+01    0.2575606    0.2118707 -65.36  0.001082445    1.447    0.309
        40 -12.2461     78.8004    144.0519   1.2305601516e+02   3.5972466694e+01    0.2337448    0.1696929 -46.86  0.001214727    1.546    0.353
        41 -12.1197    111.6664    139.9942   1.1412160124e+02   3.1920375618e+01     0.441241    0.2508974 -33.43  0.001908045    2.491    0.599
        42 -12.4418    100.5938    140.4472   1.1699222344e+02   3.3599929947e+01    0.2468599    0.2270201  32.68 0.0003721431    1.119    0.106
        43 -11.8866     14.3218    136.5797   1.3823793880e+02   4.4091759531e+01    0.1922036    0.1592921  88.53 0.0004589052    1.057    0.054
        44 -11.2868    105.8461    130.8320   1.1392257503e+02   3.4793332961e+01    0.3433466    0.2781421 -77.59  0.001283687    1.385    0.278
        45 -11.2377    105.5258    126.9847   1.1327041609e+02   3.5664626175e+01    0.2323415    0.2012317 -23.06  0.000720686    1.320    0.243
        46 -11.0216    117.4801    130.5341   1.1085017857e+02   3.2888972254e+01    0.2415028    0.1883709  -9.04 0.0006386138    1.670    0.401
        47 -10.6811    142.9790    127.9168   1.0389777167e+02   2.8678896653e+01    0.2301165    0.1791511  74.90  0.001116399    1.764    0.433
        48 -10.0973    112.2010    119.4145   1.0994494269e+02   3.6147889523e+01    0.1891478    0.1299323  49.00 0.0002889156    1.489    0.328
        49 -10.7263    168.9929    113.6912   9.4376124625e+01   2.5954687760e+01    0.2501867    0.2153773 -66.98 0.0005962746    1.518    0.341
        50 -12.5608    223.8550    107.9195   8.1906514708e+01   1.4926231842e+01    0.5094851    0.3469313 -42.70  0.002501294    1.696    0.410
        51 -10.8787    205.5870    110.2944   8.5846102850e+01   1.8500646515e+01    0.2567062    0.1617469  27.83 0.0007707601    1.666    0.400
        52 -11.7477    237.9534    107.8741   7.9521041084e+01   1.2008984355e+01    0.3514268    0.1941941 -22.20   0.00134055    1.720    0.419
        53  -9.7041     83.2909     76.6512   1.0826281145e+02   5.0303950062e+01    0.1395711    0.1121802  88.94 0.0006397858    1.667    0.400
        54 -13.4529      2.8725     71.1271   1.3558321504e+02   5.9204534940e+01    0.6421991    0.2360595 -57.45   0.00327923    2.048    0.512
        55 -13.1950    164.6254     68.8499   8.2794518765e+01   3.4808532058e+01    0.8434459    0.5771643  59.98  0.002863451    1.615    0.381
        56 -14.4662     55.6234     63.6420   1.1457321615e+02   5.6950241011e+01     1.194023    0.5843804 -40.90  0.005360298    1.988    0.497
        57 -13.2113    244.5273    235.3552   1.0319374240e+02  -3.8113943834e+00    0.4812179    0.2700724  -7.80  0.002930447    1.843    0.457
        58 -14.6388     72.4557     53.4573   1.0508591959e+02   5.6925318044e+01     1.074126    0.7490497   6.34   0.00539078    1.758    0.431
        59 -13.0693    249.6779    227.1245   1.0111646851e+02  -3.7843116222e+00    0.5354326    0.2156229 -20.51  0.002553853    2.799    0.643
        60 -10.8600    176.0000    240.0082   1.1543345611e+02   5.4919277208e+00     0.184092    0.1327499 -36.96 0.0008889135    1.859    0.462
        61 -12.2692    139.2497     57.6198   8.5241257296e+01   4.2852679974e+01    0.5212154    0.4057314 -48.71  0.001934523    1.464    0.317
        62 -12.8954    139.7303     63.8697   8.7211781476e+01   4.1658568641e+01    0.8217567    0.4603601 -30.32  0.002805116    1.836    0.455
        63 -13.1395    191.0871     57.7968   7.4041590228e+01   2.9876248307e+01     1.045937    0.5202702  71.02  0.003641444    2.944    0.660
        64 -12.9752    178.5692     57.6137   7.6343354518e+01   3.3074217742e+01    0.5678678    0.3460648  39.20  0.002416082    1.673    0.402
        65 -13.5364     10.7535    206.3778   1.4251191088e+02   3.1017842170e+01     0.415673    0.2291258  32.92  0.003020986    1.847    0.459
        66 -13.3808    166.0485     47.1330   7.5473564680e+01   3.7806672485e+01     0.464164    0.4173985  32.93 0.0008627199    1.058    0.055
        67 -12.0279    175.0000    235.9566   1.1511153761e+02   6.1080249204e+00    0.2267889    0.1497452 -42.06 0.0009252102    2.059    0.514
        68 -19.5426     37.2458    145.3112   1.3345114181e+02   4.0371679961e+01     17.53234     2.889983 -73.32   0.05261373    6.243    0.840
        69 -12.3227    117.0872    206.2511   1.2241361581e+02   1.8840342965e+01    0.2167633    0.1396921  73.33 0.0009406955    2.099    0.524
        70 -12.4200    139.3279    215.9725   1.1922752109e+02   1.4061944917e+01    0.2655632    0.1851813  80.08  0.001335811    2.276    0.561
        71 -12.9138    116.1183    211.8794   1.2322865047e+02   1.8085759751e+01    0.3803537    0.1855041  58.59  0.001140736    2.532    0.605
