#   1 NUMBER                 Running object number                                     
#   2 MAG_AUTO               Kron-like elliptical aperture magnitude                    [mag]
#   3 X_IMAGE                Object position along x                                    [pixel]
#   4 Y_IMAGE                Object position along y                                    [pixel]
#   5 X_WORLD                Barycenter position along world x axis                     [deg]
#   6 Y_WORLD                Barycenter position along world y axis                     [deg]
#   7 A_WORLD                Profile RMS along major axis (world units)                 [deg]
#   8 B_WORLD                Profile RMS along minor axis (world units)                 [deg]
#   9 THETA_WORLD            Position angle (CCW/world-x)                               [deg]
#  10 FWHM_WORLD             FWHM assuming a gaussian core                              [deg]
#  11 ELONGATION             A_IMAGE/B_IMAGE                                           
#  12 ELLIPTICITY            1 - B_IMAGE/A_IMAGE                                       
         1 -10.4065     89.6261     21.7772   3.1759003566e+01  -4.4457473956e+01  0.008525167  0.006320171  74.57 0.0003103061    1.557    0.358
         2 -11.8559    116.6720     17.5219   3.1295939926e+01  -4.4331419532e+01   0.02160794  0.009581883  56.37  0.001897884    2.250    0.556
         3 -10.8234    135.6663     11.9058   3.0948467386e+01  -4.4270030895e+01  0.008558975  0.008263966  57.86 0.0003574411    1.077    0.071
         4 -10.7202     92.4764      8.5448   3.1596830801e+01  -4.4582362979e+01   0.00645898  0.006219276 -24.20   0.00013439    1.013    0.013
         5 -10.4147     49.2428      8.3800   3.2281024862e+01  -4.4856609479e+01  0.009124848  0.005743852 -37.59  0.000932171    1.534    0.348
         6 -11.1102     45.0523      7.7635   3.2342404746e+01  -4.4889488146e+01  0.009631225  0.008419595 -50.02 0.0004194009    1.184    0.155
         7 -10.2621     80.6847      6.2687   3.1763022808e+01  -4.4681683680e+01  0.006564076  0.004842097 -57.43 0.0001850717    1.553    0.356
         8 -11.8250    145.7115      2.1989   3.0704487645e+01  -4.4309428054e+01   0.01520729   0.01132509  77.25  0.001557975    1.594    0.373
         9 -11.0370      7.3944      1.9245   3.2894482514e+01  -4.5186699555e+01  0.009971895  0.008408105 -39.76 0.0005840004    1.172    0.147
        10  -9.9855    129.2880      1.2949   3.0953201600e+01  -4.4425116127e+01  0.006536216  0.004919735  21.25 0.0002358045    1.549    0.354
        11 -11.1553    124.9506    249.4972   3.3150898441e+01  -4.1762620169e+01   0.01247563  0.008292383  43.45 0.0006942815    1.568    0.362
        12 -11.7573    139.3533    248.6769   3.2925103407e+01  -4.1682999431e+01   0.01754206    0.0106485  55.16  0.001634448    1.657    0.396
        13 -10.6732     84.1466    250.3857   3.3782025579e+01  -4.2001527995e+01   0.00984153  0.005424891 -39.71 0.0009393634    1.775    0.437
        14 -13.5551     65.3010    246.4925   3.4040272275e+01  -4.2157952001e+01   0.03492757   0.02147357 -29.46  0.002055519    1.558    0.358
        15 -14.2722     36.3236    248.4176   3.4503557433e+01  -4.2310239375e+01   0.05948823   0.02767449 -28.46  0.003934642    2.053    0.513
        16 -14.7429      6.2586    183.6722   3.4447965564e+01  -4.3202359839e+01   0.08106325   0.04933292  32.64  0.007818323    1.971    0.493
        17 -15.2974     33.9546    227.6972   3.4373154712e+01  -4.2552452804e+01    0.1347151   0.04468073  66.49  0.009295738    3.865    0.741
        18 -12.8102      9.5516    209.0305   3.4602579396e+01  -4.2903380527e+01    0.0146273   0.01308321  24.63 0.0003896483    1.154    0.133
        19 -14.2176     20.9886    247.9910   3.4738037163e+01  -4.2406006430e+01   0.06055841   0.02777384 -25.06  0.003825728    2.180    0.541
        20 -14.6198     21.4878    214.1818   3.4457792999e+01  -4.2775607904e+01   0.04903424   0.04433468  51.98  0.006114861    1.130    0.115
        21 -14.8480      3.4398    204.0371   3.4657870638e+01  -4.2994709401e+01   0.09724497   0.03048383  57.01  0.005201327    2.994    0.666
        22 -15.5678     16.2383    206.5746   3.4478059515e+01  -4.2890662253e+01    0.1462401   0.06615934  29.59  0.009898299    4.270    0.766
        23 -13.8013     19.8340    233.3805   3.4638682305e+01  -4.2573932473e+01   0.01935138   0.01654396 -22.26   0.00081382    1.139    0.122
        24 -15.6912     14.8373    227.6409   3.4670327647e+01  -4.2666852497e+01   0.06752091   0.04209366 -27.66   0.00629717    1.547    0.354
        25 -15.2177      3.0090    247.3371   3.5012614832e+01  -4.2519364537e+01    0.0444645   0.04059284 -75.39  0.004253558    1.196    0.164
        26 -14.2923      8.4341    241.2434   3.4879376354e+01  -4.2554680991e+01   0.02799794   0.01709303 -53.15  0.002101411    1.921    0.480
        27 -15.6846      7.8599    235.9618   3.4846026541e+01  -4.2616366457e+01    0.1002175   0.02421542 -37.02  0.006814533    3.584    0.721
        28 -10.9834    126.3901    241.4625   3.3062896076e+01  -4.1841436755e+01   0.01150113  0.008107222  65.92 0.0006454342    1.526    0.345
        29 -15.6793     45.6324    215.7688   3.4094815074e+01  -4.2613642747e+01    0.1861407   0.06938202  69.85   0.01285249    3.974    0.748
        30 -11.1488    167.1681    240.4160   3.2435239534e+01  -4.1600524593e+01   0.01002374  0.008649172 -70.21 0.0002649012    1.307    0.235
        31 -10.6073    102.4847    249.5319   3.3494081500e+01  -4.1899554152e+01  0.006518439  0.006171817 -43.08 0.0008087047    1.068    0.064
        32 -11.9191     70.5737    239.6958   3.3903834624e+01  -4.2200763505e+01   0.02091333   0.00903469  48.04  0.001791295    2.362    0.577
        33 -11.4312     62.6195    240.0209   3.4029138415e+01  -4.2245136626e+01   0.01949959  0.007573618  41.80  0.001438505    3.178    0.685
        34 -10.9610    149.5887    239.2186   3.2691567869e+01  -4.1722726965e+01  0.009336204  0.005811973  47.50  0.000678214    1.638    0.390
        35 -12.5323    102.5963    237.5085   3.3393958099e+01  -4.2030351691e+01   0.02243544   0.01125869  59.07  0.001917536    2.023    0.506
        36 -10.9244     53.1722    237.7883   3.4156973792e+01  -4.2326436299e+01   0.01037474  0.008547195  14.71 0.0005053211    1.323    0.244
        37 -11.3075    217.3446    237.6858   3.1657568201e+01  -4.1315149589e+01   0.01047754  0.009329201 -57.99 0.0005441572    1.199    0.166
        38 -11.2353    211.1858    236.0630   3.1736181778e+01  -4.1371604707e+01   0.01229761  0.009435303 -88.64   0.00135128    1.629    0.386
        39 -11.0596     88.1699    236.7826   3.3609332658e+01  -4.2126138279e+01   0.00985954   0.00868737 -58.73 0.0006287231    1.217    0.178
        40 -10.8189     80.0187    237.2121   3.3738165609e+01  -4.2170883112e+01   0.01316455  0.007643901  -2.57  0.001151233    2.467    0.595
        41 -10.8411    137.9686    236.1504   3.2842730864e+01  -4.1827998035e+01  0.009727364  0.008272383 -53.48 0.0002439317    1.245    0.197
        42 -12.0399    182.3719    232.3923   3.2138718602e+01  -4.1592594825e+01   0.02096992   0.01162124 -49.26  0.001960491    2.053    0.513
        43 -12.6260     72.9230    230.0040   3.3788625265e+01  -4.2292843615e+01   0.02168111   0.01365887  31.83  0.001757413    1.891    0.471
        44 -10.8712     58.1189    234.5169   3.4053948561e+01  -4.2332648929e+01   0.01000744  0.006241578 -27.60 0.0008996046    1.550    0.355
        45 -11.9536    222.6579    232.5619   3.1534915245e+01  -4.1336806508e+01   0.01252984   0.01148553  18.46 0.0005542996    1.120    0.107
        46 -10.8062    214.6201    233.1515   3.1660226723e+01  -4.1381349037e+01  0.009139206  0.005753948  46.89 0.0005084602    1.625    0.384
        47 -10.5393    143.0073    231.7395   3.2729543952e+01  -4.1844864389e+01   0.00873146  0.008242318 -27.29  0.000375987    1.030    0.029
        48 -11.9731     61.3988    230.9709   3.3974418885e+01  -4.2351829851e+01   0.01419095  0.008590076  78.71  0.001338263    2.178    0.541
        49 -12.6393    194.8557    228.9562   3.1921800342e+01  -4.1551408008e+01   0.01470402   0.01288033 -64.94  0.000408314    1.258    0.205
        50 -11.6032    230.8421    228.7207   3.1380119953e+01  -4.1326249522e+01   0.01277744  0.008632777 -77.22  0.001242761    2.153    0.535
        51 -11.5064     73.6823    233.6600   3.3806762055e+01  -4.2248171196e+01   0.01361839  0.009791843  30.23 0.0008722962    1.565    0.361
        52 -12.3223     48.1671    236.4172   3.4223307908e+01  -4.2371521170e+01   0.02356297   0.01542125 -81.19  0.001369253    2.231    0.552
        53 -15.2184      4.3313    164.0296   3.4317316952e+01  -4.3430099004e+01   0.07302948   0.06745549  -4.17   0.00619902    1.079    0.073
        54 -10.3473    138.3026    226.7020   3.2759346571e+01  -4.1928812215e+01  0.006609926  0.004900942 -60.59  0.000326301    1.582    0.368
        55 -11.0189    129.2790    226.3560   3.2894048171e+01  -4.1988332243e+01  0.006833904  0.004796314  27.93 0.0004053347    1.657    0.397
        56 -12.0143     80.8079    225.4752   3.3630032633e+01  -4.2294667378e+01   0.01591124   0.01111663  50.52   0.00112362    1.447    0.309
        57 -12.6392     77.1359    219.8080   3.3640175543e+01  -4.2379029477e+01   0.01682297     0.012817 -50.26  0.001184943    1.393    0.282
        58 -11.3470    116.5067    225.4946   3.3082079904e+01  -4.2076369206e+01  0.009369961  0.006531259  77.98 0.0007246641    1.736    0.424
        59 -11.2181    114.7847    221.7775   3.3077704216e+01  -4.2127508606e+01  0.009390647  0.008438562 -25.92 0.0005489775    1.077    0.071
        60 -12.3334     93.1299    223.4910   3.3424094536e+01  -4.2241385384e+01   0.02090223   0.01399424  15.17  0.001354543    1.943    0.485
        61 -11.9935    160.3223    222.6935   3.2391235128e+01  -4.1835627543e+01   0.01904897   0.01543171 -24.64  0.002239408    1.204    0.169
        62 -11.5922     73.1293    223.0712   3.3728751083e+01  -4.2367581249e+01  0.009827671  0.008542219  27.58 0.0005080967    1.200    0.166
        63 -13.1608     57.8789    220.7345   3.3945413926e+01  -4.2485393574e+01   0.02083208   0.01442694  54.32  0.001020236    1.458    0.314
        64 -13.3185     64.0300    216.7806   3.3817870930e+01  -4.2491622507e+01   0.02863763   0.01672618 -18.05  0.002777986    1.860    0.462
        65 -12.0530    124.3659    221.8712   3.2931910904e+01  -4.2067509813e+01   0.01744655  0.009254401 -31.22  0.001665996    1.789    0.441
        66 -12.4505    121.3789    216.4295   3.2932452366e+01  -4.2145239673e+01   0.02218353   0.01401102 -89.36 0.0008389971    2.396    0.583
        67 -11.2445    212.9601    220.6372   3.1579587157e+01  -4.1526978196e+01   0.01277477   0.01006552  70.63  0.001462438    1.398    0.285
        68 -12.1387    189.5343    220.9888   3.1935044834e+01  -4.1671120265e+01   0.01337729  0.009904427  29.82  0.001468527    1.510    0.338
        69 -11.8285    196.3670    216.4420   3.1793737876e+01  -4.1677245735e+01   0.02272368   0.01087562  69.73  0.001887603    2.743    0.635
        70 -12.2197    146.6420    216.3898   3.2546517415e+01  -4.1989279463e+01    0.0192917   0.01580354 -25.84  0.000725997    1.185    0.156
        71 -12.3978    141.5202    211.3251   3.2582273930e+01  -4.2076171153e+01   0.02628477   0.01289285  72.28  0.001952976    2.806    0.644
        72 -12.0686    128.5820    217.7072   3.2832928839e+01  -4.2086860144e+01   0.01605331  0.008988026  15.68  0.001274885    3.143    0.682
        73 -10.8651     94.5217    217.3842   3.3352398714e+01  -4.2299659740e+01   0.01041653  0.006066806 -28.36 0.0004544104    1.657    0.397
        74 -12.0370     73.3611    212.0579   3.3634817407e+01  -4.2486833969e+01   0.02440086   0.01715127  55.32  0.002227135    1.441    0.306
        75 -12.7439     85.2637    214.9333   3.3474757640e+01  -4.2382953945e+01   0.03804663   0.01166777 -35.24   0.00286307    2.898    0.655
        76 -11.7191    107.8777    214.6702   3.3124767864e+01  -4.2247499655e+01   0.01229436  0.009848535  71.10 0.0008089772    1.363    0.266
        77 -11.3656    155.5691    213.0286   3.2382601774e+01  -4.1970215648e+01   0.01294819   0.01092333 -41.42  0.001546786    1.179    0.152
        78 -12.3807    174.1054    218.7128   3.2149053149e+01  -4.1792661850e+01   0.02370571   0.01271342  46.59  0.002260843    1.923    0.480
        79 -12.5801    229.1991    208.8409   3.1236047795e+01  -4.1550887756e+01   0.01837633   0.01279961  30.32  0.001255143    1.655    0.396
        80 -11.0183    209.4932    211.4353   3.1553823732e+01  -4.1648286834e+01  0.006460959   0.00619219 -23.78 0.0001294423    1.014    0.014
        81 -11.9898    169.8798    209.3697   3.2134604274e+01  -4.1920426911e+01   0.02107094   0.01201278 -62.18 0.0007399113    2.670    0.625
        82 -11.2019     96.8021    209.4890   3.3252099706e+01  -4.2371991552e+01   0.01910263  0.009057359  68.08  0.001624121    2.548    0.608
        83 -12.2604     52.4069    209.6170   3.3939366679e+01  -4.2640406383e+01   0.01502763   0.01200768 -46.47  0.001180904    1.283    0.221
        84 -12.9259     53.9862    205.1683   3.3878393673e+01  -4.2679691082e+01   0.02839015   0.01769616 -47.12  0.002884785    1.709    0.415
        85 -11.8239     59.5279    207.4689   3.3811278523e+01  -4.2620962192e+01   0.02051487   0.01100703  39.44  0.001640714    2.134    0.531
        86 -11.3101     90.4742    209.7310   3.3351547013e+01  -4.2408054289e+01   0.01324115  0.009556073 -73.55 0.0008501678    1.802    0.445
        87 -11.3602    180.2878    207.6356   3.1962317811e+01  -4.1873848741e+01   0.01110234  0.009575361 -58.36 0.0006240848    1.253    0.202
        88 -11.7584    104.7100    205.4421   3.3096924108e+01  -4.2367675164e+01   0.01580689  0.008384075 -20.74  0.001131737    2.036    0.509
        89 -11.7125    160.3284    207.0102   3.2259788992e+01  -4.2005819885e+01  0.009008748  0.008810673 -89.83 0.0007876065    1.081    0.075
        90 -11.1882    239.0277    204.4831   3.1051795299e+01  -4.1534945777e+01  0.009806152  0.006237095 -29.65 0.0003940004    1.521    0.342
        91 -11.0595    116.1908    204.1912   3.2910209831e+01  -4.2310635757e+01  0.009035456  0.007545319 -61.83 0.0004284845    1.331    0.249
        92 -12.3339    100.3650    195.3920   3.3080265010e+01  -4.2504061520e+01   0.02643239   0.01581888 -43.82  0.001773804    1.710    0.415
        93 -12.8657     90.9786    189.0651   3.3172411628e+01  -4.2630775139e+01    0.0206027   0.01547649  80.80  0.001562934    1.581    0.368
        94 -12.8500     90.5658    199.7827   3.3267809771e+01  -4.2516226295e+01   0.03935364   0.01675354  38.71  0.002351531    3.121    0.680
        95 -12.0493     92.4178    193.2060   3.3184633353e+01  -4.2576723973e+01   0.01403957   0.01139823  51.83  0.001075856    1.252    0.201
        96 -12.4900    145.3207    200.4350   3.2433138994e+01  -4.2170893768e+01   0.02622087   0.01846565 -83.64  0.002645735    1.939    0.484
        97 -11.8571     59.4265    210.7755   3.3839969492e+01  -4.2585312332e+01   0.01764373   0.01064084 -19.04 0.0007778892    1.757    0.431
        98 -12.4767    226.7003    206.3223   3.1252053081e+01  -4.1593958696e+01   0.02001971   0.01299252 -84.93  0.001363027    2.386    0.581
        99 -11.8381    212.1406    199.6320   3.1413789780e+01  -4.1758820103e+01   0.01795192   0.01183091 -72.36  0.001363805    2.220    0.550
       100 -11.0663    137.7183    201.1923   3.2555568677e+01  -4.2209977407e+01   0.01097668  0.008218438 -40.53 0.0005082653    1.320    0.242
       101 -12.2073     49.1754    199.2767   3.3904810227e+01  -4.2773380890e+01   0.01985008   0.01024565  43.49  0.001309528    2.090    0.521
       102 -13.2248    173.1288    195.7209   3.1970234732e+01  -4.2047900211e+01    0.0213748   0.01401419 -42.92   0.00110378    1.536    0.349
       103 -12.6728     83.5897    197.1235   3.3353489785e+01  -4.2587959144e+01   0.02580538   0.01453622 -88.77   0.00204775    3.335    0.700
       104 -11.2384     60.8052    197.7505   3.3711556862e+01  -4.2719769701e+01   0.01160815  0.008097673  55.97  0.001090258    1.453    0.312
       105 -11.3389    224.8771    198.1367   3.1209623990e+01  -4.1693750674e+01   0.01004311  0.008602297 -58.99 0.0005071835    1.270    0.212
       106 -12.0222    137.3670    197.2336   3.2527762746e+01  -4.2255202841e+01    0.0238508   0.01079966 -17.85  0.001188833    2.846    0.649
       107 -12.1524    121.9384    196.2977   3.2756190207e+01  -4.2361114914e+01   0.01663703   0.01529241 -16.64   0.00208224    1.063    0.059
       108 -12.0145    192.1425    195.1823   3.1677624219e+01  -4.1933745319e+01   0.01639499   0.01485771  14.12  0.001186516    1.141    0.123
       109 -11.1921    212.6253    193.7844   3.1356681517e+01  -4.1818785865e+01   0.01126824  0.008437331  72.73 0.0007621511    1.517    0.341
       110 -11.4881    160.9107    193.0076   3.2133039816e+01  -4.2154045069e+01   0.01213328  0.009247188  57.89 0.0006641129    1.348    0.258
       111 -11.8991    133.8285    190.6239   3.2526434182e+01  -4.2349072471e+01   0.01500593   0.01206674 -14.74  0.001397975    1.271    0.213
       112 -12.2543     79.4786    173.3583   3.3219518834e+01  -4.2872859431e+01    0.0148869   0.01082076  17.82  0.001016942    1.645    0.392
       113 -11.4873     65.7896    183.3742   3.3515349416e+01  -4.2846950826e+01   0.02515836   0.01477286  30.49  0.002346249    2.176    0.540
       114 -11.7992     70.4665    187.2511   3.3474880811e+01  -4.2776029421e+01   0.02197541   0.01163205 -43.32  0.002063741    1.939    0.484
       115 -13.0140     76.1690    184.8203   3.3366282104e+01  -4.2767826243e+01   0.03462253   0.01806264  65.33  0.002791711    2.120    0.528
       116 -12.4511     50.8547    190.0391   3.3802696227e+01  -4.2864571189e+01   0.01451162   0.01124987 -40.66 0.0004963813    1.278    0.217
       117 -10.3311    174.6320    188.6828   3.1887830074e+01  -4.2114627648e+01  0.007005013  0.004890481  19.24 0.0007037336    1.782    0.439
       118 -12.7036    248.8628    185.5606   3.0742464307e+01  -4.1675034117e+01   0.01339501   0.01148389 -28.47 0.0003679493    1.129    0.115
       119 -10.7170    208.6853    186.6212   3.1354919519e+01  -4.1921107693e+01  0.007068107  0.004807135  25.04 0.0007026591    1.805    0.446
       120 -11.4388    156.8327    185.9023   3.2135147705e+01  -4.2256655567e+01   0.01029508    0.0087126  20.52 0.0009736062    1.268    0.211
       121 -12.0620    126.3745    185.9588   3.2601504571e+01  -4.2446136399e+01   0.01614565   0.00937877 -28.00  0.001601211    1.672    0.402
       122 -14.1470     15.3006    195.8234   3.4405265975e+01  -4.3014638448e+01   0.04835573   0.03037385  -3.05   0.00342896    2.036    0.509
       123 -10.9456    100.0346    184.5119   3.2994644508e+01  -4.2624804692e+01  0.009475408  0.006252999 -27.96 0.0003156486    1.467    0.318
       124 -12.5593     94.1073    182.0533   3.3065626138e+01  -4.2688107627e+01   0.01848621   0.01611983 -82.59  0.001541815    1.301    0.231
       125 -12.0181     89.6847    180.3215   3.3119540318e+01  -4.2734190846e+01   0.01255315   0.01063487 -17.63  0.001425363    1.171    0.146
       126 -10.4034     54.5207    184.5542   3.3700362189e+01  -4.2902499627e+01  0.006470636  0.006204562  -8.33 0.0001463551    1.018    0.018
       127 -11.0315    134.0172    181.9981   3.2450987535e+01  -4.2441656653e+01  0.007767022  0.007461415 -17.66 0.0003311574    1.006    0.006
       128 -12.0290    110.8630    188.2051   3.2858671961e+01  -4.2517752272e+01   0.01345646   0.01154138  17.03  0.001611009    1.243    0.195
       129 -11.0352     40.3097    181.3064   3.3895128753e+01  -4.3024099241e+01  0.006737376  0.004879947  22.97  0.000331613    1.614    0.380
       130 -11.7972    224.2631    178.2832   3.1048839192e+01  -4.1911358077e+01   0.01969169  0.008235719  40.17  0.001519541    3.038    0.671
       131 -12.0976    126.4743    178.4941   3.2537197655e+01  -4.2526703355e+01      0.01218   0.01116042 -88.15  0.001098332    1.198    0.165
       132 -12.7559    127.0708    174.0458   3.2490544360e+01  -4.2571354557e+01   0.02781668   0.01597677  89.10  0.002285571    3.106    0.678
       133 -11.0591     99.9895    179.5198   3.2953603166e+01  -4.2679530424e+01  0.009984472  0.006264417 -27.54 0.0006400948    1.548    0.354
       134 -11.4688    191.4633    178.0073   3.1541691965e+01  -4.2123563085e+01  0.009586124  0.006488429  61.24 0.0004976713    1.548    0.354
       135 -11.9377    116.4040    178.1342   3.2688979262e+01  -4.2593151681e+01   0.01361444  0.009247851 -37.82  0.001460812    1.429    0.300
       136 -11.7386     24.4629    178.4716   3.4119687510e+01  -4.3150651745e+01   0.01088544  0.008099308 -34.29  0.000664484    1.296    0.228
       137 -13.0544     21.5444    176.3351   3.4147873657e+01  -4.3191656927e+01   0.02423663   0.01295191 -30.87  0.002331782    1.772    0.436
       138 -11.8509    137.4081    177.0701   3.2357452182e+01  -4.2474045457e+01   0.01179014   0.01021818 -45.65   0.00036584    1.171    0.146
       139 -11.8254     63.4722    177.0920   3.3499246675e+01  -4.2929828982e+01   0.01399713  0.009492413 -14.56 0.0007881307    1.592    0.372
       140 -11.5984    247.5880    176.1980   3.0680806775e+01  -4.1783715090e+01   0.01210638   0.00887558 -26.96 0.0006408709    1.334    0.250
       141 -11.6759    106.6528    175.5632   3.2817623695e+01  -4.2681521840e+01   0.01236807   0.01090724 -47.44 0.0007344084    1.159    0.137
       142 -12.0639    147.5024    174.8859   3.2184423366e+01  -4.2434616538e+01   0.02030135  0.009537755 -53.09  0.001312252    3.015    0.668
       143 -10.9794     83.9128    172.2561   3.3141550992e+01  -4.2857697180e+01   0.01159988  0.008855159 -76.32 0.0007625468    1.635    0.388
       144 -12.2032     44.7550    172.1881   3.3750346336e+01  -4.3097236310e+01   0.01464227   0.01073875 -20.77   0.00087096    1.364    0.267
       145 -13.0127     91.5947    171.0014   3.3012052271e+01  -4.2824162058e+01   0.02095295    0.0151462  -6.76   0.00226384    1.561    0.359
       146 -11.7967    197.8510    170.5181   3.1380870586e+01  -4.2163759932e+01    0.0123949   0.01108281  60.26  0.001086439    1.163    0.140
       147 -12.0391    153.0119    170.2043   3.2060461944e+01  -4.2450809622e+01    0.0119958   0.00988537 -39.14 0.0004094084    1.194    0.162
       148 -11.8675    153.4831    166.1851   3.2019092724e+01  -4.2491402050e+01   0.01331685  0.009648734 -78.04 0.0008424948    1.834    0.455
       149 -11.9982    127.3314    166.2510   3.2420695116e+01  -4.2654447489e+01   0.01379589    0.0121394  -8.61 0.0009057375    1.151    0.131
       150 -12.1975    118.2050    169.2887   3.2586793096e+01  -4.2678229280e+01   0.01615132   0.01284122   8.09 0.0005368822    1.415    0.293
       151 -11.4637     61.9242    170.6730   3.3469980479e+01  -4.3009514384e+01   0.01292813  0.009731421 -19.61  0.001449895    1.335    0.251
       152 -11.0609    236.8887    171.1012   3.0797219316e+01  -4.1907414716e+01   0.00981551  0.008634116 -58.06 0.0003959537    1.219    0.179
       153 -10.9397     31.0697    167.6709   3.3927102652e+01  -4.3229512430e+01  0.009285828  0.008044448 -23.74 0.0005641386    1.120    0.108
       154 -11.5384     36.8500    172.1722   3.3873799492e+01  -4.3145222015e+01  0.009802384  0.008837178 -65.48 0.0006060734    1.202    0.168
       155 -11.5823     99.9837    166.0773   3.2840933657e+01  -4.2826108051e+01   0.00960067  0.009083067   2.79 0.0002861338    1.055    0.052
       156 -11.2604    123.1685    167.6279   3.2496369229e+01  -4.2665418924e+01   0.01189304    0.0085726 -12.14 0.0007264507    1.507    0.337
       157 -10.8415     64.4027    164.7722   3.3382215261e+01  -4.3058950990e+01  0.008850168  0.005899092  48.00  0.000420248    1.525    0.344
       158 -11.8240    159.6527    167.9498   3.1939823185e+01  -4.2433460781e+01   0.01109706   0.01078429  87.06  0.001420486    1.091    0.083
       159 -11.1439    212.0589    164.0129   3.1110071490e+01  -4.2143104889e+01  0.009474004  0.009120793 -27.09   0.00120416    1.020    0.019
       160 -10.9032    205.5154    164.0077   3.1208956334e+01  -4.2185026684e+01  0.009690165  0.006445024  58.57 0.0005566376    1.549    0.354
       161 -11.1355    198.4438    164.4644   3.1319950484e+01  -4.2225255556e+01  0.006423512  0.006230023 -18.67 6.059467e-05    1.008    0.008
       162 -11.8816     36.0225    162.5186   3.3806830519e+01  -4.3256128195e+01    0.0174839  0.007978616  49.83  0.001547224    2.190    0.543
       163 -10.9079    230.4063    163.2386   3.0826733438e+01  -4.2033604312e+01   0.00855366  0.006398646  74.67  0.000431686    1.549    0.354
       164 -10.3748    141.6143    162.8101   3.2172180323e+01  -4.2602505668e+01  0.008228903  0.006347842  75.16 0.0002625372    1.475    0.322
       165 -12.1546    169.9946    160.0553   3.1714630376e+01  -4.2453592977e+01    0.0151747   0.01219066 -63.28 0.0009274713    1.426    0.299
       166 -12.2208     46.3566    160.1937   3.3625742023e+01  -4.3218976639e+01   0.01548297  0.009527696 -45.58 0.0001197561    1.699    0.411
       167 -11.1841     40.5427    161.5007   3.3727586104e+01  -4.3239923701e+01   0.01287565  0.006271336 -27.51 0.0006889855    1.995    0.499
       168 -11.8572    133.6204    157.6665   3.2251230581e+01  -4.2708384340e+01   0.01706783   0.01448664  88.13 0.0009824469    1.351    0.260
       169 -11.1093    105.5076    158.9368   3.2695373835e+01  -4.2869692891e+01   0.01111321   0.00878584 -51.26 0.0008834976    1.343    0.255
       170 -13.6119      2.3342    226.9956   3.4860370225e+01  -4.2747966463e+01   0.02062924   0.01502514  66.31  0.001037654    1.461    0.316
       171 -11.2673    190.6039    155.3685   3.1360705929e+01  -4.2373314164e+01   0.01178166  0.007743675  56.26 0.0005625163    1.548    0.354
       172 -10.9315     81.3517    156.2856   3.3047460421e+01  -4.3047779617e+01  0.006792323  0.004913463  17.76 0.0003495296    1.662    0.398
       173 -12.1181     76.8932    155.3735   3.3109121420e+01  -4.3085146862e+01   0.01852896  0.008561401 -52.47  0.001448008    3.018    0.669
       174 -12.3345     29.4706    155.7133   3.3853135300e+01  -4.3370391144e+01   0.01502959  0.009402703  31.18  0.001472572    1.927    0.481
       175 -10.3718    141.4879    155.4661   3.2111652756e+01  -4.2682944507e+01  0.006466637  0.006232236 -25.37  0.000118595    1.017    0.017
       176 -11.5032     20.8579    154.4119   3.3977700523e+01  -4.3436640315e+01   0.01549627   0.01103018  19.95  0.001223994    1.686    0.407
       177 -12.7297     19.7384    149.2837   3.3952791684e+01  -4.3499692558e+01   0.01861529   0.01321314 -15.24  0.001128723    1.481    0.325
       178 -12.8453     26.3528    125.3338   3.3648741640e+01  -4.3722366209e+01    0.0204581   0.01411699   8.69  0.002095429    1.828    0.453
       179 -12.2607     14.2341    153.0861   3.4070995365e+01  -4.3491066191e+01   0.01641955   0.01469785  70.88  0.002024074    1.188    0.158
       180 -13.4938     10.4094    147.1328   3.4081991578e+01  -4.3579467808e+01   0.02861509    0.0184724 -43.53   0.00225474    1.575    0.365
       181 -13.4127     11.6021    142.5063   3.4024791697e+01  -4.3623121653e+01   0.02365005   0.01601954 -50.99  0.002112073    1.623    0.384
       182 -14.2161     15.0031    134.0726   3.3900934446e+01  -4.3695224499e+01   0.03023516   0.02442695  30.03  0.002056723    1.322    0.244
       183 -12.7188     20.3373    131.0945   3.3791873350e+01  -4.3695668267e+01   0.01679814   0.01330067  20.38 0.0009210537    1.404    0.288
       184 -14.2106      4.3461    222.1908   3.4790280112e+01  -4.2789102662e+01   0.03282156    0.0228495 -58.06  0.002841101    1.689    0.408
       185 -12.0005     50.8518    152.8461   3.3494176275e+01  -4.3272095498e+01   0.01025447  0.008845828  20.46  0.001226252    1.226    0.184
       186 -12.5591     83.7938    150.2170   3.2958448025e+01  -4.3098948528e+01   0.01996003   0.01242741  22.77  0.001148808    2.167    0.539
       187 -12.5718      3.3999    150.2599   3.4218512688e+01  -4.3587152695e+01   0.01815378   0.01522854 -45.84  0.002166967    1.214    0.176
       188 -10.9021     99.6999    151.0091   3.2718292443e+01  -4.2992006007e+01  0.008914837  0.008346245  44.41 0.0003095908    1.089    0.082
       189 -11.8338    108.7113    148.9893   3.2561697339e+01  -4.2958051812e+01   0.01431387   0.01205784  57.23 0.0007718394    1.221    0.181
       190 -13.0104     28.0214    149.4859   3.3824163778e+01  -4.3447468963e+01   0.02212082   0.01057078 -19.39  0.001886764    2.391    0.582
       191 -11.1125     96.2943    149.0393   3.2754428835e+01  -4.3034553187e+01  0.009098719  0.008343721  62.42 0.0005279206    1.137    0.121
       192 -10.6912    147.0027    148.9534   3.1971445191e+01  -4.2718859051e+01   0.00774619  0.007593716  -3.73  0.000413926    1.019    0.018
       193 -11.9804    170.8230    145.3413   3.1575792422e+01  -4.2607353088e+01   0.01155424   0.01060173  42.06 0.0005551957    1.110    0.099
       194 -12.4509    102.0429    142.5822   3.2610625280e+01  -4.3069197789e+01   0.02816283   0.01573955 -64.11  0.002337253    2.935    0.659
       195 -13.0483      6.4456    133.8061   3.4033960782e+01  -4.3749710925e+01   0.01800812   0.01159982  35.17  0.001762623    1.758    0.431
       196 -11.7098    211.3780    143.3955   3.0942160974e+01  -4.2369265275e+01   0.01181848   0.01040068 -51.29  0.000678076    1.181    0.154
       197 -11.2363    187.2461    143.9857   3.1313680939e+01  -4.2517464312e+01  0.008858756  0.008441505  53.62 0.0003779237    1.083    0.077
       198 -10.7989     85.7996    143.8017   3.2873140244e+01  -4.3156522567e+01  0.008645292  0.007391527 -60.90 0.0003022144    1.281    0.219
       199 -12.9839     51.2977    142.7572   3.3402773740e+01  -4.3379776869e+01   0.02123255   0.01203509 -27.30  0.001012816    1.717    0.418
       200 -11.1786    143.9560    143.3444   3.1970260050e+01  -4.2798798294e+01  0.009270532  0.008115666 -19.26 0.0004537197    1.123    0.109
       201 -12.2767     94.3930    140.3865   3.2710699204e+01  -4.3140562267e+01   0.01693215   0.01285655   6.52  0.001037269    1.531    0.347
       202 -11.9720     72.2917    139.3791   3.3046203477e+01  -4.3288028713e+01   0.01197701  0.007404005  48.33 0.0006171149    1.643    0.391
       203 -12.8181     40.3667    137.3159   3.3528603515e+01  -4.3505953533e+01    0.0150776   0.01197619 -83.84 0.0004435962    1.522    0.343
       204 -12.3238     43.4149    132.6797   3.3441839652e+01  -4.3538126653e+01   0.01537386  0.008854106  69.41  0.001468774    2.016    0.504
       205 -12.8108    128.1723    135.3506   3.2144906009e+01  -4.2984644327e+01   0.02343423   0.01320259  75.28  0.001749907    2.403    0.584
       206  -9.9825    109.3387    138.2759   3.2460999871e+01  -4.3070639993e+01  0.006679415  0.004930224  16.65 0.0005554426    1.613    0.380
       207 -12.4171     85.9856    134.8801   3.2794752154e+01  -4.3252598389e+01   0.01667205    0.0124394  -3.42  0.001177341    1.518    0.341
       208 -12.0888     66.8582    135.8707   3.3101445357e+01  -4.3359735110e+01   0.01174357   0.00924552  71.89  0.001292515    1.398    0.285
       209 -12.0209    123.0510    134.9536   3.2220581973e+01  -4.3021054946e+01  0.009647806  0.009358923  -8.62 0.0003677893    1.010    0.010
       210 -12.2995    172.1174    152.0437   3.1613607115e+01  -4.2526734826e+01   0.02217741  0.008969916  60.48   0.00182659    2.601    0.616
       211 -12.4440    200.1743    133.1320   3.1023054182e+01  -4.2551615367e+01   0.01578323   0.01151348 -14.29 0.0006227927    1.473    0.321
       212 -12.3438    103.1495    133.9338   3.2519980765e+01  -4.3156392232e+01   0.01438275  0.009440936 -22.68  0.001502273    1.538    0.350
       213 -12.5784     59.2879    133.8575   3.3202867994e+01  -4.3428189348e+01   0.01651747  0.007643341 -36.86  0.001476372    2.042    0.510
       214 -12.3936     46.5552    136.4059   3.3423832826e+01  -4.3478201841e+01   0.01100969   0.01049912  38.90 0.0002087728    1.067    0.062
       215 -11.5266    230.1325    130.5907   3.0547017578e+01  -4.2385700578e+01   0.01087997  0.009079878  50.77 0.0003590299    1.221    0.181
       216 -13.1646    130.2474    128.5025   3.2054223342e+01  -4.3045864078e+01   0.01382487    0.0134811  24.82 0.0005616166    1.039    0.038
       217 -12.1817    122.0225    128.1312   3.2178117445e+01  -4.3101523347e+01   0.01442951  0.009763737  67.15  0.001524438    1.626    0.385
       218 -13.6444     57.1168    126.5936   3.3175600790e+01  -4.3520855326e+01    0.0281917     0.015642  -3.14  0.002349861    2.796    0.642
       219 -13.0395     11.1678    111.2561   3.3770703358e+01  -4.3968701803e+01   0.01639723   0.01229803  63.33 0.0006294691    1.398    0.285
       220 -13.2564     14.6553    118.8030   3.3778791965e+01  -4.3864841929e+01   0.03272172    0.0202823   8.23  0.003021156    2.313    0.568
       221 -11.1210     64.7584    126.9739   3.3059130755e+01  -4.3469761854e+01  0.008456439  0.005503825  59.07 0.0004196213    1.575    0.365
       222 -11.4201     35.1891    126.8102   3.3521887116e+01  -4.3652487378e+01  0.009064072  0.007506986  23.35 0.0005302849    1.300    0.231
       223 -10.6534     48.3141    126.6676   3.3314326569e+01  -4.3573966001e+01  0.006815992  0.004899521 -62.19 0.0007045607    1.682    0.405
       224 -11.8168    169.8390    123.4483   3.1401879544e+01  -4.2849948975e+01   0.01771263  0.008348385  54.67  0.001601288    2.104    0.525
       225 -13.4240     78.1935    119.7312   3.2787632115e+01  -4.3465852915e+01   0.02535911    0.0141251 -27.01 0.0004741251    1.760    0.432
       226 -11.8776    186.7057    124.0102   3.1148911178e+01  -4.2736151686e+01   0.01079362  0.009110468 -28.30 0.0004503996    1.147    0.128
       227 -11.7160     40.2289    124.4034   3.3422333919e+01  -4.3648115857e+01   0.00947701  0.005641899 -38.93 0.0009405084    1.635    0.388
       228 -12.9024     82.1597    128.4909   3.2800166394e+01  -4.3345879404e+01   0.02019372   0.01331577  24.93  0.002024215    1.895    0.472
       229 -12.5805    104.9255    121.3545   3.2385087622e+01  -4.3282050838e+01   0.01921869   0.01308367 -39.87  0.001196383    1.442    0.307
       230 -10.9952    100.3311    119.6827   3.2442193095e+01  -4.3328879410e+01  0.009147687  0.007542965  17.59 0.0004384468    1.327    0.247
       231 -13.3532      9.7619    126.0369   3.3916742125e+01  -4.3815041954e+01   0.04414416   0.02347683  14.28  0.003238167    3.765    0.734
       232 -10.7618    224.4516    120.5043   3.0544631511e+01  -4.2530639225e+01  0.006431389  0.006244935 -22.01  8.27715e-05    1.012    0.012
       233 -10.8232    201.6640    120.3219   3.0888873432e+01  -4.2679787987e+01  0.006858697  0.004902635 -61.93 0.0005887204    1.710    0.415
       234 -10.6620     35.3897    119.2065   3.3454768388e+01  -4.3734491483e+01   0.01374809  0.008211247 -82.77  0.001159733    2.893    0.654
       235 -10.4069    231.6814    118.6513   3.0419008284e+01  -4.2503581131e+01  0.006934057  0.004887352  22.69 0.0007048374    1.734    0.423
       236 -11.1733     94.2647    116.9846   3.2513538673e+01  -4.3396003220e+01   0.00863888  0.005709953  60.15 0.0008994957    1.566    0.361
       237 -10.6947     29.7496    116.9127   3.3524390017e+01  -4.3793953403e+01  0.008920543  0.008132095  60.08 0.0005505165    1.137    0.121
       238 -12.5941    114.7641    114.0222   3.2169507587e+01  -4.3300095127e+01   0.02029159   0.01216136  31.67 0.0006062423    2.076    0.518
       239 -12.2007    113.6736    109.0897   3.2144013178e+01  -4.3360437647e+01   0.01413897  0.009585432 -42.87  0.001042959    1.483    0.326
       240 -12.9499     83.2952    114.3336   3.2661966373e+01  -4.3493019309e+01   0.01895206   0.01332439 -79.62  0.001937998    1.944    0.486
       241 -12.9340     73.5296    114.4725   3.2815792243e+01  -4.3551998772e+01   0.01358094   0.01128224 -59.27 0.0008110235    1.324    0.245
       242 -13.2216      8.9468    117.5926   3.3859037517e+01  -4.3912627807e+01   0.02196007   0.01719312  -0.72  0.001963225    1.407    0.289
       243 -11.7345    105.0143    114.4924   3.2324947686e+01  -4.3356032587e+01   0.01015641  0.006255037 -28.53 0.0006174961    1.573    0.364
       244 -13.8829     63.2617    111.8705   3.2954503678e+01  -4.3643762756e+01   0.03591827    0.0126416  59.32  0.002815002    2.856    0.650
       245 -11.9720     58.5429    114.0036   3.3046658939e+01  -4.3649552594e+01   0.01348594  0.009121231 -28.83 0.0001807003    1.426    0.299
       246 -11.0893    121.5036    113.5508   3.2060970357e+01  -4.3262892783e+01  0.006474325  0.006208614 -30.21 0.0001282649    1.027    0.027
       247 -11.8718      5.6310    112.1119   3.3865687647e+01  -4.3992784867e+01   0.01202331  0.008599922 -38.74  0.001184673    1.368    0.269
       248 -11.1392     52.5387    110.8855   3.3114514907e+01  -4.3720500731e+01    0.0109792  0.008561437 -12.45  0.001243534    1.338    0.253
       249 -12.9031     75.3089    124.5697   3.2873802488e+01  -4.3430958218e+01   0.01531506  0.009897704  68.24  0.001574498    1.728    0.421
       250 -12.2448    108.7979    107.8572   3.2209155336e+01  -4.3404381865e+01   0.01164478  0.009982324 -33.55 0.0003623618    1.132    0.116
       251 -12.0671    109.6795    103.9708   3.2161996317e+01  -4.3441017838e+01   0.01309704   0.01131342  53.05 0.0003724992    1.183    0.155
       252 -12.0307      2.1477    106.8561   3.3876903312e+01  -4.4071482015e+01   0.01248676  0.008608911  39.37 0.0007501174    1.547    0.354
       253 -10.4622    121.5438    106.5571   3.2000078430e+01  -4.3338433286e+01  0.006490359  0.006155551 -42.88 -8.63509e-06    1.065    0.061
       254 -11.1948    206.5044    104.9345   3.0680506694e+01  -4.2813816147e+01  0.009610637  0.008525742 -25.10 0.0003664973    1.094    0.086
       255 -12.1013     12.0773    104.1325   3.3696372782e+01  -4.4041285588e+01    0.0156574  0.009431717 -27.86 0.0008877227    1.605    0.377
       256 -11.3639    105.1700    102.7642   3.2221758916e+01  -4.3482376579e+01   0.00988388  0.008862417 -61.57   0.00110474    1.200    0.167
       257 -12.6983     79.1794    102.5392   3.2625502145e+01  -4.3646930828e+01   0.01268411   0.01070319  48.27 0.0007042857    1.206    0.171
       258 -11.8833    153.8103    100.6498   3.1450137678e+01  -4.3198047812e+01   0.01290434   0.01045357  78.48 0.0007907659    1.409    0.290
       259 -12.4555     55.9430    101.4101   3.2980429700e+01  -4.3802963304e+01   0.01363466    0.0116218  28.95 0.0004206374    1.232    0.188
       260 -11.5457     57.8601     97.4894   3.2916842000e+01  -4.3833900692e+01   0.01983132   0.01232897 -44.98  0.001387193    1.665    0.399
       261 -10.5657    185.4528    101.4476   3.0971232392e+01  -4.2987003417e+01  0.006435033  0.006213246 -20.96 6.819376e-05    1.007    0.007
       262 -13.5717     95.0872     99.4012   3.2349964079e+01  -4.3581963392e+01   0.03217033   0.01168006 -37.96  0.001564058    2.577    0.612
       263 -12.8160      5.2219     99.4186   3.3765521193e+01  -4.4134478937e+01   0.02123323   0.01223567 -53.43  0.001988651    2.114    0.527
       264 -11.8416      9.6197     97.6268   3.3680542265e+01  -4.4127479743e+01   0.02390558  0.009281328 -38.34  0.001967639    2.441    0.590
       265 -11.6718    189.5871     98.4520   3.0881737211e+01  -4.2992605989e+01   0.01616185  0.008221484 -41.18  0.001495644    1.947    0.486
       266 -11.2334    162.4753     99.4914   3.1306643201e+01  -4.3155292580e+01  0.006486347  0.006215481 -40.00 0.0008096145    1.049    0.047
       267 -11.6974    178.3057     96.6469   3.1038663274e+01  -4.3084564138e+01   0.01189794  0.008390946  76.40  0.001253633    1.714    0.416
       268 -11.3621     75.2943     97.6522   3.2644491808e+01  -4.3724234016e+01  0.006744345  0.004945935 -65.21 0.0003534246    1.672    0.402
       269 -11.9483     85.4156    100.7643   3.2512740078e+01  -4.3627463805e+01   0.01194891  0.008861774 -26.67 0.0004849369    1.312    0.238
       270 -13.5237     78.2165     92.4008   3.2553635697e+01  -4.3763210617e+01   0.01904854   0.01415626 -72.41  0.002053735    1.705    0.414
       271 -13.5606     74.2945     90.6783   3.2600343563e+01  -4.3806328467e+01    0.0199042    0.0111342 -35.95  0.001543063    1.703    0.413
       272 -11.2158     41.3865     92.0308   3.3129947040e+01  -4.3994853963e+01   0.01341584  0.008901929 -27.85  0.001208954    1.459    0.315
       273 -11.3479    124.7227     89.8868   3.1806442563e+01  -4.3498878328e+01   0.01328972   0.01137917 -61.55  0.001219277    1.283    0.221
       274 -12.2972    154.5006     89.9625   3.1346286448e+01  -4.3308945419e+01   0.01308367   0.00850636 -44.83  0.001087056    1.579    0.367
       275 -10.8470     28.1096     90.2970   3.3325193339e+01  -4.4095137167e+01   0.01039665  0.008008193  -4.98 0.0008361037    1.422    0.297
       276 -12.7710      4.2693     88.2414   3.3686351504e+01  -4.4262763124e+01   0.02049793   0.01643503  22.98  0.002367641    1.367    0.269
       277 -12.6992     54.6537     85.8457   3.2867776717e+01  -4.3980622325e+01   0.02641777   0.02384614  82.24  0.003231638    1.211    0.174
       278 -12.0586    149.6328     88.1294   3.1405405121e+01  -4.3359761013e+01    0.0117339  0.008545972 -40.90  0.001027947    1.357    0.263
       279 -11.0152    171.3368     88.2960   3.1072449237e+01  -4.3219162816e+01  0.006758232  0.004944555  17.90 0.0002861392    1.651    0.394
       280 -10.7262     11.8780     86.9030   3.3553973000e+01  -4.4231229262e+01  0.009984219  0.008617912  21.61 0.0004008627    1.222    0.182
       281 -11.2264    100.5332     86.4685   3.2153399351e+01  -4.3688234305e+01  0.006481651   0.00620931  -1.34 4.658225e-05    1.032    0.031
       282 -11.5682    170.0556     84.4949   3.1058785666e+01  -4.3268292434e+01  0.009796064  0.006277389 -28.36  0.000391233    1.520    0.342
       283 -12.7425    151.1521     81.9323   3.1327734589e+01  -4.3416908181e+01     0.020607   0.01225432  25.83  0.001650523    2.340    0.573
       284 -11.2770    134.0947     84.0993   3.1610673439e+01  -4.3502094906e+01   0.01546679  0.009269521 -13.76  0.001471665    1.992    0.498
       285 -11.5170    164.4983     83.0160   3.1131342939e+01  -4.3319857916e+01  0.009010504  0.005770783 -84.66 0.0006278248    2.478    0.596
       286 -11.6503      4.5115     79.9817   3.3612550496e+01  -4.4351778224e+01   0.01563835   0.01161509   3.50 0.0004035312    1.568    0.362
       287 -11.5189      8.5244     78.0335   3.3532078797e+01  -4.4348722027e+01   0.01277397   0.01055935  65.21 0.0007451096    1.275    0.216
       288 -11.8554    112.5851     78.8010   3.1898895741e+01  -4.3695500824e+01   0.01687481   0.01022337 -55.38  0.001615152    2.040    0.510
       289 -11.9460    205.0657     77.3350   3.0458972688e+01  -4.3119073586e+01   0.01071287  0.008619363  42.83 0.0005589407    1.277    0.217
       290 -12.9310     88.4045     80.1998   3.2288840480e+01  -4.3832238251e+01   0.02360811    0.0103623  52.34  0.002070871    2.239    0.553
       291 -12.0797    117.7606     75.9212   3.1793189255e+01  -4.3693981182e+01   0.01971839   0.01090287 -46.00  0.001129849    1.928    0.481
       292 -11.6177    102.2186     77.0384   3.2045343622e+01  -4.3779884876e+01   0.01007664  0.008893153 -22.78 0.0003048258    1.103    0.093
       293 -11.7788     75.0381     76.2857   3.2464726346e+01  -4.3958208899e+01  0.009238445  0.008465036 -25.29  0.000841615    1.056    0.053
       294 -12.0402     66.0068     82.5111   3.2660372869e+01  -4.3946659187e+01   0.01032692  0.006278997 -27.46  0.001036516    1.602    0.376
       295 -11.4682    105.6364     73.1760   3.1958376229e+01  -4.3800215779e+01   0.01660879  0.008578126 -36.61  0.001164644    1.840    0.457
       296 -12.0379     70.6416     70.1823   3.2481143963e+01  -4.4051937934e+01   0.02383991   0.01355634  19.71  0.001714385    2.857    0.650
       297 -13.1723     54.6991     68.8464   3.2721009924e+01  -4.4165514964e+01   0.01817798    0.0143353  33.23 0.0005866987    1.353    0.261
       298 -11.2325      2.8830     71.8503   3.3569465658e+01  -4.4450711147e+01   0.01025794  0.008807854  17.63 0.0006263954    1.237    0.192
       299 -11.2326    189.0888     70.3886   3.0641992383e+01  -4.3297160141e+01   0.01030626  0.008714612  41.07 0.0003813474    1.214    0.176
       300 -12.2199     60.5599     68.2560   3.2623390338e+01  -4.4135587705e+01   0.02465694  0.009149911  61.29  0.001872316    2.855    0.650
       301 -11.2252    162.8356     69.1573   3.1035066823e+01  -4.3479686328e+01   0.00915303  0.007497238  16.09  0.000389195    1.354    0.261
       302 -11.3566    154.4283     68.4570   3.1158772442e+01  -4.3541158073e+01   0.01077367   0.01038252 -15.03 0.0001275033    1.006    0.005
       303 -11.1575     48.4642     67.1009   3.2804537801e+01  -4.4223119319e+01    0.0166333   0.01007298  27.12  0.001556126    2.175    0.540
       304 -11.3001     12.6049     59.6046   3.3309853812e+01  -4.4525404642e+01   0.01339691   0.01128582 -67.11  0.001008332    1.342    0.255
       305 -11.2789      9.2901     67.3271   3.3428727403e+01  -4.4461209027e+01   0.01578051  0.008873157 -34.78  0.001550466    1.688    0.408
       306 -11.3964     10.2474     63.4361   3.3380236207e+01  -4.4497921519e+01   0.01791359   0.01166158  -4.87  0.001323531    1.894    0.472
       307 -11.3200    173.1759     62.8513   3.0819896860e+01  -4.3480912464e+01  0.009328836  0.008456143 -52.63 0.0002897231    1.147    0.128
       308 -10.5316    124.6129     62.3947   3.1568204798e+01  -4.3796760022e+01   0.01368763  0.004147419 -41.87 0.0009487155    3.401    0.706
       309 -13.0577    110.6830     57.5908   3.1743448792e+01  -4.3937006071e+01   0.03880254   0.01386062  57.26   0.00308699    2.761    0.638
       310 -12.3327    115.2862     53.3236   3.1634087497e+01  -4.3953958911e+01   0.01962047   0.01231258 -80.14  0.001346806    2.617    0.618
       311 -11.1469    115.0473     48.4575   3.1595052080e+01  -4.4008040579e+01   0.00986521  0.008650137  54.14 0.0003310159    1.170    0.145
       312 -12.2073    103.9672     59.3507   3.1863889389e+01  -4.3960421525e+01   0.01145942  0.009628432  57.54 0.0002840561    1.226    0.185
       313 -12.0442     41.9225     58.2521   3.2831894104e+01  -4.4359956574e+01   0.02019938   0.01184576  57.80  0.002026757    1.731    0.422
       314 -10.7372    154.3298     57.6846   3.1065272411e+01  -4.3657749004e+01  0.006806821  0.004906333 -61.62 0.0007045526    1.679    0.404
       315 -12.3730     36.7753     55.1286   3.2886644242e+01  -4.4425779339e+01   0.02151672  0.009971811  49.26  0.001606936    2.170    0.539
       316 -12.0892     24.1739     55.2073   3.3087727716e+01  -4.4502524086e+01   0.01540998   0.01025737   5.01  0.001284898    1.964    0.491
       317 -11.6416     19.2888     54.4775   3.3159287492e+01  -4.4540479261e+01   0.02107167  0.007040793  53.15  0.001636129    2.836    0.647
       318 -11.8617    173.9636     50.7744   3.0700590489e+01  -4.3605487419e+01   0.01700733   0.01240079 -65.21  0.001818083    1.703    0.413
       319 -11.4199    120.4928     51.9627   3.1540821710e+01  -4.3935592451e+01  0.009912062   0.00857827 -26.13  0.000446969    1.120    0.107
       320 -12.5196    100.0531     49.8911   3.1842406560e+01  -4.4087500366e+01   0.01830744   0.01188268 -58.15  0.001826264    1.910    0.477
       321 -12.5457     30.2300     49.9449   3.2945986162e+01  -4.4522651657e+01   0.01531837   0.01217037 -48.43  0.001147677    1.309    0.236
       322 -12.1536     20.0036     46.7606   3.3081483114e+01  -4.4620314196e+01   0.02406667  0.007721987  47.74  0.001766207    3.223    0.690
       323 -11.6382     31.6697     56.1760   3.2976799554e+01  -4.4445843249e+01   0.01175293  0.008399115 -38.55  0.000765214    1.366    0.268
       324 -11.4774    143.4048     44.2255   3.1115648812e+01  -4.3872699880e+01  0.009118348  0.006402476  75.75 0.0003397764    1.713    0.416
       325 -11.6620    115.7381     42.9694   3.1535924157e+01  -4.4062914795e+01   0.01135121  0.009040183 -32.47 0.0002840546    1.211    0.174
       326 -11.5028     88.6864     36.6429   3.1904764911e+01  -4.4302610673e+01   0.01722176  0.007211101  40.50   0.00133345    2.992    0.666
       327 -12.6260     34.2939     40.0870   3.2796040898e+01  -4.4604967935e+01   0.02324538  0.009402683 -25.22  0.001877219    2.578    0.612
       328 -11.7789    119.3866     40.7566   3.1459354297e+01  -4.4063581638e+01   0.02125685   0.01194233  65.91  0.001562637    2.010    0.503
       329 -11.4542     80.3730     35.7211   3.2027691408e+01  -4.4364959122e+01   0.01835062   0.01020819  71.41  0.001683443    2.252    0.556
       330 -11.2062      9.3166     36.4577   3.3163449664e+01  -4.4798350518e+01   0.01208638  0.006411921 -23.00 0.0009652884    1.951    0.487
       331 -10.9224     95.2921     34.0089   3.1777651527e+01  -4.4289383235e+01  0.008850019  0.008296655  49.38 0.0004045258    1.093    0.085
       332 -11.3873     52.9219     33.7910   3.2445167809e+01  -4.4557792602e+01   0.01074667  0.009287231  53.35 0.0003844703    1.183    0.155
       333 -11.1671    218.7292     32.9710   2.9853422934e+01  -4.3503901789e+01   0.01074094  0.008987828 -28.31 0.0004168399    1.159    0.137
       334 -11.4135    106.8769     32.3524   3.1581060690e+01  -4.4233855673e+01   0.01082388  0.009174137  82.81 0.0006757788    1.339    0.253
       335 -12.3341     31.9774     32.1852   3.2764374633e+01  -4.4705332544e+01   0.01560281   0.01373379 -59.86 0.0009664971    1.225    0.183
       336 -10.7997     14.6789     33.0890   3.3048517133e+01  -4.4802183409e+01  0.008810796  0.008316566  35.51 0.0003552182    1.075    0.070
       337 -12.2975     46.9076     36.0133   3.2560041232e+01  -4.4571080615e+01   0.01527846  0.009223496  57.85  0.001151542    1.686    0.407
       338 -12.5331     45.9885     25.5931   3.2483769907e+01  -4.4690049370e+01   0.02292028   0.01553558  58.70  0.002469721    1.515    0.340
       339 -12.0527     85.0798     24.1853   3.1851974026e+01  -4.4460169681e+01   0.01330616   0.01046914  79.56 0.0005198686    1.477    0.323
       340 -10.0312      1.6762     25.3344   3.3189877881e+01  -4.4966601080e+01  0.006871824  0.004881883 -61.77 0.0004241137    1.710    0.415
       341 -11.7266    114.8420    247.7053   3.3290318832e+01  -4.1844103469e+01   0.02267237  0.005735622  51.73  0.001557596    3.621    0.724
       342 -15.2369     10.9854    189.2287   3.4419116988e+01  -4.3112989050e+01    0.1285213   0.06762903   2.51  0.009600455    3.582    0.721
       343 -11.9008     70.0374     21.5250   3.2066346381e+01  -4.4583733699e+01   0.01178866   0.00954095  59.84 3.461518e-05    1.281    0.219
       344 -11.3362     79.4865     18.2863   3.1888285639e+01  -4.4559293856e+01   0.01038305  0.009776064 -18.89 0.0007238599    1.029    0.028
       345 -10.2264    131.7495     17.3483   3.1058319933e+01  -4.4236699006e+01  0.006448875  0.005002444 -72.20  0.000276729    1.586    0.370
       346 -10.5312     66.5671     16.4733   3.2076879420e+01  -4.4660268270e+01  0.006413437  0.006231719 -11.55 7.568109e-05    1.008    0.008
       347 -10.5592    248.5183    248.4507   3.1283368165e+01  -4.1001207150e+01  0.006478565  0.006180938 -38.27 0.0003031015    1.050    0.047
       348 -10.3600    238.2878    248.3440   3.1434589973e+01  -4.1067422176e+01  0.006792507  0.004848171  25.53 0.0004092837    1.649    0.394
       349 -11.3487    204.6092    248.2382   3.1936787086e+01  -4.1281416754e+01  0.008836406   0.00592453  48.25 0.0003398345    1.515    0.340
       350 -11.4480    178.4818    247.4501   3.2322936083e+01  -4.1453644086e+01   0.01400009  0.009693583 -17.13  0.001491564    1.523    0.343
       351 -12.1422    181.2632    244.4324   3.2255912095e+01  -4.1469005940e+01   0.01532206   0.01105799 -15.37 0.0009034219    1.465    0.317
       352 -11.5032     98.6995    247.0435   3.3531686988e+01  -4.1949817549e+01   0.01329231  0.009461218 -16.55  0.001319199    1.463    0.316
       353 -11.0259    121.1681    248.6219   3.3201344344e+01  -4.1795364109e+01   0.00900684  0.006123524 -13.62 0.0003860004    1.606    0.377
