#   1 NUMBER                 Running object number                                     
#   2 MAG_AUTO               Kron-like elliptical aperture magnitude                    [mag]
#   3 X_IMAGE                Object position along x                                    [pixel]
#   4 Y_IMAGE                Object position along y                                    [pixel]
#   5 X_WORLD                Barycenter position along world x axis                     [deg]
#   6 Y_WORLD                Barycenter position along world y axis                     [deg]
#   7 A_WORLD                Profile RMS along major axis (world units)                 [deg]
#   8 B_WORLD                Profile RMS along minor axis (world units)                 [deg]
#   9 THETA_WORLD            Position angle (CCW/world-x)                               [deg]
#  10 FWHM_WORLD             FWHM assuming a gaussian core                              [deg]
#  11 ELONGATION             A_IMAGE/B_IMAGE                                           
#  12 ELLIPTICITY            1 - B_IMAGE/A_IMAGE                                       
         1 -13.8187    206.3685     32.1379   4.0535681056e+01   3.0145140982e+01     1.531543     1.017063 -13.55  0.001375609    2.135    0.532
         2 -13.2804    197.1533     41.2932   4.3950992271e+01   3.1142795054e+01     1.126685     1.003176 -52.95  0.003291802    1.110    0.099
         3 -12.9301    230.8565      5.9127   3.2308541927e+01   2.7641947280e+01     0.849227    0.6154248  89.86  0.004840428    1.218    0.179
         4 -11.5515     42.8457      7.0959   6.7613687284e+01   6.9296884843e+01    0.3763472    0.1576427  29.19  0.001753964    2.579    0.612
         5 -11.0918     54.4893      6.0069   6.2347502007e+01   6.7501155633e+01    0.2448951    0.1400661  31.08  0.001110503    1.567    0.362
         6  -9.1670     40.7487    177.8979   1.1387983088e+02   3.3044561722e+01    0.2301233    0.1695923  63.40 0.0006559915    1.265    0.210
         7 -11.4098    139.6749    247.4639   1.0063504356e+02   4.1851167699e+00    0.5356042    0.3281057 -54.34  0.003048573    1.974    0.493
         8 -16.2441     71.9029    151.9497   1.0226070350e+02   3.5434286069e+01      22.8348      11.7598  86.74   0.01070828    3.939    0.746
         9  -9.7169    146.9697    172.8068   8.7032756368e+01   1.7394279199e+01    0.5041226    0.3041233 -74.24  0.001858838    2.961    0.662
        10  -9.8153     47.4712    171.9475   1.1155845691e+02   3.3696553704e+01    0.3705297    0.2735088  -4.66  0.001870607    2.159    0.537
        11  -8.5705    194.4011    171.7610   7.6478167208e+01   8.5006732575e+00    0.1980449    0.1299404 -30.13 0.0006661982    1.554    0.357
        12  -8.9206    185.5591    169.7432   7.7869025026e+01   1.0566250114e+01    0.1957674     0.137522 -51.63 0.0004772241    1.559    0.359
        13  -9.4416    240.4524    169.4739   6.7486158132e+01   7.7234110723e-01    0.1333652    0.1129041 -18.82 -3.562257e-05    1.009    0.009
        14  -9.1254     37.6837    168.2432   1.1355859164e+02   3.5710171629e+01    0.3370686    0.1327242  64.27  0.001148731    3.999    0.750
        15 -10.8234    193.3904    195.7479   8.1457550947e+01   4.2790444113e+00     1.116684    0.5571789 -61.64  0.003227735    6.226    0.839
        16  -9.0370    136.4879    166.8655   8.8328800355e+01   2.0718771087e+01    0.3693143    0.1614546  52.87  0.001247192    2.899    0.655
        17  -8.8631     42.1659    167.5125   1.1235194018e+02   3.5390568435e+01    0.1758558    0.1271483  39.67 0.0006146042    1.476    0.322
        18 -10.0795     32.1419    165.3051   1.1461284871e+02   3.7010213958e+01    0.2497157    0.1623625 -79.60 0.0006946152    1.323    0.244
        19  -8.3683    133.9916    163.2343   8.8199698577e+01   2.2020291356e+01    0.2079051    0.1250256  41.09 0.0008866648    1.652    0.395
        20 -11.2248    202.3106    199.3582   8.0375058492e+01   2.1285113912e+00    0.5488332    0.2074936  34.83  0.002143778    2.730    0.634
        21 -11.5928     90.6297    152.3299   9.7227677425e+01   3.2449890624e+01     0.708856    0.4958636 -29.75  0.003232481    1.912    0.477
        22 -13.3948     57.9155    186.0119   1.1070568544e+02   2.9032982100e+01     1.911726     1.782543 -51.79   0.01220149    1.309    0.236
        23 -15.3752     50.4340    201.7974   1.1412200424e+02   2.6344216666e+01     9.973054     3.441253  65.31   0.02643377    7.086    0.859
        24 -10.6315    133.9016    145.2360   8.4358735189e+01   2.6172670885e+01     1.183298    0.3330311 -54.87  0.002933946    4.965    0.799
        25  -9.3665    174.2994    148.9142   7.5709499399e+01   1.7022395789e+01    0.3035944    0.1872123 -40.65 0.0009850713    1.586    0.369
        26 -10.5073     40.6329    146.8306   1.1008116351e+02   4.0670961173e+01    0.3122492     0.223343 -61.22  0.001206502    1.260    0.206
        27 -10.2694    103.7139    138.3855   9.0800823619e+01   3.3614571758e+01    0.5661137    0.3589291 -24.99  0.002213774    2.447    0.591
        28 -11.6248     91.2555    138.0623   9.4213746439e+01   3.5872338952e+01    0.2892796    0.2679126 -48.74 0.0004278252    1.094    0.086
        29 -17.3590     11.4800    245.8718   1.2484947385e+02   2.1568071805e+01     3.606096     1.709082  31.14   0.01800535    2.458    0.593
        30 -11.0021    162.8240    214.2855   9.1051132249e+01   6.2134339923e+00    0.4524474    0.1674845  35.27  0.001733985    2.632    0.620
        31 -10.0568    105.8309    130.7240   8.8482507065e+01   3.5082984556e+01    0.4037586    0.3201066 -63.31    0.0012618    1.270    0.213
        32  -9.9379    135.7713    129.1032   8.0075326689e+01   2.9492648941e+01    0.3462323    0.1778891 -46.94  0.001324903    1.902    0.474
        33 -10.3277    113.0006    129.4551   8.6195153340e+01   3.4026308636e+01    0.4817364    0.2740299  37.62   0.00106013    1.865    0.464
        34  -9.2898    161.1426    128.0180   7.3671761800e+01   2.4252604045e+01    0.2700001    0.1834243 -68.87  0.001098751    2.017    0.504
        35 -10.3298     99.7493    125.2541   8.8924233338e+01   3.7521591043e+01    0.3228102    0.2656749  -6.93  0.001342396    1.528    0.346
        36 -10.7787    118.9753    123.1423   8.3016665436e+01   3.4334744277e+01    0.5562664    0.3780749   7.87   0.00216412    2.453    0.592
        37  -9.0879    108.2992    118.3703   8.4787359475e+01   3.7561546195e+01    0.2368988    0.2189674  -7.04 0.0005207481    1.189    0.159
        38  -9.9669    120.4614    194.6570   9.7157687697e+01   1.7463768939e+01    0.2468408    0.1937339  89.67 0.0008075656    1.481    0.325
        39 -12.4201     43.6471    109.2793   1.0280691042e+02   4.9693709491e+01    0.5776914    0.4980217  50.58  0.003445504    1.318    0.241
        40 -10.1005    135.1328    113.8416   7.6327687674e+01   3.3057403142e+01    0.5708461    0.1001347 -47.35  0.001216947    6.096    0.836
        41  -9.9276    231.3091    113.6891   5.6839643431e+01   1.1974821209e+01    0.2660611     0.240356 -47.48 0.0008482105    1.058    0.055
        42  -8.3821    167.6091    112.3179   6.8218357413e+01   2.6088687900e+01    0.1655091    0.1229206 -83.13 0.0007008333    1.851    0.460
        43 -10.8059    115.5511    109.0800   8.0303847716e+01   3.8265900655e+01    0.4583287    0.3683947 -44.91  0.001506567    1.205    0.170
        44  -9.4467    205.4477    110.1620   6.0247727168e+01   1.8005274614e+01    0.3112851    0.2136544  42.59  0.001041925    1.630    0.387
        45  -9.2073    135.2144    102.0415   7.3081685659e+01   3.5596143424e+01    0.2177042    0.1251805 -42.35 0.0008715848    1.706    0.414
        46 -11.3746    111.8012    204.7714   1.0068857457e+02   1.6746435948e+01    0.4342115    0.2891958 -81.71  0.001258373    1.891    0.471
        47  -9.9196    149.3970    187.4667   8.9283715239e+01   1.3821670602e+01    0.2939323    0.2458544 -87.44 0.0009537532    1.478    0.324
        48  -8.8699     23.5391    185.7325   1.1862976274e+02   3.3029480829e+01    0.2003831    0.1541103  43.81 0.0006441067    1.385    0.278
        49  -8.2192    157.4939     89.5372   6.4226568024e+01   3.2967603231e+01    0.1560917    0.1464265 -72.68 0.0008081886    1.081    0.075
        50 -11.5228    107.6667    203.8777   1.0149326287e+02   1.7613124561e+01    0.4279804    0.3062151  75.85  0.001622714    1.615    0.381
        51  -9.0323    157.5168     82.5039   6.2205685533e+01   3.4282234652e+01    0.2575963    0.1506729 -26.09 0.0008541862    2.085    0.520
        52  -8.8211    184.7620     77.1724   5.5397064072e+01   2.8666909846e+01    0.2024818    0.1790814  17.94 0.0008729755    1.366    0.268
        53 -13.0692    186.2397     50.0015   4.7768938498e+01   3.2574733159e+01    0.9944869    0.8497848  -1.84 0.0008930548    1.487    0.328
        54 -16.3760      5.4197    214.3812   1.2434680755e+02   2.8441705832e+01     4.638188     0.727236 -67.98   0.01739953    4.531    0.779
        55  -9.4778     89.8710    212.7020   1.0663964141e+02   1.8509869708e+01    0.2528692    0.1881075  72.91 0.0008147784    1.338    0.253
        56 -10.1227     99.3794    180.7483   9.9927244952e+01   2.4161859340e+01    0.2767689    0.2423137  43.81  0.000566268    1.150    0.131
        57  -9.6820    198.1621     23.3309   3.9229292579e+01   3.3138819408e+01    0.2102658    0.1785744 -23.32 0.0006210428    1.406    0.289
        58  -9.8336    188.5723    176.8647   7.8720083691e+01   8.6221396095e+00    0.4061435    0.3384292 -77.15  0.002129179    1.660    0.398
        59  -9.0758    189.4890     15.0123   3.8031301630e+01   3.6126794482e+01    0.1856695    0.1252167 -32.92  0.001027354    1.574    0.365
        60 -10.8535    156.6045    217.3470   9.2851780913e+01   6.7083623026e+00    0.3798576    0.2381665 -58.55  0.001900452    2.005    0.501
        61 -11.7888    185.5201    212.2071   8.6038652421e+01   2.7513342902e+00    0.5369629    0.3132113  21.59  0.002547509    1.958    0.489
