#   1 NUMBER                 Running object number                                     
#   2 MAG_AUTO               Kron-like elliptical aperture magnitude                    [mag]
#   3 X_IMAGE                Object position along x                                    [pixel]
#   4 Y_IMAGE                Object position along y                                    [pixel]
#   5 X_WORLD                Barycenter position along world x axis                     [deg]
#   6 Y_WORLD                Barycenter position along world y axis                     [deg]
#   7 A_WORLD                Profile RMS along major axis (world units)                 [deg]
#   8 B_WORLD                Profile RMS along minor axis (world units)                 [deg]
#   9 THETA_WORLD            Position angle (CCW/world-x)                               [deg]
#  10 FWHM_WORLD             FWHM assuming a gaussian core                              [deg]
#  11 ELONGATION             A_IMAGE/B_IMAGE                                           
#  12 ELLIPTICITY            1 - B_IMAGE/A_IMAGE                                       
         1 -12.9322    226.8489     54.1222   5.2983141950e+01   2.1251822775e+01     2.718849     1.198732 -46.54   0.01069568    2.248    0.555
         2 -12.6298    226.0084     84.8244   6.1173701813e+01   1.6752872153e+01     2.695255     1.287701 -46.09   0.01058571    2.142    0.533
         3 -12.6698    244.9461    100.2138   6.2154377363e+01   1.0070801415e+01     3.828237    0.8364253 -42.87   0.01022504    4.903    0.796
         4 -13.0599    234.6773     38.0667   4.7873325474e+01   2.1574395159e+01     2.819687    0.6836301 -44.21   0.00888805    3.750    0.733
         5 -12.2930    241.9608     53.6220   5.0955855883e+01   1.7762110792e+01     1.447693    0.7752634 -43.53  0.006672847    1.683    0.406
         6 -13.5780    246.5611     30.0418   4.4655482503e+01   1.9826554474e+01     3.889724     1.124327 -41.74   0.01460521    2.806    0.644
         7 -13.1683    248.7068     57.0835   5.1015819824e+01   1.5744911280e+01     5.981121    0.8039844 -30.42   0.01326332    7.493    0.867
         8  -9.3890    172.7631     25.6984   5.2569938518e+01   3.8812562742e+01    0.5548267    0.2069583 -47.75  0.001836496    3.363    0.703
         9 -10.0793    136.8254     24.3229   5.8654169796e+01   4.8178885191e+01    0.5117852    0.1891036 -24.58 0.0008733384    2.860    0.650
        10  -8.6263    166.8365     23.0194   5.2655850559e+01   4.0668819146e+01    0.2444538    0.1451114 -51.96  0.001066932    1.947    0.486
        11 -10.2125    140.6357     16.9685   5.5196459640e+01   4.8052405537e+01    0.3065592    0.2446623 -19.75  0.001190974    1.318    0.241
        12  -9.5500    155.8702     16.5564   5.2313103086e+01   4.4219362897e+01    0.4210227    0.1810911 -28.87  0.001696546    2.347    0.574
        13  -9.5349      8.9924     15.8539   1.0077750046e+02   7.1010206027e+01    0.3033009    0.1366202 -52.85   0.00101753    1.983    0.496
        14 -10.0076    113.3808     13.4961   5.9699706957e+01   5.4989660813e+01    0.3305384    0.1350014 -16.50  0.001261392    2.858    0.650
        15  -9.2924    141.8009     11.7444   5.3083260126e+01   4.8291896074e+01    0.3152682    0.2235829  37.94  0.001626695    1.374    0.272
        16  -9.4971    126.2836     11.8371   5.6148172201e+01   5.2113242546e+01    0.2710045    0.1048391 -30.36  0.001067137    2.588    0.614
        17  -8.3990     38.8491     10.8215   8.3758363970e+01   6.8915962606e+01    0.1470993    0.1246626 -19.56 0.0003203579    1.254    0.203
        18  -8.7659    160.5632      9.2565   4.9111634051e+01   4.3739554525e+01     0.242886    0.1334415 -26.58  0.001084845    1.911    0.477
        19  -9.1815    155.7171      8.6888   4.9664934932e+01   4.5041775843e+01    0.4267352    0.2311485   7.37  0.001741811    2.676    0.626
        20  -9.3174    159.0398      2.5062   4.7097572306e+01   4.4743501845e+01    0.2841738    0.2199983  -9.33  0.001304333    1.451    0.311
        21  -8.4577     89.2330     10.2443   6.4696649274e+01   6.0580950061e+01    0.2052477   0.08916996 -34.65 0.0008855433    2.435    0.589
        22 -10.7896    132.6163      7.5125   5.3228669967e+01   5.0979235707e+01    0.4868641    0.1950684 -36.01   0.00160827    2.669    0.625
        23  -8.7544     18.8213      9.1485   9.2685219226e+01   7.1336909946e+01    0.1558132    0.1010531 -19.18 0.0002637641    1.274    0.215
        24  -8.7126    138.3477      7.8033   5.2273664996e+01   4.9530974895e+01    0.1942552    0.1283977  -1.37 0.0009519864    1.734    0.423
        25  -9.4347    127.6582      3.1716   5.2519328417e+01   5.2574770644e+01    0.2515865    0.1412119  -7.40 0.0007735092    2.037    0.509
        26 -10.3853    116.6013      5.3003   5.5615972312e+01   5.5033153466e+01    0.3481667     0.233411 -21.35 0.0003435207    1.559    0.358
        27 -10.8502    110.8202      4.6507   5.6634675219e+01   5.6432372049e+01    0.3597169    0.3093723 -30.26 0.0001116439    1.309    0.236
        28  -8.3352    189.0000      5.9541   4.4335844868e+01   3.6695365592e+01    0.2101849   0.07871172 -22.94 0.0007937459    2.883    0.653
        29  -8.2077    171.2741      5.6824   4.6442394166e+01   4.1302593317e+01    0.1399985   0.09862696 -61.15 0.0003889717    1.567    0.362
        30  -9.0747    143.5569      3.6255   4.9859262589e+01   4.8593815450e+01    0.3047376    0.1300865 -22.96  0.001266513    2.461    0.594
        31  -8.2178     64.9467      4.9808   7.0082985709e+01   6.5734248142e+01    0.1509103    0.1212722   6.78 0.0003829334    1.003    0.003
        32 -10.1552     14.2866      2.6153   9.1820591375e+01   7.2740104599e+01    0.3582569    0.1644058 -22.07  0.001197091    2.234    0.552
        33  -9.0892    217.5123      3.4809   4.0758688481e+01   2.9746991498e+01    0.2590609    0.1276706 -26.20  0.001080727    2.116    0.527
        34  -9.0851    148.3223      8.0681   5.0641165204e+01   4.6991051699e+01    0.2946918    0.1957706 -45.88  0.001261186    1.699    0.411
        35  -9.2510    152.8046      3.0225   4.8185769165e+01   4.6297210714e+01    0.3683871    0.1822184 -49.70  0.001538522    2.505    0.601
        36  -9.3006    121.5758      2.3768   5.3401122270e+01   5.4107877284e+01    0.2749363    0.1621795  -3.07 0.0005498196    1.920    0.479
        37  -9.7001     50.9609      3.4235   7.4665834938e+01   6.8189566794e+01    0.2117347    0.1478408 -14.62 0.0003029903    1.217    0.179
        38  -9.2137     18.9563      4.2282   9.0155341048e+01   7.2071649210e+01    0.1607325    0.1325509 -21.42 0.0006196782    1.255    0.203
        39  -8.1296     55.6909      3.7324   7.2928723845e+01   6.7415254530e+01    0.1246496   0.07865103  11.76 0.0002003517    1.539    0.350
        40  -9.5453     74.6235      5.1863   6.6848782194e+01   6.3969129655e+01    0.1824702    0.1078171  -8.17 0.0009498178    1.693    0.409
        41  -8.8431    162.6391    183.2820   9.6637995284e+01   1.2672597226e+01     0.140429     0.105706  69.86 0.0007016561    1.675    0.403
        42  -9.2869    210.4587    250.0237   9.8370640320e+01  -5.3900233711e+00    0.2211928    0.1432941  17.72  0.001418047    1.480    0.324
        43  -9.3224    242.0515    181.7048   8.1013860108e+01  -1.8529214304e+00     0.290959    0.2264218  67.79  0.001573407    2.234    0.552
        44  -8.9741    236.0371    181.7097   8.2070682986e+01  -8.1054570041e-01    0.2192414    0.1849074 -48.44   0.00129654    1.616    0.381
        45 -10.0478    231.9299    178.9738   8.2251640681e+01   3.1061020293e-01    0.2649393    0.2069701  81.56 0.0009890014    2.536    0.606
        46  -8.1403    229.6810    182.3238   8.3329886132e+01   2.2356959643e-01    0.1191766     0.109493 -81.10 0.0007045054    1.673    0.402
        47  -9.3334    177.0097    181.9630   9.3425100768e+01   1.0157198942e+01    0.2320516    0.1509622 -67.55 0.0008282876    2.568    0.611
        48  -9.4457    247.8562    178.8397   7.9435736437e+01  -2.4477088463e+00    0.4131635    0.2564622 -50.34  0.001997694    2.559    0.609
        49  -9.8670    238.7541    170.6323   7.9325487900e+01   3.0854650159e-01    0.5505922    0.3632883  57.29  0.002745182    2.160    0.537
        50  -9.3963    190.9806    179.9837   9.0223060569e+01   7.8072737856e+00    0.2138762    0.1770829  85.90  0.001134299    1.768    0.434
        51  -9.5192    219.8210    179.0770   8.4483349675e+01   2.4956325271e+00    0.1949349    0.1867191  30.17  0.000740336    1.253    0.202
        52  -9.2673    210.7252    176.4302   8.5660431687e+01   4.6111456239e+00    0.2335918    0.1654617 -45.21 0.0006667178    1.648    0.393
        53  -9.1052    197.8748    177.1989   8.8306589066e+01   6.9459534424e+00    0.2032999    0.1914066  56.55 0.0007157513    1.251    0.201
        54  -8.3362    150.4781    177.5029   9.8165182890e+01   1.6079025221e+01    0.1403006    0.1299581  46.29 0.0001604188    1.005    0.005
        55  -9.5953    182.1504    176.1523   9.1255004153e+01   1.0185598913e+01    0.1940936    0.1711631  70.15  0.000805955    1.365    0.267
        56  -9.9513    223.6673    173.7296   8.2681861015e+01   2.6023767959e+00    0.2357402    0.1982994 -80.72 0.0008099381    1.965    0.491
        57 -10.3918    188.0023    172.5223   8.9340657722e+01   9.6744747034e+00    0.2631083    0.2039466 -55.25  0.001373376    1.577    0.366
        58  -9.2600    228.4557    172.0085   8.1450452359e+01   1.9783307400e+00    0.2368934    0.1864778  54.63 0.0007522615    1.602    0.376
        59  -9.5293    201.1238    171.8758   8.6589591093e+01   7.2059347786e+00    0.2068113    0.1960397  60.59 0.0007326853    1.267    0.211
        60  -9.8781    206.3165    170.4877   8.5289922010e+01   6.4243285429e+00    0.3123522    0.2633988  83.38  0.001267315    1.760    0.432
        61  -9.7825    218.8552    168.8939   8.2568929776e+01   4.2637986111e+00    0.3123067    0.2640635  71.71  0.001081551    1.700    0.412
        62  -8.5925    212.4490    169.9417   8.3997630572e+01   5.3251057154e+00    0.1764828    0.1209622 -59.64 0.0005434302    2.301    0.565
        63  -9.9588    180.0153    170.0267   9.0473976472e+01   1.1705762628e+01    0.2246278    0.1825622  87.24  0.001140695    1.734    0.423
        64  -8.3590    150.3229    168.3254   9.6487708219e+01   1.7913766466e+01    0.1442866    0.1137173   2.32 0.0007047977    1.686    0.407
        65  -9.7513    246.5506    169.6270   7.7765053658e+01  -9.2976551391e-01    0.4392475    0.2344718  52.38   0.00201859    2.458    0.593
        66  -9.3501    199.4960    165.5765   8.5599960503e+01   8.5984451068e+00    0.2843139     0.138912 -38.76 0.0009967521    2.108    0.526
        67  -9.2111    191.9725    166.3157   8.7261872732e+01   9.9761154480e+00    0.2118365     0.182842  27.54  0.001172356    1.084    0.077
        68  -8.9402    234.1689    164.5707   7.8858207258e+01   2.0506806645e+00    0.2635456    0.1674271 -46.64  0.001078099    1.951    0.488
        69  -9.2138    213.3014    163.8466   8.2548034490e+01   6.1547722809e+00     0.307067    0.2561901 -47.14  0.001698255    1.412    0.292
        70  -8.4643    240.8150    164.6273   7.7701048093e+01   8.2193057066e-01    0.1770632    0.1260862  51.87  0.000792912    1.722    0.419
        71 -10.1130    205.3415    162.1441   8.3718636142e+01   8.0174816111e+00     0.423536    0.2897464 -61.17  0.001918908    2.252    0.556
        72  -9.4110    172.8055    164.5911   9.0878636812e+01   1.4162104000e+01    0.2107407    0.1324752  53.61 0.0009477394    1.706    0.414
        73  -8.6095    247.4112    163.1399   7.6251387897e+01  -1.4659239112e-01    0.2359235    0.1801025  60.80  0.001280381    1.913    0.477
        74  -8.9181    221.9445    162.3409   8.0600678263e+01   4.7153330630e+00    0.2104496    0.1746698  58.88  0.001152011    1.526    0.345
        75  -9.2439    237.8857    159.4379   7.7099475576e+01   2.1404687858e+00    0.2892992    0.2375689  46.85  0.001074919    1.406    0.289
        76  -9.4215    233.8063    154.5116   7.6742783805e+01   3.6712982891e+00    0.3651736     0.284218  83.94  0.001509838    2.293    0.564
        77  -8.9185    231.3459    159.8731   7.8353084009e+01   3.3033661856e+00    0.2472943    0.1964929  57.19 0.0008000554    1.609    0.379
        78  -9.9648    226.5740    157.5075   7.8700641368e+01   4.5915425770e+00    0.2804233    0.2271834  36.97 0.0009607712    1.243    0.196
        79  -9.3095    184.2037    160.1704   8.7556529735e+01   1.2661826651e+01    0.1986655    0.1793803  85.97  0.001075861    1.368    0.269
        80  -9.6486    158.8176    159.3486   9.2828358452e+01   1.8017037779e+01    0.2797698    0.1125504 -47.73  0.001011582    2.643    0.622
        81 -12.2673    235.3768    135.7861   7.2227669856e+01   6.3436887024e+00     2.075716     1.468917  81.16  0.009204297    2.632    0.620
        82 -12.4923    226.0791    105.6202   6.6501978457e+01   1.3308006356e+01      2.69404     1.399091  69.01  0.009647056    3.222    0.690
        83 -12.3180    244.0995    127.5125   6.8832492202e+01   5.9168770259e+00     1.973784     1.369768 -70.07  0.008819127    2.563    0.610
        84  -9.8688    198.1787    140.4320   8.0262132196e+01   1.3343742119e+01    0.4034391    0.3080326 -86.78  0.001542051    2.082    0.520
        85  -9.1268    191.5058    159.4853   8.5907006561e+01   1.1288059287e+01    0.1459153    0.1354321  15.37 0.0001872802    1.002    0.002
        86 -10.6567    191.5658    148.4674   8.3458801779e+01   1.3283394367e+01    0.3940358    0.2859024 -70.34  0.001752286    2.121    0.529
        87  -9.1004    196.5858    150.7651   8.2956342222e+01   1.1806776378e+01    0.2375321    0.2148201  45.83 0.0007015789    1.161    0.139
        88 -10.7147    197.9425    132.1239   7.8328443562e+01   1.4918518833e+01    0.4782448    0.4153434  17.47    0.0020818    1.172    0.147
        89  -9.8828    187.5542    156.2530   8.6016770543e+01   1.2691113004e+01    0.3528249     0.143692 -37.77  0.001292196    2.576    0.612
        90  -8.7775    154.6667    156.3265   9.3125537567e+01   1.9467535033e+01    0.1511845    0.1169193  82.89 0.0007051446    1.715    0.417
        91 -10.0962    205.6075    153.8131   8.1845685959e+01   9.3961757211e+00    0.3588681    0.2713789 -54.39   0.00179041    1.642    0.391
        92  -9.1600    202.6892    151.6733   8.1941776929e+01   1.0372427325e+01    0.2612698    0.1738377 -24.96 0.0008015565    1.595    0.373
        93  -9.0067    203.4899    141.1652   7.9377650411e+01   1.2071263830e+01    0.2609129     0.215839  85.83 0.0008717647    1.696    0.410
        94  -9.6811    177.0795    152.2589   8.7341525970e+01   1.5630211613e+01    0.3368162    0.2280289 -86.49  0.001272989    3.027    0.670
        95  -8.8709    228.5107    152.0051   7.7134576807e+01   5.0944744298e+00    0.2959954    0.1868621 -36.32 0.0008586962    1.552    0.356
        96  -9.2029    229.1004    148.2973   7.6197795450e+01   5.5752888101e+00     0.258167    0.1933909  36.76 0.0009439759    1.336    0.251
        97  -9.5291    224.2148    147.2468   7.6845369820e+01   6.7210216966e+00    0.3626072     0.276886  72.15  0.001341787    1.970    0.493
        98  -8.7930    219.1771    144.7066   7.7194883117e+01   8.1675031856e+00    0.2465137    0.1815173  58.68 0.0006677728    1.666    0.400
        99 -10.2942    197.2984    156.9243   8.4179128202e+01   1.0556663196e+01    0.4830928    0.2510847 -36.76  0.002053199    1.963    0.491
       100  -9.1579    200.4343    145.3032   8.0942590248e+01   1.1979263465e+01    0.2385768    0.1898325  71.89 0.0008933425    1.684    0.406
       101  -9.1638    155.5924    143.8036   9.0211572791e+01   2.1848597345e+01    0.2221073    0.1426878 -56.64 0.0009573051    1.777    0.437
       102  -9.1477    214.5666    142.8469   7.7631076390e+01   9.4374115086e+00    0.2670741    0.2127093 -59.86 0.0008843441    1.628    0.386
       103  -8.7973    199.2004    137.4032   7.9342710729e+01   1.3675324152e+01    0.2984638    0.2426989  85.90  0.001442745    1.728    0.421
       104 -10.0963    182.0981    142.4472   8.4053572105e+01   1.6443896339e+01    0.3573153    0.2367489 -61.66   0.00143088    2.093    0.522
       105  -9.2439    224.4347    140.6365   7.5290407269e+01   7.7710587505e+00    0.2678704    0.2344247 -46.82  0.001062832    1.297    0.229
       106 -10.0229    166.6369    140.6616   8.7002210435e+01   2.0138763954e+01    0.3133147    0.2298444 -87.95  0.001341951    2.114    0.527
       107  -9.5526    208.5620    138.4007   7.7739816734e+01   1.1478990710e+01    0.3231288    0.2610986 -49.69  0.001037828    1.387    0.279
       108 -10.6439    173.1610    138.8874   8.5148417627e+01   1.9079361452e+01    0.3902652    0.2932589 -69.01  0.001461353    1.770    0.435
       109  -9.6280    192.9969    136.8876   8.0474547954e+01   1.5123028704e+01    0.2683239    0.2171265 -36.57  0.001199117    1.231    0.187
       110  -9.3597    187.8725    136.1315   8.1352157282e+01   1.6389508791e+01    0.2298071    0.2095658 -68.37  0.000706851    1.273    0.215
       111  -9.4985    218.7368    138.5757   7.5856046495e+01   9.2974748345e+00    0.3191185    0.2646923 -38.69   0.00106236    1.235    0.190
       112  -9.8155    179.7393    132.6130   8.2225702066e+01   1.8865548307e+01    0.3621978    0.2485652 -35.45  0.001182663    1.470    0.320
       113  -8.5035    218.2945    132.6632   7.4540566416e+01   1.0402307921e+01     0.144631    0.1163549 -64.86 0.0003645714    1.648    0.393
       114  -9.3858    142.8890    131.0215   9.0255161724e+01   2.7230942556e+01    0.3534525    0.1713561 -52.51  0.001315373    2.233    0.552
       115  -8.8726    212.0973    129.4053   7.4914021254e+01   1.2302332805e+01    0.3119653    0.1834234 -50.28  0.001215042    2.023    0.506
       116 -10.6635    207.6637    146.6840   7.9837013651e+01   1.0212944123e+01    0.5823343    0.3062491 -40.15  0.002475798    1.909    0.476
       117  -8.9608    186.7028    129.3763   7.9959756636e+01   1.7936077512e+01     0.290512    0.1842462 -49.68  0.001242841    1.734    0.423
       118  -9.4278    171.8441    130.0226   8.3314080512e+01   2.1135676592e+01     0.258233    0.1800607 -68.36 0.0009119635    2.045    0.511
       119 -10.0098    165.3449    126.4925   8.3897537729e+01   2.3299859728e+01    0.4812617    0.1727085 -49.98  0.001439547    3.416    0.707
       120  -9.4820    179.9474    125.1977   8.0354676059e+01   2.0267239497e+01    0.3887066     0.296317 -73.78  0.001287419    1.810    0.448
       121  -8.8830    170.2850    124.6503   8.2329189137e+01   2.2563144010e+01    0.2405406    0.1885272 -83.66 0.0007450898    1.751    0.429
       122 -11.0733    220.7154    121.6898   7.1442427996e+01   1.1765161050e+01    0.6658817    0.4853702 -77.95  0.002948209    2.239    0.553
       123  -8.8943    188.4895    123.5359   7.8135840634e+01   1.8646686442e+01    0.2614582    0.2099734 -75.47 0.0007594069    1.651    0.394
       124  -8.9985    203.1508    121.8907   7.4777481244e+01   1.5628211078e+01    0.2359114    0.2107508 -63.35 0.0009792669    1.292    0.226
       125  -9.2729    194.1960    120.9778   7.6322833302e+01   1.7828292596e+01     0.326454     0.199892 -48.71 0.0009669894    1.781    0.439
       126  -8.5354    157.5308    120.4737   8.4180810973e+01   2.6288305260e+01    0.1551411    0.1516677 -75.40 0.0003277057    1.063    0.059
       127  -8.6376    137.2118    131.9803   9.1858023517e+01   2.8203421565e+01     0.206286    0.1217108 -47.79 0.0005837163    1.688    0.408
       128  -9.6450     18.8828    118.9813   1.2080149536e+02   4.8338007507e+01     0.210557    0.1693383  46.53 0.0007118329    1.453    0.312
       129  -9.6742    191.5694    114.7435   7.5258793522e+01   1.9600585492e+01    0.3181247    0.2140047 -51.11  0.001145583    1.644    0.392
       130  -9.2319    194.6573    113.7896   7.4389368110e+01   1.9061334361e+01    0.3990629     0.224231 -51.53  0.001552415    2.111    0.526
       131  -9.9892    190.2111    109.2017   7.4084107477e+01   2.0957418878e+01    0.4968671    0.2912851 -63.72  0.001731745    2.923    0.658
       132  -9.6757    185.9082    115.0681   7.6507369479e+01   2.0855436744e+01    0.3299278     0.201456 -41.88  0.001205001    1.619    0.382
       133  -8.1078    225.3022    115.6993   6.9154917454e+01   1.1783603373e+01    0.1443257    0.1149304 -64.23 0.0003805064    1.587    0.370
       134  -9.0060    173.5634    114.2887   7.8944153812e+01   2.3880051684e+01    0.2911691    0.1485594 -43.57   0.00076733    1.957    0.489
       135  -8.4982    153.3049    115.6388   8.3931244974e+01   2.8244415738e+01    0.1623765    0.1253166 -79.31 0.0007038677    1.731    0.422
       136  -8.3346     70.9637    115.0767   1.0571008433e+02   4.3727254553e+01    0.1654752    0.1439319 -66.00 0.0003868036    1.018    0.018
       137  -8.7519    208.4173    113.2807   7.1593613563e+01   1.5980861091e+01    0.2141872    0.1373205 -44.09 0.0006847007    1.573    0.364
       138  -8.6336    225.6582    249.3375   9.5690749351e+01  -7.5864219406e+00    0.1017746   0.08432826  53.22 0.0007050083    1.766    0.434
       139  -9.0284    168.4147    112.2111   7.9538038311e+01   2.5490172345e+01    0.2283521    0.1452222 -50.45 0.0006765185    1.690    0.408
       140 -10.4122    212.8483    122.3539   7.3046070812e+01   1.3378070282e+01    0.4323459    0.2107584 -34.91  0.001639743    1.967    0.492
       141  -9.3312    177.1551    110.5504   7.7174453965e+01   2.3774781908e+01    0.3392948     0.200352 -53.97   0.00132248    2.036    0.509
       142  -9.4189    217.7907    109.2557   6.8857393110e+01   1.4553908658e+01    0.3406637    0.2344649  89.84  0.001395109    2.488    0.598
       143 -10.0747    183.2263    109.2427   7.5535472383e+01   2.2597154158e+01    0.3908026    0.1996558 -39.28  0.001361114    1.908    0.476
       144 -11.0039    216.2720    156.8167   8.0460079051e+01   6.7291513286e+00    0.5783668     0.353478  29.76  0.002686219    1.735    0.424
       145  -8.3260    201.4224    109.2339   7.1877366859e+01   1.8322118233e+01    0.2261079    0.1376329 -46.02  0.000908247    1.699    0.411
       146  -9.6989    160.7687    108.3861   8.0254682414e+01   2.8037277450e+01    0.3833387    0.2048268 -45.34  0.001483265    1.884    0.469
       147  -7.9618    209.2937    118.6299   7.2783717622e+01   1.4830340910e+01    0.1553124    0.1176972 -64.45 0.0005941441    1.725    0.420
       148  -8.9066    205.8436    105.4222   7.0043356977e+01   1.7974121911e+01    0.3039712    0.2311083 -57.46 0.0009079772    1.518    0.341
       149  -8.6651    168.0258    249.3610   1.0565377321e+02   1.2971039125e+00    0.1656574    0.1152499  40.16 0.0004621765    1.110    0.099
       150  -8.8897    200.9004    103.1306   7.0371635482e+01   1.9546288073e+01    0.2408355    0.2051692 -60.96 0.0007646406    1.314    0.239
       151  -8.5685    195.3567    103.1648   7.1451634225e+01   2.0855654755e+01    0.2251021    0.1365663 -44.73  0.000770913    1.665    0.400
       152  -8.1456    150.3041    103.3268   8.1343658988e+01   3.1487166932e+01    0.1611439    0.1256923   2.35 0.0004249914    1.646    0.393
       153  -9.0613    167.2622    100.8552   7.6709866379e+01   2.8016068253e+01    0.3074461    0.2390919 -64.00  0.001305304    1.532    0.347
       154  -9.1482    160.4684    100.7938   7.8237168259e+01   2.9638376039e+01    0.3394501     0.221921 -59.47  0.001372695    1.924    0.480
       155  -8.5821    215.5244     94.5001   6.5434126038e+01   1.7603476597e+01    0.2526485    0.2317709  75.66 0.0008838755    1.210    0.174
       156  -9.3281    216.5054     99.4962   6.6572094581e+01   1.6523844412e+01    0.3018036    0.2200036 -44.32 0.0007811459    1.354    0.262
       157  -9.7160    213.0346     96.7453   6.6458832166e+01   1.7805042518e+01    0.5418456     0.289686 -57.05  0.001949249    2.738    0.635
       158  -9.7129    210.9949     91.9807   6.5552809165e+01   1.9103318039e+01    0.4367316    0.2993819 -73.86  0.001454075    2.160    0.537
       159 -10.6210    244.0851    152.7133   7.4561308444e+01   2.0073866350e+00     1.053711    0.7113606 -48.48  0.005330031    1.867    0.464
       160  -9.4765    188.9919     98.9213   7.1565336080e+01   2.3159964344e+01    0.3861775    0.1773647 -47.20  0.001354281    2.391    0.582
       161  -9.1548    202.9919     98.4879   6.8740141484e+01   1.9878393413e+01    0.3084316    0.2019478 -50.81 0.0009475196    1.669    0.401
       162 -11.8364    233.7006     92.1986   6.1871421115e+01   1.3805519693e+01     1.371824    0.8495575 -36.48   0.00637905    1.467    0.318
       163  -9.4200    194.8208     97.4094   7.0002854972e+01   2.2030233787e+01    0.3967067    0.2515552 -51.13  0.001392758    1.747    0.428
       164  -8.9614    189.6873     93.6926   6.9987014909e+01   2.3948132204e+01    0.3933572    0.2585297 -81.33  0.001453851    2.687    0.628
       165  -8.8293    183.8346     96.7067   7.2001348713e+01   2.4817888826e+01      0.30839    0.1960854 -59.43  0.001219865    2.060    0.515
       166  -8.7560    153.4997     95.9901   7.8510556165e+01   3.2240239544e+01    0.2331678    0.1322764 -59.89 0.0008105169    2.568    0.611
       167  -8.8143    207.0820     94.9503   6.7042786324e+01   1.9524165232e+01    0.2446584    0.1812833 -66.34 0.0007252887    1.707    0.414
       168  -8.2954    171.2779     95.6512   7.4361929463e+01   2.8062232254e+01    0.1617918    0.1236945 -67.77  0.000700818    1.639    0.390
       169  -9.1316    164.6350     94.1900   7.5417898356e+01   2.9947225149e+01    0.3576275    0.1853413 -47.42  0.001093341    2.048    0.512
       170  -9.1760    177.3968     93.6397   7.2480969965e+01   2.6957089336e+01    0.3169285    0.1222128 -48.46 0.0009523829    3.172    0.685
       171 -10.8607    235.5810    148.1872   7.5024023686e+01   4.3231919491e+00    0.8264932    0.5561115 -72.15  0.003251184    3.561    0.719
       172  -9.0050    157.9089     90.5398   7.5897659142e+01   3.2272800087e+01    0.3373206    0.1993823 -52.93  0.001315546    1.965    0.491
       173  -8.4532    183.5056     90.0062   7.0190801915e+01   2.6132749687e+01    0.2442829    0.1511064 -37.92  0.001019986    1.569    0.363
       174  -8.8677    150.9984     88.2996   7.6864905538e+01   3.4357603293e+01    0.2975376     0.218405 -60.45  0.001277459    1.622    0.383
       175  -9.2130    188.4122     87.1717   6.8412237154e+01   2.5434960518e+01    0.3789831    0.2386933 -50.00 0.0009460837    1.718    0.418
       176  -8.9015    185.4368     83.2308   6.7873499114e+01   2.6873080160e+01    0.3014254    0.1968612 -48.40 0.0008228509    1.606    0.377
       177 -11.5295    243.9238    138.8435   7.1480784664e+01   4.1713072702e+00     1.997492    0.7531068 -47.77  0.006328017    4.235    0.764
       178  -8.7392    212.9102     86.3486   6.3714073006e+01   1.9598076901e+01    0.3750977    0.1823297 -60.36  0.001101512    4.150    0.759
       179  -8.6762    197.5156     87.0228   6.6634537747e+01   2.3219979851e+01     0.244082    0.1474129 -36.59 0.0008724663    1.586    0.369
       180  -9.0700    163.9632     86.7987   7.3421852058e+01   3.1527248098e+01    0.3008789    0.1964303 -49.37  0.001266078    1.632    0.387
       181  -8.6764     30.7684     86.9087   1.1219705504e+02   5.4806515331e+01    0.1741189   0.08481904 -60.92 0.0008673855    1.612    0.379
       182  -9.1554    206.0940     85.1244   6.4560490480e+01   2.1450305530e+01     0.342672    0.2021732 -40.34  0.001079498    1.618    0.382
       183  -8.6370    179.0210     85.0684   6.9691738814e+01   2.8138225337e+01    0.2585567    0.1916817 -68.81  0.001124815    1.731    0.422
       184  -8.8480    170.6226     83.7643   7.1070867205e+01   3.0457084304e+01    0.2285962    0.1419371 -45.19 0.0007291553    1.640    0.390
       185  -8.6879    200.6369     83.1467   6.4986875541e+01   2.3121821764e+01    0.2476784     0.175842 -49.33 0.0007228493    1.456    0.313
       186  -9.1251    159.1493     82.2621   7.3155516246e+01   3.3556954673e+01    0.3686925    0.1913659 -47.12  0.001379107    2.060    0.515
       187  -9.4707    210.3408     79.6150   6.2325670350e+01   2.1337563541e+01    0.6790307    0.2681368 -26.64  0.002209634    2.990    0.666
       188  -7.4174    206.6156     78.7850   6.2729435434e+01   2.2385667304e+01    0.2617179    0.1867016 -69.11 0.0006296497    1.787    0.440
       189  -8.4089    179.9776     80.2247   6.8088631437e+01   2.8767737525e+01    0.2317087    0.1642755 -55.61 0.0005330016    1.596    0.373
       190  -8.5506    150.5868     79.7545   7.4381131786e+01   3.6103992449e+01    0.2332416    0.1434534 -47.17 0.0009533843    1.700    0.412
       191  -9.1394    201.0184     78.1971   6.3538700202e+01   2.3864320410e+01    0.3687268    0.1797237 -48.66  0.001354623    2.285    0.562
       192  -8.3554    189.3081     78.1708   6.5671504344e+01   2.6788974138e+01    0.3297934    0.2050231 -33.80  0.001130497    1.571    0.363
       193  -9.1062    174.7918     78.4385   6.8618823919e+01   3.0382559524e+01    0.3229797     0.191247 -50.15  0.000934332    1.875    0.467
       194  -9.2661    166.7931     78.2348   7.0246314386e+01   3.2415503672e+01    0.3483277    0.2457412 -47.72  0.001281079    1.473    0.321
       195  -8.9886    183.8255     77.7084   6.6591051599e+01   2.8244369222e+01    0.2963204    0.1860791 -56.78  0.001183209    1.949    0.487
       196  -8.9637    130.3595     78.1262   7.8934650217e+01   4.1130903461e+01    0.2315297    0.1371594 -49.11 0.0007586949    1.799    0.444
       197  -8.4570    194.3629     77.2335   6.4462507159e+01   2.5683482108e+01    0.2302106    0.1337376 -43.12 0.0009422898    1.699    0.412
       198  -9.6414    157.8995     76.0097   7.1532920165e+01   3.5020494211e+01    0.3977822    0.2052248 -45.70   0.00150131    2.037    0.509
       199  -8.6904    195.1774     72.7405   6.3031333411e+01   2.6231104374e+01    0.2744415     0.193073 -44.16 0.0007687174    1.404    0.288
       200  -8.4057    184.8720     73.1206   6.5045706910e+01   2.8767378820e+01    0.2161658    0.1838339   6.83 0.0006969069    1.335    0.251
       201  -9.1603    163.1764     72.0752   6.9148317031e+01   3.4417620055e+01    0.3752591    0.1981312 -43.00  0.001428453    1.915    0.478
       202  -8.7607    150.8236     72.7346   7.2138279582e+01   3.7349434919e+01    0.3059095    0.1957906 -59.37  0.001218038    2.066    0.516
       203  -8.0823    200.3222     72.6707   6.2105958231e+01   2.4952553530e+01    0.1615958    0.1157351 -65.49 0.0007049132    1.694    0.410
       204  -8.5468    176.0000     71.9567   6.6435613867e+01   3.1210653205e+01    0.2590534   0.08817103 -33.76 0.0007966073    2.902    0.655
       205  -8.5283    116.3160     72.6612   8.1013042384e+01   4.5265174903e+01    0.1527382    0.1216991 -75.96 0.0007048186    1.702    0.413
       206  -9.1142    203.5458     66.7942   5.9900887905e+01   2.5091098095e+01    0.3387225    0.2251882 -47.01  0.001134349    1.507    0.337
       207  -8.5927    170.8302     70.9631   6.7186603507e+01   3.2688357307e+01    0.2755671     0.171453 -58.57  0.001081605    2.080    0.519
       208  -8.8676    107.2518     71.2221   8.3157616956e+01   4.7413271045e+01    0.2488478    0.1155657 -51.09 0.0008965924    2.502    0.600
       209  -8.8237    206.6410     74.4677   6.1531339550e+01   2.3088544064e+01    0.2682165    0.1643731 -51.35   0.00113328    1.768    0.434
       210  -9.1917    182.4762     68.3513   6.4090195304e+01   3.0174911251e+01    0.3311441    0.2225366 -62.75 0.0008942088    1.886    0.470
       211  -8.6099    122.5631     68.7893   7.8007273543e+01   4.4664120133e+01    0.2163577    0.1399194 -48.22  0.000603615    1.640    0.390
       212  -9.1464    193.7576     67.8820   6.1884274406e+01   2.7384993796e+01    0.2869635    0.2268975 -55.84 0.0009069728    1.336    0.251
       213  -9.6563    250.0245    244.9919   9.0977002654e+01  -1.0631570599e+01    0.2197006     0.137884 -10.89 0.0007014278    1.573    0.364
       214  -9.2475    216.7670     63.0335   5.6784659821e+01   2.2391382304e+01    0.2419606    0.1710756 -63.56 0.0008194037    1.607    0.378
       215  -9.8610    187.4976     68.7348   6.3263412601e+01   2.8834315406e+01    0.3151637     0.206561 -40.07 0.0009641221    1.489    0.329
       216  -8.6809    163.8582     65.0841   6.6821580242e+01   3.5452751701e+01    0.2477702    0.2101672 -59.38  0.001216786    1.289    0.225
       217  -8.6628    197.2293     64.1842   6.0214804046e+01   2.7096166500e+01     0.221215     0.168797 -57.42  0.001050047    1.405    0.288
       218  -8.9512    171.1351     63.9376   6.4964521685e+01   3.3796843891e+01    0.2448993    0.2097736 -65.22 0.0009577231    1.288    0.224
       219  -8.9190    111.6964     64.3501   7.9562076920e+01   4.7832804103e+01    0.2293009    0.1842351 -78.45 0.0009747713    1.755    0.430
       220  -9.5988    192.4493     60.9810   6.0101896905e+01   2.8815715003e+01    0.5747245    0.2458246 -39.02  0.002114993    2.224    0.550
       221  -9.5132    192.6168     55.6543   5.8508842950e+01   2.9590709952e+01    0.5709522    0.2514633 -48.37  0.002019008    2.587    0.613
       222  -8.2673    187.4527     62.9508   6.1562646312e+01   2.9782807684e+01    0.2229921    0.1158019 -53.00 0.0008062781    2.375    0.579
       223  -9.4201    157.9087     61.9497   6.7099271677e+01   3.7477960218e+01    0.3570251    0.2602504 -49.17   0.00110429    1.470    0.320
       224  -8.9099    153.1357     59.7121   6.7422187059e+01   3.9045658224e+01    0.2981714    0.2285845 -57.77 0.0008521776    1.508    0.337
       225  -8.6090    210.9259     71.9916   6.0141453401e+01   2.2431585663e+01    0.2444394    0.1686763 -59.31 0.0006554067    1.656    0.396
       226  -8.0864    213.2725     58.6220   5.6097558518e+01   2.3918271117e+01    0.1593792    0.1043245 -57.84 0.0004886895    1.694    0.410
       227  -8.3490    182.5038     62.4903   6.2328460188e+01   3.1123779828e+01    0.1530539    0.1492649 -60.82 0.0008104497    1.027    0.027
       228  -9.1922    221.3185     59.7026   5.5223854194e+01   2.1778458825e+01    0.2777784    0.1528682 -42.33 0.0008322673    1.703    0.413
       229  -8.7428    197.4656     59.9374   5.8949970956e+01   2.7697999482e+01    0.2302523    0.1461248 -32.23 0.0006443028    1.544    0.352
       230  -8.6042    165.0163     59.9520   6.4958748066e+01   3.6008806114e+01    0.2555107    0.1865734 -66.47  0.001128249    1.726    0.421
       231  -8.6495     25.7850     59.9813   1.0779689709e+02   6.1193163721e+01    0.1702242    0.1313753 -50.66 0.0002730155    1.032    0.031
       232 -12.2001    245.8872     85.9609   5.8512260234e+01   1.2092822885e+01     1.930992    0.8401736 -51.25  0.007023732    2.914    0.657
       233  -8.3846    177.5516    242.0258   1.0300211060e+02   7.5210253718e-01    0.1426933    0.1187666 -36.71 0.0004971595    1.504    0.335
       234  -8.4202    175.6035     55.7991   6.1571914001e+01   3.3952849794e+01    0.2220765    0.1351125 -43.05 0.0009376325    1.667    0.400
       235  -8.8992    157.8858     55.5882   6.5043288050e+01   3.8521567516e+01    0.3127058    0.1892874 -48.96  0.001079973    1.851    0.460
       236  -8.5521    139.7888     55.5826   6.9120956380e+01   4.3011985385e+01    0.2076723    0.1493666  67.00 0.0008058716    1.617    0.382
       237  -8.4568    185.4326     53.2363   5.9012231912e+01   3.1805107806e+01    0.2138298    0.1351445 -43.43 0.0007381905    1.587    0.370
       238  -8.2600    163.3281     53.6421   6.3284309844e+01   3.7442395957e+01    0.1639835    0.1171149 -66.01 0.0007043758    1.785    0.440
       239  -9.5486    152.9281     52.5162   6.5092400251e+01   4.0258082767e+01    0.3251052    0.1820253 -46.73  0.001305838    1.981    0.495
       240  -8.3483    126.4705     52.4773   7.1358393758e+01   4.6676178469e+01    0.1496983    0.1425805   2.12 0.0001262084    1.013    0.013
       241  -8.5030    178.6027     50.7388   5.9453987407e+01   3.3945052037e+01    0.2142581    0.1353925 -41.90 0.0006120177    1.589    0.371
       242  -8.1971    172.7555     50.9827   6.0601095614e+01   3.5422264911e+01    0.1923549    0.1292036 -29.74 0.0004757959    1.508    0.337
       243  -8.2547    194.5316     50.5154   5.6684802560e+01   2.9860164415e+01    0.1493491     0.142921 -66.63 0.0001838186    1.025    0.025
       244  -7.9356    211.2917     49.3098   5.3812084829e+01   2.5768903867e+01    0.1445609    0.1129231  23.93 0.0003723637    1.584    0.369
       245  -8.4913    158.4509     48.9422   6.2743860151e+01   3.9407033260e+01      0.22946    0.1467051 -33.69 0.0008174794    1.564    0.361
       246  -8.7827    240.7099    240.9742   9.1879381943e+01  -8.8982916910e+00    0.2083466    0.1331826  54.18  0.001169573    2.642    0.622
       247  -9.0933     95.4897     47.9317   7.8544046226e+01   5.4055323827e+01    0.2227489    0.1328586 -35.22 0.0007877009    1.587    0.370
       248  -8.5402    181.4871     46.9903   5.7792396034e+01   3.3744344414e+01    0.3208269    0.1670697 -48.01  0.001258871    2.108    0.526
       249  -8.5496    136.3309     46.6512   6.6843400925e+01   4.5269383400e+01    0.1557408    0.1175257 -67.22 0.0007048751    1.767    0.434
       250  -8.4284    174.4314     44.7346   5.8326709530e+01   3.5899898118e+01    0.2085319    0.1487604 -14.21 0.0009550267    1.601    0.375
       251  -9.1616    168.6978     44.5208   5.9302679374e+01   3.7418176825e+01    0.6441284    0.1637142 -30.61  0.001866333    3.804    0.737
       252  -9.0130    168.7012     37.0736   5.6902397985e+01   3.8444056995e+01    0.3181358    0.1846035 -41.99 0.0009858471    1.780    0.438
       253  -8.4569    169.0000     32.9763   5.5526230453e+01   3.8900298369e+01    0.3369759    0.1616505 -26.95 0.0009222995    2.162    0.538
       254  -8.5964    170.0220     29.7729   5.4319705876e+01   3.9035976854e+01    0.2032427    0.1708314  38.48 0.0005396584    1.220    0.181
       255  -8.3949    188.3924     44.2767   5.5819351289e+01   3.2336149494e+01    0.2086825    0.1322624 -41.03 0.0006921993    1.561    0.359
       256  -8.2458      1.2260     44.0063   1.1350913307e+02   6.6066558405e+01    0.1508414   0.07176801 -60.73 0.0003387983    1.571    0.364
       257  -8.8376    243.8087    236.6345   9.0666223458e+01  -8.8877157247e+00    0.1535859   0.09076792  40.49 0.0006505438    1.630    0.386
       258  -8.2997    178.5747     43.5155   5.7219578341e+01   3.4994347195e+01    0.2316482    0.1721168 -58.98  0.001098337    1.494    0.330
       259  -8.6093    132.3913     43.1614   6.6540155576e+01   4.6745509384e+01    0.2169169    0.1314897 -41.34  0.000804095    1.738    0.425
       260  -9.2296    154.3405     41.1931   6.0991786355e+01   4.1583918801e+01    0.4015678   0.08676577 -38.34  0.001092157    4.311    0.768
       261 -10.7624    146.5375     39.0283   6.1867907320e+01   4.3862268986e+01    0.5514513     0.216816 -29.21   0.00198047    2.581    0.613
       262  -9.6804    144.0106     35.5058   6.1168835960e+01   4.4977575697e+01    0.2916449    0.1973515 -46.26  0.001355299    1.643    0.391
       263  -8.2291    192.2320     40.5888   5.4117197075e+01   3.1847960601e+01    0.1571887    0.1012865 -54.17 0.0004726871    1.684    0.406
       264  -8.7963    173.1996     39.9512   5.7031713052e+01   3.6885987511e+01    0.2360833    0.1969868 -61.80 0.0009550966    1.291    0.225
       265  -8.6964    165.1835     40.1914   5.8553694843e+01   3.8935158692e+01    0.2098023    0.1706292 -59.02 0.0006043591    1.355    0.262
       266  -8.2434     22.8070     40.3865   1.0327310742e+02   6.5453458448e+01    0.1445022    0.1025343 -10.08 0.0003236703    1.502    0.334
       267  -8.5348    185.3641     39.2649   5.4790149577e+01   3.3809761803e+01    0.2114207    0.1292554 -39.73 0.0006767922    1.622    0.383
       268  -8.1541    160.5249     39.4984   5.9204579757e+01   4.0233863331e+01    0.1474497    0.1446402  78.40 0.0001221833    1.043    0.041
       269  -8.4895    106.3145     39.6582   7.2103894808e+01   5.3193513042e+01    0.1409338    0.1140461 -65.08  0.000704758    1.706    0.414
       270  -8.9962    140.1711     40.4891   6.3772908072e+01   4.5242022449e+01    0.2557434    0.2019236 -49.14  0.001276572    1.409    0.290
       271  -8.6065    179.4704     37.9760   5.5347838297e+01   3.5517834517e+01    0.2228088    0.1426184 -32.93  0.000831113    1.565    0.361
       272  -8.3583     66.6695     38.6538   8.4778354080e+01   6.0671039572e+01    0.1423039   0.09361332  -7.81 0.0007049909    1.759    0.431
       273  -8.4957    235.8111    230.2292   9.0968448232e+01  -6.9963627848e+00    0.1609932    0.1330394  80.62 0.0009473868    2.766    0.639
       274  -8.0405    194.0000     36.9186   5.2768718617e+01   3.1879252426e+01    0.2273233   0.08274775 -28.12 0.0005269756    2.788    0.641
       275  -8.1837    189.4774     35.9741   5.3161134518e+01   3.3175419365e+01    0.2144673    0.1040392 -50.87  0.000807655    2.375    0.579
       276  -8.5727    122.9815     36.1600   6.6271226214e+01   4.9984968140e+01    0.2354302     0.173906 -85.63  0.001075527    2.075    0.518
       277  -8.7684    201.4935     34.8618   5.1109796958e+01   3.0215882392e+01    0.2862351    0.1268438 -34.86  0.001139225    2.127    0.530
       278  -8.5820    173.3673     35.1042   5.5463586091e+01   3.7487849284e+01    0.2157521    0.1253206 -41.19 0.0006981971    1.757    0.431
       279  -9.3903    149.3992     34.0578   5.9545332101e+01   4.3811187869e+01    0.3001497    0.1441244 -26.43 0.0008043552    2.169    0.539
       280  -8.4060    195.0180     33.2108   5.1533804676e+01   3.2094772006e+01    0.2048809     0.159104   5.32 0.0008420949    1.599    0.375
       281  -9.1431    164.0451     32.9892   5.6399495732e+01   4.0186684610e+01    0.2354396    0.1678436 -58.28 0.0006524897    1.628    0.386
       282  -9.1774    116.7434     32.9640   6.6641052765e+01   5.1866283892e+01    0.2659789    0.1917168 -44.44 0.0009777365    1.574    0.365
       283  -8.3053     26.8106     33.6283   9.9177660401e+01   6.6412803382e+01    0.1348332    0.1097929  23.97 0.0002927527    1.501    0.334
       284  -9.9408    212.0490    151.2860   8.0034171181e+01   8.5119192732e+00    0.3246817    0.2527645 -49.86  0.001374764    1.505    0.335
       285  -8.7633    125.6514     30.4840   6.3466690115e+01   5.0126358457e+01    0.2449232    0.1341427 -26.40  0.000929896    1.858    0.462
       286  -8.7411      1.5643     31.2771   1.0987873089e+02   6.8593301721e+01     0.157497   0.07450514 -49.43 0.0004604769    1.469    0.319
       287  -8.8595    102.5086     28.9953   6.8941415947e+01   5.5542534803e+01    0.2137719    0.1317726 -27.85  0.001030973    1.588    0.370
       288  -8.0011    145.9850    229.9988   1.0715548193e+02   7.6500560037e+00     0.145826    0.1172817  46.02            0    1.012    0.012
       289  -9.7263    157.2656     27.0669   5.5640710686e+01   4.2675626058e+01    0.3723647    0.2046644 -61.87  0.001405974    2.772    0.639
       290  -9.9978    130.9543     27.4645   6.1097142423e+01   4.9237915727e+01    0.2851751     0.192814 -43.14  0.001254118    1.651    0.394
       291  -8.9560     42.1586     27.7938   9.0115899109e+01   6.5863302624e+01    0.1718183    0.1490969 -23.56 0.0004182607    1.178    0.151
       292  -8.7502    229.6237    228.3785   9.1726302608e+01  -5.8348216800e+00    0.1575844    0.1373253  51.11  0.001047532    1.636    0.389
       293  -9.7985    221.1112     29.6107   4.7212253059e+01   2.5936434998e+01    0.2510543     0.171907 -47.12  0.001007787    1.376    0.273
       294  -9.5035      3.3694     23.7613   1.0659454633e+02   6.9930437292e+01    0.1692938   0.07081841 -47.63 0.0009449684    1.653    0.395
       295  -8.6275    139.5853     29.7581   6.0054242766e+01   4.6830486977e+01    0.2083437      0.13179 -37.44 0.0009567414    1.653    0.395
       296  -9.2265    150.6198     24.7275   5.6061276345e+01   4.4658928212e+01    0.2581766    0.1428913 -19.53 0.0009568957    1.994    0.498
       297  -9.8584    144.9458     24.5744   5.7096504462e+01   4.6118040541e+01    0.3018407    0.1706601 -43.77  0.001248655    1.982    0.495
       298 -10.2598    118.1878     24.3817   6.2913785365e+01   5.2647792064e+01    0.2919487    0.2207105 -11.36 0.0009801742    1.349    0.258
       299  -8.2870    127.3071     24.3086   6.0728601037e+01   5.0503263390e+01    0.1509251     0.100877  26.44 0.0003067151    1.613    0.380
       300 -10.4263    208.3334     22.0958   4.6659515725e+01   3.0033884116e+01     0.337212    0.2320456  21.10  0.001610061    2.026    0.506
       301  -8.1874    206.5298    226.5136   9.5497911232e+01  -1.9214460551e+00     0.122893    0.1000105  28.15 0.0002866862    1.056    0.053
       302  -8.8773    229.2232    222.6811   9.0845242088e+01  -5.0914887062e+00    0.2192882    0.1317172  29.02  0.001280711    1.393    0.282
       303  -7.5558    178.6971     22.3060   5.0600392261e+01   3.7656976829e+01    0.1483233    0.1045343 -64.36 0.0003177452    1.599    0.375
       304  -9.2384    240.0354    221.6634   8.8804459170e+01  -6.6518250725e+00    0.2286767    0.1851893  75.21  0.001316154    2.762    0.638
       305  -9.0395     84.8819     21.4299   7.1068521124e+01   6.0118425359e+01     0.222018    0.1682024 -29.49 0.0007153677    1.333    0.250
       306  -8.6076    160.6579     20.8236   5.2949238273e+01   4.2521044893e+01    0.2057292    0.1252983 -35.55 0.0009461453    1.695    0.410
       307  -9.2951    127.3483     19.1918   5.8759802773e+01   5.1083788976e+01    0.1973794    0.1234443 -33.71 0.0009398937    1.681    0.405
       308  -8.2677     74.6457     19.7018   7.3717662152e+01   6.2242814792e+01    0.1397091   0.08957711  12.32            0    1.697    0.411
       309 -10.0415    215.3417    149.1656   7.8929856284e+01   8.1995714525e+00    0.4400108    0.3071657  71.22   0.00195701    2.331    0.571
       310  -9.3783    140.3154     21.6963   5.6978498373e+01   4.7614129614e+01    0.3326309    0.1604709 -40.07    0.0011885    2.258    0.557
       311  -8.9540    186.0000    216.0077   9.7592220745e+01   2.9957360648e+00    0.1857284   0.07343924 -41.74 0.0008044117    2.956    0.662
       312  -8.7424      2.6799     15.8059   1.0402573801e+02   7.1415463959e+01    0.1793171   0.09311136 -38.65 0.0005034554    1.398    0.285
       313  -8.5916    161.8240     15.0524   5.0839025710e+01   4.2838048093e+01    0.2403983    0.1402762 -52.58  0.001057484    2.027    0.507
       314  -8.5993    239.6944    215.2969   8.7754923170e+01  -5.8415930322e+00    0.2137562    0.1415307  64.76 0.0009492668    3.977    0.749
       315  -8.7569     23.5109     15.1327   9.3134157168e+01   6.9949137600e+01    0.1687449    0.1317439  -8.05  0.000779837    1.167    0.143
       316  -8.0650     86.4970     14.4692   6.7440167489e+01   6.0660705514e+01    0.1347407     0.114218  12.05 7.276816e-05    1.005    0.005
       317  -9.2245    213.0551     12.8733   4.3644254724e+01   2.9877726127e+01    0.2216111     0.163474 -59.54 0.0007346902    1.307    0.235
       318  -9.7179     29.9272     12.9636   8.8992755243e+01   6.9641590860e+01    0.1794818    0.1351601 -17.52 0.0003683463    1.019    0.019
       319  -9.3710    247.9865    218.1911   8.6851014416e+01  -7.4582798692e+00    0.2748595    0.2275253 -53.05  0.001766291    2.160    0.537
       320  -9.2991    240.9865    209.2823   8.6458385735e+01  -5.3086038525e+00    0.2823811    0.2401416 -78.05  0.001679106    2.447    0.591
       321  -8.0012     79.7003     11.6932   6.8307292445e+01   6.2300826265e+01    0.1363106   0.08731548  16.03  0.000308553    1.594    0.373
       322  -8.9226    246.8832    207.4069   8.5106475062e+01  -6.0065518307e+00    0.2016357    0.1650333 -50.73  0.001257467    2.003    0.501
       323  -8.8985    187.9856    204.4857   9.5300901894e+01   4.3886436336e+00    0.1825693    0.1068715  59.77 0.0008100504    2.511    0.602
       324  -9.5649    172.9647    203.7646   9.8100227765e+01   7.2035186795e+00    0.2133558    0.1730739 -64.50 0.0007025061    1.599    0.375
       325  -9.2347    250.0552    201.1117   8.3402340616e+01  -5.7280428923e+00     0.253834    0.1657919 -34.61  0.001112188    1.708    0.414
       326  -9.1171    243.7968    202.0157   8.4640217006e+01  -4.8457870148e+00    0.2891122     0.190067  51.01  0.001407302    2.034    0.508
       327  -7.8429    231.3427    199.6565   8.6379740909e+01  -2.4907014025e+00    0.1143291    0.1048394  84.25  0.000704725    1.785    0.440
       328  -9.0362    201.8544    197.6237   9.1432854762e+01   2.9483997178e+00    0.1913725    0.1137369  49.35 0.0007943854    1.770    0.435
       329  -9.4383    247.0465    194.0264   8.2570589305e+01  -4.3454261515e+00     0.285328    0.2438236  67.16  0.001740149    1.993    0.498
       330  -9.0609    224.9101    193.9195   8.6454664919e+01  -5.9965941138e-01    0.1861459    0.1682158  84.63  0.001133048    1.755    0.430
       331  -9.2862    185.4246    192.8084   9.3740956842e+01   6.7185110529e+00    0.1771181     0.126526 -22.55  0.000486116    1.625    0.385
       332  -9.3752    168.0000    192.9627   9.7255216328e+01   9.9340992782e+00     0.203518   0.07864468 -45.16 0.0006805966    2.894    0.655
       333  -9.1509    206.0094    131.2372   7.6522796444e+01   1.3305846824e+01    0.2319157     0.206718 -75.09  0.001177712    1.396    0.284
       334  -8.4773    215.2366    192.4087   8.7944817489e+01   1.3254074835e+00    0.1851375    0.1177402  48.54 0.0009498494    1.698    0.411
       335  -8.7760    172.6758    191.3382   9.6023575256e+01   9.3440136172e+00    0.1349522    0.1064001  76.17 0.0007051153    1.721    0.419
       336  -9.1198    230.8977    188.4406   8.4318641008e+01  -8.6777292887e-01    0.2291582    0.2159297 -44.53  0.001475701    1.455    0.313
       337  -8.6093    244.4682    188.5235   8.1946536454e+01  -3.1940450739e+00    0.2031879    0.1186267  50.27 0.0008917316    2.165    0.538
       338  -9.4982    237.3019    187.8018   8.3055125138e+01  -1.8843317596e+00    0.2565894    0.2255539 -78.93  0.001523481    1.970    0.492
       339  -8.8966    221.5245    188.0000   8.5934900007e+01   8.4983259561e-01    0.2897994   0.06928986  43.66 0.0009326252    3.918    0.745
       340  -9.0875    215.3266    187.0552   8.6900096892e+01   2.1076754966e+00    0.2146215    0.1886506  64.95 0.0009324787    1.558    0.358
       341  -9.1027    166.3047    187.6194   9.6659379482e+01   1.1193002766e+01    0.1380853    0.1075055  81.84 0.0007024431    1.782    0.439
       342  -9.1408    249.6670    185.2467   8.0410334890e+01  -3.6195853773e+00    0.2812064    0.1845336 -39.63   0.00141087    1.787    0.441
       343  -9.5201     77.6954    185.7258   1.1514579276e+02   2.6648475752e+01    0.2274798    0.1802925  71.19  0.000504892    1.094    0.086
       344  -9.7087    224.5520    184.9438   8.4781380602e+01   7.5670935148e-01    0.2395065    0.1802716  52.33 0.0007780101    1.629    0.386
       345  -9.7155    197.7849    184.1061   8.9681051158e+01   5.8248477652e+00    0.2905656    0.2126462 -81.01  0.001326977    2.706    0.630
       346 -10.8313    200.8746    126.7797   7.6438424445e+01   1.5248117538e+01    0.6293797    0.4258569  66.26  0.002205253    1.971    0.493
