#   1 NUMBER                 Running object number                                     
#   2 MAG_AUTO               Kron-like elliptical aperture magnitude                    [mag]
#   3 X_IMAGE                Object position along x                                    [pixel]
#   4 Y_IMAGE                Object position along y                                    [pixel]
#   5 X_WORLD                Barycenter position along world x axis                     [deg]
#   6 Y_WORLD                Barycenter position along world y axis                     [deg]
#   7 A_WORLD                Profile RMS along major axis (world units)                 [deg]
#   8 B_WORLD                Profile RMS along minor axis (world units)                 [deg]
#   9 THETA_WORLD            Position angle (CCW/world-x)                               [deg]
#  10 FWHM_WORLD             FWHM assuming a gaussian core                              [deg]
#  11 ELONGATION             A_IMAGE/B_IMAGE                                           
#  12 ELLIPTICITY            1 - B_IMAGE/A_IMAGE                                       
         1 -11.0881     59.0971     49.8514   1.0119691391e+02   5.9459882452e+01     1.581831    0.6118878 -49.28  0.006629446    2.363    0.577
         2 -12.9996     84.6347     97.3224   1.0656879270e+02   4.5708076727e+01     3.522868     2.060402 -25.38   0.01406071    2.898    0.655
         3 -11.8413     53.5767     36.6421   9.8481061939e+01   6.2671443487e+01     1.408168    0.6611927  36.45  0.006817404    2.383    0.580
         4 -12.7017    103.0599     81.2799   9.6918003543e+01   4.5981466723e+01     1.949939     1.359102 -71.25  0.008877653    1.985    0.496
         5 -11.6407     87.7381     38.7578   8.7145229447e+01   5.6844007667e+01     1.842348    0.6612241 -29.66  0.006315617    3.345    0.701
         6 -10.7468     89.6676     21.6583   7.9466039134e+01   5.9026988163e+01    0.4603319    0.2774192  -0.38  0.001511948    2.128    0.530
         7 -11.3801     67.1349     21.2333   8.6844654854e+01   6.3181083475e+01    0.6328552    0.4440264  24.27  0.003624235    1.442    0.307
         8 -10.8838     73.3780     17.1938   8.2781630079e+01   6.2683514391e+01    0.7653924    0.3109498  44.26  0.003066019    2.474    0.596
         9 -12.3324     77.6026     31.1329   8.7423017526e+01   5.9898165942e+01     1.449252    0.8103719 -27.13   0.00630019    1.751    0.429
        10 -10.2628     92.5938     15.7585   7.6008421789e+01   5.9191475365e+01    0.2517163    0.2088671   7.51 0.0002090364    1.104    0.094
        11 -10.2784    167.2142     25.5952   6.3320279718e+01   4.0194017598e+01     0.814549     0.637119  13.24  0.003320447    1.465    0.317
        12 -11.0785    148.6677     25.5539   6.6605646492e+01   4.4972414946e+01     1.075569    0.5959501  39.97   0.00289984    1.896    0.473
        13 -10.1668    141.8630     11.2771   6.2727107308e+01   4.8268426321e+01    0.2339544    0.2264289  22.87 0.0003952794    1.056    0.053
        14 -10.1490    169.9848     13.6753   5.8978807936e+01   4.0787977205e+01    0.4924707    0.3050198  82.13  0.000296677    1.775    0.437
        15 -12.2899    150.1018     15.3170   6.2717015143e+01   4.5762483957e+01     1.560616     1.139131  72.70  0.006621782    1.405    0.288
        16  -9.3164    156.1262     11.1049   6.0234110129e+01   4.4645350146e+01    0.2680269    0.2277231 -21.23 0.0004570267    1.244    0.196
        17  -9.6008    168.0642      8.0448   5.7413558001e+01   4.1846305264e+01    0.3116263    0.2202061 -31.72  0.001604214    1.472    0.321
        18 -11.5742    163.8923      5.0214   5.7001900853e+01   4.3212882568e+01    0.9641424    0.4600712 -22.88   0.00360334    2.200    0.545
        19 -12.4264     65.8475     30.7837   9.1456620832e+01   6.1903461224e+01    0.9497575    0.4946498  35.70  0.004670298    2.056    0.514
        20 -10.6506    213.7207     24.0652   5.6434939593e+01   2.8354631340e+01    0.6170931    0.4314257  55.10  0.001293962    1.457    0.314
        21 -10.1850    123.1356      2.9894   6.3112454222e+01   5.3667355179e+01     0.725531    0.2097745  48.18  0.002594529    2.907    0.656
        22 -11.8576    133.4440      4.1101   6.1576690137e+01   5.1050663794e+01     1.565077    0.2979946  47.83  0.004569424    4.301    0.767
        23 -11.9726    113.0120     22.4248   7.3278252096e+01   5.3965792769e+01     1.328989    0.8117017  27.30   0.00616589    1.833    0.455
        24 -11.3481    115.5209     14.6603   6.9508855495e+01   5.4304960248e+01    0.8352703    0.4547516  76.89  0.001766827    2.944    0.660
        25 -11.5828    130.1542     19.9904   6.8317650410e+01   5.0231616656e+01     1.266478    0.5021055  55.70  0.003435561    2.282    0.562
        26 -11.3063    128.5497     14.3351   6.6480948759e+01   5.1249487847e+01     1.011271    0.4049132  51.97   0.00404863    2.193    0.544
        27 -10.5797    101.7867     12.4492   7.2006568943e+01   5.7634161387e+01    0.7284337    0.3767645  16.18  0.002503137    2.836    0.647
        28 -13.2032     99.7192      5.7210   6.9594234146e+01   5.8794120388e+01    0.4780595    0.3902656  20.14 0.0004873341    1.111    0.100
        29 -11.9387     93.4409      7.8190   7.2213450829e+01   5.9920405756e+01    0.7420581     0.396651  38.44  0.003548788    1.776    0.437
        30 -11.4166    115.4826      7.7523   6.6677449147e+01   5.5035426832e+01    0.5561678    0.2981299  56.29  0.002419062    1.727    0.421
        31 -11.1128    109.8565      7.2293   6.7752494464e+01   5.6384250641e+01    0.3656649    0.2946706 -71.78 0.0004772165    1.685    0.406
        32  -9.4336     54.5448     18.4055   9.0379816622e+01   6.5559092789e+01    0.4998444    0.2909375   8.04  0.001856383    2.347    0.574
        33 -11.2552     41.5206     14.9960   9.4260124389e+01   6.7854939594e+01    0.6645534    0.5279171  40.59  0.004179397    1.648    0.393
        34 -10.7347     68.3481      4.4819   7.8423822459e+01   6.5160447076e+01     0.674275    0.3565329  32.72  0.003028466    1.877    0.467
        35 -11.6719     22.3799      4.7423   9.8319047153e+01   7.1602364646e+01     1.248065    0.4993057  33.85  0.006511658    2.874    0.652
        36 -12.4074     56.5333      3.5559   8.2294708990e+01   6.7270261311e+01    0.5358021    0.4701981  32.57  0.001193358    1.341    0.254
        37  -8.0019     30.6584     13.4829   9.8499539562e+01   6.9370618462e+01    0.7754822    0.2794969 -30.86  0.003240734    3.119    0.679
        38 -12.0513     19.1990     13.3025   1.0398038553e+02   7.0529900475e+01     0.605965    0.3675719  27.05  0.003268654    1.917    0.478
        39 -11.6007     13.3512      8.7404   1.0492207695e+02   7.1788579876e+01    0.2879809    0.2335446  11.25 0.0006645593    1.405    0.288
        40 -12.0038     10.7577     22.7168   1.1189441030e+02   6.9521218632e+01    0.9753106    0.5239522 -60.95  0.005644263    1.886    0.470
        41 -12.4998      3.0725     17.5801   1.1383099257e+02   7.0953216736e+01    0.4057635    0.1765097 -43.58 0.0004656135    1.665    0.400
        42 -13.0031      3.9740      9.4438   1.1020731672e+02   7.2350893618e+01    0.6464469    0.2631736 -50.45 0.0004458178    1.875    0.467
        43 -10.1796    184.5635     14.3412   5.7176182732e+01   3.6914948175e+01    0.7437271    0.3895344  54.10  0.003300009    1.806    0.446
        44 -10.1086    185.9718     19.3682   5.8530090325e+01   3.6009643647e+01    0.6154202    0.3239964 -44.00  0.002211435    1.955    0.488
        45 -10.1922    177.2415     21.4435   6.0411218910e+01   3.8057288348e+01    0.7525703    0.3941893  -2.02  0.002822041    2.946    0.661
        46 -10.9455    177.9813     29.1224   6.2730219873e+01   3.6965582879e+01    0.7518158     0.587338  18.21  0.003807941    1.486    0.327
        47  -9.6000    249.7017      7.3949   4.8785144935e+01   2.1536762038e+01    0.3311147    0.1722758 -55.47   0.00163755    1.828    0.453
        48 -10.1665    231.6783     16.5195   5.2556013635e+01   2.4779507361e+01    0.5515752     0.314616 -29.60  0.002723165    1.690    0.408
        49 -10.9910    243.6570      9.9172   4.9862326625e+01   2.2658754422e+01     1.012201    0.5559059  -1.52  0.004316732    3.073    0.675
        50 -10.5786    239.1889     16.7704   5.1928656873e+01   2.2965714218e+01     1.010076    0.2293823 -38.73  0.003120218    3.292    0.696
        51  -9.1586    233.5038      7.4427   5.0092116010e+01   2.5302554038e+01    0.2271574    0.1777923  80.03 0.0005114854    1.243    0.196
        52 -11.1032    202.3829     19.2436   5.6406067099e+01   3.1777550574e+01    0.8440538    0.3439964  63.46   0.00337618    2.260    0.558
        53  -9.6734    198.3461     16.1723   5.6001008872e+01   3.3148421609e+01    0.5187489    0.2384499  54.36  0.001411101    2.093    0.522
        54 -10.6280    212.0513     14.3547   5.3943371177e+01   2.9849383048e+01     0.551568    0.2854511 -27.68  0.001448741    1.921    0.480
        55  -9.6289    217.9010     13.4777   5.3100469042e+01   2.8478350005e+01    0.4225717    0.2267147  79.51  0.001449037    1.927    0.481
        56  -9.9084    222.3034     11.2393   5.2073762450e+01   2.7624604050e+01    0.4868045    0.2753969 -65.49  0.001668824    1.941    0.485
        57  -9.5928    226.7075      8.4149   5.0930786941e+01   2.6839603222e+01    0.2899829    0.2294368  66.38  0.001008862    1.273    0.215
        58 -11.8570     28.4084     26.6995   1.0517087061e+02   6.7343659610e+01     1.122151    0.5447426 -33.64  0.005923308    1.885    0.470
        59  -8.7443    192.5347     12.2691   5.5551439135e+01   3.5058095077e+01    0.1743957    0.1375434   0.37 0.0005803188    1.492    0.330
        60  -9.3475    174.2512      8.6090   5.6747087959e+01   4.0179925875e+01    0.4351034    0.2320942 -31.86  0.001940599    1.891    0.471
        61 -10.5737    181.0192      4.4533   5.4578446769e+01   3.8809757684e+01      1.02115    0.5284803 -70.46  0.004089415    2.621    0.618
        62 -10.2247    175.9111      4.0534   5.5085610542e+01   4.0175306551e+01    0.5179576    0.3822459 -88.07  0.002646203    1.405    0.288
        63 -10.0370    211.8207      3.7988   5.1082229300e+01   3.0976720837e+01    0.3731659    0.2513428  21.69 0.0007907934    2.010    0.503
        64 -10.7838    207.7259      2.8937   5.1227012938e+01   3.2093345395e+01    0.4458394    0.3381877 -32.97  0.001784857    1.337    0.252
        65  -9.8915    200.5317      1.5232   5.1554133299e+01   3.4047242808e+01    0.3334133    0.1950546  75.68  0.001105548    1.618    0.382
        66  -9.9624    204.4194      6.7022   5.2616856873e+01   3.2563766317e+01    0.2548245    0.2052543 -13.64 0.0005776965    1.397    0.284
        67 -11.6520    200.5401      6.7499   5.3038092846e+01   3.3548762962e+01     1.027936    0.4854936  75.14  0.003959449    2.081    0.520
        68 -10.7499     77.4392      9.4231   7.7777571911e+01   6.2925837063e+01    0.5698637    0.3304141  -3.49 0.0006900095    1.995    0.499
        69  -9.6202     77.4488      4.5029   7.5406183677e+01   6.3479668056e+01     0.388965    0.2074587  21.77  0.001819176    2.195    0.544
        70 -10.2116    233.2104     10.9221   5.0993076722e+01   2.5011813748e+01    0.3769995    0.2741363 -62.09  0.001064788    1.305    0.234
        71  -9.0551    217.4744      5.1726   5.0922063467e+01   2.9433008096e+01    0.2720843    0.2009533  37.37  0.001258207    1.617    0.382
        72  -9.9671    223.2737      2.1584   4.9616488207e+01   2.8299692001e+01    0.4412881    0.2271198  73.74  0.001775078    1.855    0.461
        73 -10.0740     43.1074      3.2328   8.7670397308e+01   6.9324127312e+01    0.4281442    0.2824988   0.26  0.002607678    1.487    0.327
        74 -11.2775     50.4842     10.1256   8.8068688318e+01   6.7346851774e+01     0.384387    0.3271069   1.91  0.001032592    1.115    0.103
        75  -9.1070    230.6576      2.0999   4.8986759602e+01   2.6518202963e+01    0.2246933    0.1640216  49.79 0.0006286202    1.544    0.352
        76  -9.0252     36.1655      2.0288   9.0160983218e+01   7.0411295641e+01    0.2738126    0.1314276  14.64  0.001093379    3.269    0.694
        77 -10.7103    245.6095     19.1066   5.1934381663e+01   2.1212249788e+01    0.5150088    0.3554174  72.32  0.002733473    1.479    0.324
        78  -8.7052    113.4693      1.5260   6.4525069619e+01   5.6084968664e+01    0.1374098    0.1183859  31.48 0.0003496793    1.034    0.033
        79 -10.5662     72.6085    129.2551   1.1645010404e+02   4.0273279321e+01    0.3112818    0.2850141 -42.80  0.001271451    1.264    0.209
        80  -9.1495     40.8284    122.4952   1.2365434089e+02   4.5632015194e+01    0.1980693    0.1441499  86.29  0.000606281    1.313    0.238
        81  -9.3491     92.2979    120.1105   1.0957109646e+02   3.9380574224e+01    0.3715294    0.1861687 -38.19  0.001452131    2.697    0.629
        82  -9.2616     59.1538    120.2305   1.1843828243e+02   4.4081025284e+01    0.2311668    0.1972799 -67.26 0.0008860287    1.068    0.064
        83  -9.3130     51.5582    119.1053   1.2028966096e+02   4.5238863394e+01    0.3141151    0.1933195  81.82 0.0009402254    1.967    0.492
        84  -8.8209    106.3104    119.3303   1.0574136690e+02   3.7170309538e+01    0.2310862    0.2137022  42.41  0.001122489    1.143    0.125
        85  -9.5692    104.2466    116.3903   1.0562366251e+02   3.8184250812e+01    0.4081655    0.2282385  36.20  0.001798244    1.982    0.495
        86  -9.2547     42.3339    117.7285   1.2255302752e+02   4.6557324709e+01    0.2028111    0.1563512  60.87 0.0004586131    1.365    0.267
        87  -9.1405     39.0090    115.9598   1.2318283520e+02   4.7297203483e+01    0.1934549    0.1575778 -87.42 0.0008999616    1.107    0.097
        88  -9.5348     97.9668    114.6376   1.0689164014e+02   3.9661372276e+01    0.3084311    0.2775528  16.34  0.001494295    1.306    0.234
        89  -9.5069     91.8760    113.5774   1.0829183291e+02   4.0912820943e+01     0.424348    0.2404351 -64.37   0.00136442    1.899    0.473
        90  -9.4119     82.5226    114.4043   1.1100550628e+02   4.2199091449e+01    0.3923953    0.2668379  25.54  0.001977434    1.857    0.461
        91  -9.5828    133.2141    111.9294   9.7175011126e+01   3.3567155551e+01    0.4406147    0.2917777 -43.85  0.002031706    1.503    0.335
        92  -9.8527    133.5424    103.2793   9.4875325681e+01   3.5291966158e+01    0.5011039    0.2545215 -42.12  0.001884645    1.958    0.489
        93 -11.8977     38.5849     87.7802   1.1842586889e+02   5.3726784011e+01     1.883095    0.6281318 -47.20  0.007661966    2.846    0.649
        94 -11.0903     37.6260    109.8963   1.2263300707e+02   4.8810596524e+01    0.2929639    0.2154844  62.78 7.843481e-05    1.475    0.322
        95  -9.0467    104.4762    109.2919   1.0392385466e+02   3.9707018871e+01    0.2435429    0.2360849  20.11  0.000760621    1.127    0.112
        96  -8.2749    120.5125    109.4555   9.9755678989e+01   3.6655459362e+01    0.1452427    0.1422152 -37.81 0.0001855098    1.047    0.045
        97  -9.4579     53.5210    104.9481   1.1726440437e+02   4.8241503680e+01     0.300209     0.119572 -68.05  0.001203061    2.608    0.617
        98  -8.4130     59.5196    113.4619   1.1714794750e+02   4.5579347662e+01    0.1309897    0.1139438 -72.85 0.0002702379    1.002    0.002
        99  -9.2024    105.8597    102.6566   1.0193161664e+02   4.0907612211e+01    0.2337212    0.1884359 -38.97 0.0005457596    1.256    0.204
       100  -8.8687    141.0677    101.6733   9.2598549032e+01   3.4000827516e+01    0.2144219    0.1982223  35.24 0.0005123693    1.103    0.093
       101  -9.6366    116.5458     99.7839   9.8324229610e+01   3.9496598757e+01     0.407662    0.2756111  -7.04  0.001635574    2.602    0.616
       102  -9.6177     64.3727     98.1255   1.1270245793e+02   4.8452799110e+01    0.3360449    0.2469434 -47.02 0.0007870244    1.291    0.226
       103  -9.3075    159.2677     96.8584   8.7031174315e+01   3.0836487475e+01    0.3368693     0.265594  58.70  0.001497957    1.340    0.254
       104  99.0000      7.1224     49.5508   1.2126433058e+02   6.4433559943e+01    0.5830947    0.3796868 -38.00    0.0032775    1.413    0.292
       105  -9.9230    114.5177     94.4929   9.7453189583e+01   4.1014550150e+01    0.4206549    0.2512227 -54.66  0.001761873    1.766    0.434
       106  -8.9318    188.2292     94.1414   8.0212540340e+01   2.4470277763e+01    0.2282006    0.2042928   5.28  0.000561403    1.176    0.149
       107  -9.8835    107.8275    248.1225   1.2390839446e+02   1.2413732485e+01    0.2937549   0.09558765  56.38  0.001212666    3.758    0.734
       108 -12.0808    117.8569     66.4887   8.8164310335e+01   4.5936276176e+01     1.619016    0.9840063  47.39   0.00727424    1.696    0.410
       109 -11.6120    128.4012     69.1893   8.6244104380e+01   4.3137367589e+01     1.930017    0.5530567  44.84  0.004841964    3.639    0.725
       110 -11.4403    100.4462     64.8221   9.2576511242e+01   4.9774407113e+01     1.313695    0.6004858 -53.37  0.002846486    2.804    0.643
       111 -11.6661    102.4092     53.8975   8.8266265277e+01   5.1422008100e+01     1.546549    0.4776936  38.56  0.004643897    4.231    0.764
       112 -10.5554    115.7048     50.0504   8.3122500012e+01   4.9314474104e+01    0.6378346    0.4430603  12.96  0.002922836    1.850    0.460
       113 -10.3495    118.7886     41.8097   7.9297833504e+01   4.9955770706e+01    0.5468401    0.3158901 -39.74   0.00154764    1.758    0.431
       114 -10.7928     78.9204     60.7580   9.7979794348e+01   5.4375376727e+01    0.6828138    0.5350721 -52.13  0.003804346    1.289    0.224
       115 -10.5039     71.4369     52.9938   9.7889569608e+01   5.7069763825e+01    0.8941988    0.6635188 -21.30  0.004947059    1.389    0.280
       116  -7.9846      3.6800    245.6643   1.4012390340e+02   2.5173471038e+01    0.0769591   0.06564268 -77.90 0.0007049653    1.704    0.413
       117  -9.9359    142.0974    243.3246   1.1762086901e+02   8.0287912877e+00    0.2876536    0.1625167  27.19  0.001580778    2.287    0.563
       118  -8.8051    188.6524    243.6898   1.0973092108e+02   7.5107215610e-01    0.1163487   0.07383608  20.64 0.0007045103    1.710    0.415
       119  -8.3216     41.0117    236.6883   1.3403065373e+02   2.2788098791e+01    0.1308047   0.08413479  16.06  0.000701476    4.091    0.756
       120  -8.5514     50.2996    235.6815   1.3246924538e+02   2.1887418268e+01    0.1102495   0.05649173  65.69 0.0004145888    1.618    0.382
       121 -11.4721     86.4258     51.4814   9.2344319027e+01   5.4870884933e+01    0.8558592    0.4390831  25.85  0.002171261    2.865    0.651
       122  -9.1212    121.5280     91.4903   9.4753780663e+01   4.0231933713e+01    0.1485574    0.1434746 -30.57 0.0001085363    1.023    0.023
       123  -8.3148    194.5337     89.9588   7.7873537420e+01   2.3673342911e+01    0.2058376    0.1335631  -2.34 0.0008045983    2.286    0.563
       124  -8.4677    187.3479     89.7666   7.9188024462e+01   2.5438493086e+01    0.2030319    0.1427811 -24.69 0.0004321998    1.495    0.331
       125  -9.4728    152.9470     87.4768   8.5824868245e+01   3.4086437238e+01    0.3173254     0.236809  34.89  0.000876462    1.436    0.304
       126  -9.0744    146.0269     86.9846   8.7303094073e+01   3.5783011301e+01    0.2392112    0.2259056   4.93 0.0005994768    1.090    0.083
       127 -10.6338    119.0178     86.1230   9.3894419702e+01   4.1847404339e+01    0.6062542    0.3322337  46.04  0.002183012    1.889    0.470
       128  -9.2685    123.6894     80.4090   9.0963547787e+01   4.2017767382e+01    0.3955519    0.2404231  29.06  0.001460097    2.120    0.528
       129  -8.9767     12.5750    232.0378   1.3826821709e+02   2.6535259933e+01    0.1985262   0.08746554  55.99   0.00136324    1.628    0.386
       130  -9.8560     75.4216     84.6924   1.0613724881e+02   4.9907226018e+01    0.3956797    0.3275476 -17.27  0.002245115    1.398    0.285
       131  -9.3765    140.7639     84.4962   8.7844189785e+01   3.7461676781e+01    0.2887358    0.2493353 -63.11  0.001053731    1.277    0.217
       132  -8.5543    186.5266     84.5029   7.7884037642e+01   2.6538475787e+01    0.1523732     0.147871 -50.85 3.736883e-05    1.058    0.055
       133  -9.8711    217.9057     78.7666   7.0826975914e+01   1.9868326001e+01    0.6688941    0.3016068 -18.01  0.001879075    3.371    0.703
       134  -9.8677    159.7311     81.3429   8.2503542614e+01   3.3611191981e+01    0.3580104    0.2734878  61.97  0.001691489    1.411    0.291
       135  -9.9811    134.6765     80.7013   8.8221325612e+01   3.9562773107e+01    0.6210102     0.272758 -44.11   0.00228255    2.271    0.560
       136 -10.2565    138.4026     76.9291   8.6150618841e+01   3.9437490527e+01    0.6434367    0.3972919  67.30  0.002587559    2.213    0.548
       137  -9.9340    144.7352     76.5033   8.4488864003e+01   3.8053052408e+01    0.3854603    0.2227409 -25.11  0.001525941    2.061    0.515
       138  -8.6145    115.0583     77.5260   9.2417545205e+01   4.4389805851e+01    0.2242173    0.1471866  45.96  0.001029256    1.584    0.369
       139  -8.8649     36.4958     76.1580   1.1664748332e+02   5.6515313886e+01    0.3342947    0.1143336 -48.28  0.001418105    2.484    0.597
       140  -9.4181    247.2261     75.0168   6.5635878265e+01   1.3703883066e+01    0.2051588    0.1528346 -69.62  0.001055854    1.650    0.394
       141  -9.5491    214.8556     72.2277   6.9553164117e+01   2.1593445066e+01    0.4995683    0.2851735  -7.41  0.001868649    2.732    0.634
       142  -9.2181    191.6986     72.8604   7.3620883685e+01   2.7187466101e+01    0.2943072    0.2244391  65.17 0.0008577697    1.398    0.284
       143 -10.1292    149.3020     71.8380   8.1982716494e+01   3.7818409579e+01    0.2667176    0.2385968 -68.68 0.0006824471    1.250    0.200
       144  -8.3599    183.7571     70.9517   7.4529434489e+01   2.9477577892e+01    0.1876099    0.1286725 -30.30  0.000297995    1.457    0.314
       145  -8.4325    169.1243     70.8906   7.7381637466e+01   3.3140199898e+01    0.2126431    0.1773098  24.22  0.000501446    1.310    0.237
       146 -10.2503    250.3984     65.5960   6.2905449877e+01   1.4311573235e+01    0.5725098    0.1647597 -27.78  0.001867073    3.472    0.712
       147  -8.8163    158.6514     58.3420   7.5657265986e+01   3.7815297605e+01    0.3626825    0.2147655  25.59  0.001370847    2.445    0.591
       148  -9.1564    152.8043     44.7826   7.2424606829e+01   4.1360091441e+01    0.3303876    0.2064449 -35.92  0.001458741    1.601    0.375
       149 -10.2475    159.4936     50.3923   7.2913790410e+01   3.8840846848e+01     0.577885    0.4616433 -86.75   0.00236736    1.524    0.344
       150  -9.6701    156.7910     44.1803   7.1410126626e+01   4.0441240181e+01    0.2921471    0.2743774  -1.45 0.0007004507    1.080    0.074
       151 -10.0264    165.6868     55.6920   7.3375089807e+01   3.6463415253e+01    0.5169203    0.4849057 -51.16  0.002785559    1.100    0.091
       152  -9.2603    162.9772     66.9648   7.7459196101e+01   3.5325283857e+01    0.3596517    0.2651826 -70.20  0.001455878    1.778    0.437
       153 -10.4693    165.1941     62.5380   7.5626009468e+01   3.5501989503e+01    0.5382184    0.4251966  43.80  0.002378704    1.273    0.214
       154 -10.0169    151.7684     66.7066   7.9815468056e+01   3.8121643087e+01    0.4437236    0.2925038  42.86  0.001238602    1.549    0.354
       155  -8.3881    198.5023     63.4432   6.9746346639e+01   2.6953966630e+01    0.2089274    0.1472275 -17.01  0.000164183    1.573    0.364
       156  -9.7428    200.7367     59.2071   6.8169317352e+01   2.7024536317e+01    0.3956214     0.268425  47.66  0.001707632    1.517    0.341
       157  -8.9350    202.4975     55.5020   6.6831614409e+01   2.7120245559e+01    0.2619255    0.2159017 -23.21 0.0007719955    1.234    0.189
       158  -8.9700    207.0054     61.9251   6.7945536152e+01   2.5056521742e+01     0.260047    0.1987164 -33.17 0.0009951965    1.265    0.210
       159  -9.0760    185.4688     60.8310   7.1228675830e+01   3.0644084259e+01    0.2456442     0.202181  74.67 0.0004252797    1.311    0.237
       160 -10.2338    179.4050     58.8866   7.1742992657e+01   3.2484300591e+01    0.7657686    0.4575637 -10.66   0.00146126    2.307    0.567
       161 -10.2045    188.0670     50.4419   6.7672664515e+01   3.1520585546e+01    0.7713837    0.4721038  13.71  0.002539085    2.619    0.618
       162 -10.5170    180.9148     50.2416   6.8832220010e+01   3.3387274819e+01    0.7808305    0.3575351  59.16  0.002487847    2.140    0.533
       163  -9.9742    174.0556     57.3847   7.2281523171e+01   3.4076899625e+01    0.4085513     0.273002 -11.09  0.000804983    1.846    0.458
       164  -9.3109    176.0326     53.4497   7.0695912616e+01   3.4168680408e+01    0.3625016    0.1820591  42.16 0.0009295968    2.211    0.548
       165  -9.9987    137.1847     59.6206   8.0920308351e+01   4.2823735235e+01    0.2586625    0.2434152  16.93 0.0002543786    1.054    0.052
       166 -10.9066    150.1006     52.1564   7.5467685800e+01   4.0920361283e+01    0.8675554     0.503983 -21.70   0.00167064    1.951    0.487
       167 -11.0137    141.7565     51.1343   7.6987750875e+01   4.3124659700e+01    0.7772636    0.3914462  38.05  0.002306819    2.303    0.566
       168 -10.0808    135.2042     52.4033   7.8960544490e+01   4.4490519544e+01    0.3822001    0.2895858   2.70  0.001007707    1.571    0.363
       169 -11.2095    122.6095     54.7585   8.2938860002e+01   4.6997242432e+01    0.8807955    0.6694568  15.57   0.00429967    1.534    0.348
       170  -9.9996    127.8008     46.3503   7.8652452708e+01   4.7191125752e+01    0.6139962    0.2969167  47.57  0.002478787    2.025    0.506
       171  -8.9464    202.0564    228.9883   1.0539383842e+02   3.9400631441e-01    0.1705727    0.1344635  60.66 0.0005199076    1.702    0.412
       172  -9.5942    130.3625     40.1854   7.5809588777e+01   4.7526713332e+01    0.3134311    0.2798611  34.99  0.001075285    1.086    0.079
       173 -10.6147    136.2744     33.1585   7.1893747853e+01   4.7093108467e+01    0.8459169    0.4856007   2.68   0.00286581    2.713    0.631
       174  -9.7943    159.8359     23.9818   6.4027707646e+01   4.2296760734e+01    0.3895022    0.3183152  18.19  0.001188478    1.333    0.250
       175  -9.3719     51.6540    225.4078   1.3156552162e+02   2.3458660659e+01     0.327734    0.1484944 -51.77  0.001702535    3.700    0.730
       176  -8.6066    109.5207    224.5083   1.2130782501e+02   1.5822163627e+01    0.1179174   0.09190416  58.10    0.0008101    1.029    0.028
       177  -8.8706     99.0101    224.0000   1.2314866862e+02   1.7451207214e+01    0.1919161   0.05417053  41.11 0.0008045667    2.957    0.662
       178 -10.4008    142.3998     42.8125   7.3976424116e+01   4.4235076957e+01    0.9146143    0.3793117  56.46  0.003379423    2.370    0.578
       179 -10.9794    147.0727     36.0772   7.0624651311e+01   4.4026259135e+01      1.27531    0.4930536  49.77  0.004647612    2.421    0.587
       180  -8.6606     40.9814    221.0421   1.3308581579e+02   2.5449063949e+01    0.1408198    0.1255969 -54.37  0.001132779    1.756    0.430
       181  -8.3947    244.4811    204.4904   9.4241187037e+01  -3.5067773543e+00    0.1223376   0.09442035  14.93 0.0008101275    1.030    0.029
       182 -10.5592      3.6029    185.1044   1.3752515008e+02   3.5799101741e+01    0.3812972    0.2538778  62.37  0.002908229    1.234    0.190
       183 -10.2784      1.6586    177.2605   1.3745853940e+02   3.7484703543e+01     0.453672    0.1207494 -82.60  0.002054451    3.293    0.696
       184 -10.1389    222.3413     56.9911   6.4335190836e+01   2.1997038930e+01    0.4164016    0.3157898  78.45   0.00142816    1.462    0.316
       185  -9.2222    112.0415     57.7770   8.6849045837e+01   4.8758837166e+01    0.3471799    0.2203686   6.46  0.001364958    2.623    0.619
       186  -8.3265    208.8467     56.8912   6.6253162133e+01   2.5329434565e+01    0.1996981    0.1586248 -54.90 -0.0006383859    1.302    0.232
       187  -9.1421    235.5292     55.0097   6.2076063525e+01   1.9127244120e+01    0.2165919    0.1312882 -29.36 0.0006656709    1.559    0.358
       188  -8.5570    192.7979     53.7399   6.7871012503e+01   2.9835136416e+01    0.2077353    0.1673574 -60.92   0.00050189    1.343    0.256
       189 -11.4432     31.9654     43.1920   1.0947683800e+02   6.3879455674e+01    0.7299069    0.3313835  28.36  0.003250005    2.572    0.611
       190 -12.6876     26.0761     82.5233   1.2138994107e+02   5.6016513144e+01     1.157137     0.829715  76.88  0.007101479    1.655    0.396
       191  -9.5689     94.8756     47.8706   8.8364349110e+01   5.3956197320e+01    0.4980799    0.3831643  -7.23  0.001914903    1.415    0.293
       192 -10.2315     99.9557     37.6312   8.2939017268e+01   5.4642661010e+01    0.4765375    0.3518224  -8.31  0.002106853    1.449    0.310
       193  -9.2567    100.0155     46.0041   8.6113704562e+01   5.3270584493e+01    0.2416121    0.1925915  40.10 0.0009676839    1.287    0.223
       194  -9.5366     97.3361     42.6544   8.5659073861e+01   5.4361837963e+01    0.2768037    0.2305225 -69.06  0.001483063    1.627    0.385
       195 -11.7601     26.3340     52.2036   1.1439640956e+02   6.2550087823e+01    0.5670228    0.2668416 -32.55  0.002197045    2.445    0.591
       196  -8.5950    225.8978     49.4765   6.1848366124e+01   2.2164367323e+01    0.2097161    0.1407529  67.40 0.0004731624    1.564    0.361
       197  -9.5185    170.7224     47.7061   6.9873264913e+01   3.6374476401e+01    0.4556391    0.3084024 -65.45  0.001982857    1.915    0.478
       198  -9.0494    221.8922     46.2880   6.1509719709e+01   2.3563789055e+01    0.3212269    0.1937765  39.62  0.001433842    1.994    0.498
       199  -8.1418    134.2953     46.6102   7.7165861630e+01   4.5623771314e+01    0.1556437     0.113802 -62.55 0.0007011573    1.781    0.438
       200  -9.6834     66.9205     43.7563   9.6173722501e+01   5.9488678581e+01    0.3471857    0.2067614 -32.15  0.001473536    1.587    0.370
       201 -10.0214    231.8443     43.7495   5.9599838566e+01   2.1488247702e+01    0.4363491    0.2372636  47.11  0.001390251    2.070    0.517
       202  -9.7947    213.9290     42.6835   6.1567608816e+01   2.6008783800e+01    0.5218527    0.2999401  -3.94  0.002053729    2.669    0.625
       203  -8.4398    207.3601     42.3150   6.2356953748e+01   2.7708686005e+01    0.2475007    0.1489824 -13.63 0.0009577431    2.029    0.507
       204  -9.7385    203.8333     42.0583   6.2778733311e+01   2.8637162989e+01    0.3093503    0.2245902 -65.75 0.0003199919    1.544    0.352
       205 -10.0815    202.8617     37.9773   6.1740942437e+01   2.9416363342e+01    0.4024173    0.3050256  80.79  0.001059255    1.391    0.281
       206  -9.2919    205.7639     35.0272   6.0499901292e+01   2.9050992313e+01     0.251874    0.2010881  45.83 0.0002856433    1.323    0.244
       207  -8.0958    200.6741     45.3548   6.4188030139e+01   2.9000694899e+01    0.1606095    0.1061912 -61.54 0.0007046253    1.770    0.435
       208  -9.7485    106.4338     44.3439   8.3619606583e+01   5.2234892236e+01    0.3616582    0.3197051  73.32  0.002005792    1.400    0.286
       209  -8.0141     25.0358     37.9768   1.1066964882e+02   6.5525321259e+01    0.1794372    0.1101667 -31.25 0.0004784052    1.524    0.344
       210  99.0000     17.3299     44.7572   1.1593571898e+02   6.4773210267e+01    0.4262122    0.2255028  12.85  0.002406835    2.418    0.586
       211  -9.0412     12.9151     34.0000   1.1466183322e+02   6.7225495014e+01    0.2108708    0.1454653  27.95  0.001152363    1.813    0.448
       212 -10.4801     16.2422     31.3558   1.1232991146e+02   6.7503628821e+01    0.3181026    0.2087765 -58.28 0.0005768378    1.411    0.291
       213 -10.4097     19.4584     39.7301   1.1358826733e+02   6.5628078985e+01     0.544836    0.4163275  51.95  0.001803461    1.864    0.464
       214 -10.3596     13.3405     40.3556   1.1636091574e+02   6.5937036939e+01    0.5039833    0.2558188 -20.02  0.002659266    2.557    0.609
       215 -10.3904     19.0096    184.0317   1.3460833356e+02   3.4632739593e+01    0.2632299    0.1376927  38.27  0.001674169    1.968    0.492
       216  -8.7433    219.5245     42.9569   6.0911400635e+01   2.4583641512e+01     0.213673    0.1374654 -27.24 0.0005748364    1.541    0.351
       217 -10.3761    162.4794     40.4189   6.9054831224e+01   3.9520659260e+01     0.591375    0.4128448 -55.21  0.001392853    1.657    0.397
       218  -9.3583    196.8726     41.1728   6.3530780016e+01   3.0533608659e+01    0.2477492    0.2024964 -35.68  0.001291943    1.208    0.172
       219  -8.6723    198.8444     31.2181   6.0329811577e+01   3.1294065475e+01    0.2020191    0.1630126  38.18 0.0008162889    1.350    0.259
       220  -9.2393    191.1754     40.0680   6.4060405163e+01   3.2147061870e+01    0.2683568      0.21721 -13.29 0.0003833306    1.344    0.256
       221  -9.5118    192.7669     36.1839   6.2658403132e+01   3.2240741678e+01    0.3137096    0.2720866  57.63  0.001312955    1.143    0.125
       222 -10.2316    194.4643     31.2207   6.0935044066e+01   3.2423594462e+01    0.4701208    0.3356123  10.41  0.001329111    1.804    0.446
       223  -9.7851    180.6592     38.5730   6.5266866467e+01   3.5069075748e+01    0.4787043    0.2905783 -66.94  0.001830413    2.270    0.560
       224  -8.9166    235.0828     38.9511   5.7978670637e+01   2.1327936150e+01     0.266554    0.2252923  42.61  0.001344061    1.331    0.249
       225 -11.4677    237.1484     32.2370   5.6030637646e+01   2.1664935715e+01    0.7746055    0.4375334  60.17  0.003614418    1.813    0.449
       226  -9.8218    246.5242     33.1591   5.5303996833e+01   1.9370848945e+01    0.4832803    0.2111759  49.84  0.002028134    2.652    0.623
       227  -9.7372    172.0888     37.9299   6.6506151481e+01   3.7378202723e+01    0.5601215    0.3096928  86.93  0.002031556    2.867    0.651
       228 -10.2742    124.3364     36.6495   7.5971234820e+01   4.9455194086e+01    0.3591335    0.3310247 -76.42  0.001331699    1.285    0.222
       229  -9.0687    125.3303     32.3344   7.4111158638e+01   4.9828108837e+01    0.2820676    0.1991201  10.92 0.0008267111    1.667    0.400
       230  -9.8235    109.8388     37.3431   8.0010508768e+01   5.2610444489e+01    0.4125215    0.1909936 -39.22 0.0008825044    2.174    0.540
       231  -8.7272    115.1569     36.3827   7.8210505641e+01   5.1585236782e+01    0.3634205    0.1807725  32.23  0.001385491    2.578    0.612
       232  -8.7531    222.0227     35.3253   5.8533965053e+01   2.4939192215e+01    0.1933042    0.1792328  87.26 0.0005501465    1.076    0.071
       233 -11.1095    211.5745     33.1688   5.9222422555e+01   2.7810129536e+01     0.603493    0.3830353 -85.81 0.0008093239    1.900    0.474
       234  -9.4071    214.9818     29.0661   5.7666588132e+01   2.7451578796e+01    0.2657446     0.188724  58.13  0.001362217    1.418    0.295
       235  -8.7703     37.1410    179.3432   1.3073965426e+02   3.3742205566e+01     0.164179    0.0813723  49.22 0.0009478258    1.795    0.443
       236  -8.8714     80.2268    176.7213   1.2158210544e+02   2.8930773803e+01    0.1876527   0.08510393 -54.31 0.0008035369    2.374    0.579
       237 -10.5326      2.4296    161.2495   1.3636195039e+02   4.0629645322e+01    0.5047219    0.3684666 -20.10  0.003453446    2.512    0.602
       238  -9.2491      9.1509    167.1536   1.3540112913e+02   3.8886076950e+01    0.2356416    0.1564567 -52.78  0.001235536    1.923    0.480
       239 -11.0536     14.1714    165.0333   1.3424465835e+02   3.8890975174e+01    0.4622147    0.2249228  36.28  0.002806175    2.177    0.541
       240 -10.6883      8.8590    162.7758   1.3516397169e+02   3.9804106318e+01    0.3147917    0.2594292  71.99  0.001387228    1.185    0.156
       241  -8.6014     54.0711    162.4880   1.2554671804e+02   3.5324616448e+01    0.1642615    0.1120847  43.28  0.000603931    1.500    0.333
       242 -10.2277    113.5222     32.0665   7.6975553249e+01   5.2570720651e+01    0.2681308     0.218299  -7.97 0.0003604173    1.226    0.185
       243 -11.0663    110.0645     29.9819   7.7073215396e+01   5.3627416017e+01    0.4073294    0.2343316  50.72 0.0005408573    1.718    0.418
       244 -10.2114     16.1780    159.3959   1.3340787478e+02   3.9883380562e+01    0.2668147    0.1950727  28.19  0.001881117    1.794    0.442
       245  -9.3635     77.4795    156.4456   1.1951179952e+02   3.3573220747e+01    0.4497186    0.2205428  78.68  0.001593326    4.111    0.757
       246  -9.7399     33.3268    155.9123   1.2941904178e+02   3.9012579174e+01    0.1786553    0.1671091  44.23 0.0003195308    1.383    0.277
       247 -12.2727     11.6417    130.8282   1.3196628324e+02   4.6361921083e+01    0.8193473    0.6619409 -61.85  0.002008168    1.310    0.237
       248 -12.0699     19.4983    148.1971   1.3175663337e+02   4.1962533922e+01    0.6629416    0.4610733 -56.23  0.004012267    1.581    0.367
       249  -8.2397     36.5197     34.5063   1.0459752416e+02   6.5095069035e+01    0.1239873   0.09957974 -33.15 0.0008103334    1.001    0.001
       250  -9.3165     32.3727     33.5175   1.0599605415e+02   6.5703524512e+01    0.2327493    0.1499093 -38.77  0.001412534    1.256    0.204
       251 -10.7457     51.1603     25.0391   9.4710125736e+01   6.4992963928e+01    0.4444845    0.2106662  30.43  0.001235588    2.380    0.580
       252  -9.9313     14.8660    144.3714   1.3245379505e+02   4.3175227435e+01    0.3804231    0.1933891 -68.32  0.002260477    1.624    0.384
       253  -9.7913      5.0810    147.1993   1.3484060107e+02   4.3343200727e+01    0.2452059    0.2014532  65.18  0.001585203    1.242    0.195
       254 -10.8564      6.0945    142.6869   1.3427220330e+02   4.4222866233e+01     0.523209    0.3032873  42.31  0.002601897    1.820    0.451
       255 -10.1859     38.4996     27.0458   1.0086390014e+02   6.6228043471e+01    0.5093457    0.2405751  30.82  0.002037751    2.392    0.582
       256 -10.3235     40.7748     21.3794   9.7485420095e+01   6.6927327939e+01    0.3059938    0.1842392 -40.54 0.0003530727    1.449    0.310
       257  -9.3444      8.5195    151.4031   1.3441612594e+02   4.2193446145e+01     0.238359    0.1370469  62.01  0.001215865    1.589    0.371
       258 -10.2433     34.9333    150.5105   1.2851575181e+02   4.0012711955e+01    0.2828622    0.2457172  45.19  0.001405303    1.357    0.263
       259 -10.5626     39.4092    146.7931   1.2708791761e+02   4.0361511734e+01    0.3135829    0.2557887  88.09  0.001495559    1.017    0.016
       260 -10.3780     38.4607    143.1225   1.2689157684e+02   4.1265366546e+01    0.2339063    0.2032381 -74.77 0.0001386566    1.173    0.148
       261  -9.5774     66.7158    148.6434   1.2091953492e+02   3.6738643939e+01    0.2533739    0.1857854  58.37  0.001511352    1.321    0.243
       262  -9.4038     61.2911    147.0784   1.2198704382e+02   3.7780165992e+01     0.200068    0.1799917   2.26 0.0005173595    1.554    0.356
       263 -11.3234      5.3985     26.5162   1.1573218195e+02   6.9144087620e+01    0.4063839    0.2595576 -11.74  0.002708646    1.741    0.426
       264 -10.0453     29.1315    144.8022   1.2924897554e+02   4.1820477792e+01     0.264144    0.1358106 -70.12  0.001460687    1.614    0.380
       265  -8.2709     80.3173    140.3412   1.1637853992e+02   3.6694382607e+01    0.1301323    0.1015568 -32.08 0.0007048887    1.711    0.416
       266  -9.7472    228.1945     30.9820   5.6669049422e+01   2.3961290869e+01    0.3612452    0.2647491 -75.77  0.001220996    1.452    0.312
       267  -9.5005    225.9005     27.0993   5.5895588847e+01   2.4981631608e+01    0.3233961    0.2584315 -64.50  0.001358472    1.227    0.185
       268  -9.2285     58.8886    139.3997   1.2149569480e+02   3.9783374485e+01    0.2112258    0.1647539  77.37 0.0005398425    1.216    0.178
       269  -9.4001     49.2005    138.4205   1.2373109987e+02   4.1146725243e+01    0.4343285    0.1707609  54.89  0.001811883    3.107    0.678
       270  -9.9828     54.4961    137.4839   1.2230402802e+02   4.0742555272e+01    0.4828675    0.2454255 -84.65  0.002216963    2.334    0.572
       271 -10.1858     23.4588    137.4408   1.2981333068e+02   4.3947731566e+01    0.3535363    0.2004028  23.17  0.002042064    2.382    0.580
       272 -10.2919    182.9955     27.4689   6.1449676736e+01   3.5857137320e+01    0.3885261    0.3085285 -43.36 0.0006864155    1.277    0.217
       273  -9.6659    186.4209     25.5123   6.0349094694e+01   3.5195580916e+01    0.3074186    0.2301339 -46.06 0.0001057559    1.360    0.264
       274  -9.0642    202.9941     29.8146   5.9370268754e+01   3.0399579027e+01    0.2989135    0.2052255 -18.75 0.0009495601    1.587    0.370
       275  -8.7953    201.2795     25.2293   5.8267197801e+01   3.1382490000e+01    0.2361693    0.1457749 -46.87 0.0004431175    1.630    0.387
       276  -8.9054    193.2984     24.6942   5.9151824313e+01   3.3503722380e+01    0.2954486    0.1745111  11.53  0.001179354    2.639    0.621
       277 -10.4195     46.1166    131.4520   1.2355296071e+02   4.3050706095e+01    0.3656797    0.2654562 -55.38  0.002247424    1.381    0.276
       278  -9.7107     28.0326    119.7792   1.2663414037e+02   4.7467727469e+01    0.3716615    0.1501865 -73.59  0.001065371    2.153    0.535
       279 -10.7072     24.6939    128.4688   1.2853935332e+02   4.5819570767e+01    0.3929912    0.3384043 -53.20  0.002007443    1.347    0.257
       280 -10.8937     29.8569    127.8530   1.2717753783e+02   4.5494071069e+01    0.6047574    0.2572358 -46.69  0.002237335    2.922    0.658
       281 -10.2795     56.0217    125.9700   1.2020594868e+02   4.3156307009e+01    0.4384663    0.2250196 -61.09  0.001626803    1.695    0.410
       282  -8.9028     97.5726     22.2473   7.7370906936e+01   5.7344067360e+01    0.2250683    0.1698978  62.82 0.0005283711    1.607    0.378
       283  -9.5141     59.3223    125.6774   1.1929823830e+02   4.2821707541e+01    0.2610203    0.1604864 -87.27 0.0009761034    1.832    0.454
       284  -8.5390      1.1811    127.9834   1.3419844633e+02   4.7720342425e+01    0.1448707   0.06579406 -77.73            0    1.684    0.406
       285  -9.4900    209.5613     18.4867   5.5360017469e+01   3.0031835640e+01    0.2333188    0.2099633 -70.32 0.0005251826    1.059    0.056
       286  -9.9315     38.8478    126.7363   1.2475520943e+02   4.4876518886e+01    0.2164056    0.1405801 -60.82 0.0009071001    1.374    0.272
       287  -8.4581     86.9545     15.9797   7.7795858759e+01   6.0298095884e+01    0.1611647     0.139526   3.80 0.0009774496    1.017    0.017
       288 -11.1751     87.6916     56.7236   9.3779085042e+01   5.3670768693e+01    0.5610532    0.3862509 -10.93  0.001479736    1.865    0.464
       289 -11.0012      4.6841     99.0686   1.3037836970e+02   5.3828725017e+01    0.6080743    0.2649703 -58.00  0.003365132    1.835    0.455
       290  -8.9080    226.5052     13.4709   5.2258304120e+01   2.6360643021e+01    0.2245061    0.1272897  73.75   0.00107399    1.742    0.426
       291 -11.2975     48.4714    100.4255   1.1787962371e+02   4.9842650283e+01     1.123816    0.5016719 -43.59  0.004951803    2.497    0.599
       292 -10.6846      7.6599     72.2605   1.2560255284e+02   5.9554133681e+01    0.6265336    0.3952503  58.84  0.002733411    2.036    0.509
       293  -9.0157    235.4807    249.5050   1.0287447318e+02  -6.8664657938e+00    0.1106225   0.07894772  23.81 0.0008103242    1.013    0.013
       294 -12.9218     15.3002    104.5494   1.2809327584e+02   5.1907828790e+01     2.209078    0.7733181 -47.87  0.009886164    3.027    0.670
       295 -12.4354      5.3722     82.0115   1.2790089663e+02   5.7550248592e+01     1.022341    0.3945987 -63.30   0.00535304    1.848    0.459
       296  -8.8467    124.9920    249.5081   1.2116985914e+02   9.7344651046e+00    0.1467751   0.08485514  26.82  0.000809378    2.446    0.591
       297 -10.9054     67.3906     62.5806   1.0242846527e+02   5.5768304884e+01    0.5079913    0.2626313 -36.76  0.002313331    1.948    0.487
       298 -11.5164     54.8109     86.1442   1.1294777384e+02   5.2341725123e+01     2.131626     1.216538 -11.96  0.008350864    3.900    0.744
       299 -12.4387     80.8428     73.6812   1.0138063751e+02   5.1432310765e+01    0.8518844    0.6725501 -80.63  0.001485678    1.655    0.396
       300 -12.8532     37.1873     64.4440   1.1359431323e+02   5.8996020120e+01     1.652629     1.106701  20.87  0.009137349    1.814    0.449
       301 -13.0790     17.5773     58.9641   1.1943172232e+02   6.1795475784e+01    0.9883188    0.5857686   9.24  0.003193156    2.215    0.549
       302 -11.0467     14.3735     88.4828   1.2608842893e+02   5.5558091089e+01    0.5068836    0.3261747 -64.35  0.003222406    1.206    0.171
       303 -11.1921     68.0488     75.4709   1.0599305960e+02   5.2971096875e+01    0.7694573    0.3858815 -51.83  0.002106155    1.768    0.434
       304 -12.0856     56.7736     69.9342   1.0821176005e+02   5.5651907674e+01    0.8928639    0.6600353  10.43  0.003201168    1.684    0.406
       305  -8.2651    118.3077    249.6632   1.2230269711e+02   1.0687802584e+01    0.1123432   0.06767827  64.37 0.0007042245    1.677    0.404
       306 -10.7866     53.4156     30.1098   9.5941282305e+01   6.3837894276e+01    0.6120946    0.2475656  31.83  0.001212457    2.870    0.652
       307 -11.8395     42.7506     49.6071   1.0726096717e+02   6.1505820867e+01     0.614372     0.387288  34.23  0.002595286    1.862    0.463
       308 -11.4669     17.7292     81.4652   1.2388582545e+02   5.6884368625e+01     0.233987    0.2213127 -43.41 0.0004144584    1.237    0.192
       309 -10.3513     19.1654    121.0528   1.2908198551e+02   4.7930708253e+01    0.6047754    0.1731382 -61.11  0.001935195    2.621    0.618
       310  -9.6305     13.4770    117.2006   1.3010690112e+02   4.9223498112e+01    0.2332722    0.2038299  41.52 0.0009173784    1.405    0.288
       311  -9.0080     17.9744    116.4937   1.2885694787e+02   4.9040108891e+01    0.2248813    0.1285201 -54.67  0.001327198    1.646    0.392
       312  -9.0758     74.9734    124.3528   1.1496572220e+02   4.1051694645e+01    0.1818961    0.1638714  73.83 0.0004484687    1.107    0.096
