#   1 NUMBER                 Running object number                                     
#   2 MAG_AUTO               Kron-like elliptical aperture magnitude                    [mag]
#   3 X_IMAGE                Object position along x                                    [pixel]
#   4 Y_IMAGE                Object position along y                                    [pixel]
#   5 X_WORLD                Barycenter position along world x axis                     [deg]
#   6 Y_WORLD                Barycenter position along world y axis                     [deg]
#   7 A_WORLD                Profile RMS along major axis (world units)                 [deg]
#   8 B_WORLD                Profile RMS along minor axis (world units)                 [deg]
#   9 THETA_WORLD            Position angle (CCW/world-x)                               [deg]
#  10 FWHM_WORLD             FWHM assuming a gaussian core                              [deg]
#  11 ELONGATION             A_IMAGE/B_IMAGE                                           
#  12 ELLIPTICITY            1 - B_IMAGE/A_IMAGE                                       
         1  -9.0154      3.5647     27.5917   1.0648576458e+02   6.9424960175e+01    0.2175795    0.1654361 -75.08  0.001092892    1.718    0.418
         2  -8.5329    135.5270     10.9528   5.2555568825e+01   4.9911008391e+01    0.2191229    0.1692933  59.45 0.0004353206    1.185    0.156
         3  -7.6708     83.4220     11.1870   6.5301658401e+01   6.1649740886e+01    0.1686398    0.1143268 -33.31 0.0004270028    1.598    0.374
         4  -8.6216     55.7331      9.9585   7.4481069278e+01   6.6729222858e+01    0.2042891    0.1533216 -35.18 0.0007001444    1.514    0.340
         5  -8.2469     90.9327      9.0089   6.2094878062e+01   6.0356515421e+01    0.1884293    0.1590637 -61.26  0.000696995    1.659    0.397
         6  -7.5811    101.4419      8.4671   5.9034627916e+01   5.8160438145e+01    0.1300354    0.1194569  27.17 0.0001103619    1.080    0.074
         7  -8.5281     33.3218      5.0797   8.1821534611e+01   7.0511058438e+01    0.2676458    0.1814709 -52.67  0.001508743    2.627    0.619
         8  -8.4465     79.2243      4.2683   6.3386310871e+01   6.3194248442e+01    0.2337141    0.1533543 -29.88 0.0009789747    1.623    0.384
         9  -7.7823     44.7938      3.5740   7.5767405687e+01   6.9163052012e+01     0.144497    0.1093615  41.33  0.000484477    1.618    0.382
        10  -7.7696    115.3354      2.6543   5.3407728847e+01   5.5530870597e+01    0.1335047     0.100031 -63.12  0.000704912    1.771    0.435
        11  -8.5123     62.3144      1.6265   6.7759754575e+01   6.6584690412e+01    0.1856027    0.1430541  50.64 0.0005525638    1.553    0.356
        12  -7.9089     15.6862      3.3050   8.9961519333e+01   7.2664960014e+01   0.09290963   0.08599535 -34.48  0.000338224    1.620    0.383
        13  -8.9036    146.6513    245.6828   1.0722268301e+02   4.7067944194e+00    0.2495228    0.1899294 -79.42   0.00113297    1.788    0.441
        14  -9.4405    211.0425    246.7200   9.5817008828e+01  -5.5377197159e+00    0.3325401    0.2027698 -52.32  0.001868749    2.873    0.652
        15  -8.4270     93.9664    249.6319   1.1707028097e+02   1.2067112314e+01    0.2105738    0.1243621  69.81  0.001235668    1.720    0.419
        16  -7.4716     86.2982    250.6599   1.1848877999e+02   1.2976219701e+01    0.1179485   0.06628817  65.72 0.0004353713    1.663    0.399
        17  -9.3846    146.5744    239.9440   1.0653307952e+02   5.5812276352e+00    0.3562467    0.2178323  86.86  0.001192021    3.518    0.716
        18  -9.0774    120.0576    245.5625   1.1203599448e+02   8.8693906745e+00    0.3241083    0.2019682  80.50  0.001664404    2.194    0.544
        19  -8.4352     67.5647    245.2711   1.2128323313e+02   1.6402839391e+01    0.1816593    0.0974713 -79.93  0.001032934    1.972    0.493
        20  -9.1738      9.7873    244.4661   1.3064664533e+02   2.3200279322e+01    0.2783376   0.08991081  83.01  0.001393891    3.229    0.690
        21  -8.9435    194.1351    244.2976   9.8448837286e+01  -2.6383282020e+00    0.2432517    0.1675717   0.47 0.0009404872    1.780    0.438
        22  -9.1337    194.0686    239.8144   9.7811345836e+01  -2.0490158074e+00    0.2051516     0.184001  82.38 0.0005779582    1.667    0.400
        23  -9.9914    248.6387    242.2105   8.8719471004e+01  -1.0481989387e+01    0.3020789      0.19433 -30.38  0.001544726    1.781    0.439
        24  -8.8135    202.0490    243.1344   9.6871381752e+01  -3.7253348411e+00     0.251841     0.166164 -35.40  0.001210744    1.824    0.452
        25  -8.8784    169.0972    243.1987   1.0281616710e+02   1.4838142036e+00    0.2086467    0.1826873 -38.10  0.001004772    1.426    0.299
        26  -8.3301    139.2558    244.2677   1.0840202510e+02   6.0876755469e+00    0.1591111   0.09906479 -73.44  0.000726768    2.405    0.584
        27  -8.9582     77.8608    243.3507   1.1935022081e+02   1.5357592087e+01    0.2488886    0.1206656  64.31  0.001366454    2.025    0.506
        28  -7.5078     49.6648    243.3219   1.2417956965e+02   1.8994859917e+01    0.1187074   0.05828762  64.60 0.0003978882    1.708    0.414
        29  -9.0976    183.3194    239.8497   9.9763349518e+01  -3.3740658367e-01     0.399649    0.3338102 -76.18  0.001957851    1.839    0.456
        30  -9.3788    160.1581    240.3192   1.0407276542e+02   3.3349534176e+00    0.2908555    0.2146611 -87.39  0.001263897    2.134    0.531
        31  -8.2782     88.2463    242.0806   1.1740863447e+02   1.4133202420e+01    0.1573278    0.1209018  76.00 0.0004867536    1.189    0.159
        32  -8.7337    240.6203    239.4750   8.9620764832e+01  -9.0633717127e+00     0.245562    0.1000893 -27.06  0.001246778    2.745    0.636
        33  -9.2824    231.0285    237.1955   9.0888864102e+01  -7.4137110857e+00    0.2719773    0.2086457 -57.12  0.001368815    2.513    0.602
        34  -9.1878    135.3646    238.9494   1.0848806644e+02   7.5283662139e+00    0.2212023    0.1374491  58.84 0.0009656912    1.615    0.381
        35  -7.6409     41.2853    239.6357   1.2534860140e+02   2.0638097194e+01    0.1165331   0.05799757  67.82 0.0007020341    1.690    0.408
        36  -9.0693    213.7061    242.4416   9.4712473930e+01  -5.4318937853e+00     0.299115    0.1677984   5.53  0.001512896    2.600    0.615
        37  -8.2939     58.5694    237.3684   1.2225089696e+02   1.8937250762e+01    0.2164558   0.07569446  44.98  0.000780381    2.201    0.546
        38  -8.4154     25.4969    236.8003   1.2779645142e+02   2.2913081521e+01    0.2478803   0.08723678  67.60  0.001248345    2.750    0.636
        39  -8.9452    217.3029    235.6898   9.3039616897e+01  -5.1638344562e+00    0.2208094    0.1790519  34.08 0.0007941178    1.233    0.189
        40  -9.3116    213.7236    231.8622   9.3069411039e+01  -4.1309100535e+00    0.2722818    0.2267122  75.74  0.001346504    2.139    0.533
        41  -8.8837    203.2568    234.9162   9.5421663278e+01  -2.8699440216e+00    0.2655452    0.1951474 -58.24  0.001281911    2.230    0.552
        42  -7.4382    197.3062    236.3198   9.6708412779e+01  -2.1060848307e+00    0.1220811   0.08155957  13.43 0.0004993248    1.635    0.389
        43  -9.6356    175.7159    233.4055   1.0024014318e+02   1.8000149393e+00    0.4042281    0.2355529 -58.78  0.002100937    2.699    0.629
        44  -9.5106    109.0252    234.4653   1.1287831318e+02   1.2378840403e+01    0.4168878    0.2162811  58.83   0.00101427    1.897    0.473
        45  -9.1116    247.8895    234.5818   8.7607559619e+01  -9.5564872625e+00    0.2142524    0.1593759  -1.48 0.0008678908    1.173    0.148
        46  -9.6065    246.5796    229.2517   8.6941931325e+01  -8.7740291433e+00    0.4299647    0.1938426 -24.79  0.002264136    2.369    0.578
        47  -8.3532     99.8411    234.7267   1.1460823070e+02   1.3715024689e+01     0.224493    0.1299896  75.57   0.00113357    2.090    0.522
        48  -9.2171     78.7167    234.2781   1.1842944830e+02   1.6821326616e+01     0.250936    0.1554275 -88.76 0.0009022656    1.690    0.408
        49  -9.0582      7.8545    234.8596   1.3054071880e+02   2.5068434628e+01    0.1504609   0.08186764  67.17  0.001071761    1.316    0.240
        50  -9.1022    140.2858    230.4501   1.0651225798e+02   8.0966101755e+00    0.2648844     0.160532  62.05  0.000872649    1.905    0.475
        51  -8.2701    122.9671    234.0298   1.1022339248e+02   1.0290569601e+01    0.1967709    0.1234441  64.75 0.0007841385    1.709    0.415
        52  -9.1276     68.3973    232.3964   1.2013016243e+02   1.8554906746e+01    0.4186267    0.1746335  68.28  0.001894621    3.057    0.673
        53  -8.2592    194.6329    233.0016   9.6693159904e+01  -1.2341405260e+00     0.163516    0.1533418  88.02  0.001136027    1.524    0.344
        54  -9.3429    186.4736    230.6874   9.7843903312e+01   4.1664284299e-01     0.319982    0.2364867 -73.88  0.001225962    2.444    0.591
        55  -8.2135    132.7975    233.0031   1.0825089899e+02   8.8947982494e+00    0.1930304    0.1271626  75.76  0.001062942    2.021    0.505
        56  -8.6463     92.4303    231.8544   1.1569362678e+02   1.5307201838e+01    0.2838662    0.1512736  69.51  0.001146717    2.155    0.536
        57  -9.0354    236.1691    231.0218   8.9004956633e+01  -7.4570134084e+00    0.1983816     0.177764 -12.05 0.0004478505    1.384    0.277
        58  -8.1139    153.4193    242.1614   1.0555011672e+02   4.1492901674e+00    0.1463486    0.1137583 -78.28 0.0007547662    1.776    0.437
        59  -8.8108      1.7665    230.9141   1.3133758961e+02   2.6354255087e+01    0.1924146   0.09256058  74.35 0.0007714042    1.568    0.362
        60  -9.1413    151.3034    228.9738   1.0421910234e+02   6.5172386579e+00    0.2548912    0.1715255  85.66  0.001102851    2.516    0.603
        61  -9.6047    148.8040    224.6948   1.0411470900e+02   7.6242015283e+00    0.4530277    0.2977553 -85.98   0.00136129    2.633    0.620
        62  -7.8834    229.5945    228.8546   8.9784111540e+01  -6.2118771821e+00    0.1432866    0.1094158 -37.32 0.0007118634    1.677    0.404
        63  -8.7219    162.4032    227.9642   1.0196551971e+02   4.8236616474e+00    0.3200309    0.2004737  66.48  0.001246825    2.402    0.584
        64  -8.8407    128.0842    227.4844   1.0847037062e+02   1.0575039485e+01    0.2592769    0.1704937  68.20  0.001389938    1.739    0.425
        65  -8.2828    119.9815    227.7107   1.1005034160e+02   1.1834416535e+01    0.2029934    0.1465198  85.10 0.0007310535    1.623    0.384
        66  -8.6069     49.5414    226.7496   1.2306648582e+02   2.1989968507e+01    0.3713222    0.1257549  60.31  0.001664488    3.024    0.669
        67  -7.8942    223.3867    227.2680   9.0611245167e+01  -5.0620391765e+00    0.1427165    0.1112467 -36.13 0.0004258665    1.595    0.373
        68  -8.8425    206.0570    226.4202   9.3581159032e+01  -2.1991477899e+00    0.1902028    0.1761228 -56.26 0.0006496031    1.543    0.352
        69  -8.3648    170.1610    235.6975   1.0159659076e+02   2.3804125803e+00    0.1805388    0.1664423 -85.19 0.0007330889    1.409    0.290
        70  -8.0677    199.9091    226.4025   9.4702470500e+01  -1.1950575841e+00    0.1596156     0.143827  34.35 0.0005361117    1.216    0.178
        71  -8.8155    180.5205    224.4288   9.8007941892e+01   2.3123139992e+00    0.2632873    0.1900442  60.94 0.0008268437    1.756    0.431
        72  -8.8605    104.7442    223.6591   1.1250971209e+02   1.4932791671e+01    0.3440944    0.2049215 -89.46  0.001808605    2.221    0.550
        73  -9.0294     94.0702    224.2742   1.1462080341e+02   1.6431111412e+01    0.3581569    0.1654897  61.61  0.001679715    2.426    0.588
        74  -8.0351     38.4453    224.9407   1.2490222041e+02   2.3639209998e+01    0.1583601   0.06856094  76.26 0.0007029153    2.416    0.586
        75  -8.6460    216.4728    223.7550   9.1262514638e+01  -3.5231908513e+00     0.208561    0.1833291  55.21 0.0008524425    1.567    0.362
        76  -8.6812    172.9952    223.2345   9.9255374563e+01   3.7649444467e+00    0.2069978    0.1712974  79.79 0.0007027942    1.657    0.397
        77  -8.0267    113.8029    224.3150   1.1083826332e+02   1.3406118260e+01    0.1665176    0.1356887  70.30 0.0005495836    1.155    0.134
        78  -8.3425     60.1610    224.1141   1.2094896387e+02   2.1155310105e+01     0.242666    0.1027791  58.92  0.001235117    2.155    0.536
        79  -7.2804    233.3006    223.6574   8.8270470713e+01  -6.1428743655e+00    0.1021871   0.09689911  60.84 0.0005586391    1.675    0.403
        80  -9.0978    225.3569    221.9231   8.9371246799e+01  -4.6948515940e+00    0.2384875    0.1852404 -15.03 0.0008979401    1.296    0.228
        81  -9.3176    192.5113    221.5154   9.5296009017e+01   7.1981859876e-01    0.3054588    0.2471708  89.32  0.001207365    2.085    0.520
        82  -8.4245    140.4747    222.6035   1.0544512114e+02   9.3657412702e+00    0.1897146    0.1216967 -71.19 0.0006788861    2.156    0.536
        83  -8.9471    238.9925    221.6595   8.6944972507e+01  -6.7635933041e+00    0.2047813    0.1860294 -20.97 0.0008388992    1.445    0.308
        84  -8.3511    202.5972    220.7107   9.3289180230e+01  -8.5078268144e-01    0.2506086    0.1521969 -33.84  0.001222225    1.855    0.461
        85  -9.1544    160.1308    221.2213   1.0143044917e+02   6.2711736807e+00     0.444135    0.1997275  55.26  0.001476042    2.910    0.656
        86  -9.1617    120.2301    219.1857   1.0896528753e+02   1.3295823369e+01    0.4022723    0.2141429  68.63  0.001772446    2.817    0.645
        87  -8.6995     82.7579    220.4523   1.1639206681e+02   1.8784466142e+01    0.3355778    0.1616405  64.70  0.001119222    2.297    0.565
        88  -8.1567     72.8171    220.9110   1.1832251429e+02   2.0084082329e+01    0.1996211    0.1090626  74.71  0.001059648    1.957    0.489
        89  -7.8351     27.6125    221.2116   1.2656059969e+02   2.5545491217e+01    0.1453016   0.08324435 -70.54 0.0009477853    1.742    0.426
        90  -8.2624    210.1747    219.4446   9.1686816956e+01  -1.9269291935e+00    0.1735868    0.1708297 -32.03  0.000557836    1.394    0.283
        91  -8.2815    249.7894    218.8161   8.4614423933e+01  -8.0304862271e+00    0.1477821    0.1305387  18.67 0.0006877487    1.342    0.255
        92  -8.1115    183.3124    219.3141   9.6682769330e+01   2.6030440655e+00     0.128156   0.09072882  12.30 0.0004665017    1.636    0.389
        93  -9.3640    132.9451    216.1827   1.0605938829e+02   1.1736419175e+01    0.4742967     0.282686  80.19  0.002092893    3.012    0.668
        94  -8.3830     61.9539    217.3252   1.2005025750e+02   2.2215373984e+01    0.2168764    0.1265413  72.17 0.0009937966    1.593    0.372
        95  -8.7952     51.5360    217.4505   1.2200428630e+02   2.3507716271e+01    0.2519552    0.1489312  67.83 0.0009706299    1.439    0.305
        96  -8.7978    169.3050    216.3514   9.8915616436e+01   5.4748264370e+00    0.2563593    0.2142862 -88.86 0.0008998509    1.634    0.388
        97  -8.7406    142.9540    216.5790   1.0412867771e+02   9.9761226879e+00    0.2612588    0.1846685  82.87  0.001167053    1.979    0.495
        98  -8.1587    111.4963    216.5766   1.1036712187e+02   1.5171808550e+01    0.2043606    0.1174845 -76.93  0.000901624    2.267    0.559
        99  -8.6311    232.4333    214.9452   8.6921321616e+01  -4.9140531487e+00    0.2174695     0.195449 -59.01  0.001020899    1.801    0.445
       100  -7.9987     18.5238    216.0535   1.2784232271e+02   2.7476190843e+01    0.1611832   0.08474819 -86.06  0.001027626    1.592    0.372
       101  -8.3543    185.6738    214.5492   9.5466181340e+01   2.9200216457e+00    0.1807809    0.1579013 -84.21 0.0006286701    1.628    0.386
       102  -8.0921    154.3976    215.1886   1.0166349490e+02   8.2489757892e+00    0.1632812    0.1238463 -69.79 0.0006915987    1.711    0.415
       103  -9.0067     93.0818    214.0852   1.1372006095e+02   1.8485056071e+01    0.3299734    0.1867315  77.44  0.001504533    2.219    0.549
       104  -9.6474    213.9653    212.1960   8.9757428605e+01  -1.5531547740e+00    0.3201818    0.2899846  69.50  0.001470904    1.620    0.383
       105  -8.1816     76.9699    214.3110   1.1690019574e+02   2.0774658157e+01    0.2508777   0.08011921  49.15  0.001068961    2.665    0.625
       106  -9.2811     72.1201    211.1867   1.1753833205e+02   2.2055967948e+01    0.4651959    0.1991044  67.28  0.001543665    3.175    0.685
       107  -8.6616    161.6496    212.5772   9.9834336868e+01   7.4248607393e+00    0.2292217    0.1933568 -86.52 0.0006778107    1.528    0.346
       108  -7.9883    106.5318    212.7457   1.1089057193e+02   1.6673052308e+01    0.1601972    0.1137101 -87.33 0.0007148958    1.561    0.360
       109  -7.8353    224.6901    212.2705   8.7825948081e+01  -3.3264527558e+00    0.1620221    0.1050542 -21.52 0.0006425249    1.605    0.377
       110  -8.8673    204.3541    210.9494   9.1321964249e+01   2.4456927556e-01    0.2512686    0.2048377 -69.12 0.0007439629    1.980    0.495
       111  -9.4141    175.7905    210.4274   9.6709189600e+01   5.2924965828e+00    0.4177818     0.272599  69.56  0.001533573    2.632    0.620
       112  -8.9273    148.0306    210.7476   1.0227156587e+02   1.0115499900e+01    0.2955391    0.2123977  73.81  0.001061067    1.804    0.446
       113  -8.3861    192.1871    210.6414   9.3570942081e+01   2.3862809669e+00    0.1950631    0.1761063 -47.51 0.0006820208    1.377    0.274
       114  -8.8505    116.2767    210.5847   1.0865949354e+02   1.5518214021e+01    0.2775931    0.1774047  68.92 0.0009540295    1.774    0.436
       115  -8.0888     32.5224    210.1769   1.2497415570e+02   2.7141292040e+01    0.3086713     0.118183  83.62   0.00137302    3.172    0.685
       116  -9.1270    236.5942    208.5725   8.5058651283e+01  -4.7455913577e+00    0.2948379    0.2463381 -64.05  0.001269891    2.158    0.537
       117  -8.5227     85.7030    209.5113   1.1468321744e+02   2.0463454148e+01    0.3313586    0.1726777  72.22  0.001557318    2.421    0.587
       118  -8.0657     46.3673    209.7505   1.2236400737e+02   2.5640645247e+01    0.2572554   0.07353849  57.93  0.000958909    4.035    0.752
       119  -8.1900    126.6537    208.5449   1.0628071011e+02   1.4179432693e+01    0.2124595    0.1513766  87.76 0.0007915004    1.757    0.431
       120  -9.3998    246.3872    207.3736   8.3149387398e+01  -6.1193593597e+00    0.2502448    0.1923331 -20.62 0.0006439082    1.288    0.224
       121  -7.9246    156.5170    208.0089   1.0014927901e+02   9.1031850368e+00    0.1764303    0.1328482 -53.95 0.0007362818    1.553    0.356
       122  -8.4659    139.1862    208.0874   1.0366568960e+02   1.2123430887e+01    0.2480784    0.1499238  62.61 0.0008208592    1.985    0.496
       123  -9.1703     99.3005    206.1327   1.1155011799e+02   1.9078818140e+01    0.3333364    0.2051131  78.92  0.001176751    1.960    0.490
       124  -8.4625     56.4133    205.4192   1.2006959334e+02   2.5274662800e+01    0.2624018    0.1262033  68.46 0.0008920478    2.193    0.544
       125  -7.9664     11.6547    206.7068   1.2852995815e+02   2.9962434578e+01   0.09360965    0.0769669 -61.42 0.0004043837    1.664    0.399
       126  -9.3216    195.0750    203.7101   9.1824026682e+01   2.9450726212e+00    0.2936769    0.2739172 -60.60  0.001092604    1.391    0.281
       127  -9.2779    192.4565    197.2341   9.1179722636e+01   4.4386055331e+00    0.3263201    0.2543511 -62.24  0.001240266    1.804    0.446
       128  -9.0278    183.9381    204.2673   9.4083925420e+01   4.8386523340e+00    0.3150674    0.2001783  60.30 0.0009512485    2.160    0.537
       129  -8.6079    131.3742    204.3192   1.0471615104e+02   1.4164538217e+01    0.2896725    0.1767132  71.73  0.001172745    2.343    0.573
       130  -8.1537    109.2136    205.2251   1.0940609885e+02   1.7687932770e+01    0.1805058    0.1337314  73.95  0.000593357    1.370    0.270
       131  -7.7373     92.3349    205.6654   1.1291386585e+02   2.0237443240e+01    0.1368635   0.08286024  68.67 0.0007052142    1.739    0.425
       132  -9.6807      6.5184    209.0932   1.2955814466e+02   2.9979496925e+01    0.5047703    0.1512707  81.69  0.002055555    4.130    0.758
       133  -9.6615    163.6608    203.1179   9.7928034964e+01   8.6743505390e+00    0.3590873    0.2490125  62.13 0.0008650186    1.736    0.424
       134  -9.4300    250.1034    201.9375   8.1518093748e+01  -5.9998532539e+00     0.331271    0.1645147 -30.08   0.00135872    1.958    0.489
       135  -9.3235    243.0217    200.7617   8.2509599991e+01  -4.7398309991e+00    0.2920598      0.16794 -34.03 0.0009860488    1.791    0.442
       136  -8.4164    210.9164    202.1583   8.8542223549e+01   4.0522025022e-01    0.1849734    0.1701765  44.09 0.0006170874    1.308    0.235
       137  -8.9689    140.5466    201.0609   1.0233428731e+02   1.3174239680e+01    0.3693609    0.2357826  75.31  0.001293051    2.393    0.582
       138  -8.6226     79.8276    201.1105   1.1494967074e+02   2.2994633805e+01    0.3176766    0.1683874  73.10  0.001504258    2.302    0.566
       139  -8.2176     48.1941    201.7797   1.2135922511e+02   2.7026351845e+01    0.2062691   0.08794762  68.38 0.0008146661    2.695    0.629
       140  -7.6587     40.6910    202.3321   1.2286071999e+02   2.7794858965e+01     0.125785    0.0677605  68.79 0.0004134926    1.669    0.401
       141  -9.1536    236.9399    198.3603   8.3119916948e+01  -3.4394245444e+00    0.3005032    0.1962429 -40.50  0.001470087    1.805    0.446
       142  -9.4734    149.6274    198.7431   1.0008851119e+02   1.1982560539e+01     0.397671     0.270303  80.73  0.001412225    2.300    0.565
       143  -8.9493    124.0169    199.4161   1.0553592181e+02   1.6359719986e+01    0.2978622    0.1983124  88.78  0.001482003    2.040    0.510
       144  -9.3687    112.9177    198.5152   1.0774032519e+02   1.8401656835e+01    0.4232446    0.2412982  67.94  0.001654849    2.257    0.557
       145  -9.1330     88.8026    198.6570   1.1281332518e+02   2.2179498409e+01    0.3778672    0.2086859  79.27  0.001514597    2.416    0.586
       146  -8.5147    202.5034    198.0554   8.9386746483e+01   2.5031502357e+00    0.2544733     0.211494 -77.82 0.0009811653    1.913    0.477
       147  -8.4109    176.9693    199.1223   9.4577543438e+01   6.9445519256e+00    0.1953981    0.1728111  62.65 0.0004511065    1.296    0.228
       148  -9.3510     61.4947    196.7797   1.1824207104e+02   2.6394338162e+01    0.4313537    0.2249931  82.15  0.001804872    2.187    0.543
       149  -8.3104     12.7884    198.1921   1.2783750926e+02   3.1547784932e+01    0.1974912   0.07018521  65.68 0.0009387115    2.749    0.636
       150  -8.8109    215.9828    195.7017   8.6410034220e+01   4.8208881375e-01    0.2565621    0.1821324 -51.17 0.0009325962    1.931    0.482
       151  -7.8445     29.3187    197.6504   1.2469192486e+02   3.0005030131e+01    0.1262421   0.06472065  68.72 0.0006494329    1.736    0.424
       152  -9.4663    245.7972    193.9249   8.0742783640e+01  -4.2721853205e+00    0.3128037    0.2553959 -67.44  0.001383603    2.336    0.572
       153  -8.7548    224.6056    194.4165   8.4582363332e+01  -8.2108162228e-01    0.2715426    0.1843964 -44.70  0.001111617    1.821    0.451
       154  -7.3929    209.2840    195.6652   8.7658128228e+01   1.6659393260e+00    0.1187854    0.1074811  87.57 0.0005662664    1.621    0.383
       155  -8.7605    185.2722    194.8639   9.2168442103e+01   6.1386918946e+00    0.2255538    0.2001223  89.53 0.0007574573    1.506    0.336
       156  -9.2523    161.0474    194.4883   9.7019119107e+01   1.0675223414e+01    0.3132614    0.2125187  64.35 0.0009251555    1.870    0.465
       157  -9.0084     44.0895    193.6197   1.2147042019e+02   2.9199775476e+01    0.4458458    0.1754056  66.15  0.001891988    3.109    0.678
       158  -8.2781    230.9053    194.3039   8.3424289174e+01  -1.8753715052e+00    0.1830932    0.1476109  19.92 0.0005293007    1.086    0.079
       159  -8.8921     77.1749    193.8944   1.1468812521e+02   2.4863789816e+01    0.2591462    0.1758004  69.64 0.0007289646    1.381    0.276
       160  -8.7008    172.4392    192.0662   9.4254388430e+01   8.9950403332e+00    0.2888428    0.2210111 -79.14   0.00108758    1.943    0.485
       161  -7.7969    241.4821    192.4245   8.1200417841e+01  -3.3692629637e+00    0.1278151      0.10619   7.15 0.0001585239    1.022    0.021
       162  -8.0906    198.9923    191.9415   8.8935031593e+01   4.1018540891e+00    0.1892336    0.1669341  81.86 0.0005205976    1.594    0.373
       163  -8.1504    179.0336    191.5937   9.2828841997e+01   7.8484700364e+00    0.2182603    0.1816203 -81.05 0.0007365097    1.668    0.400
       164  -9.2111    139.5701    190.7959   1.0091712775e+02   1.5297884212e+01     0.373191    0.2533746  82.77  0.001007308    2.174    0.540
       165  -7.6208    205.2692    191.6758   8.7675040274e+01   3.0032691317e+00    0.1196253    0.1084511 -89.67 0.0002639391    1.571    0.363
       166 -10.4491     92.0332    188.7348   1.1088423539e+02   2.3749448500e+01     0.892711    0.2839766  51.59  0.003163699    3.451    0.710
       167  -9.0254    216.8846    188.3540   8.4845950854e+01   1.4319492045e+00    0.3413669    0.2766393 -69.55  0.001631661    2.015    0.504
       168  -7.9529     20.0000    189.9715   1.2594560943e+02   3.2539291434e+01    0.1834515   0.05296772 -75.81 0.0008016536    2.937    0.660
       169  -7.9369      6.4622    190.4849   1.2856031539e+02   3.3689604416e+01    0.1122264     0.080155  79.99 0.0001424504    1.012    0.011
       170  -8.4696    237.1909    188.4919   8.1191432156e+01  -2.1087836176e+00    0.2312586    0.1616955 -24.11 0.0005730307    1.369    0.269
       171  -9.2117    155.9711    187.5523   9.6881363848e+01   1.2896665989e+01    0.3445113    0.2202462 -62.20  0.001076241    2.005    0.501
       172  -8.3045    148.3133    188.9669   9.8749635582e+01   1.4052057305e+01    0.2095386    0.1677474 -79.03 0.0006469384    1.526    0.345
       173  -8.8881    129.2125    188.6097   1.0279171363e+02   1.7584885219e+01     0.282214    0.2013926  74.65  0.001005619    1.681    0.405
       174  -9.8373    120.9123    186.7804   1.0430948072e+02   1.9412695608e+01    0.5295305    0.2865734 -75.27  0.002157211    2.864    0.651
       175  -8.7405     34.2456    188.0545   1.2298074799e+02   3.1477563127e+01    0.3120885    0.1404523  75.74  0.001081206    2.427    0.588
       176  -8.2867    132.9621    195.9899   1.0314229128e+02   1.5471963682e+01    0.2085714    0.1520377  74.65 0.0004976265    1.626    0.385
       177  -8.9734    191.5719    187.7200   8.9599468823e+01   6.1668246552e+00    0.2459391    0.2055983 -85.07  0.001075136    1.763    0.433
       178  -9.2128    109.6898    186.4113   1.0671028789e+02   2.1401758084e+01    0.3992076    0.2492713  76.02  0.001345896    2.085    0.520
       179  -9.1895     54.6106    186.8079   1.1866917642e+02   2.9378851531e+01    0.3941815    0.1954226  76.98  0.001802325    2.381    0.580
       180  -8.4227    230.3443    187.0817   8.2134370266e+01  -7.3987765007e-01     0.208007    0.1870918  60.02 0.0009198692    1.548    0.354
       181  -8.7747    164.9738    186.8138   9.4857005457e+01   1.1340758420e+01    0.2586608    0.2209883 -89.47 0.0008343103    1.465    0.318
       182  -8.4451    249.1909    185.6769   7.8567691851e+01  -3.6996142668e+00    0.2119487    0.1552638 -33.25 0.0007108545    1.434    0.303
       183  -9.1021    210.1729    183.8422   8.5233687123e+01   3.3508272291e+00    0.3056668    0.1842729 -29.65  0.001111455    1.738    0.425
       184  -8.5318    202.7882    184.8685   8.6852951841e+01   4.5488254594e+00    0.2238119    0.1897781 -62.36 0.0005875116    1.597    0.374
       185  -8.5059    182.8623    184.9563   9.0826386864e+01   8.2812157175e+00    0.2295159    0.1940462 -70.73 0.0006519269    1.556    0.357
       186  -9.1559     66.9061    184.4616   1.1579844499e+02   2.8294536477e+01    0.4178251    0.2199136  65.91  0.001232393    2.061    0.515
       187  -8.5278    224.1569    183.7735   8.2607703659e+01   8.3519315320e-01    0.2430252     0.177254 -21.22 0.0004909065    1.344    0.256
       188  -8.9929    174.2017    183.3214   9.2294937143e+01   1.0222797380e+01    0.3106002    0.2375792 -67.55 0.0009261815    1.751    0.429
       189  -8.3200    140.3782    183.4662   9.9520126158e+01   1.6589286807e+01    0.2126524    0.1924775  63.19 -3.532066e-05    1.072    0.067
       190  -8.6268    137.3569    179.3077   9.9466138889e+01   1.7982927903e+01    0.3866043    0.2453857  83.73  0.001188271    2.735    0.634
       191  -8.2105      1.9514    183.9177   1.2903360343e+02   3.5426496559e+01    0.1832315   0.09107469  65.33  0.001112994    1.693    0.409
       192  -9.0246    241.2714    182.1014   7.9221246684e+01  -1.8861027168e+00    0.3385603    0.2717076 -72.82   0.00182555    2.378    0.579
       193  -8.1062    197.0182    183.2478   8.7666877178e+01   5.8952372285e+00    0.1871533    0.1517171 -60.52 0.0005711166    1.639    0.390
       194  -9.0280     44.3355    182.2471   1.2038499551e+02   3.1595045326e+01    0.3545856    0.1855598  81.26  0.001188572    1.982    0.495
       195  -9.2112    147.5024    180.7420   9.7495323378e+01   1.5799572327e+01    0.3298935    0.2519986  76.59  0.001061217    1.628    0.386
       196  -9.5922     25.8444    179.2885   1.2397978561e+02   3.4224062812e+01     0.627754    0.2249889  76.81  0.002276768    4.408    0.773
       197  -7.9720    235.3412    181.2247   8.0087079250e+01  -7.4510363753e-01    0.1811638    0.1135915 -39.22 0.0009033689    1.711    0.416
       198  -8.0055     91.1698    181.6283   1.1012066097e+02   2.5400802899e+01    0.1816988    0.1236265  31.34 0.0009480421    1.717    0.418
       199  -9.4428    191.4541    178.2758   8.7801617168e+01   7.8025500496e+00    0.3137625    0.2717998  67.44 0.0004832239    1.432    0.302
       200  -8.0976    169.1918    178.7002   9.2470267790e+01   1.2036506989e+01     0.219557    0.1685511  60.61 0.0006424166    1.471    0.320
       201  -8.3730     96.8447    178.1845   1.0836283319e+02   2.5255457943e+01    0.2681895    0.1941432 -18.26  0.001274605    2.518    0.603
       202  -9.0105     35.8910    176.7219   1.2165690981e+02   3.3740101528e+01    0.4753888    0.1816867  79.04  0.001672207    4.453    0.775
       203  -9.4935    248.4363    176.6447   7.6898389254e+01  -2.3131346045e+00    0.4046926    0.2461011 -42.57  0.001729762    1.906    0.475
       204  -8.5767    250.5004    172.8984   7.5790474934e+01  -2.1251773013e+00    0.1864665    0.1667223 -11.20 0.0005125387    1.167    0.143
       205  -8.5684    231.2462    176.9480   7.9957593360e+01   6.0951511397e-01    0.2605258    0.1638394 -41.87 0.0007837383    1.764    0.433
       206  -8.3672    217.6348    177.3403   8.2531564468e+01   3.0123412565e+00    0.2184609    0.1576006 -42.97 0.0005718863    1.559    0.359
       207  -8.8230    205.0898    177.3967   8.4933791217e+01   5.3472287339e+00    0.2530221    0.1975959 -40.23 0.0006857389    1.387    0.279
       208  -8.6414    129.1409    177.4991   1.0098076678e+02   1.9863005507e+01    0.2884094    0.2069157  88.85 0.0008949739    1.799    0.444
       209  -9.0684    183.0443    176.1899   8.9099164045e+01   9.8012472091e+00    0.2889024    0.2237561 -61.21   0.00066452    1.646    0.392
       210  -9.4519    104.4870    174.8422   1.0612538474e+02   2.4736051041e+01    0.5555148    0.3134024  70.16  0.001901701    2.505    0.601
       211  -8.7366     89.0245    176.7949   1.0993106756e+02   2.6784763095e+01    0.2725022    0.1895861  82.29 0.0008123924    1.528    0.345
       212  -9.1708     58.9843    175.9843   1.1656537388e+02   3.1190973349e+01    0.4493111    0.1896366  61.32  0.001697974    2.912    0.657
       213  -9.5591     55.9982    171.4831   1.1671638711e+02   3.2571086382e+01    0.4661523    0.2270286  79.30  0.001987292    2.764    0.638
       214  -8.7997     12.6586    176.2770   1.2644512728e+02   3.6113476609e+01    0.2863276    0.1233688  80.00   0.00108717    2.267    0.559
       215  -7.9998    211.5866    176.2613   8.3455794319e+01   4.3099816513e+00    0.1813974    0.1259856 -22.20 0.0009308539    1.500    0.333
       216  -9.1404    158.7507    175.1174   9.4021040820e+01   1.4747478869e+01     0.377617    0.2662344  82.55  0.001143676    2.235    0.553
       217 -10.5547     75.8979    170.9547   1.1212212499e+02   3.0030008355e+01     1.093693    0.4589974 -77.45  0.004002079    3.362    0.703
       218  -9.1652     74.4671    160.4763   1.1099582994e+02   3.2617868422e+01    0.4826157    0.2378167  17.75  0.001534717    5.470    0.817
       219  -8.2506    224.4722    174.1106   8.0608591473e+01   2.2664229886e+00    0.1992421    0.1270756 -32.44 0.0005338712    1.545    0.353
       220  -9.4576    175.6065    172.2276   8.9860889805e+01   1.1988692956e+01    0.3722937    0.2437235 -43.90  0.001118333    1.623    0.384
       221  -8.3880    143.0936    172.7388   9.7017819829e+01   1.8241911991e+01     0.237724    0.1949607 -77.05 0.0007204176    1.402    0.286
       222  -7.7221    194.3237    172.3091   8.6030533070e+01   8.2873691663e+00    0.1462692     0.106161   8.17 0.0005178888    1.650    0.394
       223  -8.5085    134.8161    171.9058   9.8724198059e+01   1.9979527197e+01    0.2609036    0.1963069 -84.91 0.0009363143    1.651    0.394
       224  -9.5671    121.3843    170.2730   1.0149795474e+02   2.2795751724e+01    0.4613935    0.2801609 -75.79  0.001218242    2.249    0.555
       225  -8.9530     45.0277    171.0857   1.1912147431e+02   3.3971700272e+01    0.3578778    0.1845124  81.57  0.001334077    2.142    0.533
       226  -8.5500    205.5587    170.0542   8.3347207049e+01   6.4902323618e+00    0.3043389    0.1896431 -42.74 0.0008595939    1.714    0.417
       227  -8.8479    208.0110    166.2704   8.2082186201e+01   6.6567852006e+00    0.2753131    0.1860104  38.92 0.0004228241    1.429    0.300
       228  -8.4199    204.9960    162.9603   8.1968044695e+01   7.8174956947e+00    0.2115558    0.1781935 -77.40 0.0005443197    1.691    0.409
       229  -8.2671    237.1366    169.6894   7.7424486096e+01   6.6063689272e-01    0.2136315    0.1744468 -35.17 0.0006004858    1.312    0.238
       230  -8.7655    230.3270    170.1151   7.8722506758e+01   1.8212966685e+00    0.1912489     0.158063 -20.36 0.0006771019    1.142    0.125
       231  -9.1322    167.2595    168.7266   9.0939530750e+01   1.4312359580e+01      0.39261    0.2642231  72.87  0.001154984    2.339    0.573
       232  -8.7566    149.8338    169.7066   9.4947471968e+01   1.7558889437e+01    0.2778662    0.2024497 -67.29  0.001076491    1.663    0.399
       233  -8.2184    244.4721    169.4849   7.6110981222e+01  -5.9930992228e-01    0.1327704    0.1144913  -3.94 6.261126e-05    1.034    0.032
       234  -8.4442    218.9424    168.5319   8.0478739856e+01   4.1832020868e+00    0.2302226    0.1902239 -49.07 0.0005712955    1.463    0.316
       235  -8.2584     88.7113    168.6500   1.0882585653e+02   2.8642761619e+01    0.2292978    0.1525729  89.33 0.0006275797    1.689    0.408
       236  -8.8368    111.6380    167.2556   1.0324020567e+02   2.5179860761e+01    0.3172518     0.217163 -89.40 0.0009187044    1.832    0.454
       237  -8.8787    191.8520    166.6609   8.5367392745e+01   9.7781665017e+00    0.2651575    0.2024146 -45.28 0.0005831007    1.418    0.295
       238  -8.6498    185.0730    166.6748   8.6759218034e+01   1.1131637044e+01    0.2432523    0.1940414 -52.01 0.0006256591    1.422    0.297
       239 -10.0363     95.1749    163.0177   1.0642763746e+02   2.8892685820e+01    0.8712284     0.462703  78.94  0.003021869    3.745    0.733
       240  -9.0259     20.4537    166.1307   1.2403397840e+02   3.7613478399e+01    0.3200023    0.1290538  60.78   0.00145631    2.602    0.616
       241  -8.3459    198.7742    170.1528   8.4701048093e+01   7.7934594106e+00    0.2043554    0.1940438 -89.13  0.000632277    1.313    0.238
       242  -8.3212    140.6561    166.3178   9.6364991245e+01   2.0036638641e+01    0.2356961     0.170465  57.68 0.0009102818    1.434    0.303
       243  -9.7442    135.7722    163.9324   9.7029192855e+01   2.1478202968e+01     0.407423    0.2663848  61.49  0.000874427    1.762    0.432
       244  -8.1275    233.8526    165.1054   7.7046120518e+01   1.9566550095e+00    0.1938539    0.1709925 -28.79 0.0004348275    1.201    0.168
       245  -8.8224    159.4683    164.3928   9.1768835688e+01   1.6723926178e+01    0.3132462    0.2451875 -71.62 0.0008992779    1.589    0.371
       246  -9.4388     33.6570    163.5422   1.2088779645e+02   3.6902305129e+01    0.5103692    0.1823484  56.97  0.002109419    3.230    0.690
       247  -8.2551    240.0368    164.0666   7.5743917229e+01   9.9690696223e-01    0.1939932    0.1641592 -58.20 0.0007359153    1.646    0.393
       248  -8.5789    212.8999    163.6687   8.0593612523e+01   6.1452204412e+00    0.2564525    0.1956653 -38.73 0.0006324258    1.358    0.264
       249  -8.2884     57.4503    163.7121   1.1545599415e+02   3.4148575502e+01    0.2803749    0.1681421  17.69    0.0013317    2.743    0.635
       250  -9.0521    246.0195    163.0431   7.4504396501e+01   8.7985960332e-02    0.2017228    0.1769457  -7.91 0.0005160438    1.061    0.057
       251  -9.2824      3.3851    162.4508   1.2739089182e+02   3.9867672973e+01    0.3442417    0.1430426  57.47  0.001578387    2.291    0.564
       252  -7.4713    200.3230    162.6657   8.2825598727e+01   8.7984166613e+00    0.1394779    0.1170764 -85.12 0.0005039332    1.708    0.415
       253  -8.7565    151.7397    161.1905   9.2847475461e+01   1.8922767679e+01    0.3159288    0.2251663 -73.97 0.0009398452    1.896    0.473
       254  -7.7575    222.2540    161.6746   7.8414739388e+01   4.6722301035e+00    0.1280798    0.1096801 -60.46 0.0001861501    1.547    0.354
       255  -8.9684    177.4145    160.6148   8.7097798165e+01   1.3821316811e+01    0.2860576     0.242276 -76.85 0.0008365837    1.497    0.332
       256  -8.6397     60.6766    160.5254   1.1429225331e+02   3.4470143456e+01    0.3331222    0.1633033  65.93  0.001338034    2.619    0.618
       257  -8.8466    241.4155    154.1713   7.3393558938e+01   2.2715514240e+00    0.3796563    0.2807197  86.84   0.00175972    2.790    0.642
       258  -8.3698    245.2807    158.6484   7.3698839202e+01   8.8183094986e-01    0.2390677     0.145838 -40.27 0.0005245556    1.679    0.404
       259  -9.8743    250.1599    157.8563   7.2714252947e+01   1.3523806910e-01    0.3723488    0.1827887 -34.39 0.0008359615    1.868    0.465
       260  -8.5263    246.7099    155.6768   7.2823167717e+01   1.0775314607e+00    0.2095045    0.1707604  -0.48 0.0003774599    1.137    0.120
       261  -8.6230    227.4939    159.2452   7.6936549132e+01   4.0693900647e+00    0.3042829    0.2075579 -54.93  0.000938316    2.039    0.510
       262  -8.4302    236.9981    159.0160   7.5199314952e+01   2.3289440268e+00    0.1970136    0.1692892 -65.89  0.000583272    1.665    0.399
       263  -8.3726    128.2279    159.1343   9.7872067540e+01   2.3948000093e+01    0.2792665    0.1795582  67.12 0.0007656343    2.000    0.500
       264  -9.7504    105.7840    157.5991   1.0296000172e+02   2.8352350683e+01     0.538671    0.3629156 -78.43   0.00139434    1.720    0.419
       265  -8.3417    196.5290    158.0894   8.2600708715e+01   1.0380850662e+01    0.2166543    0.2025895 -85.56 0.0007005659    1.310    0.237
       266  -8.4639    188.1085    157.7188   8.4237211419e+01   1.2172498548e+01    0.2477382    0.1979075 -49.30 0.0006036205    1.371    0.271
       267  -9.1593    167.5963    157.4476   8.8545026754e+01   1.6456701197e+01    0.3217487    0.2584293  80.93  0.001101964    1.621    0.383
       268  -8.5238    217.8525    156.5054   7.8115738846e+01   6.3831256139e+00    0.2736669    0.1740823 -51.00 0.0009503721    1.960    0.490
       269  -9.0373    157.6492    156.0981   9.0467010653e+01   1.8773112542e+01    0.3362454    0.2492775 -68.41  0.001012671    1.687    0.407
       270  -9.3944    119.5557    155.1217   9.9173356959e+01   2.6454120979e+01    0.5124734    0.3020107 -72.54  0.001510178    2.293    0.564
       271  -9.4001     81.6758    154.8597   1.0839328016e+02   3.2866800633e+01    0.5092143    0.2908761  76.16  0.001640808    2.481    0.597
       272  -9.3817     49.6282    155.3441   1.1626453263e+02   3.7021741102e+01    0.3775011    0.2019711  72.50  0.001705311    2.216    0.549
       273  -8.0594    204.7085    155.2075   8.0347862144e+01   9.2330539564e+00    0.2184976    0.1743952 -49.68 0.0007331485    1.418    0.295
       274  -8.5391    144.4873    154.9727   9.3238420917e+01   2.1676087122e+01    0.2815335    0.2024307  62.42 0.0006835765    1.572    0.364
       275  -9.7425    132.8233    153.0183   9.5579734524e+01   2.4402954058e+01    0.4499518    0.3417368  87.60  0.001275884    1.657    0.396
       276  -9.3040    133.5243    148.5128   9.4487515753e+01   2.5254040843e+01    0.3473358    0.2505007 -45.08  0.001078588    1.434    0.303
       277  -9.4230     68.0781    153.6779   1.1155832200e+02   3.5081379142e+01     0.449583    0.2553052  76.48  0.001341851    2.280    0.561
       278  -8.4256    151.9226    152.9492   9.1102101259e+01   2.0597405795e+01    0.2359979    0.1842509  89.66  0.001117276    1.676    0.403
       279  -8.1809      8.8023    153.3795   1.2553592560e+02   4.1440872269e+01    0.1319342    0.1140922   3.91 0.0009521387    1.728    0.421
       280  -9.6607    248.8356    149.5407   7.1145089607e+01   1.6313697445e+00    0.3733433     0.200386 -34.33 0.0009476012    1.697    0.411
       281  -9.5436     29.7106    151.0720   1.2051509608e+02   4.0133328677e+01    0.3763849    0.1831928  71.16  0.001789539    2.372    0.578
       282  -8.1415     19.9053    152.6282   1.2295675828e+02   4.0683828501e+01    0.1610005    0.0909551  50.13 0.0006529186    1.768    0.434
       283  -8.4993      2.7317    151.1047   1.2670679847e+02   4.2407084598e+01    0.3126783    0.1162717 -80.47  0.001544332    2.148    0.534
       284  -8.7667    243.2473    150.2975   7.2240707653e+01   2.5374950242e+00    0.2926455    0.1605292 -34.11   0.00080594    1.679    0.405
       285  -8.7493    189.5845    150.4338   8.2331499237e+01   1.3228236016e+01    0.2833146    0.2391825 -73.29 0.0006349789    1.519    0.342
       286  -7.9268    182.3983    151.2620   8.4016049659e+01   1.4580987732e+01    0.2006086    0.1401338 -51.67 0.0003889357    1.596    0.373
       287  -8.2950    162.5024    150.5164   8.8181617603e+01   1.8910805962e+01    0.2456712    0.1435983 -56.00  0.000730816    2.030    0.507
       288  -8.7010     98.2101    150.7132   1.0359353653e+02   3.1213709417e+01    0.2979017    0.2046785  89.35 0.0008875912    1.770    0.435
       289  -9.6870    241.6321    137.8147   6.9740600136e+01   4.8181749947e+00    0.4260491    0.2325158 -43.89   0.00193477    1.900    0.474
       290  -9.6895    233.4693    147.6669   7.3340349296e+01   4.8022998408e+00    0.3392132     0.222783 -28.04 0.0009619217    1.436    0.304
       291  -9.0421    238.3771    150.0474   7.3014991201e+01   3.4853237790e+00    0.3661762    0.1980362  27.76  0.001585448    2.287    0.563
       292  -9.7355    240.2873    145.6040   7.1708539598e+01   3.8308121963e+00    0.3122896    0.2002543 -29.47 0.0008591754    1.438    0.304
       293  -8.7481    242.6826    143.3240   7.0799081824e+01   3.7395333274e+00    0.3133992    0.1569177 -19.44  0.001242757    2.553    0.608
       294  -8.4026    213.1439    149.9235   7.7549696646e+01   8.4477922971e+00     0.213285    0.1954181 -65.12  0.000576323    1.342    0.255
       295 -10.2051     89.1600    146.3269   1.0508929664e+02   3.3707245067e+01    0.7505708    0.4056409 -88.44  0.002600407    3.396    0.705
       296  -9.6766     39.9131    148.0684   1.1772153977e+02   3.9794479274e+01    0.5221416    0.2249281  62.89  0.001890917    3.104    0.678
       297  -8.2099    228.7703    148.9938   7.4465180603e+01   5.4962516832e+00    0.1870193    0.1099121 -33.52 0.0003805639    1.611    0.379
       298  -8.2186    198.8055    149.0473   8.0147107144e+01   1.1554717202e+01    0.2178605    0.1965669 -67.61 0.0005500073    1.337    0.252
       299 -10.4096    106.8708    144.0818   1.0017177255e+02   3.1259956912e+01    0.8359007    0.5468609 -79.74   0.00232818    1.951    0.487
       300  -8.8909     78.3197    147.4548   1.0803440284e+02   3.5095624052e+01    0.3023724    0.1905463  72.74   0.00072699    1.930    0.482
       301 -10.5781     54.8866    143.2490   1.1334475349e+02   3.9227607688e+01     1.032946    0.5274808 -78.64  0.003119853    2.045    0.511
       302  -8.1859    223.3084    146.9845   7.5001237626e+01   6.9069811428e+00    0.2008601    0.1692083 -26.48 0.0003589838    1.124    0.110
       303  -8.2490    207.0193    146.7900   7.8019551975e+01   1.0253850192e+01    0.2136696    0.1998123 -83.61  0.001186004    1.313    0.238
       304 -10.1979    149.0574    145.0251   9.0053826355e+01   2.2862544357e+01    0.5746028    0.3961781  87.82  0.001641288    2.358    0.576
       305  -9.9199    139.0616    145.0688   9.2428757630e+01   2.4902818583e+01    0.5030763    0.3256397 -75.51  0.001181803    2.327    0.570
       306  -9.3633     13.1702    145.9602   1.2389933306e+02   4.2761087152e+01    0.3884204    0.1763253  67.59  0.001381471    2.432    0.589
       307  -8.1106    175.4343    146.2213   8.4376480054e+01   1.7039347081e+01    0.2020411    0.1436193 -53.89 0.0004590818    1.573    0.364
       308  -9.8164    125.0187    142.7805   9.5359204263e+01   2.8192374556e+01    0.5478575    0.3563511 -86.77  0.001720102    2.472    0.595
       309  -8.8600    247.0360    143.8879   7.0202505570e+01   2.8354497977e+00    0.2381887    0.1736705 -28.02 0.0005166109    1.232    0.188
       310  -7.6572    194.3696    144.1515   7.9929039397e+01   1.3393467349e+01    0.2086526    0.1354729 -48.92 0.0004300881    1.687    0.407
       311  -8.8327    165.3909    143.9728   8.6078861445e+01   1.9637232238e+01    0.2781059    0.2453362  70.28 0.0006965125    1.257    0.205
       312  -9.3537      2.7116    141.8137   1.2597491472e+02   4.4479710768e+01    0.3680989    0.1591923  77.83  0.001516105    2.439    0.590
       313  -8.2355    182.0272    141.9806   8.1992605575e+01   1.6455935294e+01    0.2265034    0.1872315 -85.26 0.0005631144    1.595    0.373
       314  -8.3316     39.6911    141.6386   1.1697693806e+02   4.1320831549e+01    0.1908471    0.1340689 -43.06  0.001089266    1.725    0.420
       315  -8.1924    250.5410    140.7487   6.8938785888e+01   2.6742364946e+00    0.2527626    0.1219287 -29.75 0.0008873239    1.928    0.481
       316  -9.3174    139.5911    137.7406   9.0682798320e+01   2.6399111609e+01    0.4397627    0.2743993 -18.34  0.001589646    2.950    0.661
       317  -9.8773     23.3311    138.0499   1.2064673258e+02   4.3726127544e+01    0.5442044    0.2488268  71.82  0.002299604    2.818    0.645
       318  -8.6803    172.1849    138.4227   8.3291959117e+01   1.9297285023e+01    0.3069864    0.2287759 -79.42 0.0007991248    1.952    0.488
       319 -10.7486     68.8565    140.1018   1.0925591876e+02   3.8176052976e+01    0.8590646     0.422844 -65.37  0.003037925    1.881    0.468
       320  -7.4266    218.7138    138.6819   7.3951877230e+01   9.2573618102e+00    0.1474122    0.1091523   3.02 0.0003342625    1.590    0.371
       321  -8.1153    207.6273    138.3015   7.5950307290e+01   1.1646499092e+01    0.2162843    0.1736008 -70.46  0.000737784    1.683    0.406
       322  -8.6688    197.6486    137.4499   7.7710416970e+01   1.3939486267e+01    0.2805265    0.2114544 -61.43 0.0006730601    1.675    0.403
       323  -8.3855    162.4928    136.5180   8.5013428645e+01   2.1796436379e+01     0.250255    0.1454242 -54.45 0.0006628605    1.974    0.494
       324  -9.1571     39.1522    136.3616   1.1642534338e+02   4.2618425814e+01    0.2919909    0.1755232  78.21 0.0008232628    1.826    0.452
       325  -8.9784    248.5332    135.3042   6.8047801502e+01   3.8991564490e+00     0.311789    0.1876046 -40.36 0.0008492275    1.592    0.372
       326  -9.0661    250.7471    130.0358   6.6509614928e+01   4.3070907898e+00    0.4669926    0.1154202 -33.56  0.001453023    3.754    0.734
       327  -8.5010    246.8680    130.1807   6.7156852423e+01   5.0272144072e+00    0.2331351    0.1707112 -39.20 0.0006368597    1.303    0.233
       328  -7.3151    192.3364    136.6914   7.8606445215e+01   1.5234588466e+01    0.1503921    0.1222318 -83.22 0.0007042841    1.678    0.404
       329  -8.0754    151.5225    135.6694   8.7354307650e+01   2.4340639398e+01    0.2727484    0.1414173  45.52  0.001067667    1.916    0.478
       330 -10.4358     83.3901    132.7061   1.0408957077e+02   3.7828664363e+01     0.629066    0.3410646 -71.07   0.00119013    2.093    0.522
       331  -8.7859     84.7796    122.8676   1.0174206749e+02   3.9954616913e+01      0.38066     0.252982  11.96  0.001675601    2.386    0.581
       332  -7.8797    237.5650    133.7585   6.9499118220e+01   6.2687872321e+00    0.1975561    0.1222411 -43.25 0.0009333694    1.630    0.386
       333  -9.0999    112.7579    133.3546   9.6449753392e+01   3.2673040317e+01     0.346254    0.2561696 -88.37  0.001070246    1.693    0.409
       334  -8.5476    179.4879    133.9146   8.0637370504e+01   1.8593612974e+01    0.2800564     0.237698 -83.61 0.0008034605    1.472    0.321
       335 -10.0033    132.5632    131.5873   9.1005971858e+01   2.9204004978e+01    0.5364769    0.3800339  79.30  0.001064423    1.996    0.499
       336 -10.6047     98.4604    129.0290   9.9296569833e+01   3.6244134256e+01     1.132962    0.3788568 -50.76  0.003882694    2.809    0.644
       337  -9.1139    143.0288    131.7477   8.8466277882e+01   2.6993147405e+01    0.3049816     0.244591 -72.22 0.0007920021    1.444    0.307
       338  -9.6699    152.9819    128.5717   8.5322351148e+01   2.5539329973e+01    0.6563162    0.2854139 -48.11  0.002143112    2.369    0.578
       339  -9.9254     73.0775    129.2712   1.0623613023e+02   4.0173258599e+01    0.4417549    0.2667452 -81.11  0.001283782    1.983    0.496
       340 -10.1911     12.7340    128.3309   1.2225704211e+02   4.6829276570e+01    0.6564163    0.2639566 -87.03    0.0028284    2.614    0.617
       341  -7.8678    220.7303    130.0064   7.1556984664e+01   1.0340083486e+01    0.1851117    0.1215415 -34.40 0.0005928105    1.438    0.305
       342  -8.1142    204.4571    130.2608   7.4659271426e+01   1.3786979620e+01    0.2078078    0.1378044 -47.46 0.0009346537    1.594    0.373
       343  -8.1434    192.8476    130.1851   7.6945745797e+01   1.6355996035e+01    0.2257972    0.2024167 -65.15 0.0004649581    1.268    0.211
       344  -9.1821    168.1681    129.4430   8.2039150429e+01   2.2005183859e+01    0.3211702    0.2659058 -88.33 0.0005623296    1.520    0.342
       345  -7.9236      1.6196    130.2855   1.2523808895e+02   4.7152569024e+01    0.1203214    0.0695437  67.43 0.0007013505    1.730    0.422
       346  -8.1062    211.6752    129.3183   7.3057830837e+01   1.2391352989e+01    0.2208336    0.1731883 -73.02 0.0007473231    1.766    0.434
       347 -10.7310     44.8708    123.5674   1.1303323260e+02   4.5053836252e+01     1.068761    0.5172993  77.87  0.003842198    3.949    0.747
       348  -8.5325     26.1788    129.7309   1.1894182863e+02   4.5416067815e+01    0.2461426    0.1151566  23.31  0.001203987    2.801    0.643
       349 -10.4595     60.1127    125.2913   1.0908914856e+02   4.2862943349e+01    0.7005122      0.39888  77.35  0.002525428    2.632    0.620
       350  -9.9761    117.9453    125.0367   9.3226512951e+01   3.3601660153e+01    0.6002172    0.4221702 -80.56  0.001625197    1.911    0.477
       351  -7.7384    228.4988    125.5086   6.9123419387e+01   9.4829819597e+00    0.1445707    0.1333292 -29.61 0.0008097775    1.065    0.061
       352  -8.9733    179.2335    124.8059   7.8469725159e+01   2.0452096688e+01    0.2965445     0.257585 -81.32 0.0006965772    1.377    0.274
       353 -10.1792     28.3959    122.5925   1.1742122291e+02   4.6897606787e+01    0.6549652    0.3095684  76.22   0.00269397    3.216    0.689
       354  -7.6793    188.5334    124.4604   7.6427023681e+01   1.8415467631e+01    0.1516338    0.1485071 -25.48 0.0002086241    1.033    0.032
       355  -9.0637    158.7241    121.7523   8.2289163792e+01   2.5708305272e+01    0.3783056    0.2810145 -75.40 0.0009338091    1.824    0.452
       356  -8.6458    171.9152    121.6398   7.9269722580e+01   2.2746790965e+01    0.2883092    0.2235241 -49.29 0.0005618759    1.324    0.245
       357  -7.6067    203.2648    121.7132   7.2807653047e+01   1.5617076668e+01    0.1437326    0.1180805 -68.19 0.0002394619    1.494    0.331
       358 -10.1528    130.9847    118.7276   8.8316150066e+01   3.2399193173e+01    0.5519641    0.3751395 -86.18  0.001833345    2.404    0.584
       359  -9.6940     71.2104    120.0542   1.0498839641e+02   4.2641585999e+01     0.405426    0.2605786 -84.85  0.001254195    1.926    0.481
       360 -10.1045    141.4754    118.1386   8.5520244237e+01   3.0293927440e+01    0.6008017     0.307665 -55.07  0.001804938    2.261    0.558
       361  -9.4695      2.8424    117.3286   1.2366240933e+02   5.0024916356e+01    0.4374307    0.1888678  76.04  0.001799584    2.954    0.661
       362  -8.1096    231.3889    117.2723   6.6672220029e+01   1.0266450826e+01    0.2032277    0.1244977 -42.72 0.0006238156    1.576    0.365
       363  -9.9774    109.3779    114.4249   9.2990274273e+01   3.7679998084e+01    0.5665188    0.3675269 -77.42  0.001459166    2.279    0.561
       364  -9.2249    110.1092    107.3793   9.1016950978e+01   3.9150733375e+01    0.4051938    0.2540085  13.58  0.001496779    2.904    0.656
       365  -8.8296     59.3397    115.4576   1.0750413192e+02   4.5313946494e+01    0.4267536     0.236725 -21.20  0.001530779    4.145    0.759
       366  -7.8785    219.4635    116.5205   6.8537657309e+01   1.2958290558e+01    0.1479945     0.138031 -26.04  0.000100475    1.016    0.016
       367  -7.9460    185.7631    116.0610   7.4884004705e+01   2.0667478674e+01    0.2043595    0.1275972 -39.82 0.0004568408    1.567    0.362
       368  -8.7986    249.3549    114.2510   6.3104610962e+01   7.0744332867e+00    0.4263422    0.2311816 -61.52  0.001540205    3.622    0.724
       369  -8.1776    192.9505    115.1553   7.3187999726e+01   1.9181342429e+01    0.2328735    0.2019599 -63.78 0.0005383195    1.290    0.225
       370  -7.7440    153.3091    115.6872   8.2013850084e+01   2.8199554291e+01    0.1584593    0.1256922 -84.18 0.0005843359    1.626    0.385
       371 -10.1475     79.0550    112.6467   1.0117687458e+02   4.3264447223e+01    0.5837011     0.375679  89.79  0.001561465    2.308    0.567
       372  -8.8120     78.6698    105.2834   9.9613167795e+01   4.5059462016e+01    0.3705418     0.242382  17.11  0.001617743    2.131    0.531
       373  -7.9158    167.2535    114.5584   7.8493407095e+01   2.5249227277e+01    0.2090998     0.149929  37.58 0.0004864709    1.472    0.321
       374 -10.1052     92.7312    112.5561   9.7207850312e+01   4.1095641903e+01      0.56471    0.3536486 -71.72  0.001326295    1.981    0.495
       375  -8.8813     93.3637    104.6484   9.5104834047e+01   4.2827971930e+01    0.2714427    0.2098257   9.46  0.001171578    1.695    0.410
       376  -9.1374     26.6981    113.8326   1.1665847533e+02   4.9107409928e+01    0.2464328    0.1637817 -17.43  0.001198392    2.238    0.553
       377  -9.9439    133.5370    109.6875   8.5338682315e+01   3.3852471924e+01    0.7115646    0.3166105 -50.31  0.001944171    2.342    0.573
       378 -10.2805    121.9756    112.5147   8.9102716312e+01   3.5644501778e+01    0.4324364    0.3569051 -67.74 0.0009680938    1.304    0.233
       379  -9.9414    119.1273    106.7713   8.8378238812e+01   3.7508081907e+01    0.4901217    0.2221707 -43.43  0.001808939    2.179    0.541
       380  -8.4930    174.7711    111.8878   7.6134466279e+01   2.4038802972e+01    0.2869619    0.2054867 -58.32 0.0006520058    1.617    0.382
       381  -8.3324    159.1468    111.7317   7.9605454152e+01   2.7696029021e+01    0.2757456    0.2034253 -52.97 0.0005492106    1.426    0.299
       382 -10.2516     66.2662    109.8592   1.0434091083e+02   4.5751607015e+01    0.5755372    0.3104138 -67.05  0.002078437    1.877    0.467
       383  -9.8922     14.1474    111.1304   1.1984462987e+02   5.0711305653e+01    0.4206866    0.2273596  72.86  0.002021983    2.236    0.553
       384  -7.6509    209.4029    111.5400   6.9112797242e+01   1.6080217551e+01    0.1503977    0.1402368 -22.58 9.891579e-05    1.027    0.026
       385  -7.9290    149.7755    110.0566   8.1383307343e+01   3.0184078952e+01    0.2105832    0.1282383 -43.82 0.0004151638    1.622    0.384
       386  -9.8777    249.0810    108.2184   6.1737501315e+01   8.0878024802e+00    0.3760088    0.3013543 -37.45  0.001740903    1.127    0.112
       387 -10.4484    249.2417    103.5921   6.0626981248e+01   8.7887186097e+00    0.5146158    0.3022859 -38.36  0.002483162    1.504    0.335
       388  -8.1415    189.1978    108.1623   7.2135668305e+01   2.1376274291e+01    0.2199916    0.1787386 -59.52 0.0005300645    1.365    0.267
       389  -9.6173    139.8047    104.3420   8.2304770789e+01   3.3633889085e+01    0.4976885    0.3078659 -52.69  0.001155299    1.718    0.418
       390 -10.6458     45.4458    102.2076   1.0910216452e+02   5.0070141754e+01    0.7690506    0.4319104  77.86  0.003090912    3.054    0.673
       391  -9.0409     45.6897     92.6610   1.0706165513e+02   5.2280200544e+01     0.393882     0.223302   3.36  0.001748275    2.983    0.665
       392 -10.6641     22.9903    102.7483   1.1606468643e+02   5.2007809781e+01    0.6993347    0.3608631  76.15  0.002619712    2.896    0.655
       393  -9.5459    150.6180    103.0790   7.9291772585e+01   3.1449188309e+01    0.4909871    0.2916548 -61.05  0.001129175    2.301    0.565
       394  -8.4862    166.7738    104.1547   7.5833113340e+01   2.7455543302e+01    0.2392728    0.2104851 -67.13 0.0005331251    1.245    0.197
       395  -8.6512    238.9967    103.4965   6.2137153088e+01   1.0936861213e+01    0.2068022    0.1130599  31.12 0.0008105073    2.679    0.627
       396  -9.8793    128.4101    102.0407   8.4616532527e+01   3.6616425017e+01    0.3722906    0.2994574 -89.73  0.000894203    1.583    0.368
       397  -9.0264    130.9736     97.0244   8.2542455921e+01   3.7138938954e+01    0.3843364    0.2457486  12.59  0.001375507    2.857    0.650
       398 -10.7852    109.4678     99.2061   8.9031078102e+01   4.1113116175e+01    0.8755816    0.4905926  65.09  0.003054542    3.162    0.684
       399  -8.9698    107.9811     92.7362   8.7657492713e+01   4.2830718456e+01    0.3447383    0.2720656  -8.66  0.001135167    1.583    0.368
       400  -9.6850      6.6681    102.1119   1.2082062559e+02   5.3280280881e+01    0.4158479    0.1855265 -78.28  0.002099721    1.925    0.480
       401  -7.8396    175.5532    102.4488   7.3448316620e+01   2.5705738617e+01    0.1561887    0.1511897 -60.64 0.0003005647    1.056    0.053
       402  -8.2599    159.8279    101.1486   7.6587411825e+01   2.9696953320e+01     0.243383     0.212041 -71.94 0.0005900015    1.287    0.223
       403  -9.3165     81.9918     99.8059   9.7283822212e+01   4.5822171985e+01    0.3975449    0.2576777 -72.95 0.0008500589    1.939    0.484
       404 -10.7586    123.8782     90.8457   8.2659842857e+01   3.9981715719e+01    0.8522995    0.5938157 -18.69  0.001868338    1.867    0.464
       405  -9.4784     94.9287     96.8518   9.2623062754e+01   4.4338405924e+01    0.4235051    0.2355368 -54.11 0.0005671183    1.759    0.431
       406 -10.3389     63.9013     94.8075   1.0169097213e+02   4.9605982240e+01    0.8687878    0.4232229 -63.00  0.002992642    2.088    0.521
       407  -8.1854    164.8112     94.1222   7.3490861606e+01   2.9901480681e+01    0.2446843    0.2069093 -66.23 0.0004944173    1.320    0.242
       408  -9.3290    139.0658     92.5419   7.9169586846e+01   3.6270941534e+01     0.419709    0.3027007 -79.36 0.0008584848    2.050    0.512
       409  -9.2592    247.0974     92.8527   5.8385915815e+01   1.0928978751e+01    0.4190501    0.1411149  51.12  0.001534015    3.192    0.687
       410  -8.3042    176.2326     93.2390   7.0769752442e+01   2.7305417013e+01    0.2184773    0.1825406 -67.90 0.0008327505    1.355    0.262
       411  -9.4872      5.2082     92.2678   1.1992313163e+02   5.5613642168e+01    0.3437284    0.1754349  56.95  0.001361764    2.589    0.614
       412  -8.4317    157.7155     91.6135   7.4386267514e+01   3.2095179179e+01     0.300861    0.1943826 -42.71 0.0004467657    1.530    0.346
       413  -9.8785     34.8579     89.9910   1.1003828145e+02   5.3972001808e+01    0.4785667    0.2659754 -85.35  0.001793144    2.464    0.594
       414  -9.1414     22.8210     90.4784   1.1405614070e+02   5.4867154868e+01    0.2877124    0.2320422 -27.43  0.001374458    1.420    0.296
       415  -8.0555    151.1336     89.1577   7.5217154062e+01   3.4146704215e+01    0.2209942    0.1817722 -62.42 0.0003829125    1.353    0.261
       416 -10.2647     86.9229     85.7551   9.2005443011e+01   4.8198083451e+01    0.8140116    0.5177205 -44.95  0.001553336    1.450    0.310
       417  -9.4046     43.6625    109.4739   1.1100490301e+02   4.8537994464e+01    0.3595483     0.138911  25.49  0.001476889    3.309    0.698
       418  -7.5477    164.2893     87.6403   7.1752964339e+01   3.1275390685e+01    0.1639159    0.1226538 -69.38 0.0007025931    1.689    0.408
       419 -10.0018     48.5022     83.9354   1.0413617228e+02   5.3981385757e+01     0.570212    0.3484318 -75.35  0.001956853    1.996    0.499
       420  -7.6036    179.2764     85.6181   6.7996801507e+01   2.7973331718e+01    0.1648181    0.1185137 -64.79 0.0007002242    1.712    0.416
       421  -9.4075    105.8278     71.3397   8.1779244397e+01   4.7732578232e+01    0.6066759    0.2380119 -46.95  0.001989742    2.624    0.619
       422  -9.7245    104.7354     83.2087   8.5820589875e+01   4.5513620044e+01    0.5208473    0.3239846 -63.81  0.001347988    2.197    0.545
       423  -8.7460    105.0115     77.0107   8.3833601866e+01   4.6751252826e+01     0.372569    0.2076646  24.74  0.001395283    2.676    0.626
       424  -7.7043    170.4876     83.9621   6.9343955818e+01   3.0445436097e+01    0.2287932    0.1260715 -57.21 0.0007317935    2.459    0.593
       425  -8.2917    157.9148     84.1367   7.2160303449e+01   3.3491729563e+01    0.2369585    0.2100717 -67.91 0.0004738306    1.230    0.187
       426  -9.0264    140.9613     82.9266   7.5842120946e+01   3.7766870194e+01    0.3302214    0.2247141 -51.81 0.0007402964    1.582    0.368
       427  -9.5996      9.8708     81.1784   1.1668711162e+02   5.7857931283e+01    0.3298919    0.1885162  67.51  0.001500212    2.488    0.598
       428  -8.1831     35.4683     82.4618   1.0823700514e+02   5.5642497482e+01     0.130526    0.1056636 -52.50 0.0001556888    1.035    0.034
       429  -9.7547     24.7833     80.8203   1.1155276718e+02   5.6923363907e+01    0.4172103    0.2583222  88.19  0.001412462    2.141    0.533
       430  -8.3679    150.1826     80.4744   7.2859266594e+01   3.6056084166e+01    0.2588355    0.2090045 -59.04  0.000603076    1.367    0.269
       431  -9.0573    119.3141     80.4463   8.0788645685e+01   4.3110332477e+01    0.3431139    0.2483216 -62.70 0.0008541371    1.697    0.411
       432  -9.0107     74.5415     80.3031   9.4428932352e+01   5.1379039236e+01     0.371675    0.2155279 -62.59  0.001276339    2.027    0.507
       433  -8.1243    166.9431     79.5725   6.8815595285e+01   3.2126751919e+01    0.2440788    0.1980848 -36.20 0.0005126442    1.222    0.181
       434  -7.6445    184.2686     78.3432   6.4940547106e+01   2.8032811268e+01     0.155036    0.1219231   8.97 0.0004462891    1.608    0.378
       435  -9.9963     63.3461     73.7441   9.6323103714e+01   5.4418605167e+01    0.6887778    0.2870373 -60.83  0.002497037    3.116    0.679
       436  -8.8836     64.0920     63.9960   9.3093334853e+01   5.6376977004e+01    0.5148873      0.28615 -12.17  0.001899882    3.620    0.724
       437  -7.8944    157.2090     76.4281   7.0010886785e+01   3.5103169487e+01    0.2097952     0.152297  68.89 0.0003625288    1.592    0.372
       438  -8.8595    140.4206     75.7189   7.3759715791e+01   3.9282677618e+01    0.2928223    0.2431702 -80.72 0.0006785286    1.487    0.327
       439  -9.4597    128.1051     75.2287   7.6764425512e+01   4.2216336052e+01    0.4160233    0.2607518 -51.27 0.0007396741    1.755    0.430
       440  -9.9373     82.6412     71.2453   8.9025447790e+01   5.2023917970e+01    0.9403931     0.373439 -41.95  0.003216974    2.369    0.578
       441  -8.0923    163.4791     73.4723   6.7735733994e+01   3.4085698640e+01    0.2688788    0.1370978 -46.16 0.0006450786    2.064    0.516
       442 -10.5399    113.9334     71.5555   7.9486457396e+01   4.6022193798e+01    0.3557264    0.3103042 -72.54  0.000550754    1.372    0.271
       443  -7.7371    151.4678     73.4766   7.0415710294e+01   3.7047683577e+01    0.1550453    0.1507871 -67.24 0.0001409477    1.062    0.058
       444  -8.2843     42.7418     72.8720   1.0337531856e+02   5.7079568130e+01    0.2347425    0.1653262 -72.77 0.0007744123    1.601    0.375
       445  -7.6628    175.4616     72.5185   6.4972750185e+01   3.1251262502e+01     0.152474    0.1514213 -32.16 9.022068e-05    1.018    0.017
       446  -9.4297     94.9911     71.0078   8.4980661319e+01   4.9893054031e+01     0.466595    0.2288632 -53.96 0.0008757435    2.445    0.591
       447  -9.7629     51.3949     69.5903   9.9359458480e+01   5.6835328508e+01    0.4106437    0.2275394 -67.60  0.001515398    2.335    0.572
       448  -9.0807     16.6631     70.2055   1.1221160711e+02   5.9882012321e+01    0.2557214    0.1751383 -89.34 0.0009379797    1.766    0.434
       449  -7.6829    157.2724     69.6929   6.7931418340e+01   3.6297351042e+01    0.1542198    0.1203845 -68.35 0.0001765001    1.543    0.352
       450  -8.7099    146.9999     68.4307   6.9874855393e+01   3.9045507235e+01    0.2874467    0.2068605 -51.20 0.0005660648    1.505    0.336
       451  -8.9503    121.9390     66.3195   7.5530952163e+01   4.5283691490e+01    0.3747693    0.2216029 -56.46 0.0007786556    2.250    0.556
       452  -8.7463    138.4005     66.0567   7.1179502487e+01   4.1537962715e+01     0.320043    0.2196594 -55.19 0.0009839839    1.711    0.415
       453  -7.4298    209.4896     64.9985   5.6853369716e+01   2.3968919101e+01    0.1931553    0.1311999   1.82 0.0006735431    2.245    0.555
       454  -7.4828    163.6754     65.6881   6.5317043862e+01   3.5388629066e+01    0.1598836    0.1198912  20.70 0.0007040164    1.659    0.397
       455  -8.9946    110.2012     63.9431   7.8033911617e+01   4.8260554990e+01    0.3409669    0.2411437 -60.05 0.0008555506    1.815    0.449
       456  -8.8651     37.2186     64.3990   1.0314495524e+02   5.9477221497e+01    0.2834573    0.2049222 -87.43  0.001226464    1.988    0.497
       457  -8.2075    158.2784     61.9543   6.5294664207e+01   3.7373216415e+01    0.2127853    0.1927796 -34.12 0.0003406193    1.110    0.099
       458  -9.3102     29.8798     70.0437   1.0733930252e+02   5.8917688067e+01    0.4403414    0.2105397 -18.50   0.00176278    3.814    0.738
       459  -9.6377     97.8364     60.1528   8.0447724637e+01   5.1466644491e+01    0.4751634    0.3094386 -29.77  0.001701394    1.546    0.353
       460  -9.7230     73.2890     59.5650   8.8370421818e+01   5.5902716149e+01    0.3967724    0.2335465 -52.33  0.001069951    1.795    0.443
       461  -8.1556     88.8212     59.6041   8.3127501315e+01   5.3264465181e+01     0.183457    0.1363455  51.64 0.0004683383    1.578    0.366
       462  -9.9772     23.4192     56.6274   1.0638020171e+02   6.2330585935e+01    0.4358457    0.2724306 -86.52  0.002195077    2.612    0.617
       463  -8.2992    130.8520     58.0631   7.0410286529e+01   4.4716766720e+01    0.2285486    0.2015408 -64.99 0.0005875519    1.301    0.231
       464  -9.5725      7.6055     57.1691   1.1277902011e+02   6.3253731893e+01    0.2744207      0.18323  82.07 0.0009441177    2.110    0.526
       465  -9.4092    119.1472     55.3487   7.2547286282e+01   4.7861697618e+01    0.5118169    0.2391328 -43.51   0.00140842    2.245    0.555
       466  -9.4407     54.2829     55.5138   9.3947029822e+01   5.9412204115e+01    0.3354563    0.2168435 -61.43   0.00106778    1.874    0.466
       467  -8.2471    140.0268     56.0606   6.7486491137e+01   4.2863819455e+01    0.2347281    0.1819503 -67.72 0.0004332773    1.622    0.383
       468  -8.7929     44.1364     55.4759   9.7845460478e+01   6.0627674938e+01    0.2416793    0.1663089 -55.06 0.0008115234    1.396    0.283
       469  -8.6220    105.8187     53.3382   7.5611353627e+01   5.1087528523e+01    0.2409219    0.1893508 -45.07 0.0005233719    1.345    0.257
       470  -9.4882     92.3999     50.6089   7.8743001363e+01   5.4242907071e+01    0.4215191    0.2423194 -48.14  0.001150419    1.949    0.487
       471  -8.2102    144.5779     49.0208   6.4074190457e+01   4.2869012634e+01    0.2255481    0.1462023 -31.62 0.0009043746    1.569    0.363
       472  -8.2140    129.6945     49.1249   6.7617207834e+01   4.6458773271e+01    0.2358643     0.180624 -48.95 0.0005871727    1.442    0.306
       473  -8.5320    120.8743     47.4782   6.9288868933e+01   4.8768819711e+01    0.2441426    0.2019957 -26.28 0.0004546671    1.204    0.170
       474  -8.4682    112.3403     47.0575   7.1450969173e+01   5.0744733679e+01     0.244596    0.2057593 -87.08 0.0006812979    1.606    0.377
       475  -8.9763     82.1991     46.4817   8.0563165463e+01   5.6842137014e+01    0.2837303    0.2186394 -54.90 0.0007465059    1.610    0.379
       476  -8.4167     45.0344     44.7399   9.3868451656e+01   6.2641757367e+01    0.2072313    0.1568031 -50.70 0.0005578574    1.345    0.257
       477  -9.0591     16.5890     44.6903   1.0584556945e+02   6.5288980511e+01    0.2128912    0.1735848 -68.00 0.0006741852    1.382    0.276
       478  -8.7323    132.8570     43.5984   6.4903455551e+01   4.6552331049e+01    0.2767971     0.208891 -40.49 0.0007867875    1.383    0.277
       479  -8.7067     93.2843     42.7576   7.5496208011e+01   5.5397340403e+01    0.3347827    0.2302532  -2.97  0.001618598    1.747    0.428
       480  -9.1863     58.1777     42.5512   8.7816584818e+01   6.1359542022e+01    0.3695384     0.210404 -55.14  0.001486282    2.270    0.559
       481  -8.7693     32.5637     44.4846   9.8958326400e+01   6.4013696298e+01     0.210267    0.1127533   5.96  0.001031559    2.552    0.608
       482  -9.4980     69.6432     41.3662   8.3022977533e+01   5.9846363754e+01     0.440862    0.2557756 -51.25  0.001887371    2.119    0.528
       483  -9.6337      5.0344     41.9092   1.1007436328e+02   6.6553120460e+01    0.3204525    0.2006171 -79.19  0.001536993    2.034    0.508
       484  -8.5090    106.0021     41.5183   7.1179401044e+01   5.2988891654e+01    0.2571447    0.1908998 -46.44 0.0006409037    1.520    0.342
       485  -8.6978     36.8634     41.0943   9.5962432440e+01   6.4236324995e+01    0.1816911    0.1580716 -49.88 0.0006024108    1.289    0.224
       486  -8.5688     95.4424     38.0373   7.2979745688e+01   5.5713697180e+01    0.2743675    0.1946106 -47.89 0.0007850114    1.668    0.400
       487  -8.3503     80.9267     36.9614   7.7265571713e+01   5.8652864021e+01    0.1972212    0.1680262 -65.24 0.0007003155    1.666    0.400
       488  -9.6472     26.2106     35.3138   9.8539354354e+01   6.6353784537e+01    0.3642496     0.187373 -56.23 0.0009517309    1.973    0.493
       489  -8.0289    133.3150     36.0649   6.2116298471e+01   4.7517866866e+01    0.2021895    0.1878102 -23.60 0.0008493273    1.111    0.100
       490  -8.2794    126.0928     35.7964   6.3715431416e+01   4.9287855341e+01      0.20418    0.1948328 -82.38 0.0004020348    1.192    0.161
       491  -8.4286    111.8906     34.6258   6.6898090205e+01   5.2720670928e+01    0.2715068     0.174453 -46.35 0.0007311209    1.825    0.452
       492  -7.6266    104.3246     34.6644   6.9011617403e+01   5.4369292966e+01      0.13809    0.1121942 -67.69  0.000648564    1.715    0.417
       493  -7.8295     88.5044     34.5229   7.3761234695e+01   5.7614399681e+01    0.1369258    0.1240861  -0.51 4.769794e-05    1.043    0.041
       494  -8.8369     48.6181     33.4470   8.8076082423e+01   6.4248681334e+01    0.2131137    0.1943974 -40.58 0.0006689949    1.334    0.250
       495  -8.7768    119.0596     32.6609   6.4280980018e+01   5.1362837238e+01    0.3252061    0.1668823 -35.75  0.001131884    1.989    0.497
       496  -8.5607     60.6429     32.7996   8.2961150534e+01   6.2678495583e+01    0.2159587    0.1832028 -52.66 0.0005462739    1.540    0.351
       497  -9.1001     71.9885     31.1246   7.7993777635e+01   6.1128609101e+01    0.2852738    0.1714016 -43.75 0.0008346445    1.837    0.456
       498  -7.7835    139.3031     31.6624   5.9230445371e+01   4.6633309761e+01    0.1475905    0.1107727 -64.86 0.0006575974    1.669    0.401
       499  -8.9174     12.8734     30.2193   1.0289809605e+02   6.8358425939e+01     0.300732    0.1508809 -60.82  0.001413743    2.099    0.524
       500  -7.9777     41.9834     30.0193   8.9490714785e+01   6.5659882547e+01    0.1549793    0.1200455 -26.88 0.0004073006    1.063    0.059
       501  -8.3590    101.5005     29.2168   6.7650841521e+01   5.5731379489e+01    0.2042017    0.1946854  87.88  0.000671996    1.310    0.237
       502  -8.9105     91.8805     26.4600   6.9369140491e+01   5.8096653624e+01    0.3127532    0.1750604 -43.08  0.001087668    2.098    0.523
       503  -8.9326     81.4741     27.4151   7.3111471940e+01   5.9985216796e+01    0.2891038    0.1949766 -45.07 0.0008778183    1.780    0.438
       504  -9.0506    175.4512    247.7525   1.0227394478e+02  -1.4997205632e-01    0.2656353    0.2032079  71.69  0.001108701    1.900    0.474
       505  -8.1308     34.6658     23.3074   8.9915642711e+01   6.7628527061e+01    0.1582961    0.1460103 -76.76 0.0008956338    1.768    0.434
       506  -9.0775     63.6466     21.2919   7.6779965250e+01   6.3960365641e+01    0.2660835    0.1962156 -42.56 0.0009025234    1.610    0.379
       507  -8.9440     48.3536     21.7331   8.3150104730e+01   6.6183496392e+01    0.2124746    0.1887781 -47.66 0.0005618259    1.548    0.354
       508  -8.2248     19.5364     21.7470   9.6462058401e+01   6.9375007635e+01    0.1517893   0.09883996 -52.72 0.0006325556    1.624    0.384
       509  -9.0951     74.1777     19.5628   7.2155181221e+01   6.2390559792e+01    0.2475122    0.1904303 -39.37  0.000754022    1.510    0.338
       510  -8.3307     87.7536     17.4658   6.6776993013e+01   6.0068228000e+01    0.2301795    0.1461554 -35.20 0.0007299185    1.682    0.405
       511  -8.3743     38.7354     17.9757   8.5657715947e+01   6.8000545281e+01    0.2274402    0.1278464 -38.34  0.001285835    1.600    0.375
       512  -8.0891    112.7653     16.9703   5.9728394997e+01   5.4734860639e+01    0.1694435    0.1130783 -19.84 0.0003561819    1.557    0.358
       513  -8.0280     30.0445     16.0460   8.8831465060e+01   6.9299967317e+01      0.15899    0.1450772 -58.13 0.0007951168    1.716    0.417
       514  -8.0468      7.5731     15.7504   1.0009757952e+02   7.1320694204e+01    0.1473597   0.09325609 -55.51 0.0009378996    1.661    0.398
       515  -8.3878    104.1989     22.8017   6.4291551455e+01   5.5976399309e+01    0.1935556    0.1456268  23.42 0.0004388964    1.304    0.233
       516  -7.9914     97.1145     15.1403   6.3035616107e+01   5.8400881574e+01    0.1738597    0.1544879 -39.39 0.0004822982    1.334    0.251
       517  -7.9127     17.1757     14.3839   9.4494937909e+01   7.0814240917e+01    0.1346163    0.1001707  26.58 0.0004440432    1.648    0.393
       518  -8.0546    168.7172     12.9805   4.7805855459e+01   4.1283627035e+01    0.1826524    0.1729922 -36.96 0.0003045583    1.139    0.122
       519  -8.9440    177.5106    242.9757   1.0125608516e+02   1.6794216023e-01     0.321561    0.1819067  19.55  0.001623948    2.379    0.580
       520  -8.6848    156.5302    248.4763   1.0577426050e+02   2.7402362750e+00    0.2772317    0.1689173  59.76  0.001136792    1.934    0.483
       521  -9.0152    132.6343    248.2259   1.1005628446e+02   6.5214147344e+00    0.3007585    0.1709246  63.56 0.0009412394    2.107    0.525
       522  -7.6792     47.7189     10.3637   7.7997583865e+01   6.7886470209e+01     0.109145   0.09276734 -44.93 0.0007014928    1.679    0.405
       523  -8.5525    113.0999    248.4363   1.1358095214e+02   9.4660001587e+00    0.2148134    0.1448828 -75.46  0.000909877    1.797    0.443
       524  -9.3899    103.8282    246.8337   1.1507488511e+02   1.1096966354e+01    0.3953316    0.2065616 -84.39  0.001791643    2.932    0.659
       525  -8.9629    242.6048    247.1224   9.0494693454e+01  -1.0163977728e+01     0.207103    0.0999061 -29.91 0.0009897284    2.267    0.559
       526  -8.8975    232.6139    247.1077   9.2168259315e+01  -8.7554097832e+00    0.2419664     0.171721 -24.78  0.001141456    1.575    0.365
       527  -8.6164    218.5037    247.2533   9.4601575864e+01  -6.7162469456e+00    0.2534118    0.1104993 -35.71   0.00135594    2.707    0.631
       528  -7.9109     40.6913    248.3499   1.2596393831e+02   1.9196249861e+01    0.1154363   0.05519124  65.89 0.0007044002    1.712    0.416
       529 -10.0013    223.9025    244.0825   9.3191418963e+01  -7.1520956577e+00     0.405204    0.2151835 -43.36  0.002276704    2.669    0.625
