#   1 NUMBER                 Running object number                                     
#   2 MAG_AUTO               Kron-like elliptical aperture magnitude                    [mag]
#   3 X_IMAGE                Object position along x                                    [pixel]
#   4 Y_IMAGE                Object position along y                                    [pixel]
#   5 X_WORLD                Barycenter position along world x axis                     [deg]
#   6 Y_WORLD                Barycenter position along world y axis                     [deg]
#   7 A_WORLD                Profile RMS along major axis (world units)                 [deg]
#   8 B_WORLD                Profile RMS along minor axis (world units)                 [deg]
#   9 THETA_WORLD            Position angle (CCW/world-x)                               [deg]
#  10 FWHM_WORLD             FWHM assuming a gaussian core                              [deg]
#  11 ELONGATION             A_IMAGE/B_IMAGE                                           
#  12 ELLIPTICITY            1 - B_IMAGE/A_IMAGE                                       
         1 -14.6925     68.5137    144.2403   1.0579125050e+02   3.8425710344e+01      4.60481     1.881454  64.69  0.003888664    3.562    0.719
         2 -14.5290    197.7169     35.6155   5.0310464441e+01   3.0412168089e+01     2.412817     1.510797  24.52  0.007052567    2.037    0.509
         3 -11.6508     21.6458     33.8161   1.0138133666e+02   6.8494468383e+01    0.3121522    0.1819759  38.84  0.001684294    2.004    0.501
         4 -10.8907     61.2914      7.8862   7.0101546682e+01   6.8210876712e+01    0.2168584    0.1869251  59.34  0.000659595    1.386    0.279
         5 -11.5891    232.8863      1.9125   3.6841407163e+01   2.4789661046e+01    0.6198954     0.233002  76.74  0.002254177    2.815    0.645
         6 -11.7297     58.0419      2.4960   6.8231720342e+01   6.9618989492e+01    0.3915837    0.2026907  47.03  0.001882087    2.058    0.514
         7 -14.5448    208.9280     23.3472   4.5186179921e+01   2.8840818819e+01     1.731319     1.135407   8.03  0.005553003    1.864    0.464
         8  -9.3759    133.4579    208.0275   9.9865203175e+01   1.7938289145e+01    0.1278424     0.111851 -61.84 8.373534e-05    1.492    0.330
         9 -10.6561    139.9873    249.9896   1.0291462055e+02   1.1920218715e+01    0.1588859    0.1020223  50.35  0.001250262    1.234    0.190
        10 -10.6777    134.4707    248.5845   1.0365719601e+02   1.2813847401e+01     0.255519    0.1543544 -86.38  0.001648423    3.323    0.699
        11 -12.9276     72.3371    175.7582   1.0828417350e+02   3.1884483221e+01    0.7279536    0.4544205 -30.24  0.003303853    4.637    0.784
        12 -14.9834     85.9598    227.2444   1.0993219009e+02   2.1892552568e+01     2.849425    0.8887731  51.09  0.003514573    2.428    0.588
        13 -13.0721     18.8043    192.1547   1.2003238262e+02   3.5046177799e+01     0.336639    0.1943478  47.90 0.0005330343    1.329    0.248
        14 -16.0773     69.6596    248.0407   1.1391187546e+02   2.1065730032e+01     7.818799     2.192856  32.64    0.0273253    7.381    0.865
        15 -15.0592     55.3337    195.7844   1.1327712949e+02   3.0527683915e+01     1.955712     1.267673 -70.96   0.01407819    1.753    0.430
        16 -16.9267      8.9451    244.3329   1.2326384635e+02   2.7887027918e+01     2.198034     1.474765  28.63   0.01554931    2.025    0.506
        17 -12.0570    193.3533    193.8272   8.7654284534e+01   1.0241255116e+01    0.6935096    0.4030409 -55.76  0.003662491    3.371    0.703
        18  -9.7111     82.1858    195.0530   1.0806716579e+02   2.7260862219e+01    0.1998944    0.1302896  46.84 0.0009590238    1.219    0.180
        19 -10.9658    149.6106    188.7888   9.4581193550e+01   1.8051766904e+01    0.3760228    0.2411488 -74.32  0.001846555    2.721    0.632
        20  -9.7739     96.7141    189.9720   1.0477382035e+02   2.6073470389e+01    0.1885727    0.1514647  75.31 0.0007261111    1.209    0.173
        21  -9.3383     99.2229    186.9467   1.0396847467e+02   2.6204698441e+01    0.1591275    0.1402258  15.41  0.001135598    1.602    0.376
        22 -10.0370     99.4645    180.8432   1.0325692880e+02   2.7183118957e+01    0.2113119    0.1447508  40.52 0.0006082812    1.339    0.253
        23  -9.9927     42.1274    179.1509   1.1478116872e+02   3.4943328727e+01    0.1522194    0.1236342  68.82 0.0002425998    1.147    0.128
        24 -13.1077     43.9482    146.0256   1.1183865251e+02   4.1111097782e+01     1.540097     0.339998  35.66  0.006059638    3.767    0.735
        25 -12.4652     83.1140    163.3473   1.0470142197e+02   3.2671340382e+01    0.5755889    0.2973196  59.73 0.0004347556    1.867    0.464
        26 -13.7282     71.1664    159.0892   1.0686315525e+02   3.5138199142e+01    0.4821353     0.453694 -42.42  0.001817672    1.516    0.340
        27  -9.9666    173.0199    244.3253   9.7244591195e+01   7.9840775634e+00    0.1989704    0.1282082 -67.57  0.001306087    3.440    0.709
        28  -9.6813    204.6506    165.2859   8.1136809442e+01   1.1643543621e+01    0.1656911    0.1454915 -89.60  0.001074634    1.755    0.430
        29  -9.4652    162.9789    168.0605   8.9020265022e+01   1.8717589821e+01    0.1817328    0.1416102  71.64 0.0005345621    1.610    0.379
        30  -9.6134    146.3120    168.6625   9.2305564921e+01   2.1565307421e+01    0.1240122   0.09000137  71.31 0.0007045567    1.689    0.408
        31 -10.3127    193.3251    165.5648   8.3115035245e+01   1.3623332583e+01    0.2378546    0.2051471  40.65   0.00084553    1.140    0.123
        32 -10.8084     32.4938    165.3141   1.1590340887e+02   3.8546309793e+01    0.2362576    0.1253734  84.62 0.0009489602    1.698    0.411
        33 -10.4825     51.9683    164.0785   1.1158464803e+02   3.6617179442e+01    0.2913379    0.1882156 -47.34  0.001177217    2.365    0.577
        34 -10.0126    188.8754    154.7276   8.1954736414e+01   1.5848057631e+01    0.3167278    0.1007065  48.69  0.001221612    2.885    0.653
        35  -9.9259     37.4995    161.8701   1.1458321127e+02   3.8678604799e+01    0.1933344    0.1451915  20.66  0.001116412    1.909    0.476
        36 -11.1524    133.6938    143.8212   9.0802763207e+01   2.7932673256e+01    0.9082526    0.2371179 -54.81  0.002604643    6.220    0.839
        37 -10.6561    174.4539    148.8050   8.3495810363e+01   1.9406310387e+01    0.2742821    0.2421984 -75.59  0.001480348    1.460    0.315
        38 -10.9015    103.2483    141.0669   9.7146616454e+01   3.3804229991e+01    0.4379062    0.3086504 -26.37  0.002214364    2.469    0.595
        39 -12.3590     90.7870    141.1250   1.0007465674e+02   3.5802761868e+01     0.244235       0.2225  71.54 0.0004158034    1.112    0.101
        40 -12.7890     89.8216    156.3767   1.0238231983e+02   3.2994882181e+01     1.637805    0.8426129 -79.46  0.005022829    2.588    0.614
        41 -10.1588    175.0426    138.8995   8.1467411908e+01   2.0764924574e+01    0.1962084    0.1726022  70.54 0.0005740796    1.315    0.240
        42  -9.0754     79.2529    139.4003   1.0258822067e+02   3.7894660641e+01    0.1687494    0.1013483  52.31 0.0002157401    1.481    0.325
        43 -11.8556     45.6538    137.1918   1.1058232486e+02   4.2740528021e+01    0.2958018    0.2275348 -80.57   0.00118259    1.229    0.186
        44 -10.1788    106.0424    130.7373   9.4767389252e+01   3.5353920030e+01    0.2898632    0.2473021  88.72  0.001473733    1.158    0.137
        45 -10.3185    112.1934    130.9197   9.3338749116e+01   3.4237274153e+01    0.2636599    0.2070961  28.31 0.0006996659    1.527    0.345
        46 -10.7499     46.7084    171.5263   1.1330225362e+02   3.5826520602e+01    0.3791206    0.2302463  85.66  0.002369555    1.515    0.340
        47 -10.1922     33.8069    131.3729   1.1300691411e+02   4.5254118088e+01    0.1479461    0.1113449  22.17 0.0009530571    1.778    0.438
        48 -10.7948    135.0000    120.0027   8.5897687762e+01   3.2002177575e+01    0.3609754    0.0800994 -46.08  0.001041068    4.842    0.793
        49 -10.9507    136.0000    128.5076   8.7424703732e+01   3.0239724393e+01    0.3368952    0.1714494 -50.19   0.00151407    2.165    0.538
        50 -11.4812    118.7440    126.0241   9.0882381556e+01   3.3997210861e+01    0.7474787    0.4236047 -41.36  0.003491708    2.152    0.535
        51 -10.3989    160.8402    127.8097   8.1991717706e+01   2.5379769986e+01    0.1943425    0.1648294  77.73  0.001096167    1.371    0.271
        52  -9.9272    125.6911    127.5357   8.9560463432e+01   3.2404035501e+01    0.2933487    0.1899261  89.30  0.001025937    2.462    0.594
        53 -11.1531     99.1108    127.4201   9.5868702623e+01   3.7205022854e+01      0.31294    0.2478756  18.24  0.001066779    1.766    0.434
        54 -10.9144    137.6501    170.9030   9.4339797652e+01   2.2708850912e+01    0.2557743    0.1564919  50.27   0.00107011    1.397    0.284
        55  -9.9065    108.2926    119.8170   9.2198630989e+01   3.7140999797e+01    0.2064767    0.1661037  58.75 0.0003148109    1.153    0.132
        56 -12.0454     46.0106    115.2360   1.0799844752e+02   4.7429926218e+01       0.6985    0.1496333  44.36   0.00255707    3.840    0.740
        57 -12.3726     43.7294    109.1224   1.0784906704e+02   4.9050656822e+01    0.4706018    0.3216273  51.38  0.002844778    1.395    0.283
        58  -9.7526    167.5366    112.4835   7.7226405213e+01   2.6494271973e+01    0.3038934    0.2129515 -81.29   0.00134904    2.349    0.574
        59 -11.8756    118.8837    109.1058   8.7342820058e+01   3.7298807911e+01    0.5984829    0.5084282 -66.92  0.003379775    1.210    0.174
        60 -11.3072     33.0603    108.4183   1.1085251018e+02   5.0341982352e+01     0.368658    0.1509106 -76.76   0.00174242    2.206    0.547
        61 -10.0627    205.4092    110.2278   6.9713425350e+01   1.8613215128e+01    0.2831031     0.180965  44.92  0.000928165    1.483    0.325
        62 -10.3998    134.5718    104.7176   8.2550430307e+01   3.4963704765e+01    0.4239542    0.1414705 -42.96  0.001445407    3.189    0.686
        63  -9.3849     94.1503    104.7605   9.2808041857e+01   4.2784284472e+01    0.1946862    0.1644758  76.03 0.0003400929    1.139    0.122
        64 -10.2739    242.4713    101.5165   6.2038259225e+01   1.2007903746e+01    0.1329921    0.1127677   6.32 9.112157e-05    1.051    0.048
        65 -10.6429     33.5295    100.4739   1.0974182022e+02   5.2086311794e+01    0.2583037    0.1776703  69.58 0.0009366265    1.343    0.256
        66  -9.8405     86.0599     99.0695   9.3845688642e+01   4.5392385215e+01     0.203968    0.1762829  77.19 0.0003453862    1.093    0.085
        67 -11.1831     53.4497     92.8158   1.0238008178e+02   5.1588815212e+01    0.5563009     0.325717  87.22  0.002712472    1.994    0.499
        68 -10.9745     42.0558     91.1746   1.0572361517e+02   5.3314809982e+01    0.3170537    0.2138999 -58.72 0.0009139701    1.433    0.302
        69  -9.6696    157.5014     80.5299   7.1028683505e+01   3.4172206506e+01    0.1482391    0.1448559  43.42 9.435354e-05    1.012    0.012
        70  -9.2306    184.5069     77.0602   6.4802817036e+01   2.8177572686e+01    0.2200839    0.1454346 -27.50 0.0005938353    1.533    0.348
        71  -9.3753     58.7986     67.3315   9.5040720641e+01   5.6704797767e+01    0.2704278    0.1068146  44.87  0.001096365    2.733    0.634
        72  -9.6914    107.8164    203.4208   1.0402353568e+02   2.2379447223e+01    0.1512818   0.08826175  37.29 0.0004631326    1.552    0.356
        73 -11.6454     12.8338     59.4341   1.1111330395e+02   6.3298383080e+01     0.415003    0.2164196  59.26  0.001356159    2.168    0.539
        74 -11.1535    170.2608    233.4590   9.6509384406e+01   9.4653891520e+00    0.3121433    0.1732659  55.25   0.00181333    2.007    0.502
        75  -9.2516    157.6151    200.8118   9.4731454973e+01   1.5151609132e+01    0.1316505    0.1081135 -72.79 0.0005831957    1.707    0.414
        76 -10.2314    113.9062    199.8235   1.0252756854e+02   2.2028569097e+01    0.2863828    0.1723142  81.03  0.001621625    2.411    0.585
        77 -13.1458    188.4129     42.6107   5.3807707863e+01   3.2003056729e+01    0.9121725    0.6363074  38.11 0.0009149543    1.560    0.359
        78 -11.1374    151.7939     47.1655   6.1675423576e+01   4.1050790196e+01    0.3769699    0.2902754 -71.84  0.001220777    1.539    0.350
        79 -16.9597      6.2412    212.6215   1.2294976400e+02   3.2833300026e+01     9.530643     1.285729 -80.74   0.03906453    6.614    0.849
        80 -11.1630    150.2728     53.8531   6.4272743935e+01   4.0399784705e+01    0.4755904    0.3121423 -77.49  0.001624031    2.266    0.559
        81  -9.4667    189.6946     15.0332   4.4648302871e+01   3.4835105293e+01    0.2113296    0.1892127 -26.90 0.0005507809    1.101    0.092
        82 -14.3290     45.7852    205.9128   1.1567871800e+02   2.9952618166e+01    0.8579118    0.7336652   7.54  0.006770889    2.055    0.513
        83 -10.1105     96.7212    200.9012   1.0584133290e+02   2.4337483787e+01    0.2219862    0.1526056  28.40 0.0008807588    1.788    0.441
        84 -10.1362    209.8713    199.8254   8.5871843052e+01   6.9766937026e+00    0.1404333    0.1147792  42.18 0.0002975403    1.303    0.233
        85 -10.0700    202.3347    169.1184   8.2194557079e+01   1.1593747905e+01    0.3650053    0.2127522  33.03  0.002065321    1.520    0.342
