#   1 NUMBER                 Running object number                                     
#   2 MAG_AUTO               Kron-like elliptical aperture magnitude                    [mag]
#   3 X_IMAGE                Object position along x                                    [pixel]
#   4 Y_IMAGE                Object position along y                                    [pixel]
#   5 X_WORLD                Barycenter position along world x axis                     [deg]
#   6 Y_WORLD                Barycenter position along world y axis                     [deg]
#   7 A_WORLD                Profile RMS along major axis (world units)                 [deg]
#   8 B_WORLD                Profile RMS along minor axis (world units)                 [deg]
#   9 THETA_WORLD            Position angle (CCW/world-x)                               [deg]
#  10 FWHM_WORLD             FWHM assuming a gaussian core                              [deg]
#  11 ELONGATION             A_IMAGE/B_IMAGE                                           
#  12 ELLIPTICITY            1 - B_IMAGE/A_IMAGE                                       
         1 -14.9385      7.7178    208.8222   2.9304787240e+02   5.3227511468e+00    0.5231492   0.06486407 -60.01   0.01812267    6.203    0.839
         2 -14.9278     16.2834    166.9173   2.9269248869e+02   5.7506016998e+00    0.3414438    0.1355838 -76.55   0.01977599    5.553    0.820
         3 -13.7420    190.2560     26.7839   2.8983494916e+02   6.3050663858e+00   0.07053043   0.06156818   8.47  0.006452818    1.203    0.169
         4 -13.8286    204.7827      7.6915   2.8955029642e+02   6.4348622711e+00   0.07964925   0.05815537 -16.37  0.008455222    1.665    0.399
         5 -13.0285      3.3511      4.5644   2.9183971352e+02   7.6819629609e+00    0.1005118   0.04978688  36.03  0.009238648    1.966    0.491
         6 -13.1514      2.5183     13.4935   2.9190447853e+02   7.5851127501e+00   0.09315167   0.02906156 -63.67  0.006517907    3.429    0.708
         7 -10.8661    238.1104    246.9111   2.9065004203e+02   3.5046974599e+00   0.01042056  0.009122427  69.38 0.0009251804    1.243    0.195
         8 -11.1890    139.4560    250.1903   2.9179616100e+02   4.0605137443e+00   0.01866296   0.01123372  27.24  0.001857269    1.676    0.404
         9 -10.5770    127.0043    250.2619   2.9193881553e+02   4.1344631416e+00   0.01291786  0.008941258  41.13  0.001317344    1.462    0.316
        10 -10.2492     67.2457    250.4911   2.9262296598e+02   4.4902264539e+00   0.01307833   0.01082283  52.54 0.0009815989    1.276    0.216
        11  -9.5830     63.4732    250.5632   2.9266651843e+02   4.5120002207e+00   0.01269796  0.006005479  32.42 0.0005797266    2.048    0.512
        12 -11.0880     31.0360    249.6373   2.9303155242e+02   4.7167330011e+00   0.03489845   0.01713394  24.64  0.002663172    2.139    0.533
        13 -10.6127     36.1124    243.6903   2.9293706376e+02   4.7543480445e+00   0.02623936   0.01685441  -0.49   0.00239263    2.091    0.522
        14 -10.8249      2.1850    240.5860   2.9330587547e+02   4.9926578387e+00   0.02665873     0.010274 -56.59  0.002179219    2.414    0.586
        15 -10.5923      2.5432    248.5973   2.9335084906e+02   4.8989286973e+00   0.02447501   0.01314414 -55.25  0.002329743    1.786    0.440
        16 -10.4099      7.0723    249.4599   2.9330436458e+02   4.8620114082e+00   0.01570569  0.009746656  28.05 0.0009050364    1.617    0.382
        17  -9.8381     83.7343    244.7204   2.9239910796e+02   4.4573703863e+00   0.01685686   0.01003085  68.98  0.001462161    2.561    0.610
        18  -9.1878     76.3884    245.1340   2.9248559545e+02   4.4966734234e+00  0.009178084  0.006328301 -79.02 0.0005823421    1.684    0.406
        19 -10.2097     66.5484    243.1139   2.9258564767e+02   4.5787224035e+00   0.01184117   0.01065049  42.71 0.0005763156    1.128    0.113
        20 -10.0815     95.0887    240.9049   2.9224591419e+02   4.4328933613e+00   0.01436992  0.008924538 -55.19 0.0004078097    1.561    0.359
        21 -11.4228    185.6487    238.6933   2.9119794539e+02   3.9142013371e+00   0.02487937   0.01452378  82.87   0.00171876    2.906    0.656
        22  -8.2089     57.2946    240.3059   2.9267417667e+02   4.6662440719e+00  0.006787181  0.004915398 -28.11 0.0003282444    1.582    0.368
        23 -10.7481    245.5119    248.2746   2.9057405386e+02   3.4445780026e+00   0.02029718    0.0108252  74.15  0.001414182    4.089    0.755
        24 -12.9898      3.1346    182.5177   2.9293885648e+02   5.6508631687e+00    0.1081135    0.0356397 -57.10  0.005943347    2.769    0.639
        25 -12.0383      2.4180    152.5920   2.9276318035e+02   5.9972304560e+00   0.05688679   0.02052101 -64.74  0.004259518    3.003    0.667
        26 -14.3671     55.7209    215.3269   2.9253876673e+02   4.9611957048e+00     0.441741   0.03284045  36.56   0.02222411    6.519    0.847
        27  -9.5778    248.3279    231.3196   2.9043733761e+02   3.6211098291e+00   0.00700369  0.004918908 -26.41 0.0004433773    1.684    0.406
        28 -11.1801    173.3683    222.3681   2.9123755096e+02   4.1745062388e+00    0.0177757   0.01396699  38.00  0.002024748    1.276    0.217
        29  -9.5107    174.3155    249.6706   2.9139493552e+02   3.8569861211e+00  0.006928223  0.004982925  64.64 0.0007045422    1.678    0.404
        30 -12.8603     41.3496    235.8909   2.9282935157e+02   4.8121674952e+00   0.02021832   0.01515884 -40.07 0.0007552059    1.382    0.277
        31  -9.0565    152.6580    212.9645   2.9141615520e+02   4.4064516566e+00  0.008985877   0.00803584 -65.42 0.0004026091    1.123    0.110
        32 -10.0442     32.4223    206.9943   2.9275405326e+02   5.1959244043e+00   0.02036145  0.009726991  51.50  0.001237464    2.694    0.629
        33 -12.2479     23.7360    201.7042   2.9282093584e+02   5.3083628592e+00   0.02692604   0.01411843  49.17  0.002373482    2.206    0.547
        34 -10.8714     17.0752    199.2321   2.9288196038e+02   5.3764558468e+00   0.02066567   0.01289919  63.72  0.001608718    2.148    0.534
        35 -11.6445     66.2856    200.6956   2.9232800483e+02   5.0651414571e+00   0.01902375   0.01202735 -39.11  0.001117103    1.719    0.418
        36 -10.0060    192.0277    193.0681   2.9084373854e+02   4.3968427210e+00   0.02109301   0.01135296  82.93  0.001487069    3.998    0.750
        37 -11.9737     71.8889    192.4353   2.9221310168e+02   5.1259694692e+00   0.01505895   0.01176266 -40.71 0.0005281223    1.312    0.238
        38 -14.0040     47.0474    227.9483   2.9271546086e+02   4.8688563116e+00   0.04996881   0.04070117  58.71  0.003506036    1.339    0.253
        39 -13.4199     68.4919    177.5127   2.9216012723e+02   5.3168890668e+00   0.02792958   0.01394395 -39.84  0.002238329    2.332    0.571
        40 -11.0709     81.2789    179.4314   2.9202564258e+02   5.2182825344e+00   0.01195033   0.01127413 -45.97 0.0003206836    1.050    0.048
        41 -12.0436     88.2401    169.6555   2.9188578953e+02   5.2882372245e+00   0.03132633    0.0293596 -28.43  0.003905984    1.082    0.076
        42  -9.6265    230.4937    167.0048   2.9024354885e+02   4.4626336290e+00   0.00939496  0.005758462  84.02 0.0008101159    2.515    0.602
        43  -9.2280    195.2094    158.9832   2.9059689365e+02   4.7668773333e+00   0.01123833  0.007388326  74.43  0.001061138    2.117    0.528
        44 -11.7232     32.9355    155.3142   2.9243047090e+02   5.7836010353e+00   0.03119886  0.006018765 -56.21  0.001949131    4.109    0.757
        45 -10.2341    100.0840    153.4812   2.9165057599e+02   5.4019571263e+00   0.01404847   0.01306979 -27.66 0.0007824769    1.095    0.087
        46  -9.2613    102.9073    149.0516   2.9159095011e+02   5.4356119782e+00   0.01336395  0.008791409 -29.44 0.0003972246    1.824    0.452
        47 -12.1882     88.8736    152.9208   2.9177540286e+02   5.4756604567e+00   0.01407249   0.01175292 -25.19 0.0005214123    1.290    0.225
        48 -12.7021     67.0672    143.8090   2.9196883764e+02   5.7105989856e+00   0.03780046   0.02612101  62.11  0.003321182    1.760    0.432
        49 -12.1813     57.0845    131.3889   2.9200658641e+02   5.9123638234e+00   0.04990967   0.02499538 -79.93  0.003859464    3.151    0.683
        50  -9.9944    110.9006    137.8115   2.9143012905e+02   5.5160027549e+00    0.0187839   0.01034319 -32.14  0.001341611    2.388    0.581
        51  -8.9363    174.2820    137.6350   2.9070410733e+02   5.1366954631e+00   0.01035779  0.007206301  63.08  0.000613675    1.755    0.430
        52 -12.8375     25.1047    136.6164   2.9240505526e+02   6.0441561787e+00   0.02842999   0.02127069  73.13  0.003057241    1.627    0.386
        53  -9.3365    107.8700    124.6130   2.9138333640e+02   5.6849761826e+00    0.0088003  0.007722388  27.11 0.0004379338    1.146    0.128
        54  -8.5408    192.2157    144.0237   2.9053863647e+02   4.9557080576e+00  0.008426487  0.005277672 -60.62  0.000430115    1.578    0.366
        55 -10.7815     98.3858    135.4491   2.9155877534e+02   5.6181694273e+00    0.0126371    0.0106131 -29.05 0.0004794844    1.262    0.208
        56 -10.4718    168.1988    113.2221   2.9062270991e+02   5.4520584177e+00   0.01560995   0.01171267  64.50 0.0009231538    1.564    0.361
        57  -9.7266    203.2169    111.7913   2.9021354088e+02   5.2572944858e+00  0.009337494  0.007553393 -28.79 0.0005559577    1.335    0.251
        58 -10.0292     34.7715     93.1207   2.9202623224e+02   6.4832266970e+00   0.01979955  0.009410324  42.03  0.001739816    2.167    0.538
        59 -10.1209     16.0232     66.0267   2.9207400095e+02   6.9048509226e+00   0.01496024  0.008824842  38.20 0.0007747719    1.685    0.407
        60 -11.3707      4.7402     62.4028   2.9218104752e+02   7.0137045764e+00    0.0294271   0.01168217  37.07  0.001565279    2.420    0.587
        61  -9.1141     31.5778     61.5304   2.9186786041e+02   6.8630789959e+00   0.01281337  0.005132486  39.50  0.001036294    2.471    0.595
        62 -11.4675      7.0744     53.9833   2.9210230901e+02   7.0958656472e+00    0.0220519   0.01119778  30.63  0.002036627    1.933    0.483
        63 -10.8038      2.0429     51.6529   2.9214564625e+02   7.1525485700e+00   0.01794044   0.01052804 -55.69  0.001337798    1.645    0.392
        64 -11.9698      2.9582     46.3278   2.9210227146e+02   7.2078577074e+00   0.02475121   0.01701624 -88.16  0.002504862    1.843    0.457
        65 -10.1273     99.2516    249.1331   2.9224891306e+02   4.3138968522e+00   0.01364509  0.007861635  53.38  0.001254451    2.095    0.523
        66  -9.7517     81.8613    249.0932   2.9244736946e+02   4.4186231915e+00   0.01048367  0.008909299  67.85 0.0007215324    1.296    0.229
        67  -9.4093     46.9186    249.1964   2.9284732359e+02   4.6267432399e+00   0.01013921  0.008595941  59.87 0.0004652025    1.272    0.214
