#   1 NUMBER                 Running object number                                     
#   2 MAG_AUTO               Kron-like elliptical aperture magnitude                    [mag]
#   3 X_IMAGE                Object position along x                                    [pixel]
#   4 Y_IMAGE                Object position along y                                    [pixel]
#   5 X_WORLD                Barycenter position along world x axis                     [deg]
#   6 Y_WORLD                Barycenter position along world y axis                     [deg]
#   7 A_WORLD                Profile RMS along major axis (world units)                 [deg]
#   8 B_WORLD                Profile RMS along minor axis (world units)                 [deg]
#   9 THETA_WORLD            Position angle (CCW/world-x)                               [deg]
#  10 FWHM_WORLD             FWHM assuming a gaussian core                              [deg]
#  11 ELONGATION             A_IMAGE/B_IMAGE                                           
#  12 ELLIPTICITY            1 - B_IMAGE/A_IMAGE                                       
         1 -15.4874    245.6630    144.1821   4.7992181417e+01   5.3344056425e+00     3.964838    0.6926249 -44.86   0.01133483    4.978    0.799
         2 -10.1417     40.8578     13.9366   6.0764095016e+01   6.7704853647e+01    0.1809052    0.1269947  12.55 0.0002730262    1.208    0.172
         3 -10.9279    237.3982    229.2528   6.5252999601e+01  -8.0319350371e+00    0.2238682    0.1308976  13.81  0.001129825    1.753    0.429
         4 -10.2848    191.8238    226.1867   7.3580838510e+01  -1.5194609561e+00    0.1912462    0.1402687  -6.66  0.001065149    1.323    0.244
         5 -11.4890    162.5489    225.1607   7.9734789939e+01   3.0474592088e+00    0.4322528    0.2790754  20.30  0.001909844    1.548    0.354
         6  -9.7165    171.4164    225.5157   7.7830535909e+01   1.6230814784e+00    0.1372579    0.1204139   0.65 6.250203e-05    1.014    0.014
         7 -10.3172     99.4523    225.1074   9.4467386091e+01   1.2820144886e+01    0.2465248     0.187846  35.28 0.0006475546    1.218    0.179
         8 -10.9210    126.0298    220.5151   8.7442286431e+01   9.7404050316e+00    0.2389789     0.202983  89.25 0.0007202022    1.453    0.312
         9  -9.9545     75.3231    219.6806   9.9565100076e+01   1.7517521093e+01    0.1469576   0.09546309  63.19 0.0005560461    1.672    0.402
        10  -9.9804    143.8450    216.4644   8.2566254674e+01   7.7604234228e+00     0.237679    0.1696397 -40.74  0.001202408    1.451    0.311
        11 -10.3090    185.9701    213.8062   7.2624152938e+01   1.6289502763e+00    0.2320685    0.1816244 -55.56  0.001057169    1.600    0.375
        12 -10.3353    198.5069    203.9961   6.8191855430e+01   1.5710588330e+00    0.1795083    0.1226595 -65.75 0.0008099125    2.494    0.599
        13 -11.2439    185.7613    203.7146   7.0814113630e+01   3.6083557567e+00    0.2802228    0.1894504 -50.14  0.001145355    1.624    0.384
        14 -11.6335    164.8250    200.6419   7.4880980010e+01   7.6446011199e+00     0.667428    0.2577673 -43.45  0.002465822    2.566    0.610
        15 -13.2129    235.1861    147.7751   5.0325349415e+01   6.3479960198e+00    0.7482793     0.323236 -48.04  0.003234931    2.141    0.533
        16 -14.1669    249.0237    195.6654   5.7236429302e+01  -4.0532126594e+00     1.901756    0.3334112 -42.76  0.005811004    4.931    0.797
        17 -13.3969    243.8223    180.5215   5.5284627586e+01  -7.9207671008e-01    0.6714821    0.2811173 -41.91  0.003086021    2.003    0.501
        18 -10.6670    160.4877    238.9831   8.2432819380e+01   7.3857380933e-01    0.1710894    0.1240844 -82.05 0.0008105397    2.600    0.615
        19 -11.2414    225.1641    192.1476   6.0755642919e+01  -2.0920898916e-01    0.1754859    0.1500961 -45.72 0.0007962809    1.338    0.253
        20 -11.2074    205.8810    190.5928   6.4143944447e+01   2.9761157332e+00    0.2739806    0.1733535 -54.02  0.001217674    1.905    0.475
        21 -10.4437    138.8523    189.0298   7.8896043969e+01   1.4656948955e+01    0.2469078    0.1833768 -88.02  0.001086974    2.017    0.504
        22 -10.4870     87.7506    189.5884   9.2255143648e+01   2.2992200665e+01    0.2192882    0.1294176  43.75 0.0009541303    1.682    0.406
        23 -11.9180     97.1049    187.6066   8.9441122174e+01   2.2035737955e+01    0.5987475     0.221742  41.44  0.002077389    2.638    0.621
        24 -12.0334    230.0989    186.1326   5.8715232980e+01   1.5726500945e-01    0.3902594    0.2044376 -55.74  0.001646255    2.850    0.649
        25 -11.1062    110.6062    185.5079   8.5495355819e+01   2.0352237406e+01    0.3271463    0.3227068  82.09 0.0009527183    1.033    0.032
        26 -10.4947     55.4890    187.0073   1.0049627588e+02   2.8112164284e+01    0.3157211    0.1324114  58.11  0.001041215    3.559    0.719
        27  -9.7642    217.3280    186.6747   6.1164763405e+01   1.9493111311e+00    0.1260233    0.1090312 -75.07 0.0006737718    1.698    0.411
        28  -9.6085    179.2868    190.6505   6.9722485074e+01   7.2950805259e+00    0.1376316    0.1181189 -86.18 0.0007022384    1.659    0.397
        29 -10.4362    172.7996    191.1946   7.1270434371e+01   8.2813871732e+00    0.2353611     0.167392  80.90 0.0009522627    2.844    0.648
        30 -11.7490     92.9181    182.6765   8.9740315491e+01   2.3929448721e+01    0.4193774    0.3081906 -56.83   0.00153057    1.346    0.257
        31 -10.5815    174.0138    182.5247   6.9284111368e+01   9.9029030183e+00    0.2850349    0.2091678 -59.80  0.001129421    1.636    0.389
        32  -9.9350    211.5064    182.4661   6.1452985188e+01   3.6418180556e+00    0.1406503    0.1195304 -20.31  0.000809442    1.034    0.033
        33  -9.8150    197.4153    182.2122   6.4202302743e+01   5.9705403173e+00     0.199656     0.129005 -51.30 0.0009458162    1.666    0.400
        34 -10.0240     44.5012    182.5098   1.0285633887e+02   3.0567934278e+01    0.1409541    0.1254351  85.89 8.835126e-05    1.039    0.037
        35 -10.1290    147.3600    179.6682   7.4974508576e+01   1.5294848171e+01    0.1571877    0.1224807  75.13 0.0007040738    1.801    0.445
        36  -9.5667    205.3208    177.6485   6.1701166147e+01   5.5662736598e+00    0.1357525    0.1127348 -76.93 0.0006457306    1.747    0.428
        37 -11.5562     78.7257    176.2702   9.2578655943e+01   2.7719237065e+01    0.4515413    0.2284597  56.79  0.001642863    2.690    0.628
        38 -10.1752     60.6395    177.3123   9.7769471809e+01   2.9947127886e+01    0.1567545    0.1032839  64.48  0.000704202    1.748    0.428
        39 -10.2958    183.4107    174.7533   6.5635345145e+01   9.8889182153e+00    0.2886827    0.1365815 -48.51  0.001137928    2.109    0.526
        40 -10.5585    135.5009    172.0168   7.6407518100e+01   1.9240022173e+01    0.2163268    0.1413018 -78.31  0.000810051    2.516    0.603
        41 -10.5462    176.9178    169.8721   6.6042451411e+01   1.2085270291e+01    0.3902892    0.2114507 -47.64  0.001574116    1.801    0.445
        42 -11.2446    122.3806    169.5807   7.9345188637e+01   2.2212048366e+01    0.4190987    0.2954609  74.67  0.001732668    2.108    0.526
        43 -10.5913     55.0471    169.0406   9.8131802891e+01   3.2803308982e+01    0.2444995     0.164921  69.18   0.00113566    1.736    0.424
        44  -9.4609    185.2933    166.6201   6.3541050111e+01   1.1255533340e+01    0.1471041    0.1176922 -77.67 0.0006288232    1.749    0.428
        45 -10.8481    139.7906    165.3014   7.3919560366e+01   2.0035774925e+01    0.4457269     0.274763  65.14  0.001626377    2.710    0.631
        46 -10.7082    100.0304    166.1951   8.4803891904e+01   2.6952614774e+01    0.4930382    0.1674169  46.47  0.001447458    3.591    0.722
        47 -10.2346    192.3916    164.7575   6.1662611850e+01   1.0367097139e+01    0.2941721     0.131691 -47.76  0.001140481    2.174    0.540
        48 -10.9274     80.1222    163.7706   9.0042801426e+01   3.0745358508e+01    0.4850934    0.2872885  80.25  0.001730023    2.945    0.660
        49 -10.2204     89.0032    199.0276   9.3371754901e+01   2.0471233188e+01    0.2449559    0.1697833  67.93  0.001135641    1.723    0.420
        50 -12.0296    213.3178    163.2861   5.7256775415e+01   7.0343799430e+00    0.3008504    0.2550768 -27.97  0.001306328    1.051    0.048
        51  -9.9474     38.3273    164.6549   1.0228255494e+02   3.5857728178e+01    0.1507757    0.0983834  67.74 0.0007050494    1.747    0.428
        52 -10.3066    113.5011    198.0137   8.6905060682e+01   1.6859340097e+01    0.3206058    0.1648989  61.19  0.001037847    3.564    0.719
        53 -10.3170     69.9836    162.9876   9.2856856091e+01   3.2420039337e+01     0.249905    0.1762282  69.11  0.001079512    1.723    0.420
        54 -11.0588    205.6852    161.2478   5.8281017479e+01   8.7345658648e+00    0.3797011    0.1725677 -47.50  0.001541642    2.106    0.525
        55  -9.9731    152.4812    160.9687   6.9826854187e+01   1.8637149873e+01    0.2152885    0.1393301 -72.59 0.0008093567    2.471    0.595
        56 -10.9979     93.3670    160.2997   8.5561693110e+01   2.9562163436e+01     0.353504    0.2116283  63.27  0.001324841    2.466    0.595
        57 -10.4966    206.2509    169.1088   5.9790875015e+01   7.0862159734e+00    0.2643084     0.185463 -55.55 0.0009150826    1.621    0.383
        58 -10.0563     62.3211    160.6599   9.4714880730e+01   3.4069227845e+01    0.1564869    0.1097078  69.77 0.0007050288    1.718    0.418
        59 -10.7462    106.5946    158.3716   8.1398244087e+01   2.7808940506e+01    0.4091802    0.2200318  55.74  0.001455773    2.575    0.612
        60 -10.5799    196.9423    156.6529   5.9028458508e+01   1.1205517731e+01    0.3012024     0.198683 -48.71  0.001442669    1.468    0.319
        61 -10.8457    119.9175    155.7753   7.7142967927e+01   2.6053011970e+01    0.3123588    0.2188055 -85.76   0.00125072    2.169    0.539
        62 -11.0713     50.0736    155.0190   9.7446256972e+01   3.7075333935e+01    0.3994346    0.2066499  60.85  0.001502299    2.800    0.643
        63 -10.9217     82.1899    154.6290   8.7738742710e+01   3.2804326907e+01    0.4381697    0.2506437  55.82   0.00170511    2.264    0.558
        64 -10.2490    204.5244    154.0085   5.6987796312e+01   1.0375172097e+01    0.2260529    0.1288295 -42.14 0.0008629345    1.575    0.365
        65 -10.8189    133.9923    153.2455   7.2814027263e+01   2.4005740094e+01    0.4375834    0.2861164  72.86  0.001607624    2.674    0.626
        66 -11.1204     68.4886    153.7103   9.1675031061e+01   3.5055320817e+01    0.3677717    0.2447934  54.83  0.001655446    1.738    0.425
        67 -10.2096     91.5884    151.7870   8.4387857356e+01   3.2039401377e+01    0.2230634    0.1491901 -69.79  0.000884436    1.703    0.413
        68 -10.9996    189.6540    148.9077   5.8831129274e+01   1.4143073019e+01    0.5325636     0.257995 -50.81  0.001878472    2.129    0.530
        69 -11.0223    125.5615    197.2921   8.3725558902e+01   1.5026316142e+01    0.3513845    0.1980821  18.93  0.001370285    2.301    0.565
        70 -10.5067    199.8174    147.4333   5.6490875853e+01   1.2543861444e+01     0.362138    0.1765701 -46.43  0.001502837    1.903    0.475
        71 -11.5578     56.5444    145.8091   9.3923354763e+01   3.8705169909e+01    0.6024085    0.3058704  61.44  0.002077817    3.327    0.699
        72 -10.8428     39.5941    147.4480   9.9446263641e+01   4.0220870567e+01    0.4136881    0.2147384  64.37  0.001568299    2.930    0.659
        73 -11.8547    108.0652    145.4157   7.8213135719e+01   3.0797848017e+01    0.7159068    0.4196507  64.85  0.002461524    2.960    0.662
        74 -10.4118     78.4849    146.9697   8.7357247655e+01   3.5357247062e+01    0.2167628    0.1353696 -88.14  0.000809731    2.500    0.600
        75 -11.1742    149.6139    145.3089   6.7040808387e+01   2.2791990012e+01    0.5510713    0.3341623  71.04  0.001828672    3.384    0.705
        76 -11.6998    125.3539    142.9812   7.2808447894e+01   2.8140897882e+01    0.5267885      0.37045  88.99  0.002074974    2.311    0.567
        77 -11.0464     88.3108    143.6958   8.3689646138e+01   3.4650353284e+01    0.3418356    0.2559994  72.91  0.001452232    1.742    0.426
        78 -11.1869    172.9218    195.5096   7.2075880672e+01   7.3600745916e+00    0.2168728    0.1392045  35.03 0.0008797252    1.562    0.360
        79 -10.9124     69.0129    139.0267   8.8715990919e+01   3.8805497801e+01    0.3956324    0.2030907 -83.29  0.001149949    4.357    0.770
        80 -10.9636     23.3632    137.8667   1.0306298104e+02   4.4226550414e+01    0.4358745     0.211664  81.24  0.001573059    3.407    0.707
        81 -11.2083    162.3280    193.6189   7.4129863425e+01   9.5573435491e+00    0.3059249    0.2512584  80.21  0.001519158    1.756    0.430
        82 -10.1016    197.3941    135.3023   5.4310037996e+01   1.5434129695e+01    0.2878848    0.1295466 -39.33 0.0008376019    2.109    0.526
        83 -10.6806    113.5229    133.6547   7.3938443353e+01   3.2673200567e+01    0.3609549    0.2327839  69.98  0.001326331    2.597    0.615
        84 -11.3545    132.6465    131.8253   6.8206436690e+01   2.9332171778e+01    0.4686742    0.3137562 -79.81  0.001765115    2.514    0.602
        85 -11.8691     83.9450    131.5072   8.2377434508e+01   3.8455863163e+01    0.5505293    0.3917047  87.05   0.00201079    2.072    0.517
        86 -10.3534    143.8573    131.7821   6.5294505345e+01   2.7045889507e+01    0.3038839    0.2119915 -74.44  0.001239177    2.066    0.516
        87 -10.3189    153.4750    129.6007   6.2404437255e+01   2.5536535872e+01    0.3156983    0.2193696 -76.89  0.001280326    2.174    0.540
        88 -11.5655     99.2681    127.7829   7.6751291781e+01   3.6751704330e+01    0.6173345    0.4100666 -84.99  0.002331124    2.584    0.613
        89 -10.6928     73.3013    129.3230   8.5298773702e+01   4.0665832259e+01    0.3092055    0.2174154  72.54  0.001331129    2.046    0.511
        90 -10.5379     12.6444    128.8259   1.0519672113e+02   4.7342397457e+01    0.2914674    0.1456726  79.93  0.001156175    2.969    0.663
        91 -11.2746    118.6375    125.6608   7.0536406081e+01   3.3584339769e+01    0.5581319    0.3429829  72.27  0.001851405    3.316    0.698
        92 -11.4078     59.5310    123.7622   8.8648246937e+01   4.4008462745e+01    0.6636096    0.3838327  88.77   0.00226508    3.563    0.719
        93 -11.7060     43.5209    121.4797   9.3634616773e+01   4.6509555816e+01    0.8972765    0.4553905 -85.37  0.002974726    3.835    0.739
        94 -11.5439     28.4222    121.8160   9.8873173307e+01   4.7902079102e+01    0.7359135    0.3573617  73.82  0.002191176    5.400    0.815
        95 -10.0791    158.9844    121.4979   5.9143916553e+01   2.6131181492e+01     0.218581    0.1361064  70.74  0.000810467    2.576    0.612
        96 -10.9852    142.2397    119.4674   6.2667113144e+01   3.0130686908e+01     0.392089    0.2754828 -74.89  0.001626952    2.046    0.511
        97 -10.4182     71.1421    119.9118   8.3881981810e+01   4.3344827917e+01    0.3237105    0.2210222  71.88  0.001348309    2.294    0.564
        98 -10.8375    131.1821    118.7982   6.5359856247e+01   3.2605254906e+01    0.3354454    0.2496354  88.38  0.001424582    1.984    0.496
        99 -10.7382      2.8947    116.5534   1.0670662967e+02   5.1000399496e+01    0.3648699    0.1673485  89.59  0.001475451    2.917    0.657
       100 -11.3162    109.4904    114.0465   7.0229696158e+01   3.8082135180e+01    0.6076984    0.3642683 -69.98  0.002176367    2.781    0.640
       101 -11.6292     92.6747    111.9400   7.4849098666e+01   4.1729274194e+01    0.5826525    0.3408287 -66.49  0.002210935    2.442    0.591
       102 -11.4097     79.0364    112.0362   7.9328248576e+01   4.4034906739e+01    0.6117282     0.393988 -83.18  0.002303459    2.848    0.649
       103 -10.5592    122.6709    112.5595   6.6061086089e+01   3.5762801329e+01    0.2723601    0.1977147 -68.16  0.000984325    1.753    0.430
       104 -11.1772     66.9010    110.4402   8.3066521947e+01   4.6281811411e+01     0.352572    0.2674016  87.86  0.001648612    1.885    0.469
       105 -10.9745     14.1670    109.9205   1.0180524258e+02   5.1964819139e+01    0.4030067    0.2258394 -83.87  0.001872594    2.122    0.529
       106  -9.9680    133.6587    109.3417   6.2260732950e+01   3.4154403085e+01    0.1612725    0.1246083 -89.08 0.0007048779    1.776    0.437
       107 -12.1514     45.7821    102.2556   8.8680953050e+01   5.0992007075e+01    0.7559126    0.4318723  70.11  0.002497089    4.547    0.780
       108 -11.6330     22.2764    100.7434   9.7157618558e+01   5.3612314839e+01    0.9260603    0.4904172  88.14  0.003444206    3.710    0.730
       109 -10.2188      6.4985    102.4888   1.0332840443e+02   5.4238199654e+01    0.2363649    0.1164587 -81.71  0.001035276    2.409    0.585
       110 -10.9080    128.7803    101.9414   6.1571063790e+01   3.6764371568e+01    0.2935088    0.2223552 -65.48  0.001356192    1.587    0.370
       111 -11.3616    109.3491     98.6329   6.6108553152e+01   4.1518809025e+01    0.7209424    0.4893784 -89.03  0.002699586    2.926    0.658
       112 -10.5759     82.0775     99.4694   7.4995555185e+01   4.6442175841e+01    0.3568646    0.2533791 -75.64  0.001557298    2.114    0.527
       113  -9.6719    215.3305    193.6714   6.2892182052e+01   9.5588597775e-01    0.1244587    0.1096308 -77.95 0.0006915613    1.713    0.416
       114 -11.5813     63.6837     95.5328   8.0380037855e+01   5.0235793725e+01    0.4907674    0.3448127  87.12   0.00208716    2.605    0.616
       115 -10.2549    138.8006     91.9593   5.6300307751e+01   3.6583781056e+01     0.252788    0.1736716 -69.30  0.001045918    2.000    0.500
       116  -9.7535     57.9828     92.0357   8.1537153557e+01   5.1827991803e+01    0.1703618    0.1536103 -20.14 0.0003165536    1.010    0.010
       117 -10.3937    139.9935    104.9667   5.9494768099e+01   3.3710063842e+01    0.2504944    0.1934046 -87.39 0.0009543644    1.741    0.426
       118 -11.2298      4.8942     90.3826   1.0182515549e+02   5.7189731187e+01    0.3681782    0.1757382 -80.47  0.001591503    2.695    0.629
       119 -11.0218    124.5284     90.5415   5.9553563819e+01   3.9994774000e+01    0.3341255    0.2351673 -86.73  0.001373421    2.360    0.576
       120 -10.6868     94.9863     96.5641   6.9941827300e+01   4.4766296569e+01    0.2934552    0.2182674 -62.62   0.00115305    1.631    0.387
       121 -11.2579     48.6072     84.0813   8.2945925144e+01   5.4814312939e+01    0.4174432    0.2943886  85.01  0.001853544    2.733    0.634
       122 -11.2765     86.7221     86.5151   6.9730041988e+01   4.8416298541e+01    0.3505211    0.2603124  78.29  0.001556081    2.255    0.557
       123 -11.4147    104.6410     82.5991   6.2876207797e+01   4.5736430073e+01    0.4826281    0.3150131 -63.79   0.00204022    2.243    0.554
       124  -9.9686    140.9896     83.1910   5.3368550387e+01   3.7744501970e+01    0.2210699    0.1635545 -64.42 0.0009352574    1.607    0.378
       125 -11.2640     24.2943     79.6765   9.1654516950e+01   5.8316321702e+01    0.4762984    0.2484323 -73.97  0.001988536    2.946    0.661
       126 -10.3401     74.4424     80.1677   7.2060686949e+01   5.1859320626e+01    0.3272546    0.1393783 -55.04   0.00114075    3.182    0.686
       127 -11.1085     34.5606     88.6283   8.9699749239e+01   5.5368358562e+01    0.5657695    0.2465288 -64.77   0.00222641    2.723    0.633
       128 -10.8489    150.4195    103.1563   5.6508392127e+01   3.1794905729e+01    0.3605615    0.1332201 -50.40  0.001139905    3.124    0.680
       129 -10.7447    128.0088     75.0061   5.4193994193e+01   4.2126300984e+01    0.3358435    0.1957489 -61.46  0.001318739    2.584    0.613
       130  -9.8991    140.5061     75.0054   5.1202857209e+01   3.9308153629e+01    0.2104944    0.1189618 -60.83 0.0008105213    2.558    0.609
       131 -11.3199     82.3260     72.0925   6.6775368308e+01   5.2056212179e+01    0.4084403    0.2680081 -60.13    0.0018254    2.181    0.541
       132 -10.1163     44.3291    193.6842   1.0421425557e+02   2.7759408152e+01    0.1476521   0.09323964  64.72 0.0007045502    1.678    0.404
       133 -10.4108    105.6121     70.8469   5.9002477231e+01   4.7712367009e+01    0.2068785    0.1346497 -50.22 0.0009539901    1.771    0.435
       134 -10.5042     94.8250     70.3363   6.2110737925e+01   4.9999916140e+01    0.3439351    0.1922006 -54.72  0.001411682    2.456    0.593
       135 -11.1705     51.2583     68.6497   7.7301560569e+01   5.7676405975e+01    0.5416936    0.2438015 -59.73  0.001930604    3.770    0.735
       136 -10.7560     16.5386     68.8262   9.2215107782e+01   6.1272177419e+01    0.3877915    0.1015294 -57.03  0.001451113    3.160    0.684
       137 -10.6380     37.2519     63.6354   8.1593193935e+01   6.0402192774e+01    0.2329609    0.1624938 -58.39  0.001260411    1.735    0.424
       138 -10.1155    110.0052     63.2032   5.5363287174e+01   4.8081124266e+01    0.2058755    0.1616558 -63.57 0.0008996754    1.626    0.385
       139 -10.7138     73.1394     58.4289   6.5472682567e+01   5.6140643379e+01    0.4310226    0.2128734 -48.76  0.001832728    2.502    0.600
       140 -10.1490     24.6767     57.8574   8.5402581570e+01   6.2826182134e+01    0.2675714   0.08501664 -46.36  0.001104102    2.571    0.611
       141 -11.6105      7.6581     54.5076   9.2416107661e+01   6.4809701332e+01    0.6091483   0.05645176 -55.15  0.001907773    4.994    0.800
       142 -11.1174     62.8295     52.5968   6.7271259331e+01   5.8864046280e+01    0.6226258   0.09129139 -40.41  0.001552505    7.090    0.859
       143 -10.2565     44.0000     54.5140   7.5653246803e+01   6.1297390483e+01    0.3929651    0.1498546 -48.15  0.001620645    2.752    0.637
       144 -10.5183     45.2929     49.1032   7.3178109367e+01   6.2071391274e+01    0.2215583     0.176707  -3.18  0.000341936    1.081    0.075
       145 -10.6844     53.8463     52.4753   7.0796175158e+01   6.0282813563e+01    0.4529285    0.1766904 -53.04  0.001519319    4.597    0.782
       146 -10.6300     31.0062     50.8385   8.0186761508e+01   6.3510511489e+01    0.2703274    0.1807122 -64.68  0.001395729    2.397    0.583
       147 -10.6176     92.4223     49.6743   5.6029539108e+01   5.3868856346e+01    0.3678384    0.1193465 -41.83  0.001304348    3.511    0.715
       148 -10.4118     16.6337     43.4120   8.4541257493e+01   6.6243745956e+01    0.3078681    0.0845171 -47.12   0.00127166    2.941    0.660
       149 -10.5303     57.8639     41.7009   6.5197917639e+01   6.1390708398e+01    0.2568837    0.1539659 -58.15  0.001093483    3.452    0.710
       150 -10.9869      4.8947     39.8493   8.9344910854e+01   6.7769881550e+01    0.4527868    0.1607793 -60.08  0.001875099    3.633    0.725
       151  -9.6324    113.5918     41.4841   4.7501477427e+01   5.0486039327e+01    0.1347909    0.1195817  39.81 4.923725e-05    1.051    0.049
       152 -10.4609     69.4819     40.9882   6.0527383692e+01   5.9519597150e+01    0.1706533    0.1140685 -58.05 0.0008103589    2.591    0.614
       153 -10.1731     36.6031     39.8454   7.3603964130e+01   6.4738125065e+01    0.1675617    0.1145271 -47.40 0.0009574791    1.775    0.437
       154 -10.5200     27.4860     29.5300   7.3866187521e+01   6.7445925232e+01    0.2687547   0.07527488 -30.95 0.0008105208    5.852    0.829
       155  -9.4953     40.9739     21.0445   6.3880859400e+01   6.6838731763e+01    0.1440842    0.1140027   5.51 0.0002974786    1.042    0.041
