#   1 NUMBER                 Running object number                                     
#   2 MAG_AUTO               Kron-like elliptical aperture magnitude                    [mag]
#   3 X_IMAGE                Object position along x                                    [pixel]
#   4 Y_IMAGE                Object position along y                                    [pixel]
#   5 X_WORLD                Barycenter position along world x axis                     [deg]
#   6 Y_WORLD                Barycenter position along world y axis                     [deg]
#   7 A_WORLD                Profile RMS along major axis (world units)                 [deg]
#   8 B_WORLD                Profile RMS along minor axis (world units)                 [deg]
#   9 THETA_WORLD            Position angle (CCW/world-x)                               [deg]
#  10 FWHM_WORLD             FWHM assuming a gaussian core                              [deg]
#  11 ELONGATION             A_IMAGE/B_IMAGE                                           
#  12 ELLIPTICITY            1 - B_IMAGE/A_IMAGE                                       
         1 -12.0272    176.8937     65.7334   8.5139045677e+01   3.2046152335e+01     1.500063     0.910552 -53.52  0.004402779    2.018    0.504
         2 -11.8281    196.4850     48.4035   7.6688405430e+01   2.9544913621e+01     1.707667    0.7962423 -61.69  0.001525633    3.978    0.749
         3 -11.3236    230.5375      3.1022   6.0705210983e+01   2.6190935105e+01    0.9262485    0.4319171 -71.03  0.002860302    2.414    0.586
         4 -12.7498    219.3990     33.9036   6.9754481732e+01   2.5693803307e+01     4.491334     1.239413 -49.87   0.01243584    5.298    0.811
         5 -13.1463    223.4266     18.7877   6.5310312187e+01   2.6352995020e+01     2.011204    0.7147776 -42.80  0.008119933    2.466    0.594
         6 -11.4754    232.9375     12.5067   6.2936624198e+01   2.4772899925e+01    0.4158038    0.3265915  45.86 0.0006699924    1.494    0.331
         7 -11.0516    173.4978      4.3179   6.5765716724e+01   4.0534991143e+01      2.07165    0.6727473  75.31  0.007004896    3.007    0.667
         8  -9.4832    193.7815     14.3231   6.6804375207e+01   3.4168479345e+01    0.4430849    0.2009134 -58.94  0.001683377    2.651    0.623
         9 -10.6536     15.3359     11.6449   1.2784193065e+02   7.5012297962e+01    0.4631236    0.1875292 -55.33  0.001708181    1.990    0.497
        10 -10.2221    120.2561      8.9668   7.5759370221e+01   5.4921382067e+01    0.4859263    0.3870946  43.05  0.001601172    1.185    0.156
        11  -8.8086    188.1288     10.6827   6.6269880252e+01   3.6008808602e+01    0.2285693    0.1632541 -81.46  0.001012098    1.426    0.299
        12 -10.1289    222.4218      4.7406   6.1663680016e+01   2.7933970165e+01    0.6143315     0.233211 -51.44  0.002348001    2.548    0.607
        13  -8.7035     58.6488      6.2987   9.5094831059e+01   7.0155068285e+01    0.1273132    0.1123244 -79.01  0.000335048    1.690    0.408
        14  -9.4407    248.8192      2.5883   5.9516994713e+01   2.2207907478e+01    0.4078248    0.2376267 -58.54   0.00229911    1.581    0.367
        15  -8.2148    205.0730      5.3748   6.3135649104e+01   3.2118227173e+01    0.1845547    0.1572983 -83.43 0.0005065117    1.115    0.103
        16  -8.1675    115.7579     12.4282   7.8352812008e+01   5.5778097884e+01    0.2324781    0.1847025  52.08 0.0006949825    1.150    0.131
        17  -8.8056    209.3591     10.6186   6.4266184629e+01   3.0558960779e+01    0.3210268    0.1998873 -67.95 0.0009531968    1.668    0.401
        18  -8.7457    201.9695      1.5691   6.2290590135e+01   3.3241152442e+01    0.1934075    0.1499692  86.86 0.0004513444    1.236    0.191
        19 -10.0680     67.4578    144.2557   1.3382625371e+02   3.7966253809e+01    0.5730255     0.300093  50.73  0.001683006    1.843    0.457
        20  -8.9726    234.2747    145.1269   9.4798015250e+01   8.2194802732e+00    0.2289749    0.1526046  25.90 0.0007972414    1.387    0.279
        21  -7.9926    198.3050    144.3260   1.0107469037e+02   1.4770860935e+01    0.1443762   0.09695873   8.72 0.0007034421    1.646    0.393
        22  -7.7035    192.4843    144.4162   1.0224498425e+02   1.5858336310e+01    0.1385551    0.1218919  18.65 7.461679e-05    1.066    0.062
        23  -9.3420    241.3199    141.9684   9.3012060782e+01   7.4377141263e+00    0.1861012    0.1438174  -8.79 0.0008805998    1.094    0.086
        24  -8.9063    128.3709    142.0822   1.1654401804e+02   2.8658039616e+01    0.2273858     0.180494  29.24 0.0004627377    1.201    0.167
        25  -8.6964    193.1261    132.0385   9.9405526698e+01   1.7671306342e+01    0.2125437    0.1823845  10.34  0.000357579    1.048    0.046
        26 -11.6671    240.4874    122.8285   8.9052684571e+01   9.9939128140e+00    0.7982973    0.5644326  -2.90   0.00460326    1.336    0.252
        27 -12.1014    243.7515    101.7174   8.3821330617e+01   1.2094549330e+01     1.692614    0.3066778 -27.67  0.004562878    5.755    0.826
        28 -11.4463    241.6329     85.2595   8.0244939203e+01   1.4587094903e+01     1.301762    0.4315713 -44.50  0.004452449    3.880    0.742
        29  -8.6062    201.9455    125.7385   9.6256582504e+01   1.6888387304e+01     0.195106    0.1741372  19.39 0.0005682788    1.074    0.069
        30  -8.7023    186.3197    119.3043   9.7815166740e+01   2.1122271477e+01    0.1521574    0.1071703  12.57 0.0004644569    1.631    0.387
        31  -8.8454    200.1927    115.8897   9.4270172208e+01   1.8757651006e+01    0.2074362    0.1995042 -51.19 0.0006656767    1.277    0.217
        32  -9.1538    168.0094    114.2454   1.0051171233e+02   2.5934452443e+01    0.4239382    0.2334363 -46.08  0.001701216    2.055    0.513
        33 -10.7175    186.8129    111.4863   9.5802590506e+01   2.2303398932e+01    0.6470527    0.2947432 -43.11  0.002497992    2.429    0.588
        34  -9.3050    204.6678    110.3296   9.2097349168e+01   1.8673890085e+01     0.346232    0.2301216  28.35  0.001684024    1.576    0.366
        35  -9.5501    238.3080    109.6720   8.6427388741e+01   1.2087875454e+01      0.19869    0.1560078 -58.02   0.00111402    1.806    0.446
        36 -10.4038    189.4092    104.1274   9.3427401373e+01   2.2934618791e+01    0.4393177     0.288323  26.23   0.00101426    1.709    0.415
        37  -8.5966    142.7225    100.2879   1.0300954451e+02   3.4213101541e+01    0.4125579    0.2534599  -6.11  0.001395934    3.193    0.687
        38 -11.1466    186.5824     93.5160   9.1200595079e+01   2.5290608353e+01    0.8263229    0.2592925 -38.39  0.002682907    3.112    0.679
        39  -9.2311    150.5914     91.6196   9.8598350591e+01   3.4076606926e+01    0.3620922    0.2710547  23.09  0.001140356    1.505    0.336
        40  -8.5557    135.7084     90.6801   1.0218749277e+02   3.7725237384e+01    0.2633412    0.1850516  44.45 0.0007370898    1.370    0.270
        41 -10.4772    240.1127     72.3617   7.7317724188e+01   1.6507347491e+01    0.4305007    0.2462284 -32.16  0.002180793    1.527    0.345
        42  -9.7795    159.8681     82.8434   9.3840359417e+01   3.3458271835e+01    0.3462989    0.2793837  -1.41 0.0009750169    1.409    0.290
        43 -10.1747    163.4372     79.4950   9.2045148061e+01   3.3168651664e+01    0.3683255    0.3169796  40.52  0.001050257    1.132    0.116
        44  -9.7582    144.4006     80.0016   9.6716471080e+01   3.7743143781e+01     0.365886    0.2932211 -38.23 0.0008042971    1.284    0.221
        45 -11.5119    163.9521     52.2439   8.3372801597e+01   3.7439843772e+01     1.688594    0.8971147 -76.70  0.004381607    5.570    0.820
        46 -10.2909    184.3057     77.8766   8.7308818348e+01   2.8323054669e+01    0.5344407    0.3345354 -19.29  0.002314577    1.779    0.438
        47  -9.8434     75.7874    248.5715   1.4113704099e+02   1.7284415052e+01    0.1691755    0.1410955  78.21  0.001220081    1.411    0.291
        48  -8.4710    231.3330     79.5672   8.0227149133e+01   1.7403694408e+01    0.2300224    0.1378783  62.87  0.001117351    1.985    0.496
        49  -7.3958     96.5519     73.5218   1.0909056167e+02   4.9903578178e+01     0.152504    0.1486146  77.42 8.150485e-05    1.090    0.082
        50  -7.6198    125.9253    127.0448   1.1408101727e+02   3.2241710782e+01    0.1738011    0.1567376  38.51 0.0009276895    1.029    0.029
        51 -11.1123    159.7414     68.2432   8.9413012166e+01   3.6003956779e+01    0.4034636     0.356333 -21.52 0.0007739958    1.157    0.136
        52  -8.1980    189.4550     35.4798   7.3792967390e+01   3.2968923518e+01    0.3396946    0.1567793  53.87 4.426891e-05    2.113    0.527
        53 -10.2924    206.3696     64.9952   7.9963448916e+01   2.4912623735e+01     0.907832    0.4408666 -64.22  0.002565111    5.386    0.814
        54 -10.2979    208.1227     61.5571   7.8756833034e+01   2.4963591207e+01     0.801707    0.3699227 -58.33  0.002561103    4.041    0.753
        55  -9.8218     61.9096    247.6898   1.4370029307e+02   1.8984573583e+01    0.1738607      0.14176  64.31 0.0003763844    1.266    0.210
        56 -11.2145      3.3464    239.4922   1.5414416743e+02   2.5915961770e+01    0.4004746    0.2641836 -62.53  0.003139596    2.208    0.547
        57 -10.9910      2.3990    235.1965   1.5424372552e+02   2.6676254980e+01    0.3285793    0.1929734 -89.44  0.001857532    1.760    0.432
        58  -8.0771     86.7113    243.6933   1.3872828225e+02   1.6706226254e+01   0.09647539   0.07638812  14.18 0.0001821854    1.572    0.364
        59  -8.4014    129.2286    234.9955   1.2964027774e+02   1.2452834529e+01    0.1150636   0.09917677 -53.72 0.0004546937    1.603    0.376
        60  -8.3302    193.0579     61.9661   8.1181613057e+01   2.8554580155e+01    0.2067216    0.2011881  -7.84  0.001163342    1.007    0.007
        61  -9.3392    144.2801     59.2347   9.0015425454e+01   4.1484485584e+01    0.3298224    0.2745199 -69.38 0.0006626258    1.427    0.299
        62  -9.8918    185.7977     57.4028   8.1033192056e+01   3.1020528061e+01    0.2833587    0.2794441  72.11 0.0004028913    1.038    0.036
        63  -8.5357     85.7886     56.6353   1.0729629201e+02   5.5703454113e+01    0.3677333    0.2011884 -61.41  0.001331273    2.752    0.637
        64  -7.8264     72.5946     58.0863   1.1321402097e+02   5.7818533300e+01    0.1919321    0.1311042 -77.81 0.0007980138    2.272    0.560
        65 -11.9775    179.2177     44.9904   7.8293406089e+01   3.4436532317e+01    0.6551961     0.385708  -6.18  0.002126586    2.317    0.568
        66  -9.3445    133.3501     50.8502   8.9774444495e+01   4.5716069033e+01      0.27742    0.2421289  43.28  0.000231154    1.104    0.094
        67  -9.7964    248.0359     47.9764   7.0497298834e+01   1.7769005839e+01    0.2303436    0.2167721  58.18 0.0003781906    1.211    0.174
        68  -7.9203     54.3784     49.1098   1.1839540665e+02   6.2671722404e+01    0.1967126    0.1315568 -66.78 0.0006208128    1.749    0.428
        69 -10.4233    203.2080     41.1008   7.3645471247e+01   2.8784243783e+01    0.4135616    0.2708199  35.73  0.001475021    1.800    0.444
        70  -9.2582    171.0487     40.8179   7.8305172765e+01   3.7160474254e+01     0.463481    0.2537409 -61.08  0.001222103    2.574    0.612
        71 -11.1254    137.8562     38.4259   8.4030397235e+01   4.6461341713e+01    0.8399968    0.3065873  65.15    0.0025352    3.268    0.694
        72  -9.3075     76.1211     38.5893   1.0400016893e+02   6.1263635787e+01    0.3879355    0.2026899 -59.75  0.001318876    3.455    0.711
        73  -8.7226     39.9551    226.1205   1.4688447184e+02   2.4747240484e+01    0.1622877    0.1149917  50.07 0.0003847787    1.008    0.008
        74  -9.7228    244.2065     34.7121   6.7604623767e+01   2.0029331620e+01    0.4750892    0.2370125 -63.49  0.001984284    2.596    0.615
        75  -9.1343    242.6173     31.1640   6.6864802392e+01   2.0747231709e+01    0.2715628    0.2066484  10.66  0.001192041    1.610    0.379
        76  -8.1237    161.0066     37.0283   7.8785758883e+01   4.0373415406e+01    0.2436507    0.1762208 -63.35 0.0006101154    1.612    0.380
        77  -8.7555     23.8163     32.1127   1.2960530390e+02   6.9858218694e+01    0.1828584    0.1693074 -80.85 0.0005125939    1.229    0.186
        78  -9.1335    161.1573     28.3901   7.5743631886e+01   4.1427189857e+01    0.3820564    0.2524308   7.00 0.0009647247    1.987    0.497
        79 -10.3451    142.9711     27.2863   7.8665743246e+01   4.6577247884e+01    0.2638622    0.2422353 -15.84 0.0003316517    1.149    0.129
        80  -9.3872    178.5833     24.3927   7.1768356272e+01   3.7142906572e+01    0.3904755    0.2871615  61.89  0.001731053    1.315    0.239
        81  -8.8204    193.5506     23.1630   6.9511327662e+01   3.3313019145e+01    0.2680001    0.1922226 -60.20 0.0005967942    1.438    0.305
        82  -7.6429    172.6972     19.2738   7.0871502586e+01   3.9298577986e+01     0.150434     0.105903 -63.88 0.0002324306    1.538    0.350
        83  -8.7397    247.9962     17.8517   6.3204383709e+01   2.0954552340e+01      0.31065    0.1326077 -70.42  0.001261529    3.279    0.695
        84 -12.7668     21.5757    217.4749   1.5019899277e+02   2.7995388554e+01    0.6890133     0.405263  54.56  0.002704442    1.234    0.190
        85 -10.3911     37.0954    213.4338   1.4688916808e+02   2.7229157765e+01    0.2306549    0.1480382  49.21  0.001049116    1.144    0.126
        86 -11.4236     57.1587    184.0075   1.4059570800e+02   3.0648817112e+01     2.080199     1.473645 -18.33   0.01164796    2.372    0.578
        87 -12.5523     37.9740    201.6922   1.4612905053e+02   2.9282936902e+01    0.6837651    0.5188461  24.16  0.002030231    1.480    0.324
        88  -9.3328     58.8578    203.1605   1.4163209146e+02   2.6761081036e+01    0.1819479    0.1240178  53.86 0.0004656816    1.181    0.153
        89 -11.7220     44.8326    194.7715   1.4421930056e+02   2.9890571392e+01    0.8631443     0.258981  38.03  0.004067338    2.334    0.572
        90  -9.9258    183.2023    195.5903   1.1363355557e+02   9.9325063649e+00    0.2122636    0.1718127  17.11 0.0003308729    1.061    0.057
        91  -8.2600    100.9728    176.0027   1.2904630760e+02   2.6417237532e+01     0.182162    0.1560595  42.86 -0.003769674    1.020    0.020
        92  -8.9005     11.5448    152.9664   1.5005213667e+02   4.1554175100e+01    0.1755461    0.1364527  42.05 0.0003521769    1.233    0.189
        93  -8.5248     13.5077    147.4570   1.4928180248e+02   4.2630651995e+01    0.1197409   0.09679981  68.35 -1.163051e-05    1.009    0.009
