#   1 NUMBER                 Running object number                                     
#   2 MAG_AUTO               Kron-like elliptical aperture magnitude                    [mag]
#   3 X_IMAGE                Object position along x                                    [pixel]
#   4 Y_IMAGE                Object position along y                                    [pixel]
#   5 X_WORLD                Barycenter position along world x axis                     [deg]
#   6 Y_WORLD                Barycenter position along world y axis                     [deg]
#   7 A_WORLD                Profile RMS along major axis (world units)                 [deg]
#   8 B_WORLD                Profile RMS along minor axis (world units)                 [deg]
#   9 THETA_WORLD            Position angle (CCW/world-x)                               [deg]
#  10 FWHM_WORLD             FWHM assuming a gaussian core                              [deg]
#  11 ELONGATION             A_IMAGE/B_IMAGE                                           
#  12 ELLIPTICITY            1 - B_IMAGE/A_IMAGE                                       
         1 -14.2728     20.3075     58.0701   8.4864728956e+01   6.3206784914e+01    0.6340133    0.5575562 -54.73  0.001703897    1.425    0.298
         2 -10.9063      3.7646      7.9566   7.4317429686e+01   7.2856200835e+01    0.3422692    0.2008096 -13.48  0.002238138    1.432    0.302
         3 -11.7975     17.1747     20.9086   7.2649094370e+01   6.9758116955e+01    0.4767393    0.2534427  26.54   0.00161348    1.725    0.420
         4 -11.0112     13.9771     15.2293   7.1838332347e+01   7.0877612316e+01    0.3705857    0.2240371 -42.35  0.001052173    2.016    0.504
         5 -10.1306      8.7246      9.1730   7.1965087487e+01   7.2216409031e+01    0.2445791     0.166963  49.65 0.0009201317    3.534    0.717
         6 -11.4591      2.3258     20.5595   8.0823748673e+01   7.1188319381e+01    0.2807353    0.2152447 -29.62 0.0007562108    1.287    0.223
         7 -11.5785    215.6849     17.5220   2.4321327802e+01   3.0613818217e+01      0.26224    0.1443029 -39.70  0.001238744    1.819    0.450
         8 -11.3446     70.2696     18.4323   4.8949896274e+01   6.1884534916e+01    0.3117435    0.1921768  53.16  0.001039048    1.559    0.358
         9 -11.5082     34.7046     11.9870   5.9835833451e+01   6.8628211784e+01     0.319127     0.214235  35.26 0.0007779161    1.383    0.277
        10 -11.8091     29.4069      8.2489   6.0546554852e+01   6.9798223878e+01    0.4191764    0.2267123  20.12  0.001868888    1.682    0.405
        11 -11.5695    125.3873     17.0143   3.5184353448e+01   5.0320887794e+01    0.2221212    0.1783852  63.57 0.0002145235    1.048    0.045
        12 -11.8014    236.5179     15.1271   2.2304217187e+01   2.6874163188e+01    0.3593346     0.198678 -71.41  0.002304025    1.553    0.356
        13 -12.0873    207.1804     12.9765   2.4139374976e+01   3.2812465284e+01    0.3290367    0.2124385  77.13  0.001161696    1.354    0.262
        14 -11.2507    171.5598     10.8466   2.7096718946e+01   4.0564181831e+01    0.2817755    0.1452429 -57.04  0.001512187    2.047    0.511
        15 -10.2719     91.4806     11.7548   4.0509756953e+01   5.8218136544e+01    0.2931756    0.1053167  47.35  0.001318943    2.209    0.547
        16  -9.9801     97.4419     10.7016   3.8752775569e+01   5.7039433304e+01    0.1712528    0.1204673 -18.66 0.0005918384    1.692    0.409
        17  -9.1928     98.2745      7.2921   3.7404202699e+01   5.7139224532e+01    0.1625318   0.08611839  59.18 0.0002480943    1.534    0.348
        18 -10.5526     55.6662      9.4052   5.0162188932e+01   6.5456846389e+01    0.2232943    0.1734565  30.11 0.0005838837    1.027    0.027
        19 -10.3827     51.0044     10.3406   5.2286706358e+01   6.6186735453e+01    0.2491052    0.1728338  33.26 0.0007890245    1.146    0.128
        20 -10.7482     45.8584     10.0349   5.4158546605e+01   6.7085436011e+01    0.2201663    0.1730334  36.41 0.0007278083    1.249    0.199
        21 -10.2057     42.3601      9.1827   5.5201023122e+01   6.7740747366e+01    0.1571685    0.1376893  14.74 0.0001128705    1.260    0.206
        22 -12.5145    192.4967      9.7792   2.4770986434e+01   3.6174011744e+01    0.5957266    0.2727797  67.03    0.0015447    1.890    0.471
        23 -11.9707    197.3070      5.3086   2.3428251683e+01   3.5611887449e+01    0.3623887    0.1632119  71.08  0.001429114    1.885    0.470
        24 -10.0433    148.1493      9.5997   2.9616680996e+01   4.5873701744e+01    0.2642412    0.1069797 -46.21  0.001239548    2.759    0.638
        25 -11.6637    194.2205      5.0198   2.3630038064e+01   3.6279872536e+01    0.2450854    0.2362804  67.13  0.001296389    1.402    0.287
        26 -10.5425    116.7658      8.6811   3.4212459463e+01   5.2980902481e+01    0.2151423     0.178028  78.00 0.0006077428    1.176    0.149
        27 -12.1242     18.3616      3.0733   6.3560512123e+01   7.1834613103e+01    0.5616863    0.3229956  18.03  0.003499382    1.438    0.304
        28 -12.1561    126.0040     10.8641   3.3267972996e+01   5.0735703425e+01    0.2720846    0.2187608 -77.39 0.0003083858    1.367    0.269
        29  -9.7021     88.9057      6.4334   3.9226733017e+01   5.9196956955e+01     0.165096    0.1435881  30.55 0.0002765124    1.147    0.128
        30  -9.7367    247.0905      5.8983   2.0047974881e+01   2.5953611227e+01    0.1567997   0.09844359 -70.10  0.000304359    1.199    0.166
        31  -9.3020    112.3471      5.2954   3.3961594344e+01   5.4229266552e+01    0.1289224    0.0734932  42.51 0.0007032634    1.673    0.402
        32 -11.3809    149.4683      2.9633   2.7743408910e+01   4.6149689979e+01     0.339234    0.1690882  79.21  0.001502238    1.838    0.456
        33 -10.3881    104.7300      4.1288   3.5023626291e+01   5.5987270925e+01    0.1987723     0.140167  59.65 0.0004839371    1.146    0.127
        34 -10.4124     59.5003      3.6001   4.6353543794e+01   6.5260075817e+01    0.2471159    0.1751702  60.13 0.0008585823    1.604    0.376
        35  -9.3292     39.0334      4.0091   5.4186146687e+01   6.8770261508e+01    0.1381925   0.09916009  27.36 0.0003413593    1.079    0.073
        36 -11.0254    164.0457      3.0343   2.6085456464e+01   4.2924026565e+01    0.1936528     0.117112 -73.93 0.0009441242    1.689    0.408
        37 -11.0032    123.1577      1.7650   3.1066620924e+01   5.2105620704e+01    0.2582479    0.1615582  71.18  0.001542309    1.350    0.259
        38  -9.5532     43.5091      3.5782   5.2146437840e+01   6.8079998829e+01    0.1175605   0.08861224  25.72 0.0001442363    1.019    0.019
        39 -10.8031     80.1180      1.4366   3.9535983601e+01   6.1392989096e+01    0.1743147   0.09481873  55.60 0.0004706283    1.473    0.321
        40  -9.2881     29.4433      1.0000   5.6982125800e+01   7.0523802080e+01    0.2377521   0.05281245  42.88 0.0009225188    3.837    0.739
        41  -9.2542      3.5137    177.5191   1.1123528508e+02   3.5609607631e+01    0.1305521    0.1090684 -81.41 1.046314e-05    1.020    0.019
        42 -10.2985    110.0339    250.5660   9.3310357964e+01   5.8502644860e+00    0.2022992    0.1163294  31.77 0.0005174128    1.539    0.350
        43 -10.5286     28.4001    250.4893   1.1112296443e+02   1.6228660023e+01    0.2377788    0.1065846  31.85  0.001195551    2.112    0.527
        44 -11.9260     18.4390    247.9548   1.1297616716e+02   1.7800906124e+01    0.3212155    0.3072963  14.37  0.002373736    1.390    0.280
        45 -13.1018     10.8408    243.9626   1.1425884001e+02   1.9397963872e+01    0.8240679    0.3789296 -72.04  0.004409532    2.035    0.508
        46 -12.1935      3.2814    247.7367   1.1595244990e+02   1.9315686525e+01    0.5168089    0.4627328  61.98  0.002743459    1.214    0.176
        47 -11.7330      4.5195    241.0544   1.1535345073e+02   2.0613829217e+01    0.4151406    0.3259715  31.64  0.002861827    1.444    0.307
        48 -11.4013      5.1191    154.0989   1.0858818333e+02   4.1447671609e+01    0.4441648    0.2413968  31.87  0.002249481    2.038    0.509
        49 -10.6883     23.6548    148.6248   1.0245355136e+02   4.1477569764e+01    0.3156661    0.1648749 -77.89  0.001388224    1.912    0.477
        50 -11.4248      6.6059    145.5468   1.0721387674e+02   4.3543056795e+01     0.310094    0.2071458  85.26 0.0006262637    1.541    0.351
        51  -9.4561    236.1928    138.4041   4.6098260410e+01   8.3642431284e+00    0.1586885    0.1276625  66.79 0.0009435651    1.616    0.381
        52  -9.7682     95.9960    133.9872   7.6805057822e+01   3.5877732861e+01    0.2368169    0.1943869  79.69  0.000678493    1.564    0.361
        53  -9.2889    213.0204    134.0000   4.8935960948e+01   1.3130066294e+01     0.203609   0.08093311  47.14 0.0005901387    2.885    0.653
        54  -9.5639     63.0202    127.7792   8.6003834575e+01   4.2600385241e+01    0.1847553    0.1238786  27.28 0.0008461057    1.577    0.366
        55 -11.3028     25.6217    124.0453   9.8050493769e+01   4.7669337852e+01    0.3754727    0.2161028 -77.88  0.001708282    1.912    0.477
        56 -10.2836     22.2674    121.4465   9.8761676039e+01   4.8601725469e+01    0.2847594    0.1840589  -7.42  0.001425644    1.836    0.455
        57  -9.2671    226.4907    124.5177   4.4777189837e+01   1.2502592798e+01    0.1354673     0.113953 -49.74 3.834896e-05    1.044    0.042
        58 -11.8731     10.6964    120.3612   1.0256774046e+02   4.9697030828e+01    0.5512502    0.3520882   2.37  0.001143216    1.849    0.459
        59 -10.0840     69.1584    116.7996   8.1406469265e+01   4.4467544835e+01    0.2130081    0.2061602  76.57   0.00028586    1.185    0.156
        60 -11.3410      2.6335    113.1009   1.0426119964e+02   5.1967500093e+01    0.3063924    0.2637914 -60.97 0.0008702499    1.068    0.064
        61 -10.1500     86.1331    118.8506   7.6252028950e+01   4.1276534254e+01    0.2196436    0.1763658 -21.78 0.0004627167    1.314    0.239
        62 -11.5396     13.2566    103.6053   9.8847442688e+01   5.3672365895e+01    0.3149841    0.1631328 -54.65 0.0007141189    1.541    0.351
        63  -8.8241     84.2934    110.2767   7.4660223779e+01   4.3618366929e+01    0.1522798    0.1147247 -13.51 0.0002004978    1.525    0.344
        64  -9.8351     27.4853    108.0003   9.4392991267e+01   5.1524142823e+01    0.2128852    0.1239783 -61.72 0.0005683026    1.559    0.359
        65  -9.7372     66.7037    104.4483   7.9166784168e+01   4.7780325151e+01     0.203189     0.140457  11.47 0.0009410674    1.628    0.386
        66 -10.1697      1.3882    103.4292   1.0321779761e+02   5.4389201722e+01    0.2639322   0.09316612 -62.61  0.001127362    2.131    0.531
        67  -9.2248    186.6534    102.7083   4.6627215085e+01   2.4186056580e+01    0.1383497    0.1133825   9.33 0.0007028207    1.664    0.399
        68 -10.4287    247.0614    101.4953   3.7379254194e+01   1.2937690051e+01    0.1580871    0.1226218  63.25 0.0005481883    1.530    0.346
        69 -12.1027     20.1110     93.5778   9.4198183316e+01   5.5577411123e+01    0.6374367    0.3102886 -45.61  0.003023244    1.692    0.409
        70 -10.7776     60.8506     99.1700   7.9890275597e+01   4.9846054178e+01    0.2090421    0.2053085  84.41   0.00069242    1.223    0.183
        71  -9.2368    217.5962     98.5068   4.0684231087e+01   1.8734600310e+01    0.1335971    0.1131213 -55.22 0.0001224495    1.020    0.020
        72 -12.3895    197.1550     97.5303   4.3625631149e+01   2.2953416412e+01    0.2442097     0.219865 -58.98 0.0003122224    1.006    0.006
        73 -11.7033     10.8928     93.3860   9.7802846912e+01   5.6258558598e+01    0.2818997    0.1938639 -54.80  0.000458548    1.213    0.176
        74  -9.8816     87.1150     95.0981   6.9565773051e+01   4.6521055929e+01      0.33443    0.1900109 -20.44  0.001219149    2.754    0.637
        75 -10.2854     37.2013     95.9794   8.8029604590e+01   5.3480294213e+01    0.2236289    0.1928976  -0.01 0.0003197619    1.171    0.146
        76 -11.9527    125.2039     93.0704   5.7641520221e+01   3.9339738203e+01    0.2689823    0.2491405  25.13 0.0002874141    1.084    0.078
        77  -9.5413     93.7017     94.7056   6.7308758210e+01   4.5393670093e+01    0.1514217    0.1146374  -4.89 0.0001980177    1.567    0.362
        78  -9.8592     30.8290     93.0289   8.9822547985e+01   5.4794371492e+01    0.2997916    0.1611336  51.61  0.001216708    3.107    0.678
        79 -10.4632    105.6779     91.6548   6.2725927271e+01   4.3691527900e+01    0.2776463    0.2160624  88.97  0.000544432    1.929    0.482
        80 -11.4941     58.2446     91.2728   7.8713204629e+01   5.1989402594e+01     0.315015    0.2375374 -15.79 0.0004930792    1.351    0.260
        81 -10.6166     82.9564     90.4180   6.9605658977e+01   4.8253154479e+01    0.2470425    0.2052448 -36.50 8.980031e-05    1.182    0.154
        82 -10.2603    159.9635     89.0704   4.8433717234e+01   3.2449136819e+01    0.2166561    0.2014895 -83.60 0.0003099355    1.074    0.069
        83  -9.5857     54.3347     89.3072   7.9650532895e+01   5.2957823501e+01    0.1515965    0.1004215 -18.23 0.0003596369    1.671    0.402
        84 -11.1361     66.8327     87.4717   7.4434786822e+01   5.1548906386e+01    0.2697298    0.2327326 -30.67 0.0006331631    1.097    0.089
        85 -11.0258      7.1347     90.6354   9.8748526334e+01   5.7122970870e+01    0.2822979    0.1588064 -57.87  0.000461988    1.455    0.313
        86 -10.5693      8.0027     83.7407   9.6987782780e+01   5.8656349705e+01    0.3929289    0.1641386 -30.72  0.001723972    2.400    0.583
        87 -10.8584     65.5909     81.1998   7.3027804208e+01   5.3049156141e+01    0.3222894    0.2235581 -19.63 0.0008936314    1.546    0.353
        88 -10.0269    250.2411     80.7598   3.3088999027e+01   1.5678136630e+01    0.1488092    0.1297369 -40.58 0.0006973436    1.311    0.237
        89  -9.9972     86.0262     78.6740   6.5033622256e+01   5.0056077278e+01    0.3226658    0.2442973  34.90  0.001016051    1.276    0.216
        90  -9.6791     87.5259     75.4290   6.3524693404e+01   5.0389047801e+01    0.2298726     0.159753  29.87 4.112219e-05    1.415    0.293
        91 -10.5280     48.0587     78.9816   7.9154482314e+01   5.5995615051e+01    0.2093849    0.1744315 -18.31 0.0003375503    1.060    0.057
        92 -11.7095     12.2617     76.4226   9.3529702248e+01   6.0021805321e+01    0.3546315    0.1889794 -11.89  0.001386172    2.054    0.513
        93  -9.5696    159.1116     80.1357   4.6305330492e+01   3.4211902496e+01    0.1894121    0.1606364 -77.97   0.00030553    1.253    0.202
        94  -9.9923    177.1315     76.1915   4.1986599182e+01   3.0867825596e+01    0.2024166     0.191284  38.35 0.0006704915    1.223    0.182
        95 -11.0669     53.0619     75.5429   7.6119523758e+01   5.6038453320e+01    0.3954608    0.2444735  22.88 0.0009736659    1.623    0.384
        96  -9.7243     34.2130     73.3663   8.3243272301e+01   5.8786146826e+01    0.1856042    0.1157393  30.90 0.0009579735    1.730    0.422
        97  -9.3057     27.8475     74.8640   8.6393931225e+01   5.9108391568e+01    0.1556153    0.1519884   0.05            0    1.284    0.221
        98 -10.9335      4.1759     74.1378   9.6505436821e+01   6.1006542983e+01    0.3082695     0.180165  22.75  0.001707066    1.934    0.483
        99  -9.9656    151.0392     72.2552   4.5858966026e+01   3.7348788542e+01    0.1964192    0.1753979  65.89 0.0002722986    1.077    0.072
       100  -9.6523    117.0712     71.7064   5.3617366627e+01   4.5020983663e+01    0.3803458    0.2022594  18.86  0.001055315    5.459    0.817
       101  -9.8239    105.8819     71.8589   5.6750756253e+01   4.7376263844e+01    0.1907894    0.1610184  60.32 0.0004846214    1.308    0.235
       102 -10.5909     75.6659     71.2915   6.6253630971e+01   5.3314457739e+01    0.3560028     0.249015   7.73  0.001748109    1.642    0.391
       103  -9.9532     92.9090     71.4686   6.0539501095e+01   5.0074490332e+01    0.3671316    0.1273474  53.29  0.001030244    4.741    0.789
       104 -11.1513     81.1076     67.3220   6.3071957201e+01   5.3055436299e+01    0.3669022    0.2031763 -37.33  0.001677587    1.856    0.461
       105 -11.4805      9.1144     70.2525   9.3403644920e+01   6.1558014918e+01    0.2937732    0.1916032  22.70  0.001701833    1.715    0.417
       106 -11.6820      6.1618     66.0795   9.3689756454e+01   6.2619746741e+01    0.6001565     0.130841 -47.44  0.002334366    2.918    0.657
       107  -9.5143     70.0223     69.9546   6.7851943843e+01   5.4528723893e+01    0.1627346    0.1444839  -7.00 0.0009383368    1.038    0.036
       108  -9.3441     45.2451     69.6509   7.7466055848e+01   5.8252580463e+01    0.1191578     0.108825 -81.60 0.0002179823    1.579    0.367
       109 -12.1923    211.8197     67.4791   3.4889112578e+01   2.4891009379e+01     0.233956    0.2045733 -80.30 0.0003496436    1.065    0.061
       110 -10.5763     58.8137     66.1703   7.0855204547e+01   5.7022684205e+01    0.3563851    0.1793919 -41.19  0.001264493    1.946    0.486
       111 -10.5746    188.5047    248.4566   7.5752833984e+01  -4.7380296192e+00    0.1814106    0.1581006  44.17 0.0001012843    1.588    0.370
       112 -12.3313     11.2639     57.7789   8.9052533379e+01   6.3982315869e+01    0.4523008    0.3050418 -45.93  0.002742462    1.296    0.228
       113  -9.8446    138.5159     61.9536   4.5647216873e+01   4.1816661273e+01    0.2103397    0.1390678 -35.43  0.001042772    1.624    0.384
       114 -11.1566     55.1074     61.1097   7.0626001066e+01   5.8503304813e+01    0.2464832    0.1879159  -1.77 0.0002636592    1.250    0.200
       115 -10.8888     58.9517     58.8164   6.8311686566e+01   5.8322681066e+01    0.2992796    0.1770937  34.80  0.001500915    1.625    0.385
       116  -9.6702     39.3012     61.6758   7.7431179753e+01   6.0531956439e+01    0.1168373    0.1072773  65.23 0.0002528381    1.634    0.388
       117 -11.0501     90.6512     59.6342   5.7411617140e+01   5.2524063239e+01    0.2326363    0.2217676  25.19  0.000511852    1.110    0.099
       118 -10.1100    145.9843     59.0080   4.3286569893e+01   4.0560199873e+01    0.2117939    0.1931521  66.87 0.0007072591    1.021    0.020
       119  -9.4292     49.4939     59.5544   7.2386683303e+01   5.9593312084e+01    0.1343794    0.1149908  -2.77 6.461193e-05    1.030    0.029
       120  -9.2878    130.6894     57.2981   4.6023208944e+01   4.4285667020e+01    0.1367972     0.106497 -82.53  0.000278956    1.599    0.374
       121 -13.6259    114.4371     53.2077   4.8637648822e+01   4.8504413245e+01    0.4162306    0.3290707  54.73 0.0007325387    1.193    0.162
       122 -13.0840    106.1299     50.2242   4.9838091414e+01   5.0734335471e+01     0.402542    0.3296196  71.99 0.0006692188    1.424    0.298
       123 -12.4403    119.6319     47.7135   4.5678240609e+01   4.8121173845e+01    0.3428207    0.2603987 -51.24  0.001670236    1.523    0.343
       124 -10.8358     71.9255     57.0482   6.2818649468e+01   5.6461348817e+01    0.2054907    0.1858981  27.27 0.0003418613    1.153    0.133
       125  -9.5035     68.2833     56.2762   6.3874277945e+01   5.7222284150e+01    0.1588334    0.1532287 -21.39 0.0001982184    1.264    0.209
       126 -12.2161     67.0480     52.5643   6.3019802299e+01   5.8035914516e+01    0.4382974    0.2097751  35.41  0.001157286    1.960    0.490
       127 -10.3938     37.8951     52.5313   7.4941522196e+01   6.2373823263e+01    0.4165906    0.2202571 -17.64  0.001886308    2.353    0.575
       128  -9.2761     29.3445     56.6913   8.0232922405e+01   6.2596993877e+01    0.1577185    0.1288803 -52.13 0.0009622793    1.485    0.327
       129  -9.9876     32.9723     55.5197   7.8188112145e+01   6.2418439554e+01    0.2756439    0.1443934  -9.13  0.001056047    2.573    0.611
       130 -12.1176     86.7167     54.0638   5.6780551698e+01   5.4173434518e+01    0.4845378     0.248552  38.28   0.00219538    1.832    0.454
       131 -10.0153     60.0787     53.3483   6.5947307669e+01   5.9068516365e+01    0.1859252    0.1518518  19.27 0.0003642048    1.099    0.090
       132 -10.6152     44.9559     52.4572   7.1823377188e+01   6.1468704501e+01    0.2192397    0.1600431 -20.98  0.001272001    1.254    0.203
       133  -9.9105    148.9454     52.1556   4.0848078712e+01   4.0866969659e+01     0.205709    0.1700596 -88.35 0.0005244641    1.257    0.205
       134  -9.6806    232.5707     50.6969   2.9193513320e+01   2.3230452526e+01    0.2240856    0.1066093 -36.58  0.001154258    2.163    0.538
       135 -10.9405    138.1767     50.5722   4.2496032026e+01   4.3543321467e+01     0.378096    0.2093515  44.87  0.001201016    1.820    0.451
       136 -10.1725     97.5029     52.4263   5.2954332103e+01   5.2240024749e+01    0.2743261    0.1363674 -33.54  0.001216055    2.190    0.543
       137  -9.7451     53.8376     49.3327   6.6977561892e+01   6.0702189216e+01    0.2482686    0.1562923  45.40  0.001276459    1.894    0.472
       138 -10.3616     74.4883     47.6616   5.8597634516e+01   5.7462916081e+01    0.2360548     0.187886  59.55 0.0008513832    1.626    0.385
       139 -12.0487      3.1729     43.8870   8.8852475982e+01   6.7182892879e+01    0.5047632    0.2945358 -54.71  0.002953139    1.730    0.422
       140 -10.4121    155.1026     46.9568   3.8360378148e+01   4.0168015309e+01    0.2192689    0.1795016  56.60 0.0004045605    1.173    0.148
       141  -9.3598    135.5233     46.0007   4.1725837607e+01   4.4762560617e+01    0.1769404    0.1325219 -38.07 0.0003523209    1.457    0.314
       142 -11.3606     79.1853     45.5492   5.6251615702e+01   5.6887588277e+01    0.2291083    0.2083622  20.31 0.0002750393    1.085    0.079
       143  -9.9205     68.8886     46.3294   6.0094692623e+01   5.8672628825e+01    0.1842721    0.1450554  22.49 0.0004669946    1.118    0.105
       144 -10.0929     26.2595     44.3948   7.7421660155e+01   6.5128522595e+01     0.448925    0.2974127  20.26  0.002527264    1.432    0.302
       145 -10.4458     28.8103     40.5151   7.4752573833e+01   6.5493608471e+01    0.3543792    0.2365643  48.03  0.001512544    2.482    0.597
       146 -11.1014     16.7109     42.0137   8.1274495488e+01   6.6482521952e+01    0.4272294    0.2185402 -38.82  0.001833593    1.676    0.403
       147  -9.9015    220.9912     43.3030   2.8889131605e+01   2.6454869206e+01    0.1625263    0.1298735 -83.36 0.0001866149    1.089    0.082
       148 -10.6760     94.7325     42.7347   5.0487694312e+01   5.4167613679e+01      0.31017    0.2192301  65.65   0.00111899    1.704    0.413
       149 -10.9654    184.4209     40.6487   3.2453678676e+01   3.4421158991e+01    0.3214404    0.2455151 -88.11   0.00162812    1.205    0.170
       150 -12.1734    141.7100     41.1652   3.9166869479e+01   4.3971781475e+01    0.2492228    0.2035867  69.97 0.0003267672    1.121    0.108
       151  -9.9626     86.2029     42.0844   5.2783743913e+01   5.5993330611e+01     0.305302      0.19014  19.47  0.001484398    1.949    0.487
       152  -9.9243     68.5346     41.0306   5.8263622249e+01   5.9496946650e+01    0.3173733    0.2203174 -78.63  0.001221095    4.651    0.785
       153 -10.1073     36.4651     42.0272   7.1740572653e+01   6.4320352038e+01    0.1960948    0.1475513  13.12 0.0004551701    1.163    0.140
       154 -10.5254    170.0068     40.0455   3.4266507000e+01   3.7687661126e+01    0.2999573    0.1971803  86.89 0.0009470573    1.583    0.368
       155  -8.9406    110.4752     41.4958   4.5915799617e+01   5.0961727865e+01    0.1344466    0.1187436  44.46 0.0001703834    1.008    0.008
       156 -12.6658    121.4385     37.4136   4.2114019796e+01   4.9032187827e+01    0.3789969    0.2832034  36.70 0.0008491253    1.364    0.267
       157  -9.3356    131.6283     37.1688   3.9943967293e+01   4.6758903814e+01    0.1543202    0.1273701 -10.55 0.0002678578    1.476    0.323
       158 -10.1605     49.9688     33.3499   6.2427000529e+01   6.3681922388e+01    0.1824441    0.1563169 -12.17 0.0002696693    1.209    0.173
       159  -9.7098     40.7221     34.6512   6.6924342940e+01   6.4874645748e+01    0.1554903    0.1035026  32.86 0.0004910626    1.452    0.311
       160  -9.8493     28.5799     33.1696   7.1988615655e+01   6.6675672693e+01    0.2237045     0.138166  -9.27 0.0007659859    1.588    0.370
       161  -9.4742     19.5586     34.5202   7.7030279568e+01   6.7462467169e+01    0.1217576   0.09516037  -9.13 0.0001391635    1.035    0.034
       162 -11.4750    206.0353     32.2621   2.8153487423e+01   3.0866510842e+01    0.2112375    0.1656473 -65.70 0.0003112655    1.109    0.099
       163 -10.4551    145.1055     32.7847   3.6256830687e+01   4.4202955222e+01     0.217233    0.1773225 -59.14 0.0007079489    1.311    0.237
       164 -10.4227    144.7521     28.2371   3.5076834764e+01   4.4793940774e+01    0.2428404    0.2088262 -83.40 0.0007399043    1.161    0.139
       165 -10.9783     90.2523     30.8687   4.7625014163e+01   5.6562125903e+01    0.4143721    0.2747282  70.74  0.001935337    2.013    0.503
       166 -11.7338     91.2805     26.7538   4.5885249416e+01   5.6807122435e+01    0.3192686    0.2569751  38.36 0.0002451901    1.062    0.058
       167  -9.8909     82.0648     32.2529   5.0517265488e+01   5.8062341694e+01    0.1772227    0.1457959  39.45 0.0002042238    1.077    0.072
       168  -9.3763     43.5183     39.5497   6.7629394392e+01   6.3753981127e+01    0.1272358    0.1051297   5.13  8.67007e-05    1.050    0.048
       169  -9.1211     77.2512     31.6831   5.1809451263e+01   5.9076534524e+01     0.110727    0.1018393 -76.14 0.0001691522    1.527    0.345
       170 -13.0620      8.8468     29.3147   8.0667281917e+01   6.9290229421e+01     0.350586    0.2142057  28.28  0.001305966    1.817    0.450
       171 -11.4324    135.7348     29.1563   3.6867258254e+01   4.6744870834e+01    0.2231221    0.1878217  68.47 0.0002630274    1.045    0.043
       172  -9.6550     38.9528     30.3213   6.5951096706e+01   6.5737546155e+01    0.1725749    0.1270357  15.38 0.0004340182    1.129    0.115
       173  -9.7947     54.2326     29.1977   5.9025034395e+01   6.3540458241e+01    0.1515321    0.1404705  21.64 0.0003761392    1.309    0.236
       174 -10.3113     80.9009     27.2653   4.9031987380e+01   5.8869607006e+01    0.2126278    0.1734783  -3.32 0.0006706587    1.293    0.226
       175 -10.3953    217.0266     25.8123   2.5816953740e+01   2.9406187027e+01    0.1815556    0.1228821 -71.63 0.0004552416    1.257    0.205
       176  -8.8540    169.3293     26.3215   3.1021938600e+01   3.9459074337e+01    0.1222256   0.08814936  42.26 0.0003947477    1.692    0.409
       177  -9.7535    102.8370     26.2237   4.2762300545e+01   5.4405005602e+01    0.1746913    0.1638406  69.15   0.00115934    1.172    0.147
       178 -10.3880    102.7327     22.3864   4.1502403002e+01   5.4822585808e+01    0.2307443    0.2233051   4.70  0.001187999    1.183    0.155
       179  -9.3271     68.4643     26.5347   5.2735819700e+01   6.1351863810e+01    0.1279391    0.1045695  26.16 0.0001117287    1.003    0.003
       180  -9.2542     18.5819     26.2920   7.4212074848e+01   6.8832293945e+01    0.1621641   0.09088372 -26.63 0.0008363825    1.600    0.375
       181  -9.7295    230.1708    247.2295   6.7358553936e+01  -9.6119798328e+00    0.1475396    0.1264063  -5.99 0.0005009514    1.289    0.224
       182  -9.3965    224.5183    247.5132   6.8461800190e+01  -9.0161236700e+00    0.1236349   0.09473911  -7.96 0.0003333362    1.018    0.018
       183 -10.0685    170.7110    246.8496   7.9257346993e+01  -2.0670121194e+00     0.231092    0.1615414  11.22  0.001094077    1.334    0.250
       184  -9.6655    116.1250    246.7991   9.1439827409e+01   5.7338252301e+00    0.1976456     0.171974  53.95  0.000653387    1.223    0.182
       185 -10.7614    185.8208     24.2491   2.8571740989e+01   3.6070485139e+01     0.194245    0.1698025 -77.18 0.0003048067    1.101    0.092
       186  -9.3541     51.5866     24.8462   5.8283969476e+01   6.4516072849e+01    0.1538628    0.1125408 -36.06 0.0009402224    1.664    0.399
       187  -9.5804     34.1475     24.1465   6.5548389461e+01   6.7238775999e+01    0.1508856    0.1232594  23.53  0.001021383    1.287    0.223
       188 -10.5573    130.6258     22.1258   3.5754168038e+01   4.8643073101e+01    0.4108647    0.2056527  39.09   0.00191955    2.375    0.579
       189 -10.4160     52.2557    244.6913   1.0561854798e+02   1.4746852018e+01     0.241268    0.1650262 -59.76  0.001008139    1.587    0.370
       190 -10.0357      6.9600     20.0157   7.7917592621e+01   7.0886326236e+01    0.1990359    0.1373188 -22.57   0.00136349    1.179    0.152
       191  -9.8766    200.1772     21.8387   2.6569921207e+01   3.3293019728e+01    0.1495165    0.1240314  69.19 0.0004123949    1.288    0.224
       192  -9.8476    146.8374    244.1640   8.4097095103e+01   1.8059925793e+00    0.1911943    0.1482169  -5.33 0.0007906611    1.328    0.247
       193  -9.5743    184.4668     19.4848   2.7659505159e+01   3.6882164782e+01    0.1201063   0.09844744 -87.71 0.0001407353    1.002    0.002
       194 -10.4260     39.2298    242.6402   1.0827087819e+02   1.6711762644e+01    0.2760466    0.1098338  71.20  0.000949942    4.183    0.761
       195  -9.9524     39.4968     14.5508   5.8868275061e+01   6.7626420732e+01    0.1876028    0.1462898   7.86 0.0005850241    1.075    0.070
       196  -9.4595     61.1888    240.6307   1.0325653904e+02   1.4528949049e+01    0.1753474    0.1191789  19.80 0.0004890932    1.693    0.409
       197 -12.6510      3.8743    233.4735   1.1505814526e+02   2.2315799146e+01    0.5674986    0.3443033  51.18  0.003366011    1.436    0.304
       198 -10.1303      1.8452    170.9141   1.1109583160e+02   3.7388954308e+01    0.2012125    0.1482362 -62.21 0.0004534935    1.230    0.187
       199  -9.8634     61.1690     16.1241   5.1058159137e+01   6.3817046229e+01     0.191938    0.1480321 -44.22  0.001203681    1.832    0.454
       200  -9.9114     77.6839     17.6639   4.6375900374e+01   6.0512480426e+01    0.1693371     0.117781   9.45 0.0009956575    1.584    0.369
       201  -9.7897     31.7125     17.5412   6.3777299076e+01   6.8410789527e+01    0.1744471    0.1428311 -41.95  0.001059478    1.838    0.456
       202  -9.3939    204.1705    235.4088   7.0381929252e+01  -4.5874180119e+00     0.159256    0.1131459  31.46  0.000550778    1.500    0.333
       203 -11.0437    170.8483     16.0797   2.8397740879e+01   4.0205701240e+01    0.2062201    0.1572691 -89.36 0.0003451349    1.138    0.121
       204 -10.1048    153.8425     16.8587   3.0721343183e+01   4.3916091960e+01    0.1676652     0.127028 -77.92 0.0003805256    1.314    0.239
       205 -11.2362    160.7689     15.8380   2.9558879379e+01   4.2465084492e+01    0.3726769    0.1349154  63.85 0.0009137225    2.248    0.555
       206 -10.4222     82.9230     15.9732   4.4250357076e+01   5.9617385043e+01    0.1895692    0.1507508  37.23 0.0003050959    1.051    0.048
       207  -9.6218     49.5112    235.5454   1.0539921885e+02   1.7081501029e+01    0.1286004    0.1130974  63.95 9.910139e-05    1.010    0.010
       208 -10.4710     37.5222     17.5537   6.1095419386e+01   6.7580330835e+01    0.2922042    0.2473906  54.60  0.001936532    1.906    0.475
       209  -9.2008    238.7303    234.3153   6.3618990929e+01  -8.6026949858e+00    0.1024607   0.09146671 -34.98 0.0003014297    1.554    0.357
       210  -9.9517     32.1930    233.1528   1.0904122852e+02   1.9585676273e+01    0.1715413    0.1628675  86.09 0.0004355568    1.178    0.151
       211  -8.9302    105.4891     11.4892   3.7280515480e+01   5.5230787161e+01    0.1250485    0.1017833  52.65 9.397822e-05    1.017    0.017
       212 -10.2591    245.1450    230.1047   6.1759937840e+01  -8.6680936224e+00    0.3377064    0.1410577  26.72  0.001682037    2.558    0.609
       213 -10.9322    140.2556    228.0293   8.3102042175e+01   5.9755922415e+00    0.3216519    0.2371142 -73.62  0.001605721    1.932    0.483
       214 -11.0809      1.6523    224.0054   1.1496642304e+02   2.4618985304e+01    0.2209747    0.1352232  80.80   0.00049489    1.424    0.298
       215  -9.7414    223.2719    226.3646   6.5086162146e+01  -5.5023718932e+00    0.1346636   0.08067385 -15.65 0.0007000497    1.661    0.398
       216  -9.3642    241.3498    225.2848   6.1592422590e+01  -7.4882717775e+00    0.1278767    0.0770859 -10.04 0.0007019554    1.656    0.396
       217  -9.1613     61.4527    224.5329   1.0152937172e+02   1.8123499279e+01    0.1350058    0.1205651  64.93 0.0001677251    1.026    0.025
       218  -9.8115    130.8306    221.3510   8.4264204548e+01   8.8354143383e+00    0.2128296    0.1281517  22.09 0.0009538903    1.739    0.425
       219 -11.5005      8.0000    219.9891   1.1336156036e+02   2.4977553696e+01    0.2890009    0.1353253 -75.07 0.0004107952    1.887    0.470
       220 -10.4806      1.9861    219.2739   1.1461061810e+02   2.5665751732e+01    0.2661585    0.1095473  72.62  0.001062471    2.629    0.620
       221  -9.6886     86.4301     10.4361   4.1284415151e+01   5.9387386273e+01    0.1224154    0.0995345  45.03 9.428048e-06    1.014    0.014
       222 -10.4184     27.4340    219.5659   1.0900288878e+02   2.3207589315e+01    0.2996214    0.1269123  24.76  0.001313566    2.653    0.623
       223 -10.4899     85.9253    215.0333   9.4377046123e+01   1.7051387455e+01    0.2021889    0.1940773  63.70  0.001189745    1.020    0.019
       224  -9.4345    205.4219    211.7242   6.5927134552e+01  -5.8211053555e-01     0.191491    0.1106242 -31.09 0.0009414578    1.597    0.374
       225  -9.2682    229.7202    209.3441   6.0839124422e+01  -3.4442683332e+00    0.1147956   0.09914447 -55.04 0.0005929032    1.632    0.387
       226  -9.6662     20.2793    209.4382   1.0981782494e+02   2.6323021173e+01    0.1736004    0.1056985  45.48  0.000931785    1.564    0.361
       227 -10.4678     39.4519    207.1613   1.0501521760e+02   2.4898959171e+01      0.24248    0.2072673  60.06 0.0006383286    1.107    0.096
       228  -9.5454    123.9956    205.9818   8.3399636834e+01   1.3343643672e+01    0.1686546    0.1595821  13.15  0.000932514    1.008    0.008
       229  -9.1300     46.4224    202.5067   1.0278218336e+02   2.5258259317e+01    0.1377598    0.1226659  81.54 0.0001595073    1.033    0.032
       230  -9.4614    193.7978    201.3807   6.6370710297e+01   3.0783006136e+00    0.1901864    0.1249929  18.33 0.0005792587    1.627    0.385
       231 -10.9817      4.4950    201.0721   1.1284119485e+02   2.9734199847e+01    0.1960294    0.1067435 -77.22 0.0006437178    1.575    0.365
       232  -9.6994     19.0000    195.0047   1.0888338248e+02   2.9968553045e+01    0.2220378   0.06680197 -73.20 0.0008047916    2.959    0.662
       233  -8.8474     18.3217    182.3233   1.0786351733e+02   3.3214454762e+01    0.1375077   0.09040514 -44.48 0.0007046364    1.678    0.404
       234 -10.0369     13.5504    181.0577   1.0897712961e+02   3.3940415660e+01    0.3087026    0.1180133 -83.58  0.001174694    2.790    0.642
       235  -9.0811     22.6621    179.6983   1.0645763651e+02   3.3497472070e+01    0.1381937   0.09336115 -41.46 0.0003629455    1.666    0.400
       236  -8.8829     69.6974    177.6856   9.3206059811e+01   2.8667841750e+01    0.1524999     0.110537 -31.07 0.0006048664    1.616    0.381
