#   1 NUMBER                 Running object number                                     
#   2 MAG_AUTO               Kron-like elliptical aperture magnitude                    [mag]
#   3 X_IMAGE                Object position along x                                    [pixel]
#   4 Y_IMAGE                Object position along y                                    [pixel]
#   5 X_WORLD                Barycenter position along world x axis                     [deg]
#   6 Y_WORLD                Barycenter position along world y axis                     [deg]
#   7 A_WORLD                Profile RMS along major axis (world units)                 [deg]
#   8 B_WORLD                Profile RMS along minor axis (world units)                 [deg]
#   9 THETA_WORLD            Position angle (CCW/world-x)                               [deg]
#  10 FWHM_WORLD             FWHM assuming a gaussian core                              [deg]
#  11 ELONGATION             A_IMAGE/B_IMAGE                                           
#  12 ELLIPTICITY            1 - B_IMAGE/A_IMAGE                                       
         1 -14.6760    242.7249     10.0709   3.5730564691e+02   2.5325988687e+01     1.762794    0.9134925 -63.27   0.01125439    1.536    0.349
         2 -10.2035      3.2338     10.7083   5.2740994163e+01   7.2678373024e+01    0.2270874    0.1055176   1.77  0.001168124    2.494    0.599
         3 -10.4686    211.5149      8.5006   3.5922354908e+02   3.1650989557e+01    0.1177245   0.08699585 -79.18 -2.13127e-05    1.032    0.031
         4  -9.5581      9.6581      7.6770   4.7507143582e+01   7.2459317407e+01     0.119178   0.06715742  -3.75 0.0007050664    1.728    0.421
         5 -10.2646      2.1826      3.6313   5.0033092979e+01   7.3708273007e+01     0.187787   0.07428434 -41.78  0.001014854    2.666    0.625
         6  -9.4604    139.2980      2.2938   5.2550408265e+00   4.8248993494e+01    0.1203755   0.07776291  48.50 0.0002654692    1.565    0.361
         7  -9.8154    104.9341      1.4991   1.0576241914e+01   5.6119779799e+01    0.1881324   0.09830821  63.47  0.000727574    1.524    0.344
         8 -11.7874     16.7199    239.6294   8.8445334492e+01   2.0442230391e+01    0.6899599    0.2478435  46.87  0.003272888    2.233    0.552
         9 -12.2569    212.3921    243.0062   4.5892014420e+01  -7.4981391486e+00    0.6861519    0.3565374 -19.46   0.00334504    2.247    0.555
        10 -11.2114    213.1528    250.4484   4.6955116906e+01  -8.7344903162e+00    0.4352006    0.1230068  31.07  0.001734481    3.332    0.700
        11 -12.5402    234.1297    245.8867   4.2292458350e+01  -1.0561841909e+01    0.7613004    0.4533876 -21.52  0.004604533    1.485    0.326
        12 -12.1775    242.1424    237.2482   3.9435426839e+01  -1.0214742547e+01    0.6644452    0.3243107 -19.21  0.002675367    2.272    0.560
        13 -11.3790    218.9951    245.6322   4.5057069278e+01  -8.7281963767e+00    0.4865455    0.2207197 -29.01  0.002162454    2.230    0.552
        14 -12.6063    224.2340    241.3458   4.3365013409e+01  -8.7195024989e+00    0.8323701    0.3096137 -40.15  0.003871897    2.545    0.607
        15 -12.2012    243.2759    245.2034   4.0549272941e+01  -1.1488523801e+01    0.6513571     0.273421 -28.64  0.003302339    2.241    0.554
        16 -11.6784    248.9352    249.0133   4.0182907418e+01  -1.2627542180e+01     0.464035    0.2521331 -22.97  0.002593891    1.584    0.369
        17 -12.2352    249.0477    240.1675   3.8719330668e+01  -1.1402061995e+01    0.6781583     0.233835 -40.01  0.003244292    2.619    0.618
        18 -11.8115    201.6625    249.0454   4.8978707849e+01  -7.0580286965e+00    0.5074291    0.2547259  15.75  0.002419725    2.232    0.552
        19 -11.3638    184.6609    250.0824   5.2591446222e+01  -4.9441997658e+00    0.3900242    0.1691129  29.48  0.001802002    2.084    0.520
        20 -12.2926    168.6233    248.5537   5.5727693093e+01  -2.4245237059e+00    0.6565037    0.3202453  28.32  0.003112042    1.857    0.461
        21 -12.3605    158.4410    245.3516   5.7441181193e+01  -3.6835149540e-01     0.536047    0.2406804  32.17    0.0023999    1.970    0.492
        22 -11.7041    152.1026    249.5874   5.9459506990e+01  -1.8706980465e-01    0.4989897    0.2617869  28.87   0.00201278    1.702    0.413
        23 -12.7126    125.5074    249.6402   6.5372569867e+01   3.7883067343e+00    0.9862133    0.3803832  28.96  0.003866879    2.571    0.611
        24 -12.3468    115.9855    244.3300   6.6823351586e+01   6.2638971742e+00    0.4712531    0.3276961  56.91  0.002494626    1.590    0.371
        25 -12.8385    108.3372    241.4685   6.8204659952e+01   8.0020341246e+00    0.6998404    0.4253784  61.86  0.003276923    2.105    0.525
        26 -12.5456    142.9341    248.5008   6.1323322887e+01   1.3786671745e+00     0.645369    0.3405027  35.42   0.00313928    1.637    0.389
        27 -12.9391    135.5163    243.8811   6.2322832472e+01   3.3709052681e+00    0.6539623    0.2876719  39.79  0.002839658    2.020    0.505
        28 -10.9178    110.7864    250.0002   6.8730012813e+01   5.9245790524e+00    0.2534706    0.1710734  35.03  0.001208345    1.272    0.214
        29 -11.9251     76.4805    248.0858   7.6220738736e+01   1.1278002055e+01    0.5028709    0.2977203  44.31  0.002511982    1.433    0.302
        30 -11.8090     72.2323    240.8871   7.6429926358e+01   1.3386342154e+01    0.5577292    0.3112831  68.03  0.002587361    2.191    0.544
        31 -12.7055     99.0378    246.0507   7.0905880247e+01   8.4576782311e+00    0.7588485    0.4689469  60.06  0.003771888    1.852    0.460
        32 -11.8197     90.1369    247.7385   7.3118987834e+01   9.4131509214e+00    0.4693658    0.2819197  52.66  0.002389872    1.608    0.378
        33 -11.6280     83.4882    246.9621   7.4531262304e+01   1.0525684132e+01     0.435258    0.1943696  44.12  0.001676113    1.922    0.480
        34 -11.7154     64.9108    249.2100   7.8891134567e+01   1.2620901754e+01    0.5202298     0.244916  39.97  0.002122906    1.761    0.432
        35 -10.8263     57.8186    247.5819   8.0293416877e+01   1.3896162398e+01    0.3935793    0.1852584  59.72  0.001784578    2.284    0.562
        36 -11.1735     50.7680    250.0524   8.2031730721e+01   1.4280616242e+01     0.468433      0.15744  34.57   0.00198938    2.525    0.604
        37 -11.3260     35.0568    248.4349   8.5230184671e+01   1.6529864240e+01     0.482188    0.1947275  53.55   0.00225359    2.205    0.546
        38 -10.3902     27.1573    250.2475   8.6987402658e+01   1.7056545372e+01     0.281921    0.1393703  46.61  0.001442633    1.641    0.391
        39 -11.5002     21.1199    248.7492   8.8117641659e+01   1.8036546654e+01    0.4718043    0.2088319  44.97  0.002268692    1.814    0.449
        40 -10.5467     10.5803    248.7993   9.0224285713e+01   1.9137416719e+01    0.3495803    0.1351067  59.07  0.001690572    2.297    0.565
        41 -12.2694      3.9757    242.7209   9.1199698408e+01   2.1068242343e+01    0.7101791    0.2984247  77.11  0.003462361    2.378    0.579
        42 -10.8491    170.9864    239.8840   5.3866160674e+01  -1.2517665024e+00    0.3935842    0.2401025   8.07   0.00189695    1.959    0.490
        43 -12.9345    123.6931    239.8734   6.4451605325e+01   5.9737385771e+00     0.791837    0.2592717  40.30  0.002939284    2.664    0.625
        44 -10.8004     45.1390    237.0418   8.2157014418e+01   1.7772011320e+01    0.3941579    0.2140955  65.56  0.001953624    1.892    0.471
        45 -11.3461    239.9511    219.3592   3.6774400843e+01  -7.2350786406e+00    0.3919108    0.2455131 -16.99  0.001938876    1.508    0.337
        46 -11.8194    232.0741    234.6610   4.0802197569e+01  -8.6515427079e+00    0.4970972    0.3376921   5.45  0.003100854    1.361    0.265
        47 -11.8172    236.9601    227.8210   3.8761553394e+01  -8.1905683386e+00    0.5364495    0.2332359 -30.31  0.002231975    2.174    0.540
        48 -11.8697     82.5969    239.1381   7.3865682180e+01   1.2300582821e+01    0.5783104    0.2529812  40.72  0.002551477    1.939    0.484
        49 -10.2441    195.8747    236.4767   4.8090151712e+01  -4.2386747821e+00    0.3129043    0.1837203   8.52  0.001540382    1.969    0.492
        50 -11.0354     62.1417    241.4894   7.8769268741e+01   1.4625366754e+01    0.4559313     0.191848  47.14  0.001845723    2.080    0.519
        51 -10.7832      6.7546    234.9579   9.0214500517e+01   2.2459631332e+01    0.2961707     0.177287  79.94  0.001274873    1.456    0.313
        52 -11.4221      5.8524    227.3507   8.9957103657e+01   2.4217301851e+01    0.4471185    0.2355428  80.98  0.002372247    1.741    0.426
        53 -11.4799      2.3699    220.6117   9.0293021368e+01   2.6049986342e+01     0.395114    0.2023307 -87.41  0.001746686    1.739    0.425
        54 -11.9893     94.4674    235.6562   7.0691813798e+01   1.1308298792e+01     0.540001    0.2299425  41.91  0.002279145    2.046    0.511
        55 -10.9592    161.9010    234.8225   5.5039294489e+01   1.0366176258e+00    0.3562948    0.1778992  11.01  0.001220775    3.797    0.737
        56 -12.2316    150.5462    238.2328   5.8101746543e+01   2.1395039379e+00     0.512374    0.2099854  35.76  0.002135936    2.155    0.536
        57 -11.2738     32.0858    232.2188   8.4645256916e+01   2.0388889376e+01    0.5088726    0.2620078  65.96  0.002510645    1.953    0.488
        58 -10.8764    202.3360    240.8324   4.7510136094e+01  -5.8386725880e+00    0.3439075    0.1847667 -22.37  0.001684121    2.097    0.523
        59 -11.1379     62.8400    230.3422   7.7491906257e+01   1.6986144404e+01    0.5054535    0.2708853  68.55  0.002241997    2.290    0.563
        60 -10.3762     40.2180    230.2993   8.2677651712e+01   1.9869904677e+01    0.3434899    0.1727369  88.67  0.001580685    2.272    0.560
        61 -11.5533     21.1307    229.1983   8.6814317812e+01   2.2269961601e+01    0.5420596    0.2794718  46.98  0.002889084    1.669    0.401
        62 -10.9387    103.2686    230.0655   6.7889505939e+01   1.1177245751e+01    0.3960856    0.1883184  47.39  0.001664028    2.077    0.519
        63 -11.9685    248.2304    213.7069   3.4367761691e+01  -7.3513063230e+00    0.5830682    0.2967671 -34.43  0.002680911    1.639    0.390
        64 -11.6036    139.7861    235.1664   6.0071116852e+01   4.4030600937e+00    0.3968717     0.192599  30.56  0.001730335    1.910    0.477
        65 -10.7221    126.0490    230.5039   6.2558231489e+01   7.5127443288e+00    0.3389652    0.1117601  39.42  0.001216018    2.665    0.625
        66 -10.3597     47.6709    229.3111   8.0897102168e+01   1.9183740550e+01    0.3135599     0.172457  61.85  0.001528161    1.834    0.455
        67  -9.6269    195.4931    229.4934   4.6991339401e+01  -2.9940869119e+00    0.1349851    0.1099486  -2.47 -5.530064e-05    1.071    0.067
        68 -11.2764    114.6859    228.5519   6.4960748899e+01   9.7217731049e+00    0.5797385    0.1911172  41.99  0.002061147    2.760    0.638
        69 -10.6462     95.8984    228.5823   6.9452369540e+01   1.2628576051e+01    0.2980677    0.1463262  45.01  0.001292343    1.882    0.469
        70 -10.4550    230.1108    227.1860   3.9888294332e+01  -7.2519973326e+00    0.2708286    0.1692554 -17.87  0.001552313    1.508    0.337
        71 -11.2145     85.8766    226.1265   7.1543452551e+01   1.4678270355e+01    0.4800331    0.1955589  45.52   0.00190815    2.292    0.564
        72 -10.6832     11.9400    226.3857   8.8605685733e+01   2.3842568053e+01    0.3155742    0.1467522  57.05  0.001243414    1.928    0.481
        73 -12.3298    247.3963    226.2732   3.6674418226e+01  -9.1826388080e+00    0.7030268    0.2947504 -33.69  0.003556723    2.053    0.513
        74 -10.8424     74.6708    226.3290   7.4255904887e+01   1.6257981856e+01    0.2418392    0.1150067  38.43 0.0009057587    1.849    0.459
        75 -10.2475     54.9080    222.2111   7.8515919431e+01   1.9891052730e+01    0.2971213    0.1684531  58.73   0.00142433    1.773    0.436
        76 -10.5709     43.8638    220.9902   8.1002080184e+01   2.1562015605e+01    0.3359799    0.1898006  56.98  0.001668719    1.692    0.409
        77 -11.8808     15.0392    218.5681   8.7399119249e+01   2.5311555215e+01    0.7698764    0.2382139  53.73  0.003004426    3.183    0.686
        78 -10.5865    204.3559    231.4740   4.5540641817e+01  -4.5715028479e+00    0.3010294     0.181987  -2.79  0.001501522    1.978    0.494
        79 -10.6841    227.2580    218.6443   3.8926683122e+01  -5.5154088002e+00     0.316382     0.184474 -19.43  0.001663334    1.771    0.435
        80  -9.9170    217.3222    220.3338   4.1083706110e+01  -4.4738389030e+00    0.1361553   0.08656664  -9.41 0.0007050218    1.705    0.414
        81  -9.3398     76.6611    217.3266   7.2688614959e+01   1.8045010097e+01    0.1528198   0.09678553  62.67 0.0007051581    1.729    0.422
        82 -10.0421     88.6834    216.3590   6.9588590052e+01   1.6487207292e+01    0.1536002    0.1016003  65.61 0.0007043729    1.756    0.430
        83 -10.7614     34.5769    215.3901   8.2668605480e+01   2.3968681097e+01    0.4164029    0.1733531  47.48  0.001838081    2.181    0.541
        84 -10.5193    232.3874    213.1239   3.7020546727e+01  -5.2784393099e+00     0.292264      0.16425 -29.57  0.001354227    1.594    0.372
        85 -10.8554     25.4420    210.8066   8.4418726647e+01   2.6058866064e+01    0.5195845    0.2471432  84.50  0.002284369    2.369    0.578
        86 -11.3050      3.0283    212.2556   8.9636383899e+01   2.7899294002e+01     0.379276    0.2351648  72.71  0.002023183    1.413    0.292
        87 -10.6682      2.2950    205.8748   8.9387365690e+01   2.9448598966e+01    0.3024983    0.1834693  84.46  0.001351543    1.444    0.307
        88 -10.6988    236.5290    206.6915   3.5139474135e+01  -4.7587817004e+00    0.3669641    0.1052818 -40.94  0.001427816    3.029    0.670
        89 -10.5113    247.0244    205.8276   3.3186005585e+01  -5.9553563268e+00    0.2765312    0.1453446 -34.24  0.001448634    1.590    0.371
        90 -10.6813    227.0338    204.8748   3.6508330460e+01  -3.1812996751e+00    0.4378958    0.1473743 -32.89   0.00159319    3.388    0.705
        91 -11.7176     12.9246    204.5484   8.6850876918e+01   2.8802882435e+01    0.5925629     0.281877  62.28  0.002795368    2.117    0.528
        92  -9.9647     51.2455    206.3760   7.7715216248e+01   2.4125050684e+01    0.2060708    0.1107519  42.85 0.0009537973    1.720    0.419
        93 -10.4697     38.6735    204.7523   8.0670510232e+01   2.6046983679e+01    0.3706371    0.1731863  67.39  0.001470309    2.725    0.633
        94 -10.7244    250.2933    200.4959   3.1697704392e+01  -5.5046243659e+00    0.3641669      0.13404 -39.26  0.001667234    2.257    0.557
        95 -10.2556     29.8993    201.2775   8.2496309960e+01   2.7877081201e+01    0.3178535    0.1696348  70.26  0.001455921    2.055    0.513
        96 -10.5479    243.7128    199.4313   3.2600999859e+01  -4.4948732153e+00     0.390556    0.1273357 -36.67  0.001600005    2.730    0.634
        97  -9.5124     44.6674    199.3250   7.8595615218e+01   2.6668954493e+01    0.1503833   0.09197025  63.85 0.0005949189    1.709    0.415
        98 -11.9907      5.5041    195.7800   8.7940221046e+01   3.1571512979e+01    0.5426257    0.3457976  79.70  0.002596981    1.413    0.292
        99 -11.7659      3.6853    188.3628   8.7820868233e+01   3.3518781022e+01    0.4071408     0.267543  77.49  0.001838245    1.380    0.276
       100 -10.4725    237.4125    196.3138   3.3110114219e+01  -3.1408451510e+00    0.3802056    0.1038189 -40.63  0.001418825    3.148    0.682
       101 -11.9048     18.7498    193.8834   8.4574359411e+01   3.0828422612e+01    0.8520169    0.3250032  63.45  0.003084103    3.508    0.715
       102 -10.6744    246.1124    191.9890   3.0856768917e+01  -3.5755323565e+00    0.3073069    0.1571907 -39.05  0.001611457    1.634    0.388
       103 -10.6993     26.8512    186.7585   8.1844926491e+01   3.1792693623e+01    0.4743167    0.1650357  48.24  0.001799646    2.958    0.662
       104 -10.3313    249.9177    183.7885   2.8748620242e+01  -2.7111842895e+00    0.2920632    0.1396323 -34.89   0.00132813    1.791    0.442
       105 -10.2617     23.1390    180.3965   8.2168066492e+01   3.3763357093e+01    0.2872724    0.1583166  83.45  0.001171808    1.968    0.492
       106 -12.7244      6.0456    174.3436   8.6080879516e+01   3.6783447998e+01    0.9455213    0.4319419 -87.02      0.00424    2.146    0.534
       107 -10.7008     16.0587    181.9799   8.4174508077e+01   3.4030093782e+01    0.3781072    0.2094582  72.80  0.001743329    1.923    0.480
       108 -10.7001     31.3087    173.1392   7.9157584366e+01   3.4790080314e+01    0.5565053    0.1834585 -79.80  0.001685302    4.202    0.762
       109 -11.0245     19.4554    172.3947   8.2326405251e+01   3.6135908057e+01     0.485991    0.2676333  87.30   0.00226674    1.915    0.478
       110 -10.7551     10.1786    166.2503   8.4227359303e+01   3.8485293174e+01    0.2658497    0.1419747  75.48  0.001224563    2.089    0.521
       111 -12.4065     10.8612    153.1606   8.2669343148e+01   4.1747250651e+01    0.8777081    0.4104443  61.78  0.003654335    2.749    0.636
       112 -10.8105     20.4162    141.5249   7.8356887244e+01   4.3948083890e+01    0.4159285    0.2194846 -84.53  0.001829992    2.098    0.523
       113 -11.6293      9.8118    137.2720   8.1115537280e+01   4.5849559698e+01    0.6507049    0.2843481 -68.06  0.002926513    1.902    0.474
       114  -9.4118    219.0451    133.0585   2.3917287185e+01   1.1207715240e+01    0.1595127    0.1400594 -45.59 0.0003216011    1.009    0.008
       115 -11.6602      5.4442    125.3737   8.0983294962e+01   4.9117027670e+01    0.6511051    0.3498181  81.44  0.002950816    2.391    0.582
       116 -10.5871    140.1670    121.2495   3.7377847467e+01   2.9795962541e+01    0.2965023    0.2424245 -78.72            0    1.451    0.311
       117  -9.3952    172.3139    119.6569   2.9614384679e+01   2.3157373803e+01    0.1558159    0.1164022 -79.89 0.0007047305    1.708    0.414
       118 -10.1632     92.5153    118.0155   5.0091754653e+01   4.0238344843e+01    0.2055178    0.1397372 -81.18 -4.598075e-05    2.302    0.566
       119 -10.5755     10.7315    113.1871   7.7417616556e+01   5.1779991488e+01    0.4446548    0.1958277 -86.91  0.001617049    3.558    0.719
       120  -9.7768    236.2484    112.5609   1.7183857475e+01   1.1789365875e+01    0.1534709    0.1245679  40.48 0.0004909339    1.563    0.360
       121  -9.8315    208.0139    110.7368   2.1014860474e+01   1.7440920942e+01    0.1858726    0.1727466 -76.37 0.0004168281    1.070    0.066
       122 -10.5243      2.9083     94.7084   7.7245988088e+01   5.6652855650e+01    0.3685192    0.1728697 -83.44  0.001547442    2.915    0.657
       123  -9.3358    150.6409     91.7347   2.7377845428e+01   3.3485573226e+01    0.1485151    0.1161699  23.67 0.0006987152    1.636    0.389
       124 -10.5911    193.1323     84.4798   1.7589705246e+01   2.5205496320e+01    0.2466429    0.1954054 -88.36 0.0005088469    1.282    0.220
       125 -10.1818     24.2006     68.6016   6.2506166694e+01   6.0885007862e+01     0.181874    0.1117447   1.17 0.0009516686    1.727    0.421
       126 -10.2775    231.5429     58.7087   7.1459244645e+00   2.1277588252e+01    0.1663127   0.09547365 -53.60 0.0005349986    1.479    0.324
       127 -10.2606      2.4839     53.0270   6.8312505839e+01   6.5634932927e+01    0.2404337    0.1378493 -17.66  0.001379082    1.635    0.388
       128 -11.0012     12.2797     41.7262   5.9915057136e+01   6.7043899423e+01    0.4137977    0.1839915 -22.29  0.001906401    2.604    0.616
       129  -9.4844    161.2172     39.6432   1.1828052245e+01   3.9230879562e+01    0.1793143     0.107636  59.04 0.0003667024    1.503    0.335
       130 -11.9297    193.4711    244.4837   4.9892843737e+01  -5.2355435199e+00    0.5564217    0.3082824  12.30  0.002717939    2.044    0.511
       131  -9.2222     99.4640     33.4575   2.2481532256e+01   5.4250177903e+01     0.132253     0.115219  50.96 1.214212e-05    1.054    0.051
       132  -9.6213    126.6944     11.6580   9.7923086829e+00   5.0345946724e+01    0.1288732   0.08178798  40.93 0.0002922818    1.685    0.406
       133 -11.0482     45.1184    244.7159   8.2805436601e+01   1.6111088725e+01     0.423887    0.2057852  45.34  0.001766092    1.715    0.417
       134 -12.4856    178.5302    243.1877   5.2783837283e+01  -2.9273140563e+00    0.5455562    0.2915009  17.97  0.002558227    2.042    0.510
       135 -11.4014     53.8203    240.3864   8.0524442602e+01   1.5950499959e+01     0.451002    0.2619708  68.94   0.00228421    1.826    0.452
       136 -10.9018     38.0885    241.3705   8.4054066916e+01   1.7679242544e+01     0.351485     0.188597  64.20  0.001554074    1.814    0.449
       137 -11.2052     28.9688    241.9402   8.6041708624e+01   1.8611744331e+01    0.4395171    0.1942262  43.90  0.002039651    1.861    0.463
