#   1 NUMBER                 Running object number                                     
#   2 MAG_AUTO               Kron-like elliptical aperture magnitude                    [mag]
#   3 X_IMAGE                Object position along x                                    [pixel]
#   4 Y_IMAGE                Object position along y                                    [pixel]
#   5 X_WORLD                Barycenter position along world x axis                     [deg]
#   6 Y_WORLD                Barycenter position along world y axis                     [deg]
#   7 A_WORLD                Profile RMS along major axis (world units)                 [deg]
#   8 B_WORLD                Profile RMS along minor axis (world units)                 [deg]
#   9 THETA_WORLD            Position angle (CCW/world-x)                               [deg]
#  10 FWHM_WORLD             FWHM assuming a gaussian core                              [deg]
#  11 ELONGATION             A_IMAGE/B_IMAGE                                           
#  12 ELLIPTICITY            1 - B_IMAGE/A_IMAGE                                       
         1 -13.5567      6.9649     10.6347   1.3299535791e+02   7.6144314881e+01      2.69821    0.7914182 -56.22   0.01197914    2.415    0.586
         2 -13.2822    189.6451     28.0383   7.3661653234e+01   3.3545402723e+01     1.344501     1.137699  67.49  0.006167884    1.177    0.150
         3 -13.8646    202.6616      9.7589   6.6831197455e+01   3.2059834235e+01     1.877086     1.185526  46.44  0.009164123    1.812    0.448
         4 -10.5498      1.4857     51.5611   1.4624957667e+02   6.6953740175e+01    0.2974238    0.1286307 -72.06 0.0004592914    1.842    0.457
         5 -10.1632    247.8369    250.0139   1.1220809729e+02  -4.4806144346e+00    0.2346909   0.07032067  33.53  0.001298938    2.414    0.586
         6 -11.5358    139.9106    249.9818   1.3014675531e+02   9.5364919086e+00    0.4314798    0.1604826  39.39  0.002362947    1.848    0.459
         7 -10.9436    124.0393    250.0724   1.3303655905e+02   1.1664065945e+01    0.4070832    0.1072863  33.75  0.001706054    3.253    0.693
         8 -10.0693     98.4642    249.2979   1.3767254834e+02   1.5121636563e+01    0.2152566    0.1410786  48.59   0.00114213    1.162    0.139
         9 -10.4095    102.4737    247.6836   1.3680686148e+02   1.4827664572e+01    0.2160286    0.1409989  48.94 0.0006974205    1.193    0.162
        10  -9.6947     67.1263    250.3700   1.4350485948e+02   1.8812877306e+01    0.1566536   0.09262548  45.79  0.001126675    1.135    0.119
        11 -10.0749     37.5028    249.6829   1.4882614392e+02   2.2184126909e+01    0.2583717   0.09604909  38.62  0.001589534    1.782    0.439
        12 -10.8592     29.7706    249.6083   1.5019663579e+02   2.2983529916e+01    0.3403546    0.1323038  42.07  0.001984871    1.618    0.382
        13 -11.4245     35.0499    244.6178   1.4908032015e+02   2.3207799885e+01    0.4624855    0.2887285  32.21  0.003422363    1.531    0.347
        14 -12.5394     26.3356    203.1200   1.4914378491e+02   3.1100320870e+01    0.8073426    0.1339688  49.52  0.001979809    3.325    0.699
        15 -14.1767     55.8847    211.7382   1.4340505591e+02   2.6344197753e+01     7.889397          nan  41.40   0.02184221    6.950    0.856
        16 -10.1229     82.6681    243.4808   1.4019939333e+02   1.7947041843e+01    0.2179906    0.1172096  58.15 0.0008903462    1.690    0.408
        17 -10.8862    197.7541    244.3377   1.1939206214e+02   2.2950576365e+00    0.2389613    0.1790723 -63.24  0.001568346    3.205    0.688
        18 -14.6572     18.8882    170.9552   1.4937468990e+02   3.8093401462e+01     4.901185     1.344098  75.98   0.01714664    4.899    0.796
        19  -9.6555     20.9851    239.0010   1.5144547762e+02   2.5485411240e+01    0.1228358    0.1052658  53.86 0.0005389241    1.346    0.257
        20 -10.8161    233.0687    236.1724   1.1258348436e+02  -1.5428971328e+00     0.231161    0.1747511 -42.88  0.001693601    2.498    0.600
        21  -9.9618    229.7055    230.6736   1.1234489561e+02  -6.1477735526e-01    0.1984477      0.13923 -49.90  0.001248835    3.286    0.696
        22 -13.4018      9.5412    206.7653   1.5272459308e+02   3.1997518229e+01    0.8066905    0.5933809  53.28   0.00350494    1.097    0.089
        23 -11.0662    149.7764    229.4701   1.2614164015e+02   1.0745840459e+01    0.4352394   0.08874431  37.14  0.001581411    3.754    0.734
        24  -9.1019     33.6225    228.9816   1.4874722865e+02   2.5848173012e+01    0.1436819    0.1030748  61.75 0.0005249262    1.124    0.111
        25 -14.8367      3.2237    228.9392   1.5444004485e+02   2.8730256966e+01     9.311816    0.7517747 -81.84   0.02981813   10.138    0.901
        26 -10.8993    173.7237    222.2242   1.2077768840e+02   8.1423862047e+00    0.3427738    0.2646745  58.94   0.00230869    1.802    0.445
        27 -13.8231     49.0613    224.3408   1.4552565908e+02   2.4960561276e+01    0.9782413    0.5943459  68.62  0.006525841    1.480    0.324
        28  -9.7931     46.5428    248.7573   1.4716609943e+02   2.1365891118e+01    0.2399896   0.09388306  56.58 0.0009336254    1.980    0.495
        29  -8.6983    152.5036    212.9421   1.2359167252e+02   1.2576794782e+01    0.1372177    0.1218848 -36.80 0.0003769239    1.451    0.311
        30 -11.3002     67.5329    198.6755   1.3995876658e+02   2.7281735954e+01     0.298048    0.2217391 -46.32  0.001504632    1.922    0.480
        31  -9.7302    192.0054    193.1904   1.1314299304e+02   8.9864182408e+00    0.3273296    0.2251502 -72.62  0.001421999    4.593    0.782
        32 -11.5618     72.8440    190.8835   1.3809589109e+02   2.8054648175e+01    0.2343997    0.2248885 -59.35 0.0007037615    1.377    0.274
        33 -12.6428     43.0069    233.3996   1.4714462349e+02   2.4137108538e+01     0.291386    0.2760138  22.38 0.0007793671    1.559    0.359
        34  -8.8287    104.6819    180.5964   1.2960836255e+02   2.5409360705e+01    0.1735676    0.1012657  46.39 0.0003485708    1.430    0.301
        35 -10.7242     81.8450    178.2437   1.3472301419e+02   2.9274365415e+01    0.2137939    0.1920087  70.30 0.0003561073    1.137    0.120
        36 -13.1962     69.3256    176.0317   1.3751036705e+02   3.1436465838e+01    0.4475478     0.287095 -43.05  0.001977024    2.275    0.560
        37  -8.7138    171.5404    173.4725   1.1380121020e+02   1.5235816801e+01    0.1327818    0.1116009  29.83 0.0001789162    1.016    0.015
        38 -11.8150     89.1392    168.5223   1.3179834615e+02   3.0156944335e+01    0.6516581    0.4849031  38.99  0.003813641    1.215    0.177
        39 -10.5831    192.0181    155.6011   1.0643197008e+02   1.4201539343e+01    0.4124387    0.3097847 -86.23  0.001750502    2.776    0.640
        40 -11.4813     32.5103    155.7223   1.4505831789e+02   4.0053545697e+01     0.333076    0.2243982  86.07  0.002038611    1.347    0.258
        41  -9.7749    100.4514    152.3601   1.2664728250e+02   3.1705516078e+01    0.2660862    0.2284817  53.78 0.0007290794    1.023    0.022
        42 -11.9134     89.4413    151.8603   1.2945310778e+02   3.3589177612e+01    0.2644457    0.2480562   6.74  0.000572055    1.309    0.236
        43 -12.7771     66.0469    142.8103   1.3459045460e+02   3.9020755831e+01     1.557645     0.732363  75.67  0.003098349    3.548    0.718
        44  -8.9998    103.1292    148.1708   1.2527699546e+02   3.2135728208e+01    0.2006535    0.1837388   5.59 0.0006183977    1.319    0.242
        45  -9.3027    181.5645    144.4069   1.0622179533e+02   1.7915668039e+01    0.2115624    0.1937426 -77.21  0.001239423    1.445    0.308
        46 -11.7328     28.5843    139.3646   1.4489286449e+02   4.4097898470e+01    0.2903649    0.2627435  75.15  0.001294034    1.132    0.117
        47  -9.5593    111.0252    137.3394   1.2128462305e+02   3.3036842482e+01    0.3437886    0.2569351  -5.91  0.001455034    2.076    0.518
        48 -10.5402     98.5592    134.8844   1.2421759464e+02   3.5782182167e+01    0.2901329    0.2460036 -31.84 0.0009531437    1.459    0.315
        49  -9.7005    166.9757    130.9446   1.0637161570e+02   2.3121486696e+01    0.2665896    0.2197296  74.45 0.0005979904    1.548    0.354
        50  -8.3497    191.9928    143.9704   1.0408130227e+02   1.5947115175e+01     0.159519    0.1424859   1.41 0.0003819638    1.079    0.073
        51  -9.9341     70.9341    124.7261   1.3051495668e+02   4.2514156398e+01    0.2453283    0.2062476  62.22 0.0003729661    1.097    0.089
        52  -9.2534    107.9395    124.0801   1.1951057525e+02   3.6467617045e+01    0.2085578     0.192418  53.53 0.0002980603    1.017    0.016
        53  -9.4949    154.3265    119.8502   1.0665737710e+02   2.7818128098e+01    0.2948738    0.2178285  72.00 0.0009684202    1.771    0.435
        54 -10.6084    168.0541    113.2327   1.0199289428e+02   2.5997587117e+01    0.3410209    0.2925326 -86.89 0.0008963348    1.474    0.322
        55  -8.3418    146.3401    113.6693   1.0706016593e+02   3.0735060347e+01    0.1546488    0.1201694  86.42 0.0007051651    1.743    0.426
        56  -9.0556    203.0666    111.4975   9.4742790924e+01   1.8614551866e+01    0.2072625    0.1342335  47.61  0.000746189    1.533    0.348
        57  -9.8714     53.0000    110.9612   1.3403709975e+02   4.8222434449e+01    0.2224315   0.07325085 -67.39  0.000631419    2.914    0.657
        58  -9.8981     45.1283    109.8382   1.3651980346e+02   4.9420794983e+01    0.2197593    0.1652586  66.49  0.001061811    1.281    0.219
        59  -9.4268    155.4245     75.7818   9.4520952440e+01   3.5634278195e+01    0.2158709    0.1529396 -21.00 0.0008655271    1.633    0.387
        60  -9.3760     18.5101     66.9660   1.4031018085e+02   6.2371446605e+01    0.2130384    0.1603974  46.54 -5.873977e-05    1.433    0.302
        61 -11.0707      3.5390     62.0376   1.4653389191e+02   6.4361556383e+01    0.3023307    0.2532252  32.52   0.00087285    1.374    0.272
        62 -10.4656     18.5252     56.9093   1.3850266045e+02   6.4818471998e+01     0.539416    0.1494573  35.57   0.00207628    3.585    0.721
        63 -10.0892    161.8888    248.8594   1.2610607188e+02   6.6739907495e+00    0.1687294    0.1165237  24.22 0.0006755826    1.226    0.184
        64  -9.7278    152.4011    248.7058   1.2777471665e+02   7.9879461334e+00    0.1221479   0.09902935 -11.94 0.0008595246    1.608    0.378
        65 -10.2927     81.4971    248.4652   1.4074957303e+02   1.7367932665e+01    0.2321498    0.1302346  53.26 0.0008936313    1.412    0.292
        66 -11.2349      5.5663     52.9934   1.4436352481e+02   6.6458770710e+01    0.3226158    0.2403318  17.16 0.0006903161    1.576    0.365
