#   1 NUMBER                 Running object number                                     
#   2 MAG_AUTO               Kron-like elliptical aperture magnitude                    [mag]
#   3 X_IMAGE                Object position along x                                    [pixel]
#   4 Y_IMAGE                Object position along y                                    [pixel]
#   5 X_WORLD                Barycenter position along world x axis                     [deg]
#   6 Y_WORLD                Barycenter position along world y axis                     [deg]
#   7 A_WORLD                Profile RMS along major axis (world units)                 [deg]
#   8 B_WORLD                Profile RMS along minor axis (world units)                 [deg]
#   9 THETA_WORLD            Position angle (CCW/world-x)                               [deg]
#  10 FWHM_WORLD             FWHM assuming a gaussian core                              [deg]
#  11 ELONGATION             A_IMAGE/B_IMAGE                                           
#  12 ELLIPTICITY            1 - B_IMAGE/A_IMAGE                                       
         1 -16.5762    235.8906     99.9435   4.5981871565e+01   1.4201822820e+01     8.959584     2.668211 -40.45   0.03353716    2.808    0.644
         2  -9.9953     40.9318     14.0369   6.5742157623e+01   6.8295812287e+01    0.1827586    0.1415723  12.66 0.0002851299    1.011    0.011
         3 -10.4588     22.0905    248.8044   1.1915985565e+02   1.7544110690e+01    0.2289012     0.146491 -76.43  0.000816211    1.542    0.352
         4 -10.5692    167.4836    242.4984   8.7389845882e+01  -8.8924629051e-01    0.1321229    0.1111656  12.06  0.000810465    1.001    0.001
         5 -11.2891    154.7789    240.4816   8.9814281773e+01   1.3275435324e+00    0.2906263    0.1839011 -51.77  0.001527225    1.868    0.465
         6 -11.4393    160.0778    239.5934   8.8529842889e+01   7.0231775090e-01    0.2402741    0.2356426  48.64  0.001578321    1.295    0.228
         7 -11.3494    236.8021    230.3683   7.1620490089e+01  -8.2397209157e+00    0.3124428    0.1912117   2.20  0.001804803    1.609    0.379
         8 -10.0531     92.6626    231.3244   1.0253607298e+02   1.2400682705e+01    0.1436605   0.09264268  61.30  0.000705122    1.720    0.418
         9  -9.5764     72.5018    228.4922   1.0682640451e+02   1.5825224666e+01    0.1341943    0.1153047  59.55 0.0008103805    1.036    0.035
        10 -11.4340    163.0018    225.6301   8.5661218567e+01   2.8180190664e+00     0.439574    0.3323087  18.73  0.001897674    1.223    0.182
        11 -10.4098     84.4262    227.2212   1.0394304577e+02   1.4459374949e+01     0.184444     0.126601 -84.82 0.0009546692    1.685    0.407
        12 -10.4041    191.8032    226.1871   7.9599247546e+01  -1.5979318489e+00    0.1889994    0.1695741   0.51 0.0006157937    1.147    0.128
        13  -9.4887    171.2125    225.7854   8.3891405476e+01   1.5320127604e+00    0.1804417    0.1396851  -7.72 0.0003109689    1.282    0.220
        14 -10.8039     98.9637    225.5448   1.0035155304e+02   1.2720797068e+01    0.3764737    0.2374844  34.31  0.001697976    1.459    0.314
        15 -11.3048    123.5161    224.9716   9.4535771366e+01   9.1075291193e+00    0.3575447    0.1814119 -62.86  0.001343869    2.512    0.602
        16 -11.6094    126.0289    220.6514   9.3302548709e+01   9.6172049812e+00     0.301724    0.2815523  43.53 0.0008377074    1.083    0.076
        17 -10.3153     60.4746    223.1745   1.0902130240e+02   1.8588928763e+01     0.319681    0.1856686  73.69  0.001535906    1.990    0.497
        18 -10.8424    114.6394    222.6316   9.6272846863e+01   1.0974917553e+01    0.2950688    0.1834703 -66.27   0.00140698    1.931    0.482
        19  -9.6375    109.0040    222.5366   9.7586968338e+01   1.1860335973e+01    0.2168924    0.1268577  34.19  0.001023847    1.571    0.364
        20 -10.0202     83.4014    220.1785   1.0333709763e+02   1.6166026996e+01     0.188385    0.1276117 -83.99 0.0007041412    1.701    0.412
        21  -9.8939     75.0198    219.5381   1.0524180812e+02   1.7482224734e+01    0.2125027    0.1228002  36.14  0.001032437    1.606    0.377
        22 -10.2265    144.0032    216.8422   8.8502698322e+01   7.5421616774e+00    0.2452796    0.2080172 -40.39  0.001361705    1.241    0.194
        23  -9.8567    152.9695    216.0039   8.6300052157e+01   6.2699502371e+00    0.3769811    0.1802219  14.27  0.001152454    4.372    0.771
        24 -10.0307    185.8685    214.1539   7.8717538741e+01   1.4330399336e+00    0.2639077    0.1770526 -44.87  0.001021788    1.583    0.368
        25  -9.4159     99.3534    215.6977   9.8937131900e+01   1.4833404447e+01    0.1493675    0.1000812  61.31 0.0007039204    1.705    0.413
        26 -10.5280    131.8117    214.1264   9.0916564821e+01   1.0076023026e+01    0.2131755    0.1950096  51.19 0.0007820038    1.157    0.136
        27 -10.6758     76.5900    212.6312   1.0404150073e+02   1.8852583082e+01    0.3052552    0.1291749 -63.18  0.001249815    2.393    0.582
        28 -10.0980    116.9725    210.9603   9.3974882708e+01   1.3151160428e+01    0.2364975    0.1671196  62.57  0.001131638    1.726    0.421
        29  -9.3850    148.6524    210.3063   8.6320803377e+01   8.1345155542e+00    0.1428056    0.1115121  63.75 0.0007042642    1.700    0.412
        30 -10.7203    124.3096    206.2255   9.1435346056e+01   1.3018195159e+01    0.3467239    0.2325613  63.23            0    2.000    0.500
        31 -10.3757     99.4505    206.2641   9.7566916425e+01   1.6974871968e+01    0.3508894    0.2255055  78.48  0.001430181    2.258    0.557
        32 -11.1542    185.8877    203.5785   7.6769228963e+01   3.4146663325e+00    0.4573542    0.2529146 -52.04  0.001793497    2.169    0.539
        33  -9.7439    109.4025    205.1802   9.4933774287e+01   1.5665073434e+01    0.1975064     0.140254 -74.63  0.000746456    1.685    0.406
        34  -9.5536     56.6596    205.3385   1.0803187410e+02   2.3228942650e+01    0.1504678   0.09093555  64.32 0.0007050276    1.765    0.433
        35  -9.7426    198.4175    204.2015   7.4267050169e+01   1.3372009902e+00    0.1864215    0.1260118 -49.33 0.0008784462    1.701    0.412
        36 -11.3916    164.6998    201.7730   8.1099604052e+01   7.2347033602e+00    0.5826616    0.3789334 -59.61  0.002403792    1.997    0.499
        37 -11.5467    162.6953    194.1091   8.0116983398e+01   9.1636554717e+00    0.5099019    0.3848992  82.10  0.002076527    2.265    0.558
        38 -10.5826    130.7900    203.1035   8.9335032831e+01   1.2641858344e+01    0.3265033    0.2140698 -78.55  0.001372583    2.404    0.584
        39 -11.7434    165.9951    248.9176   8.8681187736e+01  -1.7661008412e+00    0.3139563    0.1700664  29.64  0.001287282    1.606    0.377
        40  -9.7801    140.4710    200.7865   8.6589756246e+01   1.1526818812e+01    0.3369838    0.2090285  79.37  0.001084723    4.341    0.770
        41 -11.1101     77.5254    175.1347   9.8529763949e+01   2.7945820791e+01    0.4501661    0.2796721  88.34  0.001852346    2.191    0.544
        42  -9.7994    159.6370    175.2961   7.7093246615e+01   1.3769511166e+01    0.2329507    0.1896255  85.97  0.001102567    1.754    0.430
        43 -10.4620    105.8739    175.1287   9.0762898053e+01   2.3466576319e+01    0.2500613    0.2086049  71.68  0.001234647    1.358    0.264
        44 -10.1399    186.4790    193.9790   7.4809273629e+01   5.1777878655e+00    0.2146712    0.1337001 -43.33 0.0005822481    1.575    0.365
        45 -10.7067    177.0885    170.5261   7.2099084350e+01   1.1600548107e+01    0.4485986    0.2741892 -52.02  0.001466044    1.761    0.432
        46 -10.4781    134.7613    171.1409   8.2362658673e+01   1.9313855905e+01    0.3650656    0.2546459 -65.05  0.001350145    1.707    0.414
        47 -11.6354    121.9110    168.1853   8.5117174551e+01   2.2373696779e+01     0.681044    0.3862763 -59.79   0.00271051    1.949    0.487
        48 -10.0784    206.2597    169.6028   6.5825211874e+01   6.6303293437e+00    0.2830959     0.233072 -72.22  0.001351333    1.724    0.420
        49 -10.4528    149.6956    169.3884   7.8254393048e+01   1.6943074717e+01    0.3289212    0.2616414  83.97  0.001513197    1.778    0.437
        50  -9.1068    199.2860    169.6340   6.7215399953e+01   7.8212447622e+00    0.1397945    0.1139486 -70.29 0.0004560254    1.696    0.410
        51 -10.2225    168.1239    168.7283   7.3739301034e+01   1.3640227908e+01    0.3109953    0.2439769 -74.58  0.001298635    1.762    0.433
        52  -9.7832    185.2767    166.6351   6.9490142468e+01   1.0921628169e+01    0.2707994     0.172518 -52.44 0.0007820013    1.705    0.414
        53  -9.8898     66.2509    194.2632   1.0430079830e+02   2.4686487428e+01    0.2240186    0.1156467 -81.71  0.000887942    2.411    0.585
        54 -10.5896    192.2647    163.9241   6.7440975106e+01   1.0210863376e+01    0.6291869    0.1803264 -42.67  0.001985165    3.225    0.690
        55 -11.6112    138.9821    163.9891   7.9792047743e+01   2.0217430381e+01    0.6007704     0.352315 -62.84  0.002223353    2.180    0.541
        56 -10.2575     98.9631    165.8078   9.0918370626e+01   2.6976204465e+01     0.262781    0.1684501  59.63 0.0007978933    1.961    0.490
        57 -12.6146    213.3846    163.6551   6.3222295273e+01   6.5671147830e+00    0.6532235    0.2882863 -35.27  0.002646636    2.161    0.537
        58 -10.3980     79.4411    163.2934   9.5999542820e+01   3.0727160524e+01    0.4720114    0.2498896 -87.92  0.001470613    3.772    0.735
        59 -10.1648    159.5999    163.4997   7.4605851177e+01   1.6401962029e+01    0.3607091    0.2383728 -59.38  0.001381381    1.794    0.443
        60 -10.1492     77.7222    192.4033   1.0108297770e+02   2.3555627779e+01    0.2642414    0.1771554 -80.59   0.00105664    1.650    0.394
        61  -9.6597    225.2637    192.6208   6.6824498351e+01  -6.0419938422e-01    0.1235163    0.1011228 -56.76  0.000471001    1.677    0.404
        62 -11.4193    205.7129    161.6369   6.4259564783e+01   8.2756950782e+00    0.4919106    0.2715544 -48.83  0.001487834    1.835    0.455
        63 -11.8133    204.4851    154.5843   6.2988492470e+01   9.8785790673e+00    0.4369524    0.2241748 -36.36   0.00167348    1.821    0.451
        64 -10.7266    151.8378    160.4929   7.5821698468e+01   1.8572457397e+01    0.3562674    0.2321973 -57.40  0.001372305    1.718    0.418
        65 -10.4602     93.0412    160.1676   9.1515663681e+01   2.9401060701e+01    0.3531383    0.2508862  81.30   0.00151563    1.898    0.473
        66 -11.0309    196.7521    157.1180   6.5059401936e+01   1.0774601156e+01    0.4171053    0.2874679 -56.75  0.001237958    1.691    0.409
        67 -10.0419    128.1100    158.6717   8.1485003118e+01   2.3546198205e+01     0.280605    0.2219272 -63.39  0.001243302    1.376    0.273
        68 -10.3987    188.1075    157.1685   6.6844498793e+01   1.2360858681e+01    0.3258841    0.2008901 -46.94  0.001072027    1.569    0.363
        69 -10.8236    167.6138    156.5022   7.1196142809e+01   1.6412183821e+01    0.4907492    0.2634651 -51.92  0.001943263    1.975    0.494
        70 -10.5471    105.2999    156.7633   8.7345164587e+01   2.8189013416e+01     0.481844    0.2839046 -62.13  0.001942074    1.838    0.456
        71 -10.8231    205.6484    190.5004   7.0170550203e+01   2.7492822520e+00     0.435525     0.298828 -61.84  0.002061658    2.263    0.558
        72 -10.1195    157.5010    155.6422   7.3376999234e+01   1.8575357152e+01    0.3252629    0.2181313 -56.36  0.001028119    1.640    0.390
        73 -10.7816    119.3058    154.4228   8.2945255438e+01   2.6238411844e+01    0.5374874    0.2787687 -60.91  0.001950531    2.278    0.561
        74 -10.3925    144.8403    154.5432   7.6243052875e+01   2.1308843866e+01    0.3182685    0.2138105 -65.33  0.001180934    1.892    0.472
        75 -10.0765     81.4717    154.2871   9.3759112465e+01   3.2767700187e+01    0.3795675    0.2474615  84.54  0.001518911    2.241    0.554
        76  -9.9488     49.7978    155.2107   1.0333897386e+02   3.6834860578e+01    0.2574983    0.1352473  65.82 0.0009542253    2.814    0.645
        77 -10.8240    133.2288    151.8912   7.8640736168e+01   2.4203162951e+01    0.5788361    0.3171807 -58.99  0.002062586    2.132    0.531
        78 -10.3813    203.9942    184.2657   6.9264775110e+01   4.1885211358e+00    0.4244995    0.1930537 -46.44  0.001661326    2.204    0.546
        79 -10.7212    177.5429    159.7580   6.9681798630e+01   1.3804102964e+01    0.4517096    0.2599924 -52.61  0.001883965    1.884    0.469
        80 -10.6317    149.3330    198.6304   8.4085902460e+01   1.0489614178e+01    0.3778998    0.2753494 -88.43  0.001664847    2.321    0.569
        81  -9.7331     67.6486    153.3404   9.7702974956e+01   3.5040730606e+01    0.2448359    0.1727199  71.37  0.001009712    1.739    0.425
        82 -11.7870    200.1989    148.1374   6.2413708100e+01   1.1942008150e+01    0.6620493     0.258567 -44.76  0.002450903    2.359    0.576
        83 -10.6721    192.4980    136.5172   6.1318956568e+01   1.5757700060e+01    0.4101168    0.1639467 -40.23  0.001328723    2.332    0.571
        84 -12.1449    189.9194    148.2438   6.4493505001e+01   1.3860939193e+01    0.9703634    0.4687426 -42.51  0.003478652    1.906    0.475
        85 -11.5854    195.2920    143.4278   6.2330722985e+01   1.3815152838e+01    0.5486218    0.2718432 -45.81  0.002249468    1.887    0.470
        86 -10.0930    182.0824    150.1811   6.6570562590e+01   1.4966073770e+01    0.3451613    0.2034476 -47.19  0.001255916    1.638    0.390
        87  -9.9221    162.3499    150.0507   7.0964547411e+01   1.8873442342e+01    0.3310805    0.1871012 -51.78  0.001327749    1.840    0.457
        88  -9.6254     98.3055    149.8286   8.7912228354e+01   3.1173006401e+01    0.3246984    0.1459254 -62.65  0.001081601    2.639    0.621
        89  -9.8607    142.5082    148.5231   7.5470773674e+01   2.3177636113e+01    0.3290499    0.1541615 -48.89  0.001075163    2.100    0.524
        90  -9.8095    179.4415    190.7855   7.5708016745e+01   6.9893524011e+00    0.2601033    0.1376087 -48.25 0.0009756366    1.961    0.490
        91  -9.9558     39.1710    147.5023   1.0536170407e+02   4.0047857512e+01    0.3413192    0.1469298  60.22  0.001079528    4.106    0.756
        92 -10.9692    139.1714    189.3463   8.4818410792e+01   1.4297753287e+01    0.4294599    0.2762055 -61.31  0.001839086    1.842    0.457
        93 -10.6748     56.1446    145.6738   9.9858738011e+01   3.8584471653e+01     0.487105    0.2692942  72.21  0.001754464    3.038    0.671
        94 -10.3064    175.6246    145.6580   6.6944215722e+01   1.7193713385e+01    0.3357013    0.1797353 -49.60   0.00134329    1.880    0.468
        95 -11.7248    148.7647    142.8469   7.2576147402e+01   2.3237883500e+01    0.8830661    0.3766776 -51.24  0.003013937    2.458    0.593
        96 -10.8385    106.7821    143.6763   8.4110831085e+01   3.1233169327e+01    0.7791567    0.4106818 -65.72  0.002734624    2.523    0.604
        97  -9.9616     13.7907    146.6089   1.1281707222e+02   4.2540105227e+01    0.1809836    0.1144166  40.24 0.0009490586    1.738    0.425
        98 -11.3295    177.7626    198.1278   7.7496389644e+01   5.7976730376e+00    0.2814751    0.2735257 -83.69  0.001581457    1.320    0.242
        99 -10.8465    165.8388    143.0513   6.8540276838e+01   1.9722721188e+01     0.458315    0.2133147 -48.30   0.00169211    2.124    0.529
       100  -9.8747    138.1506    144.1661   7.5584545667e+01   2.5072286540e+01    0.2211285    0.1936382 -78.45 0.0006560999    1.324    0.245
       101 -10.9853    124.5483    141.3557   7.8561670823e+01   2.8442337797e+01    0.8090478    0.3444059 -57.08  0.002595207    2.818    0.645
       102 -10.1925     87.7489    142.5694   8.9521981507e+01   3.4817119106e+01    0.5620453    0.2174933 -61.08  0.001794177    2.889    0.654
       103 -10.5613    182.0902    141.2267   6.4532621141e+01   1.6847901431e+01    0.3747214    0.2707343 -60.43  0.001261876    1.609    0.379
       104 -11.8323    172.6352    195.6228   7.8152571103e+01   7.1583868376e+00    0.5161812    0.2748496  42.72  0.002224434    2.005    0.501
       105 -11.5718    197.8222    135.9109   6.0140753820e+01   1.4837565877e+01    0.6944094    0.2334162 -42.40  0.002373203    2.692    0.629
       106 -10.6368    172.1559    137.3977   6.5789795573e+01   1.9665414775e+01     0.430581    0.2394627 -54.76  0.001527756    2.037    0.509
       107 -10.4115     23.8127    138.5546   1.0879000746e+02   4.3839830983e+01     0.409103    0.1955514  66.23  0.001527176    3.236    0.691
       108 -10.8706    129.3683    188.6656   8.7130885767e+01   1.6163259035e+01    0.3230253    0.2474113  70.78  0.001177664    1.713    0.416
       109 -10.0482    138.5302    137.2812   7.3854449521e+01   2.6614392342e+01    0.3053957     0.154911 -51.60  0.001124434    2.020    0.505
       110 -10.2992    187.7754    134.8619   6.1885152022e+01   1.7033115754e+01    0.3546433    0.1833179 -48.40  0.001259592    1.890    0.471
       111 -10.5468    162.4025    135.1256   6.7459773391e+01   2.2169593209e+01    0.3983768    0.1804634 -44.96  0.001451698    2.111    0.526
       112  -9.6651    112.3974    132.6378   7.9916530702e+01   3.2929219347e+01    0.3119465    0.1495611 -63.95 0.0009555909    3.206    0.688
       113 -10.7609    143.0230    130.0428   7.0930846221e+01   2.7359678994e+01    0.5660152    0.2344877 -45.80  0.001936027    2.342    0.573
       114 -11.0326    131.6447    129.1875   7.3692665740e+01   2.9921043009e+01    0.7350171    0.2957001 -49.42  0.002444664    2.488    0.598
       115 -10.3309     83.2898    131.4550   8.8475272238e+01   3.8404758921e+01    0.4169083    0.2945115 -89.29  0.001625169    2.006    0.502
       116 -11.5431    204.5036    129.5480   5.7447955284e+01   1.4792948595e+01    0.4778866     0.291422 -62.23  0.002034204    2.203    0.546
       117 -11.3245    203.1085    121.4350   5.5853209555e+01   1.6636374125e+01    0.3990404    0.2007376 -47.37  0.001677531    1.859    0.462
       118 -10.6188    192.9859    129.4081   5.9585828767e+01   1.7094387318e+01    0.4017234    0.2059889 -40.26  0.001274983    1.800    0.444
       119 -10.6481    179.3779    132.8288   6.3149093446e+01   1.9155401773e+01    0.4546363    0.2548843 -48.12  0.001491897    1.733    0.423
       120 -10.4149     13.3278    130.1011   1.1093432974e+02   4.6831793314e+01    0.3485998     0.171892  63.95  0.001432072    2.859    0.650
       121 -10.0214    186.4255    128.8489   6.0755256550e+01   1.8535694612e+01    0.3408173    0.1714679 -44.17  0.001007814    1.842    0.457
       122 -11.0498    168.6093    128.4716   6.4442615894e+01   2.2313675099e+01    0.5045608    0.2896771 -44.33  0.002103769    1.654    0.395
       123 -10.9757    152.7320    127.5611   6.7905287697e+01   2.5871423087e+01    0.6515497    0.2580359 -48.30  0.002172981    2.536    0.606
       124 -10.5190     98.3357    126.6364   8.2654216839e+01   3.7036563186e+01    0.6205732    0.3045542 -68.45   0.00183637    3.746    0.733
       125 -11.1163    179.8599    123.1616   6.0742326361e+01   2.1058753315e+01    0.6361263     0.296642 -34.78  0.002338475    2.326    0.570
       126 -10.2704    117.1242    123.6199   7.6319988685e+01   3.4184469915e+01    0.5910257    0.2666521 -50.75  0.002083952    2.224    0.550
       127 -10.6422     44.0465    122.9806   9.9632076362e+01   4.5955846274e+01    0.5838355    0.3186257  75.72  0.002011098    3.657    0.727
       128 -10.9329     29.0499    123.0056   1.0472261068e+02   4.7430565259e+01    0.6084058    0.2849943  73.90  0.001743114    5.589    0.821
       129 -10.4102    188.5885    123.1293   5.8975320510e+01   1.9248310556e+01     0.373266    0.2266286 -50.04  0.001131453    1.616    0.381
       130 -10.0559     58.8775    123.7392   9.4760565047e+01   4.3977316707e+01    0.2994556    0.1963794  87.62  0.001244811    2.245    0.555
       131 -10.3760    194.9150    121.5697   5.7390986494e+01   1.8260760688e+01    0.4301654    0.1906894 -47.98  0.001304848    2.191    0.544
       132 -10.6700    158.6123    119.7722   6.4561130264e+01   2.6310495837e+01    0.5080354    0.2855093 -41.96  0.002067192    1.719    0.418
       133 -10.5084    172.3951    120.0903   6.1565742539e+01   2.3274781766e+01    0.3743668    0.2473243 -45.61  0.001633739    1.439    0.305
       134 -11.1949    141.4274    116.4644   6.7885499286e+01   3.0752603673e+01    0.8846745    0.2925029 -46.63  0.002705786    3.003    0.667
       135 -10.9193      3.6779    118.0167   1.1246871076e+02   5.0504719142e+01    0.4056358    0.2053839  74.95   0.00174517    2.724    0.633
       136 -10.3194    130.0532    116.5921   7.0898527571e+01   3.3156691826e+01    0.5019813    0.2298738 -46.66  0.001800677    2.147    0.534
       137 -10.6826    185.9830    114.7926   5.7492435598e+01   2.1452753426e+01    0.4491229    0.2148964 -40.42  0.001701042    1.961    0.490
       138 -10.6731    108.3657    111.5978   7.5747858946e+01   3.8756727372e+01    0.7451097    0.2793816 -53.24  0.002318181    3.023    0.669
       139 -10.1219    167.5486    112.2387   6.0650857422e+01   2.5943010766e+01    0.3822526    0.1468731 -39.69   0.00128873    2.577    0.612
       140 -10.1543     92.4269    111.7436   8.0739816013e+01   4.1740478293e+01    0.5165174    0.2648068 -67.20  0.001633628    3.413    0.707
       141 -10.1781     79.0036    112.3229   8.5299385417e+01   4.3903252900e+01    0.3160283    0.2024111 -82.82  0.001172944    2.750    0.636
       142 -10.7719    174.7315    110.3775   5.8664001527e+01   2.4749772533e+01    0.4754648    0.2519021 -43.40  0.001829505    1.784    0.439
       143 -10.5509    159.1290    110.4416   6.2059001149e+01   2.8166200049e+01      0.47104    0.2205678 -41.83  0.001761988    2.070    0.517
       144 -10.2550    121.7796    110.7670   7.1624752235e+01   3.6214116805e+01    0.4671934    0.1794743 -40.41  0.001497573    2.748    0.636
       145 -11.2680     14.5916    110.5293   1.0764530228e+02   5.1732067199e+01    0.3934398    0.2632936  74.32  0.002023199    1.884    0.469
       146 -10.7908    182.8795    108.4806   5.6559937869e+01   2.3356039799e+01    0.3814737    0.1997093 -41.63  0.001293482    1.789    0.441
       147 -11.6673    189.1974    107.0870   5.5016166115e+01   2.2268296860e+01    0.5360733    0.2320043 -47.46  0.001926716    2.238    0.553
       148  -9.9207    133.1747    108.4673   6.7897870032e+01   3.4294759684e+01    0.3178134    0.2191162 -44.16  0.001407696    1.426    0.299
       149 -11.4745     23.6465    103.3075   1.0308352219e+02   5.2876821690e+01    0.7139589     0.364227  61.51  0.002676125    3.674    0.728
       150 -10.9246     46.0117    102.8972   9.4670382314e+01   5.0814046750e+01    0.6858568    0.3682735  66.77  0.002089693    5.096    0.804
       151 -11.8816    201.1210    102.6767   5.1842817306e+01   2.0575683214e+01    0.3259379    0.1773912 -40.93    0.0010386    1.675    0.403
       152 -10.4567     86.9936    188.9961   9.8153080605e+01   2.3034004891e+01    0.2493608    0.1718047  69.73   0.00113906    1.750    0.429
       153 -10.3324    139.4879    102.3752   6.4610400862e+01   3.4210607863e+01    0.5612388    0.2424566 -36.19  0.001910385    2.590    0.614
       154 -10.9855      8.0245    103.8000   1.0890452126e+02   5.3815437403e+01    0.3058771    0.1738694  46.84  0.001515146    2.250    0.556
       155 -10.4054    172.8712    191.1871   7.7241651720e+01   8.0262031041e+00    0.3246854    0.2201504 -53.99  0.001538756    1.690    0.408
       156 -10.2787    175.7275    100.4402   5.5960936594e+01   2.6480823170e+01    0.3166508    0.1975157 -33.07  0.001391792    1.695    0.410
       157 -10.2098    128.4206     99.1652   6.6595469592e+01   3.7324969892e+01    0.4842485    0.2550323 -26.41  0.001645564    2.860    0.650
       158 -10.0028    159.5517     99.2940   5.9047327260e+01   3.0331743743e+01    0.3790476    0.1483591 -39.01  0.001295405    2.572    0.611
       159  -9.6274    192.4877    187.9691   7.2356939802e+01   5.3618725927e+00    0.1904092    0.1260832 -64.94 0.0008097307    2.504    0.601
       160  -9.9406    107.9199     97.8241   7.2049625883e+01   4.1952825185e+01    0.3023576     0.211284 -73.08  0.001239459    2.156    0.536
       161 -10.0146     64.2008     96.6383   8.6371115046e+01   4.9953561891e+01    0.3364059    0.2086362  73.19  0.001139733    3.908    0.744
       162 -10.3220    166.6624    102.3095   5.8300385389e+01   2.8137492265e+01    0.4450109    0.1754734 -37.46  0.001518907    2.634    0.620
       163 -10.3944    176.9674     92.1962   5.3623056572e+01   2.7757725903e+01     0.280746    0.2048106 -40.44  0.001382882    1.326    0.246
       164 -10.9049      5.7022     92.3320   1.0784223572e+02   5.6738237320e+01    0.3186087    0.2017657  55.82  0.001662344    2.164    0.538
       165  -9.9070    138.4757     90.2730   6.1486793270e+01   3.6894416620e+01    0.4935257    0.1471162 -42.35  0.001488858    3.323    0.699
       166 -10.7168    183.6068     95.7032   5.3258877130e+01   2.5629719204e+01    0.2778282    0.1372016 -36.86 0.0009615975    2.021    0.505
       167  -9.8166    164.6419     92.9730   5.6284357945e+01   3.0402002022e+01    0.3459368    0.1392271 -39.83  0.001231637    2.435    0.589
       168 -10.6981    156.0956    187.1554   8.0313280864e+01   1.1803045154e+01    0.3508584     0.248892 -65.07  0.001198184    1.837    0.456
       169  -9.2761    151.0000     87.9885   5.7891125798e+01   3.4472010686e+01    0.2530818   0.08518049 -39.92 0.0008043734    2.956    0.662
       170 -10.6015     49.8091     85.5920   8.8792419577e+01   5.4460279039e+01    0.5258896    0.2506696  52.96  0.001702238    4.504    0.778
       171 -11.5191    120.4373    185.1899   8.8767065220e+01   1.8525042566e+01    0.5962467      0.29052 -64.89  0.002114095    2.772    0.639
       172  -9.7083    188.4857     92.5059   5.1584660586e+01   2.5140888689e+01    0.2623012    0.1380881 -29.04  0.001033323    2.352    0.575
       173  -9.8361    125.3161     85.3496   6.3436562582e+01   4.0817299809e+01    0.4035249     0.240083   7.12  0.001175232    4.587    0.782
       174  -9.8103    179.4880     84.9883   5.1315593010e+01   2.8494098407e+01    0.2285181    0.1366398 -41.82  0.001032811    1.597    0.374
       175 -10.7495    149.8562    100.7794   6.1651381634e+01   3.2220570160e+01    0.7315701    0.2004057 -45.57   0.00206968    3.703    0.730
       176 -11.1872     10.3566     81.9229   1.0397703474e+02   5.8942477167e+01    0.4673553    0.2811304  14.38  0.002549142    1.875    0.467
       177 -10.9544     35.4911     90.7721   9.5806543608e+01   5.4867712612e+01    0.3903712    0.2462176 -89.26  0.001668983    2.702    0.630
       178  -9.4780    150.0000     78.9772   5.5596497949e+01   3.6363626020e+01     0.248437   0.08421337 -38.56 0.0008070695    2.975    0.664
       179 -12.0192     94.7669    184.3666   9.5357027478e+01   2.2981426824e+01     0.697641     0.471806 -89.53   0.00305201    1.961    0.490
       180 -10.0777    165.4624    186.5001   7.8000788635e+01   1.0292527601e+01    0.3113419     0.231139  79.89  0.001232955    2.347    0.574
       181  -9.5636    174.6839     77.4952   5.0260201313e+01   3.0894539450e+01    0.2570055    0.1284926 -38.77  0.001068467    1.962    0.490
       182  -9.9269    189.4155     75.3404   4.7191740720e+01   2.7912907656e+01    0.2594574    0.1344039 -33.97  0.000812626    2.034    0.508
       183 -10.9736    109.2932    185.3001   9.1680558852e+01   2.0389037815e+01    0.4164293    0.3039547  84.09  0.001879192    1.835    0.455
       184 -12.0346    125.3784    197.6115   8.9722594774e+01   1.4784339607e+01    0.4260546    0.3222488  37.71  0.002140763    1.273    0.215
       185 -10.1463     52.7392     71.3907   8.3380171273e+01   5.7168453550e+01    0.3415938    0.2532015  73.60  0.001595723    2.513    0.602
       186  -9.6304    158.5306     81.7551   5.4543527008e+01   3.3882082825e+01    0.2857408    0.1472913 -33.78   0.00113787    2.103    0.525
       187 -10.7007     16.8017     70.4644   9.8546644443e+01   6.1121443662e+01    0.2333151    0.2024076  87.47  0.001057968    1.544    0.352
       188 -11.3543     25.5541     81.6411   9.7600128436e+01   5.7915545270e+01    0.4412863    0.2664334  51.79  0.001885655    2.505    0.601
       189 -10.6755    203.5413     66.1663   4.2878059293e+01   2.6263139813e+01    0.3107584    0.1280428 -35.37  0.001267001    2.456    0.593
       190 -10.4603     38.6726     65.5042   8.7438265814e+01   6.0151728361e+01    0.3104422    0.2101068  52.24   0.00153763    2.282    0.562
       191 -10.7805    113.0488    197.8783   9.2853636636e+01   1.6768860291e+01    0.3225568    0.2081751  68.24  0.001347954    2.242    0.554
       192  -9.8307     73.8227     60.2421   7.1395660953e+01   5.6005830227e+01    0.2172008    0.1618929  86.95 0.0009495282    2.775    0.640
       193 -10.4240     25.5343     59.8330   9.1565804343e+01   6.2672776925e+01    0.2431746    0.1562087  37.44  0.001309271    1.937    0.484
       194 -10.5422    174.2542    182.9045   7.5287740143e+01   9.5043946971e+00    0.4031573    0.2586633 -54.99  0.001540721    1.812    0.448
       195 -10.7292      7.6949     57.2277   9.9235206411e+01   6.4568091261e+01    0.2961611    0.2222494  75.99  0.001687071    2.191    0.544
       196  -8.9956    203.2795    197.6341   7.2030733488e+01   1.7960034564e+00    0.1265481    0.1108382 -70.10 0.0004265967    1.681    0.405
       197 -10.1778     55.3324     55.4589   7.6885231949e+01   5.9902330743e+01    0.2786001    0.2152117 -85.74  0.001339525    2.646    0.622
       198 -10.2486     44.9775     56.0323   8.1498829353e+01   6.1251759559e+01    0.1933024    0.1720762  70.56  0.001138477    1.736    0.424
       199  -9.9751     63.4704     55.4861   7.3614292750e+01   5.8620188231e+01    0.1371407    0.1225431   0.20 5.241288e-05    1.053    0.050
       200 -10.0248    197.3592    182.4865   7.0249817303e+01   5.6224702211e+00    0.2297584     0.167732 -57.37 0.0008525237    1.728    0.421
       201 -11.1144     32.1572     52.4092   8.6027665121e+01   6.3477859498e+01     0.354013    0.2398601  47.67  0.001805613    2.221    0.550
       202 -10.0783     20.5082     53.0060   9.1780877563e+01   6.4496601692e+01    0.1569923    0.1134015 -82.65 0.0008097501    2.473    0.596
       203  -9.8851     45.1670     49.1031   7.8888873422e+01   6.2495339303e+01    0.2015461    0.1517046 -10.18 0.0003658588    1.215    0.177
       204  -9.3927     74.3013    183.6599   1.0071915997e+02   2.6234261915e+01    0.1542463     0.106582  69.90 0.0005908801    1.670    0.401
       205 -11.8340    147.9639    179.0825   8.0668576981e+01   1.5055295891e+01    0.5774171    0.3116993 -54.37  0.002318274    2.018    0.504
       206 -10.1496     45.6191     45.3335   7.7250952143e+01   6.3089583958e+01    0.1744747    0.1641822  72.20 0.0008570427    1.641    0.391
       207 -10.1185     16.8619     44.9172   9.0885174041e+01   6.6372731913e+01    0.2187621    0.1560792 -47.97 0.0008958103    1.380    0.275
       208 -10.2866     58.8106     43.2221   7.0818587814e+01   6.1439783293e+01    0.1974818    0.1543769  87.96 0.0009519184    2.805    0.643
       209 -10.5650      5.0986     41.3846   9.5809226877e+01   6.7901219361e+01    0.3729083    0.1645262 -61.37  0.001773173    2.582    0.613
       210  -9.2259    113.5541     41.4888   5.2529241783e+01   5.0730537099e+01    0.1385619    0.1248897  40.37 2.724948e-05    1.026    0.025
       211  -9.6084     69.3420     41.6749   6.6125102693e+01   5.9863740623e+01    0.1241956    0.1101539  86.19 0.0007051031    1.733    0.423
       212 -10.1253     37.1355     40.9056   7.9397728942e+01   6.4966941142e+01    0.1855233    0.1690896  -5.61 0.0008400362    1.250    0.200
       213 -10.8562    138.0447    179.1640   8.3139898143e+01   1.6833704261e+01    0.3631342    0.2582099 -69.88  0.001330377    1.815    0.449
       214  -9.2556    193.6624    196.3402   7.3751124830e+01   3.5537488850e+00    0.1317917    0.1155194  87.00 0.0007050603    1.762    0.432
       215 -10.4235     26.5036     36.0537   8.2657793211e+01   6.7037033678e+01    0.1878223    0.1086922 -40.93  0.001004706    1.612    0.380
       216 -10.1021    192.0645    177.7689   7.0385289920e+01   7.4510725240e+00    0.2698436    0.1801544 -53.12  0.001273919    1.706    0.414
       217 -10.2238     50.3179     33.3403   7.0324992248e+01   6.4300147505e+01    0.2196883    0.1948185  85.10  0.001282944    2.011    0.503
       218 -10.4053     13.8918    178.1404   1.1593549182e+02   3.4491970390e+01    0.2117954    0.1567644  73.92  0.001243013    1.241    0.194
       219 -10.2349     61.4804     33.2744   6.5722132320e+01   6.2468515631e+01    0.2640603    0.1516429  52.18  0.001272945    2.188    0.543
       220  -9.9859    129.4063    177.2022   8.4948147182e+01   1.8849405223e+01     0.221127    0.1490298 -65.17  0.000949852    1.762    0.433
       221 -10.4508     88.7447    198.9180   9.9183838092e+01   2.0344430864e+01    0.2791457     0.198911  89.37  0.001341907    1.671    0.402
       222 -10.1656    183.0001    175.3645   7.1817393681e+01   9.5248507844e+00    0.3401089    0.1948508 -50.37  0.001468712    1.851    0.460
       223 -10.0239     12.9969     30.7017   8.7654200739e+01   6.9259486774e+01     0.208432    0.1096105 -44.46  0.001164952    1.708    0.414
       224 -10.4421     48.7818     21.8206   6.5931395168e+01   6.6111974026e+01    0.1569245    0.1451297  20.76 0.0008348548    1.342    0.255
       225 -10.8566     63.8724     21.1182   5.9642561080e+01   6.3582644812e+01    0.1840051    0.1724313  39.74  0.001237869    1.316    0.240
       226  -9.5383     40.7524     21.0522   6.9148392600e+01   6.7454056069e+01    0.1688869    0.1347803  -4.53 0.0004084594    1.102    0.093
       227 -10.1441     75.2981     20.2168   5.5342299027e+01   6.1490512176e+01    0.3542267    0.1829245  67.83  0.001381771    3.660    0.727
