#   1 NUMBER                 Running object number                                     
#   2 MAG_AUTO               Kron-like elliptical aperture magnitude                    [mag]
#   3 X_IMAGE                Object position along x                                    [pixel]
#   4 Y_IMAGE                Object position along y                                    [pixel]
#   5 X_WORLD                Barycenter position along world x axis                     [deg]
#   6 Y_WORLD                Barycenter position along world y axis                     [deg]
#   7 A_WORLD                Profile RMS along major axis (world units)                 [deg]
#   8 B_WORLD                Profile RMS along minor axis (world units)                 [deg]
#   9 THETA_WORLD            Position angle (CCW/world-x)                               [deg]
#  10 FWHM_WORLD             FWHM assuming a gaussian core                              [deg]
#  11 ELONGATION             A_IMAGE/B_IMAGE                                           
#  12 ELLIPTICITY            1 - B_IMAGE/A_IMAGE                                       
         1 -14.9984      6.6845     71.1503   7.3803424578e+01   6.3255651504e+01     1.222775    0.8534054 -71.85  0.005272646    1.292    0.226
         2 -14.1447     41.5744      4.9484   2.3890691442e+01   7.3372399842e+01     1.036936    0.6662501  14.87  0.004331884    1.852    0.460
         3 -13.3754      8.7814      3.0708   4.8880984936e+01   7.8842687892e+01    0.7468788     0.519326  39.87  0.003610134    1.746    0.427
         4 -16.0270     12.1261     22.0415   5.6761640587e+01   7.4789240099e+01     2.221653     1.182225 -31.39   0.01088798    1.890    0.471
         5 -14.1032     26.1580     13.5435   4.0334566016e+01   7.4800820250e+01    0.7847881    0.4811392  12.71  0.003574895    1.904    0.475
         6 -14.2261    189.0003     25.5989   3.5927229680e+02   3.3842619217e+01      2.39297    0.6173744 -41.69   0.00881886    2.971    0.663
         7 -14.1838    122.3461     36.8003   1.2506608332e+01   4.9535661489e+01     1.057105    0.5480737  42.81  0.002594101    2.228    0.551
         8 -14.4359    166.7821     29.6942   2.8215941536e+00   3.8808470186e+01     1.041757    0.7771517  87.99   0.00357268    1.276    0.216
         9 -14.5869    147.5646     29.5338   5.3768502288e+00   4.3798953635e+01     1.410548    0.7032439  71.76  0.004850337    1.929    0.482
        10 -11.2758    232.6037      1.7649   3.5063413741e+02   2.6838175082e+01    0.3539124    0.1702594  74.03  0.001989789    2.189    0.543
        11 -14.2160    217.3414     11.1836   3.5352798844e+02   2.9037491209e+01     1.014798    0.8227068  79.69  0.002296875    1.335    0.251
        12 -15.2963     99.5615     11.9561   7.2560884218e+00   5.8647331653e+01     1.618674    0.8837914  61.85  0.003256209    1.589    0.371
        13 -12.0440     60.4345     15.6478   2.1450600164e+01   6.7970159014e+01    0.5148039    0.3476734  29.06  0.002579856    1.568    0.362
        14 -11.7241     71.0977     16.3191   1.7579985346e+01   6.5406571154e+01    0.3251002    0.2223424 -16.83  0.001620396    1.680    0.405
        15 -11.9632     74.5569     10.3188   1.3107533638e+01   6.5263313511e+01    0.4269351    0.2858962  15.70   0.00207215    1.853    0.460
        16 -11.8178     46.8201     12.9534   2.6414385210e+01   7.1248539521e+01    0.3560542    0.2687289  58.10  0.001356672    1.490    0.329
        17 -12.2467     85.4840     13.7790   1.1633454796e+01   6.2131559427e+01    0.4216608    0.3862268 -26.43  0.001806429    1.207    0.172
        18 -11.6942    152.6637      8.5116   3.5782173293e+02   4.4766230096e+01    0.2859692    0.2254427  43.50  0.001593501    1.501    0.334
        19 -12.0044    120.0358      2.9814   3.5979250082e+02   5.3973813849e+01    0.5483696    0.2475454 -82.02   0.00204069    2.800    0.643
        20 -11.0558     67.7132      2.7102   1.0983636405e+01   6.7715038196e+01    0.3146684    0.1855882  36.52  0.001517401    1.714    0.417
        21 -12.2253    194.6922     23.5335   3.5821155806e+02   3.2744086190e+01    0.7595122    0.2841754 -34.83  0.003289987    2.264    0.558
        22 -11.7806     80.7352      1.7406   6.6709475409e+00   6.4528820090e+01    0.7048623   0.08516044  61.29  0.001985062    4.342    0.770
        23 -11.4698     61.5234      1.4685   1.2357480571e+01   6.9326887469e+01    0.4305867    0.1210001  61.72  0.001473086    3.189    0.686
        24 -11.0132    150.9943    206.5093   4.8083832137e+01   1.0939856967e+01    0.1920644    0.1009784  12.81 0.0008105906    2.594    0.614
        25 -14.6763     95.1957    234.2972   6.4046898424e+01   1.3892483511e+01     1.420777    0.7534881  55.12  0.007240074    2.193    0.544
        26 -11.3013     41.3122    249.9963   7.7054624176e+01   1.7446315775e+01    0.2331105     0.112406  39.43  0.001363891    1.444    0.308
        27 -11.3621     41.0000    245.9558   7.6923658350e+01   1.8192138012e+01    0.2260753    0.1313886 -81.24  0.001401104    2.050    0.512
        28 -13.3843     28.1175    246.5563   7.9701934227e+01   1.9399877700e+01    0.4952312    0.3918276  47.20  0.002904812    1.099    0.090
        29 -12.1257      2.8458    249.6183   8.5017482173e+01   2.1195844809e+01    0.3493747    0.1970337  40.30  0.001796352    1.244    0.196
        30 -14.0305      9.5023    245.5138   8.3566201722e+01   2.1342414095e+01    0.9149237    0.3257391  45.47  0.003792976    1.814    0.449
        31 -14.0196     40.5558    195.9670   7.4045309216e+01   2.8268296048e+01    0.8838817     0.396655  49.86  0.003928087    1.907    0.475
        32 -14.2954     30.1919    168.9169   7.4904375522e+01   3.5711141389e+01     1.101741    0.7679629  20.52  0.003857465    1.520    0.342
        33 -13.8642     22.3782    180.9366   7.7934515790e+01   3.3575084133e+01    0.8466685     0.448256 -61.49  0.004133485    2.076    0.518
        34 -15.4697      8.0846    183.1669   8.1908814091e+01   3.4299145550e+01      1.40561     1.122224  81.65  0.009047202    1.178    0.151
        35 -15.4245     15.5917    175.0740   7.9487878760e+01   3.5575866113e+01     2.451246    0.8985234  56.89    0.0102205    2.479    0.597
        36 -10.7969    212.6565    199.6687   3.4914882753e+01   3.3759677799e+00     0.126907   0.07603216  -0.89 0.0007050767    1.754    0.430
        37 -13.3611    164.6038    195.1787   4.3379657690e+01   1.0808564499e+01    0.5243648    0.3869273 -79.06  0.002585839    2.862    0.651
        38 -12.3159    201.0507    191.3280   3.5562151355e+01   6.1005057862e+00    0.2931152    0.2114963   9.72  0.001289419    1.234    0.189
        39 -10.9693     81.0457    192.5597   6.3042025869e+01   2.3954852161e+01    0.2237006    0.1183012  32.71  0.001033878    1.618    0.382
        40 -12.1113     98.0000    187.5234   5.7960548815e+01   2.2577547101e+01    0.2276841    0.1234882  32.86  0.001037399    1.606    0.378
        41 -12.4503     48.3664    181.7014   7.0776578057e+01   3.0650075866e+01    0.4611917     0.312129 -41.28  0.002358926    1.924    0.480
        42 -13.1397    198.0984    180.3571   3.4166119155e+01   8.1561381797e+00    0.4332269     0.358294 -81.04  0.002458421    2.398    0.583
        43 -11.3819    122.3325    181.1833   5.0792578752e+01   2.0080175819e+01    0.3993049    0.2446144  73.65  0.001495331    3.517    0.716
        44 -12.4233     85.8347    181.1649   6.0337918944e+01   2.5783862619e+01     0.438782    0.1555157  27.19   0.00150719    2.956    0.662
        45 -13.3665    124.3026    166.4439   4.7784012139e+01   2.2811642186e+01    0.6678612    0.4630034 -72.18  0.003111647    2.010    0.502
        46 -12.5265     77.2954    156.9457   5.9336447801e+01   3.2758448943e+01    0.5804139    0.3810147  25.81   0.00160949    1.548    0.354
        47 -13.5091     74.0180    153.4922   5.9807793342e+01   3.4104581529e+01     0.800119    0.5129263  29.60  0.002194398    1.515    0.340
        48 -12.6407    111.7018    155.7340   4.9170231557e+01   2.7360877785e+01    0.5964234    0.3819602  68.67  0.002428297    2.370    0.578
        49 -12.1992     55.0960    155.8048   6.6015134430e+01   3.6155869513e+01     0.495495    0.3240408 -13.44  0.002141502    2.370    0.578
        50 -12.8730    205.9962    154.9979   2.7938217728e+01   1.0863196009e+01    0.3695762    0.2612909  51.03  0.002078574    1.821    0.451
        51 -12.0988     85.5926    152.9271   5.6192962544e+01   3.2446960706e+01    0.5530146    0.3189455 -38.01  0.002255484    2.262    0.558
        52 -12.9096      8.7353    149.9931   8.0149902335e+01   4.2315149821e+01    0.7144246    0.3946268  61.56  0.003550495    1.648    0.393
        53 -11.7659    103.5982    149.6194   5.0302529506e+01   3.0198814327e+01    0.3877325    0.2964734 -14.49  0.001437022    1.703    0.413
        54 -12.5815    237.9922    159.4942   2.3682601373e+01   5.4734715242e+00    0.4523834    0.1020651  38.94  0.001649757    5.041    0.802
        55 -11.8250     59.4092    148.7638   6.3713758816e+01   3.7381808647e+01    0.2039623    0.1323224 -56.50  0.000946548    1.613    0.380
        56 -11.5777    244.3940    147.1924   2.0447874296e+01   6.2595521801e+00    0.1720472   0.09119514 -39.07 0.0009574991    1.713    0.416
        57 -10.9575     38.4064    145.6891   7.0190424833e+01   4.0746145677e+01    0.2258087    0.1730141 -11.48 0.0006204643    1.680    0.405
        58 -11.5471    149.5064    141.0056   3.6464674982e+01   2.3451561382e+01    0.2976384    0.1881069  74.33  0.001040188    3.524    0.716
        59 -12.7227     42.3269    138.5910   6.8030030921e+01   4.2171151748e+01    0.4504296    0.2774029  30.38  0.002114163    1.574    0.365
        60 -12.5124    246.0167    134.3252   1.7745973412e+01   7.7760339193e+00    0.3219884    0.2341493 -66.94  0.001876622    2.409    0.585
        61 -11.3855     47.3394    133.3475   6.5586608851e+01   4.2966175632e+01    0.4128162    0.1255231 -66.59   0.00135436    3.097    0.677
        62 -12.2727    138.6498    131.8189   3.7047480736e+01   2.7501735975e+01    0.4962098    0.3142808  17.95  0.001977426    2.262    0.558
        63 -10.4788     10.8645    133.8984   7.8433532417e+01   4.6321194752e+01    0.1897137    0.1363076  54.92 0.0004172597    1.287    0.223
        64 -10.9272     34.2982    129.6889   6.9740088321e+01   4.5414426118e+01    0.1535737   0.09766667  60.48 0.0001712141    1.600    0.375
        65 -12.4635    222.6764    127.6186   1.9648218618e+01   1.2346858309e+01    0.2828396    0.2382739 -65.09  0.001768658    1.575    0.365
        66 -14.6507    106.3382    121.6504   4.3583167003e+01   3.6316286091e+01     1.806122       1.1374  34.58  0.007672044    1.605    0.377
        67 -14.9993    106.3184    104.5557   3.9288575688e+01   4.0342832172e+01     1.559881     1.345366  29.83  0.007686084    1.208    0.172
        68 -12.7528    181.0237    120.6018   2.5098326016e+01   2.1093093920e+01    0.3044768    0.2789369  72.62  0.001231724    1.279    0.218
        69 -12.5225     78.6877    110.4740   5.0028396234e+01   4.4300582061e+01    0.4330235    0.2973235 -57.54  0.001797897    1.479    0.324
        70 -11.9076     88.6116    109.8339   4.6416018592e+01   4.2639439406e+01    0.4635417    0.2592218 -61.86  0.001567088    2.010    0.502
        71 -13.1706      5.0814    118.4210   7.9406529237e+01   5.0777916294e+01    0.8271664    0.4958178 -58.33  0.003912564    1.632    0.387
        72 -13.1408     21.3735     86.1384   6.8805321623e+01   5.8349460628e+01    0.8115986    0.5825316  -3.80  0.002989347    1.601    0.376
        73 -14.0810     10.8828    103.0609   7.5777485522e+01   5.4540776532e+01    0.8360149    0.7127065  29.84   0.00412775    1.249    0.199
        74 -13.7140      2.4067     97.0311   7.8803570832e+01   5.6609168378e+01    0.9858066    0.4190057 -81.76  0.003489018    2.128    0.530
        75 -12.4759     36.6570     92.8392   6.2990891290e+01   5.5095816597e+01    0.5433437    0.3519956  10.47  0.001559859    1.799    0.444
        76 -14.3797     23.1503     95.2597   6.9462472128e+01   5.5756647839e+01     1.569447     0.651516  16.95  0.006094365    2.651    0.623
        77 -12.7287     29.7358     89.4788   6.5482554553e+01   5.6714755777e+01    0.5555459    0.3612992  76.05  0.001986515    1.821    0.451
        78 -13.2155     84.8621    115.0500   4.8944470343e+01   4.2034202963e+01    0.8766469    0.4526029  30.69  0.002332151    2.077    0.518
        79 -14.4867     18.1998    110.8098   7.3619237108e+01   5.1948996505e+01    0.9829466    0.8377154 -47.96  0.003630363    1.230    0.187
        80 -11.2373    195.4679    113.4746   2.0846964963e+01   1.9476482741e+01    0.1372263    0.1247588 -27.94 0.0001711705    1.001    0.001
        81 -12.5531    121.3697    111.9300   3.6795664818e+01   3.5447683685e+01    0.3997332    0.3115008  73.40  0.001244706    1.570    0.363
        82 -11.8712     62.8867    109.9713   5.5740838392e+01   4.7044966420e+01    0.4754448    0.3105822 -67.17   0.00210698    1.579    0.367
        83 -11.2201     45.9432    110.1979   6.2384300212e+01   4.9341326408e+01     0.299257    0.1930173 -45.92   0.00135093    1.646    0.393
        84 -10.6432     42.9451    107.2678   6.3056883800e+01   5.0495943408e+01    0.2054218    0.1921709  43.04 0.0004972684    1.082    0.076
        85 -11.2280    222.8263    109.1617   1.5683711795e+01   1.5081479534e+01    0.1747774     0.143597  -3.50  0.001017619    1.320    0.242
        86 -12.9847    135.8339    102.9930   3.0579943593e+01   3.4183576824e+01    0.6810279    0.3614272  49.29  0.001770192    1.885    0.470
        87 -13.5322    120.1732    102.3188   3.4580584802e+01   3.7840053760e+01    0.6377155      0.36458  37.11  0.002519688    1.874    0.466
        88 -11.1579     64.6659    101.7109   5.3191256061e+01   4.8925186030e+01    0.3034643    0.2001825   4.41  0.000274904    2.209    0.547
        89 -12.0496     61.3084     97.8490   5.3600071541e+01   5.0460221212e+01    0.5851727     0.398712  69.52  0.001868678    1.874    0.467
        90 -11.5988     48.9094     93.2112   5.7681582719e+01   5.3487096388e+01    0.5393195    0.3262794 -87.12  0.002174292    2.207    0.547
        91 -12.0113     47.8137    100.2691   5.9691268844e+01   5.1762562769e+01    0.6494557    0.3757271  67.14  0.002538647    2.369    0.578
        92 -12.0109     52.2674     98.0277   5.7349485228e+01   5.1754582282e+01    0.4672487    0.2976878 -21.56   0.00152022    2.250    0.556
        93  -9.9094     75.2827    100.6758   4.8871792345e+01   4.7392204587e+01    0.1593595     0.121195  74.95 0.0005115304    1.596    0.373
        94 -12.6286    163.7329     97.3565   2.2742238378e+01   2.8969843073e+01    0.4174315    0.2760092  50.73 0.0007663842    1.554    0.357
        95 -13.1969    137.2844     95.1073   2.8047512462e+01   3.5467755114e+01    0.5054998    0.3971308  68.66  0.001273077    1.415    0.293
        96 -13.3091     32.3617    111.9679   6.8092818355e+01   5.0388974346e+01    0.7134863    0.3779229 -57.08   0.00311386    1.798    0.444
        97 -13.0641     28.9050    121.9131   7.0770004406e+01   4.8037414331e+01    0.5832877    0.3579523 -58.67  0.002661154    1.590    0.371
        98 -11.8221     42.9079     90.3903   5.9678641986e+01   5.5011389706e+01    0.3957191    0.2453644 -68.50  0.001049764    1.615    0.381
        99 -10.9749     59.0145    125.0690   6.0116211168e+01   4.3625426103e+01    0.2276491    0.2119474  78.96 0.0005288834    1.040    0.038
       100 -14.1239    188.2713     83.0238   1.4614063826e+01   2.5974163568e+01     1.666664      1.03751  76.57  0.007621972    2.131    0.531
       101 -14.0555    164.8570     70.9439   1.5277169739e+01   3.3332440578e+01     1.296976    0.9085822  78.29  0.006156656    1.631    0.387
       102 -14.2677    160.3619     80.9430   1.8949252967e+01   3.2703003531e+01     1.561113    0.7161272  37.01  0.005147162    3.440    0.709
       103 -13.9615    169.3270     77.0699   1.6198175860e+01   3.1250979041e+01    0.8681834    0.5361773  42.56  0.003030323    1.864    0.464
       104 -10.3800     78.6398     86.9090   4.3820486811e+01   5.0177938822e+01    0.2134447    0.1483619 -66.21  0.000441169    1.648    0.393
       105 -12.9328    237.3785     79.9802   7.5276984107e+00   1.6656595557e+01    0.3801229    0.2829708 -82.70  0.002352299    1.688    0.407
       106 -11.1900     98.1657     83.8655   3.5923089310e+01   4.6836352832e+01    0.2475391    0.2172649  80.77 0.0007024502    1.252    0.201
       107 -13.9936     62.0561     58.6206   4.1312797037e+01   5.9888255731e+01     2.625116     1.503571 -13.40  0.007894327    4.474    0.776
       108 -13.1906     65.7863     49.6160   3.6020418425e+01   6.1072814387e+01    0.7528234    0.6529596 -65.38  0.003585672    1.328    0.247
       109 -13.5603     92.3664     58.0019   2.8969207800e+01   5.3587896531e+01    0.6346819    0.5839913  80.46  0.002132514    1.146    0.127
       110 -13.7783     74.6799     73.6174   4.1206208001e+01   5.4088599944e+01     1.633486    0.8549256  19.95  0.005029637    3.722    0.731
       111 -13.2904     87.3738     65.2555   3.3421545108e+01   5.3265353956e+01    0.5625217     0.477146  -3.28  0.001022667    1.414    0.293
       112 -13.0913     55.3104     80.8467   5.1708254811e+01   5.5751133256e+01    0.6354636    0.4982728 -33.39  0.002054264    1.380    0.275
       113 -13.9759     61.1564     75.8798   4.7643127343e+01   5.6033162028e+01    0.9941753    0.6726994 -48.42  0.001770857    1.473    0.321
       114 -12.8202    216.5603     80.6913   1.0084099408e+01   2.0452986026e+01    0.4360391    0.4040299 -21.67  0.001814422    1.151    0.131
       115 -12.5017    210.5330     77.6591   1.0128645795e+01   2.2098124848e+01    0.5754694    0.3200175 -64.04  0.002558534    2.467    0.595
       116 -11.9081    114.1686     80.0552   2.9745248406e+01   4.3991382956e+01    0.5008566    0.3507371 -50.67   0.00222844    1.486    0.327
       117 -12.9465    135.1444     79.1901   2.3917176008e+01   3.9109761269e+01    0.8742316    0.4016312  55.93  0.003192007    2.233    0.552
       118 -10.7238     90.0338     80.9930   3.7807497069e+01   4.9247567304e+01    0.2601077    0.1988774  82.23  0.001140981    1.713    0.416
       119 -11.3322     42.5024     79.4742   5.7252553818e+01   5.7914240685e+01    0.2891288    0.2393447 -34.81 0.0009388763    1.248    0.199
       120 -11.4642     41.6356     76.1434   5.6799665755e+01   5.8880173434e+01    0.3583051    0.2083489 -59.66  0.001537088    1.650    0.394
       121 -13.9703    170.8386    241.8044   4.8984947241e+01   2.9888006306e+00    0.8497276    0.4966804  20.27  0.005255575    1.375    0.273
       122 -14.2786      6.1266     63.3158   7.2875496862e+01   6.5310502330e+01    0.8595392    0.5850608  13.27  0.004653081    1.592    0.372
       123 -11.5411     27.4712     76.3035   6.3899221239e+01   6.0417809119e+01    0.3224829    0.2470365  81.77  0.001202546    1.464    0.317
       124 -11.8402    214.1260     71.6282   8.2475452173e+00   2.2240186897e+01    0.2337493    0.1568807 -44.38 0.0005278519    1.288    0.223
       125 -13.6680    198.4923     70.2954   9.8958011448e+00   2.5711535178e+01    0.8852983    0.4726458  45.59  0.003081768    2.286    0.563
       126 -11.7782     43.5102     64.5279   5.2474039409e+01   6.1531854953e+01    0.3908601    0.2188019 -63.77  0.001559576    1.927    0.481
       127 -12.3493     39.3931     67.7535   5.5584121842e+01   6.1284870731e+01     0.823408    0.2357776  32.84  0.002714001    3.228    0.690
       128 -11.1744     34.1065     67.8915   5.8384796286e+01   6.1888097875e+01    0.3650622    0.2357665  41.15  0.001646986    1.642    0.391
       129 -12.9522    135.0517     65.8077   1.9748172984e+01   4.1593459049e+01    0.6237059     0.499299  31.41  0.001793559    1.469    0.319
       130 -11.8238    100.3132     64.5066   2.8738719519e+01   5.0436615740e+01    0.3731984     0.343194  16.08  0.001559565    1.195    0.164
       131 -12.9945     78.9855     60.1504   3.4693535910e+01   5.6164596476e+01    0.7540218    0.5362377 -56.22  0.003462911    1.569    0.363
       132 -12.1977     82.9791     54.8563   3.1109635599e+01   5.6358455542e+01    0.4913431    0.3283681  -3.20  0.001893948    2.604    0.616
       133 -12.0045     38.7606     59.7818   5.3454114010e+01   6.3321993154e+01    0.4968206    0.2976594  61.00  0.002030654    2.528    0.604
       134 -11.3342     34.5560     60.7416   5.6061352410e+01   6.3614481966e+01    0.3982319    0.2064434 -58.54  0.001725567    1.840    0.457
       135 -12.3746     35.2224     55.0305   5.3840179909e+01   6.4912429240e+01    0.3780886    0.2893883  -2.49 0.0008635781    1.434    0.302
       136 -13.7215    177.8208     57.2108   9.3081575312e+00   3.2362305079e+01    0.8289167    0.5563281 -52.67   0.00241107    1.431    0.301
       137 -12.0454     24.7526     59.5509   6.1260249210e+01   6.4959074589e+01    0.4528978    0.2590619 -49.94  0.001781061    1.599    0.375
       138 -11.8592    109.9941     53.7402   2.1906343148e+01   5.0068900108e+01    0.4062051    0.3407913 -36.70  0.002002145    1.258    0.205
       139 -14.5989    119.6249     54.6147   1.9667487003e+01   4.7467009071e+01     1.024127    0.6395115  44.64  0.001825882    1.663    0.399
       140 -12.9291    136.0147     50.7790   1.4578878488e+01   4.3853717185e+01    0.6170961     0.593684  -5.09  0.001861476    1.182    0.154
       141 -11.6422    247.6325     54.0071   9.8281732065e-01   1.8182758478e+01     0.461636   0.08987717 -44.01  0.001703861    3.616    0.723
       142 -10.7908     47.0249     56.0252   4.7730639953e+01   6.3030081117e+01    0.2399906    0.1804334  70.90  0.001135526    1.832    0.454
       143 -11.2535     17.5425     54.7938   6.4278565202e+01   6.6764731859e+01    0.3044151    0.2155232 -80.76  0.001587237    1.542    0.352
       144 -11.2878    231.2324     55.3946   2.6882051543e+00   2.1047993912e+01    0.1625576    0.1119904 -86.87  0.000956597    1.666    0.400
       145 -13.6055    103.3416     50.5367   2.2605753559e+01   5.2299031200e+01    0.8360578    0.4854515 -42.96  0.000776748    1.796    0.443
       146 -13.4562     97.9910     50.1695   2.4091997402e+01   5.3689962319e+01    0.8659511    0.4519107 -42.12   0.00274215    1.997    0.499
       147 -12.6158    154.6135     46.2548   9.6594961288e+00   3.9719191833e+01    0.4712347    0.2887761  54.85  0.002166106    1.643    0.391
       148 -13.1943    158.7843     43.0954   8.0121839646e+00   3.9098608570e+01    0.6561348    0.4807247  61.30  0.002708627    1.355    0.262
       149 -10.9467     29.7963     46.2766   5.3973806645e+01   6.7621407334e+01    0.2942872    0.1712321 -45.02  0.001268817    1.625    0.385
       150 -11.3428     38.5886     46.2227   4.8636355861e+01   6.6494927353e+01    0.2008767    0.1236013 -41.64 0.0009386709    1.603    0.376
       151 -12.6974    148.2832    239.3015   5.3150467136e+01   6.1769109006e+00    0.4214353    0.2555902  52.36  0.001989429    2.446    0.591
       152 -13.3915      6.1112     43.2111   6.8780441927e+01   7.0340898482e+01    0.9599967    0.5598186   6.20  0.003954144    1.818    0.450
       153 -12.3807    144.8609    233.1888   5.3090295660e+01   7.5316782061e+00     0.397698    0.2444915 -37.54  0.002362058    1.910    0.476
       154 -12.8688     24.4706    216.8393   7.9259013965e+01   2.5460628920e+01    0.7654251    0.3710645  39.72  0.004176678    1.541    0.351
       155 -14.1968     26.6417    225.8766   7.9161533978e+01   2.3431416551e+01    0.9947211    0.4066161 -53.34  0.004557829    3.586    0.721
       156 -11.6641     27.9159    235.3645   7.9287712624e+01   2.1476200335e+01    0.2018212    0.1300485  60.64 0.0009298618    1.332    0.249
       157 -14.0280    217.3864     41.9304   8.1753922515e-01   2.5531826222e+01     1.137107    0.4348196  70.52  0.004412928    2.858    0.650
       158 -13.0957    205.4389     39.9938   1.4508657802e+00   2.8339681820e+01    0.6591703     0.326589 -85.93  0.002873343    2.642    0.621
       159 -12.0294    134.9982     39.7976   1.1014121199e+01   4.5759159888e+01     0.546831    0.3192771  80.80  0.001588152    1.960    0.490
       160 -12.6282    110.1300     41.9456   1.7378425662e+01   5.1982426804e+01    0.5250322    0.2392079  59.06 0.0009396722    2.069    0.517
       161 -12.8828    236.5824    229.2197   3.5618996807e+01  -3.0167532620e+00    0.2690332    0.1577102  37.73  0.001757914    2.247    0.555
       162 -13.4042    113.6194     38.0355   1.4975714927e+01   5.1662120652e+01    0.4776259    0.4018417  84.79  0.001524245    1.202    0.168
       163 -13.1178    131.1976     33.4252   9.4793462504e+00   4.7643156580e+01    0.5593925    0.4747143  37.55  0.001690782    1.333    0.250
       164 -12.6783     46.0057     33.4367   3.8568965776e+01   6.7978760103e+01    0.5715937    0.4656618   0.66  0.002999077    1.293    0.227
       165 -12.1446     37.0743     34.1598   4.4256819725e+01   6.9288225153e+01    0.5090684    0.2727446  11.23  0.001938016    3.006    0.667
       166 -12.2472     40.5533     40.3321   4.4991235444e+01   6.7483299971e+01    0.5826246    0.3074503  35.48  0.002601039    1.866    0.464
       167 -12.7949     32.7806     40.2268   4.9704253981e+01   6.8611190183e+01    0.4140002    0.3488471   1.92  0.001254322    1.171    0.146
       168 -13.1558     74.7073     36.9716   2.6629415209e+01   6.1509673366e+01    0.7503737    0.3370742  53.08  0.001888962    2.195    0.544
       169 -12.9794    242.8646     36.1699   3.5752225142e+02   2.1181446291e+01    0.5590885    0.3123034 -88.77  0.002636631    2.073    0.518
       170 -11.6019    104.5766     36.7295   1.6758722255e+01   5.4213698595e+01    0.2769731    0.1536707 -27.00  0.001138506    2.075    0.518
       171 -13.5299     57.1284    203.1296   7.0321736421e+01   2.4784190417e+01     1.083457     0.422026 -61.92  0.004741862    2.798    0.643
       172 -14.4547     62.5686    214.1313   6.9886461350e+01   2.1825302867e+01    0.9361308    0.4804746  42.62  0.004812181    1.552    0.356
       173 -12.8250    140.4377     21.3012   3.6396167724e+00   4.6666150714e+01     0.678363    0.3351344  67.77  0.001411468    1.832    0.454
       174 -13.4690    217.3684     29.1819   3.5778176319e+02   2.7064560219e+01    0.7482772    0.3059169 -60.96  0.003242037    2.640    0.621
       175 -12.3583     68.6065    220.9972   6.9002412831e+01   1.9716743043e+01     0.440612    0.2991777  75.80  0.002558736    1.701    0.412
       176 -12.6373    223.4466     20.8973   3.5541280044e+02   2.6726204205e+01    0.3201955     0.263492  76.42  0.001389248    1.363    0.266
       177 -11.3667    248.9866    225.0135   3.3078716856e+01  -3.8281504394e+00    0.1696618    0.1176604  -1.32  0.001096833    1.021    0.021
       178 -13.1901     56.3826     27.1895   2.9814600353e+01   6.7119655700e+01    0.8320493    0.3395968  47.62  0.001919973    2.347    0.574
       179 -11.4983     64.5793     24.7904   2.4753195146e+01   6.5744781398e+01    0.3132856    0.2517924 -55.31  0.001201658    1.504    0.335
       180 -12.6232    120.1601     26.5901   9.0691558418e+00   5.1476386556e+01    0.6643082    0.3827604  55.56  0.002929366    1.610    0.379
       181 -10.8730     98.2647     27.0201   1.4330578963e+01   5.7218554391e+01    0.2828395    0.1955871  61.75 0.0008763288    1.331    0.249
       182 -12.1449     30.5631     25.4895   4.4163647855e+01   7.1964371811e+01    0.3878317    0.2754354  10.87  0.001598395    1.476    0.322
       183 -11.6878     35.7453     23.1196   3.9333854309e+01   7.1623705048e+01    0.3819858    0.2747887   1.23  0.001954095    1.579    0.366
       184 -12.9629     94.2627    218.3246   6.2634418942e+01   1.6912631937e+01    0.3402883    0.2382295  32.35  0.001509066    1.162    0.140
       185 -11.9679     48.5726     19.9346   2.9767183197e+01   6.9858940886e+01    0.7193386    0.2545123  49.38  0.002627039    2.887    0.654
       186 -12.9450     64.0831    223.9478   7.0315746782e+01   1.9693580201e+01     0.796903    0.2990383  39.62  0.003699641    1.965    0.491
       187 -10.7572      5.5888    219.2450   8.3718216750e+01   2.6696443600e+01     0.146126    0.1012337 -77.51 0.0009493246    1.630    0.387
       188 -11.2010    181.3340    216.3216   4.3346715571e+01   5.1704850647e+00    0.1279084   0.07959036   0.98 0.0007050011    1.704    0.413
       189 -13.0028     57.4787    246.6671   7.3398741890e+01   1.6274431024e+01    0.5684832    0.2928245  25.54  0.003171286    1.701    0.412
       190 -10.7570    142.3557     11.6889   5.5086539657e-02   4.7176289540e+01    0.1548675   0.09210371 -65.41 0.0004052706    1.732    0.423
       191 -12.4582      5.1401    209.8520   8.3556618524e+01   2.8662974178e+01    0.3522541    0.2014666 -45.79  0.001885495    2.653    0.623
       192 -12.8811     72.2114    207.1631   6.6870223820e+01   2.2044207284e+01    0.3321101    0.2678014 -77.00   0.00202892    1.431    0.301
       193 -10.4349    153.3160     15.6310   5.2370569920e-02   4.3879660334e+01    0.1567134   0.08892282 -60.78 0.0007036492    1.781    0.439
       194 -13.9063     20.6815    224.6245   8.0468240373e+01   2.4257594552e+01    0.6959293    0.4370863  32.76  0.003960553    1.334    0.250
       195 -12.6552     46.6659    208.8155   7.3404297330e+01   2.4797379173e+01    0.5056716    0.2123195  65.47  0.002111764    2.896    0.655
       196 -10.9792    136.5203    210.9658   5.1925351065e+01   1.2290879387e+01    0.1744166    0.1305738 -46.98  0.001030053    1.586    0.370
       197 -13.7255     16.2143    197.1650   8.0391760633e+01   3.0433339128e+01    0.9284463    0.3416287 -52.70  0.003710638    3.904    0.744
