#   1 NUMBER                 Running object number                                     
#   2 MAG_AUTO               Kron-like elliptical aperture magnitude                    [mag]
#   3 X_IMAGE                Object position along x                                    [pixel]
#   4 Y_IMAGE                Object position along y                                    [pixel]
#   5 X_WORLD                Barycenter position along world x axis                     [deg]
#   6 Y_WORLD                Barycenter position along world y axis                     [deg]
#   7 A_WORLD                Profile RMS along major axis (world units)                 [deg]
#   8 B_WORLD                Profile RMS along minor axis (world units)                 [deg]
#   9 THETA_WORLD            Position angle (CCW/world-x)                               [deg]
#  10 FWHM_WORLD             FWHM assuming a gaussian core                              [deg]
#  11 ELONGATION             A_IMAGE/B_IMAGE                                           
#  12 ELLIPTICITY            1 - B_IMAGE/A_IMAGE                                       
         1 -13.1992    242.4683    110.5963   7.8711046553e+01   9.0401450966e+00     6.869964    0.7927359 -42.60   0.01541469    6.874    0.855
         2 -12.7905    218.5419     40.7599   6.6163986213e+01   2.5772431132e+01      2.12311     1.127386 -57.11  0.009858879    1.950    0.487
         3 -11.8836    187.4366     95.5311   8.4819299232e+01   2.4511652562e+01     2.895501    0.5692618 -40.30  0.007232152    4.880    0.795
         4 -11.6273    160.4382     49.9051   7.7741666652e+01   3.8923096198e+01     1.870043      1.02293  88.90  0.006196486    3.775    0.735
         5 -12.4591    136.4139     40.2342   7.9897364529e+01   4.6106256593e+01     1.353221    0.7118018  69.57  0.001873033    2.407    0.585
         6 -10.7540    219.8919     28.1745   6.3144492877e+01   2.7103167195e+01    0.4779661    0.4011571 -35.71  0.002570991    1.414    0.293
         7 -12.8176    128.9616     21.8154   7.5635356330e+01   5.0025683546e+01     1.738507    0.7372224  53.57  0.007648063    1.931    0.482
         8  -9.2179    249.2992     11.1231   5.6798771028e+01   2.2507754486e+01    0.2623771    0.1984421  60.04   0.00170154    1.581    0.368
         9 -12.1482    243.8409     18.1458   5.8634219707e+01   2.2861796501e+01    0.5223472    0.3932768 -62.47  0.001430878    1.159    0.137
        10 -11.3114    142.5797     15.9101   7.1060130977e+01   4.7407126131e+01    0.6811383    0.3194158 -35.36  0.003159112    2.395    0.582
        11 -10.7268    143.6595      7.0651   6.8192001723e+01   4.7966515610e+01     0.629539    0.2931421 -14.76  0.002819657    2.962    0.662
        12  -9.4158    203.5417     18.0864   6.2700010361e+01   3.2230722735e+01    0.4145422    0.2505701 -77.92  0.001817839    1.733    0.423
        13  -8.9365    222.1651     14.4378   5.9883970021e+01   2.8217201127e+01    0.5156748    0.1972146 -63.77  0.001784846    3.635    0.725
        14 -10.0212    173.9050      4.2169   6.2910399878e+01   4.0886620360e+01    0.5272588    0.3281941 -73.36  0.002113447    1.810    0.447
        15 -10.4048    186.8260      9.3198   6.2580045575e+01   3.7240107144e+01    0.8104876    0.3808303 -73.71  0.003194645    3.163    0.684
        16 -11.7702    188.8215      4.3889   6.1136976308e+01   3.7238766963e+01     1.590745     0.803015  75.44  0.007889039    1.698    0.411
        17 -12.1082    120.2190     10.5526   7.3786268634e+01   5.3118782708e+01     0.843652    0.6690816  75.59  0.003791082    1.386    0.278
        18  -8.2215    163.3362      9.3106   6.5725530355e+01   4.2998667665e+01    0.1379534   0.08544113  43.54 0.0002525057    1.683    0.406
        19 -10.2786    211.1919      2.5309   5.8362487690e+01   3.2070918403e+01    0.4429151    0.2424922 -65.88 0.0008652159    1.842    0.457
        20  -8.6045    177.6455     12.4658   6.4553893443e+01   3.9175634852e+01    0.3942683    0.1574084 -53.21  0.001528205    3.288    0.696
        21  -8.0159    225.2100      1.7736   5.6930417545e+01   2.8899882596e+01     0.199374    0.1174308 -61.45  0.001129127    1.565    0.361
        22  -9.7124    249.9819      3.4516   5.5285547908e+01   2.3236987516e+01    0.4059232    0.1599427 -45.95  0.001813237    2.189    0.543
        23  -8.3821    172.1499    125.1658   9.5675224097e+01   2.2244351972e+01    0.2165218    0.1869535  86.19  0.000395254    1.305    0.234
        24  -9.5904    229.7743    122.1905   8.3413222739e+01   9.6389800500e+00    0.3733531     0.221328 -38.70  0.001356877    1.599    0.375
        25  -8.4211    176.0739    120.0000   9.3495945868e+01   2.2401582546e+01    0.2637317   0.08995526  49.13 0.0006668041    2.907    0.656
        26  -9.7649    167.6252    113.4065   9.3733253744e+01   2.5782798161e+01    0.4226103    0.3655152  79.20  0.001360715    1.262    0.208
        27  -8.3550     19.5752    232.4787   1.4781911210e+02   2.4091820667e+01    0.1573259    0.1348545 -63.52 0.0005036708    1.635    0.388
        28  -8.3610    250.5771    231.0509   1.0201927452e+02  -1.2380421260e+01    0.1735522    0.1081457 -28.14 0.0004345862    1.560    0.359
        29 -12.1599      4.5572    212.8189   1.4922995966e+02   2.9584780178e+01    0.8123835    0.4150444 -82.50  0.005028487    1.552    0.356
        30 -11.2236    177.0184     74.5306   8.1339824410e+01   3.0884126950e+01    0.7910625    0.7549924  33.81  0.001811004    1.143    0.125
        31  -7.4258     15.3237    113.7161   1.3711036743e+02   5.0776915348e+01    0.1154902   0.08423749  74.33 0.0007001841    1.597    0.374
        32 -10.0711    205.9257    110.3473   8.4934928340e+01   1.7246163321e+01    0.4020039    0.2378163  44.33  0.001699076    1.809    0.447
        33  -9.0103    218.2194    104.3989   8.1272862854e+01   1.5504036974e+01    0.2156591    0.1419615  69.12 0.0009609028    1.754    0.430
        34  -7.9630     17.4923    219.4468   1.4733323445e+02   2.6944131050e+01    0.1154178    0.0848794  79.20 7.018972e-05    1.008    0.008
        35  -8.0901    177.7627    103.6221   8.8931420344e+01   2.5317620317e+01    0.2171753    0.1479089  63.59 0.0003468046    1.586    0.370
        36  -9.6923    235.0793     37.7210   6.3559592353e+01   2.2320383290e+01    0.3435309    0.2469656 -73.86 0.0007184279    1.257    0.204
        37  -8.5716    197.8668     99.9011   8.3888199139e+01   2.1148847697e+01    0.2106237    0.1761124 -75.62  0.000474796    1.284    0.221
        38  -8.8879    149.6240     96.3099   9.3447784911e+01   3.3565252478e+01    0.2981142    0.2651493  12.33 0.0006917326    1.263    0.208
        39  -8.3731    135.1545     93.7989   9.6422017473e+01   3.7425399502e+01    0.2307578    0.2083355 -87.15 0.0007514199    1.251    0.201
        40 -11.2736    237.9918     67.8735   6.9814853874e+01   1.7232120108e+01    0.9051013    0.5236927 -51.47  0.001349382    1.609    0.378
        41 -10.4726    162.9117     85.6411   8.7367436047e+01   3.2409275935e+01    0.7526979    0.6062252  19.46   0.00358804    1.526    0.345
        42 -10.9090    158.7376     76.1400   8.5635893795e+01   3.5153037064e+01    0.4352541    0.3075069 -38.47 0.0007974238    1.484    0.326
        43  -9.4591    143.5276     85.1184   9.1800694875e+01   3.7184425495e+01    0.3261022    0.2786341 -53.00  0.000822686    1.245    0.197
        44  -7.5376    145.2244     79.6658   8.9806346880e+01   3.7796763443e+01    0.1475832    0.1169455 -67.88 0.0002381763    1.523    0.343
        45 -10.3316    206.5627     65.3086   7.3716158188e+01   2.5050091238e+01     1.137331    0.5903155 -85.15  0.003637226    3.979    0.749
        46 -10.1466    209.4992     62.6823   7.2618293860e+01   2.4746572111e+01    0.9175497    0.4104611 -65.83  0.002635294    4.879    0.795
        47 -10.2905    194.9542     60.0510   7.4262034483e+01   2.8745827017e+01    0.3609582    0.2652538  51.16 0.0008953896    1.385    0.278
        48 -10.8288    200.8787     55.8599   7.2254426606e+01   2.7911831171e+01    0.5552796    0.3929777  51.60  0.001578453    1.456    0.313
        49  -9.7928    184.4997     68.2466   7.8223890618e+01   3.0059861628e+01    0.2741247    0.2569964  46.47 0.0003263699    1.146    0.128
        50  -8.1913    221.2362     67.5924   7.2053717632e+01   2.1149139719e+01    0.2200565    0.1819523  -5.99 0.0003807115    1.700    0.412
        51  -8.7682    123.9950     63.3491   9.0284060557e+01   4.5549495227e+01     0.245765    0.2086212 -17.77 0.0003400202    1.248    0.199
        52  -8.5991    243.6782     62.0767   6.7827021443e+01   1.6862859538e+01    0.3731371    0.2508587  25.85  0.001572473    2.946    0.661
        53  -7.7537     34.3696     57.2779   1.1835538292e+02   6.1168295331e+01    0.1599191    0.1042269 -54.73 0.0005870485    1.598    0.374
        54  -8.1234    249.1231     54.3039   6.5533513474e+01   1.6834527314e+01    0.2725087    0.1351863 -60.83   0.00122612    2.138    0.532
        55  -9.3655    187.9327    137.0495   9.5054925905e+01   1.6086055405e+01    0.2550531     0.198424   3.44  0.001136848    1.710    0.415
        56 -10.1278    109.3207     36.4144   8.5330840712e+01   5.2715644715e+01    0.3110675    0.2292226 -47.77 0.0005349017    1.701    0.412
        57 -10.0624    182.6046     77.9164   8.1153127437e+01   2.8903007533e+01    0.4273524    0.3568733  65.20 0.0003053377    1.150    0.131
        58 -11.9677    176.2116     57.5686   7.6875804267e+01   3.3832951219e+01    0.9060287    0.6152895  38.49  0.004247953    1.696    0.410
        59 -10.0933    165.8849    210.2451   1.1521317316e+02   5.6966364066e+00    0.2292045    0.2176447  38.39 0.0002266475    1.060    0.057
        60  -8.8669    250.5484     21.5135   5.8715546953e+01   2.0984681603e+01    0.2025804     0.138126 -56.36 0.0005230926    1.276    0.216
        61  -9.3092     31.5049    204.8347   1.4356073294e+02   2.8522117758e+01    0.2013115    0.1335438  68.26 0.0004630849    1.289    0.224
        62 -10.5395    249.1304     25.7858   5.9686638097e+01   2.0754116876e+01    0.4413071    0.2013831 -60.64  0.001059481    2.160    0.537
        63 -13.1500     34.4509    188.3071   1.4143328851e+02   3.1857299083e+01       1.0787    0.8927581 -34.84  0.006964876    1.756    0.430
        64 -12.5060     47.5634    177.6487   1.3736017132e+02   3.2800333222e+01    0.9910547    0.8428416  76.39  0.004308336    1.085    0.078
        65  -9.6504     64.0778    164.1258   1.3158191540e+02   3.3905086858e+01    0.2686344    0.1927934 -85.45  0.001437576    1.365    0.267
        66  -7.7442    230.1130     19.0164   6.0082726925e+01   2.5844168319e+01    0.2803636    0.1755027 -15.90  0.001396122    2.696    0.629
        67  -7.7069    203.5168    160.5567   9.7135800943e+01   7.8723270346e+00    0.1479584    0.1449533   7.28 0.0003748196    1.031    0.030
        68  -9.1438    113.2145    153.9549   1.1709769023e+02   2.8400588982e+01    0.2345733    0.2075415  51.96 0.0002910827    1.118    0.106
        69  -8.8585    179.0023    147.4603   9.9469939537e+01   1.5921582786e+01    0.2850143    0.2302614 -42.54  0.001366681    1.255    0.203
        70 -10.1225     68.0023    144.3128   1.2734290795e+02   3.8152995199e+01    0.5945225    0.3745503  59.70  0.002550787    1.866    0.464
        71 -10.0871    225.1650    141.4424   8.8605420447e+01   7.0119460214e+00     0.259123    0.2514466  79.86 0.0003547404    1.120    0.107
        72  -8.3901    111.4247    138.9305   1.1437943922e+02   3.2323035620e+01      0.21067    0.2007049  53.21 8.944103e-05    1.062    0.058
        73  -8.0327    109.6818    246.6886   1.3227236638e+02   8.8386312412e+00    0.1151127   0.09970676  13.04 0.0007035045    1.643    0.391
        74 -11.3880    229.1031     33.2966   6.3254543591e+01   2.4285739985e+01    0.5817319    0.3591121  49.98   0.00169268    1.949    0.487
        75  -7.8385    115.3261    241.7859   1.3057327767e+02   8.8152045581e+00    0.1627961    0.1173448 -52.83 0.0007958501    1.686    0.407
        76  -7.3353     59.3489    131.6438   1.2746184170e+02   4.2339498854e+01    0.1455085    0.1000652  75.54 0.0007032276    1.842    0.457
