#   1 NUMBER                 Running object number                                     
#   2 MAG_AUTO               Kron-like elliptical aperture magnitude                    [mag]
#   3 X_IMAGE                Object position along x                                    [pixel]
#   4 Y_IMAGE                Object position along y                                    [pixel]
#   5 X_WORLD                Barycenter position along world x axis                     [deg]
#   6 Y_WORLD                Barycenter position along world y axis                     [deg]
#   7 A_WORLD                Profile RMS along major axis (world units)                 [deg]
#   8 B_WORLD                Profile RMS along minor axis (world units)                 [deg]
#   9 THETA_WORLD            Position angle (CCW/world-x)                               [deg]
#  10 FWHM_WORLD             FWHM assuming a gaussian core                              [deg]
#  11 ELONGATION             A_IMAGE/B_IMAGE                                           
#  12 ELLIPTICITY            1 - B_IMAGE/A_IMAGE                                       
         1 -17.4347     10.4191     73.1053   1.2155630412e+02   6.0058927449e+01     7.600583    0.7612361 -55.62   0.02405301    4.926    0.797
         2 -13.5856    163.2863     48.0964   6.8919581303e+01   3.8123106090e+01     1.047218    0.9815676 -14.14   0.00391489    1.295    0.228
         3 -12.5314    189.3863     15.1959   5.7458565033e+01   3.6188080883e+01    0.5406128    0.3095388 -82.52  0.002799349    1.806    0.446
         4 -13.5975    176.8516     19.9246   6.0005578182e+01   3.8468738091e+01    0.9375777    0.8152775 -72.83  0.004864478    1.145    0.127
         5 -13.3152    178.6296     14.3668   5.8505453371e+01   3.8658985114e+01    0.7911156    0.4066384  84.96  0.002917286    2.006    0.502
         6 -12.1398    121.8675      4.7436   6.4209333263e+01   5.2104627197e+01    0.4351994    0.1937557  49.00  0.002240925    1.892    0.472
         7  -8.6547    128.2835    244.2867   1.1980267251e+02   4.3605832491e+00    0.1250231    0.1037506  -2.20 0.0001870663    1.525    0.344
         8 -19.3758     67.9694    224.2899   1.3026758326e+02   1.8056572674e+01     5.873103     5.032637  50.22   0.02729324    1.184    0.155
         9 -10.3184    133.6926    199.8245   1.1148619220e+02   1.2995978256e+01    0.4197631    0.2993831   1.98  0.001710701    2.129    0.530
        10 -14.9944     67.2581    139.7601   1.1743933879e+02   3.9020290834e+01     2.426213       2.0208 -55.15   0.01321059    1.090    0.083
        11 -12.2351    150.9314    196.2611   1.0680737907e+02   1.0637609249e+01    0.6665906    0.5278385  35.49  0.003381009    1.265    0.210
        12 -11.3023    210.4358    189.7723   9.2746131970e+01   1.1960637294e+00    0.2663049    0.2351642 -82.31  0.001493915    1.489    0.328
        13 -10.7198    164.7303    188.6608   1.0218147530e+02   9.7439437452e+00    0.2675301    0.2508897 -88.44 0.0003718204    1.178    0.151
        14 -10.2228    167.9589    238.6893   1.1050589565e+02  -1.0823602293e+00    0.2566701    0.1900667 -42.81 0.0005666524    1.440    0.306
        15 -10.3783    132.7359    184.2711   1.0882022022e+02   1.6810284117e+01    0.3980246    0.2647378 -86.39  0.001314832    2.323    0.570
        16 -11.9334    189.0654    178.4965   9.4800527569e+01   7.3438849846e+00    0.6983424    0.4332706 -57.09  0.002243162    1.838    0.456
        17 -10.4012    185.1462    170.3826   9.3932337572e+01   9.8262910247e+00    0.4151641    0.2708663 -55.03  0.001161648    1.617    0.382
        18 -10.4011    151.6449    237.8157   1.1383335345e+02   1.7759418048e+00    0.3339631    0.2364508  41.34 0.0007851523    1.309    0.236
        19 -10.2175    247.8996    182.1426   8.4415058722e+01  -3.4326811153e+00    0.1999109    0.1698282 -55.82  0.001226682    1.357    0.263
        20 -11.1551    235.8114    176.9915   8.5480597964e+01  -5.9674981155e-01    0.2579716     0.206524  55.16  0.000424407    1.585    0.369
        21  -9.9554    203.4423    175.6516   9.1267967483e+01   5.2659158428e+00    0.2801818     0.133319 -48.87  0.001118763    2.072    0.517
        22 -10.5182    195.5160    174.0248   9.2532595782e+01   7.0725042098e+00    0.3511386    0.2703664 -52.19  0.001030926    1.306    0.234
        23 -10.1001    207.6851    172.7648   8.9833716122e+01   5.0791974595e+00    0.3771121    0.2158432 -57.55  0.001085556    2.133    0.531
        24 -11.7139    236.7262    172.4801   8.4423846118e+01   9.9645883870e-02    0.3180605    0.2396911  17.58  0.001533169    1.604    0.377
        25  -9.2830      6.1832    231.8311   1.4345279708e+02   2.3830482538e+01    0.1544288    0.1179036 -63.44 0.0006119246    1.516    0.340
        26 -10.1249    157.7226    168.0058   9.9536563673e+01   1.5773860126e+01    0.2190304     0.194345 -49.00 0.0002901748    1.098    0.089
        27 -10.4078    191.9970    165.4145   9.1440670750e+01   9.5615747851e+00     0.531406    0.2819073 -60.84  0.001950211    2.673    0.626
        28  -9.7279     25.1287    166.5407   1.3331956132e+02   3.7271717966e+01    0.2846344    0.1807827 -21.54  0.000851083    2.481    0.597
        29 -10.1034    204.8211    165.0147   8.8774999053e+01   7.1945533095e+00    0.2186811    0.2103414  35.73 0.0003553383    1.130    0.115
        30 -10.7616    120.6060    158.5986   1.0665839284e+02   2.5327615526e+01     0.318251    0.2948901 -24.47   0.00164874    1.171    0.146
        31 -11.3041    189.1576    156.0600   9.0007124884e+01   1.2119897137e+01    0.5348715    0.4903832   6.51  0.001945748    1.202    0.168
        32 -12.4555    134.0547    147.3726   1.0073452532e+02   2.5397928157e+01     1.463128    0.3966285 -55.01    0.0034865    5.122    0.805
        33  -9.6758     22.6807    157.1986   1.3275049453e+02   3.9812703145e+01    0.2001954    0.1934039  -7.98 0.0006647187    1.288    0.224
        34  -9.9374     17.1839    155.4591   1.3395673649e+02   4.0730360817e+01    0.3253386    0.1599225 -59.93  0.001610398    1.649    0.393
        35  -9.9429      7.2628    150.7458   1.3594891450e+02   4.2676400734e+01    0.2599626    0.1525868 -44.95 0.0008116905    1.761    0.432
        36 -11.0782    144.0613    147.0639   9.8172113065e+01   2.3425757248e+01    0.7296582    0.3511553 -65.42  0.002109926    3.895    0.743
        37 -10.0212     26.9572    146.9793   1.3018364728e+02   4.1939095180e+01    0.2855555    0.2060811 -55.65  0.001631645    1.219    0.180
        38  -9.4130    155.7418    248.8142   1.1466203290e+02  -9.6787810046e-01    0.1811852    0.1634999   9.81 0.0004097718    1.115    0.103
        39 -11.9170    107.2737    135.0231   1.0497227438e+02   3.3592514088e+01    0.3874202    0.3225892 -35.64 0.0003729731    1.238    0.193
        40 -10.5850    103.9892    129.9931   1.0470235625e+02   3.5405287696e+01     0.269859    0.2311659  60.70 0.0004608752    1.281    0.219
        41 -11.8811    135.7725    130.9820   9.6446058137e+01   2.8880307608e+01    0.9169617    0.2339885 -52.04  0.002254648    4.780    0.791
        42 -11.4195    134.9071    122.6714   9.4621065390e+01   3.0945508757e+01     0.598227    0.2138809 -50.29  0.001891754    2.907    0.656
        43 -10.9639    126.7069    130.0516   9.8550952985e+01   3.0965954446e+01    0.4529789    0.2790093  71.62  0.001611025    2.821    0.646
        44 -10.2924    160.1964    129.0806   9.0113715785e+01   2.4088752553e+01    0.4155299    0.2686018 -62.72  0.001730694    1.827    0.453
        45 -10.3555    131.8136    130.1670   9.7256390155e+01   2.9890538513e+01    0.2380824     0.215179 -87.60 0.0006034133    1.195    0.163
        46 -11.3209    121.1433    128.0416   9.9530441397e+01   3.2556446088e+01    0.3467228    0.2630724 -32.23 0.0008252732    1.437    0.304
        47 -12.6687    116.8076    135.6605   1.0252144579e+02   3.1621277711e+01    0.6308154     0.623256 -27.78   0.00210385    1.044    0.042
        48 -11.1819    109.8346    123.8339   1.0157603384e+02   3.5752479345e+01    0.3328758    0.2932606 -44.79 0.0005481272    1.099    0.090
        49 -10.5151    114.4740    118.3844   9.8931037765e+01   3.6097375893e+01    0.2626705    0.2529629 -60.99 0.0001329753    1.043    0.041
        50  -9.0391    140.0000    242.9699   1.1711235875e+02   2.7001296769e+00     0.210977   0.07769839 -52.85 0.0008101587    2.996    0.666
        51  -9.3590    168.0158    113.9937   8.4720894306e+01   2.5584423755e+01     0.257712    0.1871464 -81.68  0.001137199    1.805    0.446
        52 -11.6048     64.7236    109.3876   1.1149856358e+02   4.6653336813e+01    0.6884071    0.5663679  12.29  0.002754432    1.330    0.248
        53 -10.7049    113.1622    110.7207   9.7318654484e+01   3.8063582811e+01    0.2819915    0.2100362 -58.24  0.001332323    1.436    0.304
        54 -10.4620    134.4403    106.7579   9.0666860328e+01   3.4496570528e+01    0.4642201    0.1468199 -45.92  0.001435655    3.154    0.683
        55  -8.6497    166.7602     99.6578   8.1432530871e+01   2.8739357303e+01    0.1424091    0.1187096  -9.02  0.000233642    1.558    0.358
        56  -9.3691    223.0332     92.9160   7.0039393311e+01   1.7643177461e+01    0.1965374    0.1727885 -68.38  0.000312289    1.030    0.029
        57  -9.4151    144.7380     82.9803   8.1855292898e+01   3.6860018749e+01     0.203476    0.1881572 -52.58 0.0004213458    1.099    0.090
        58 -12.1895    185.6554    225.1587   1.0448843704e+02  -1.4565823576e+00    0.4285941    0.2727915 -34.35  0.001701628    1.625    0.385
        59 -13.3151    152.0936     62.3436   7.4723272601e+01   3.8630176698e+01     1.071399    0.8980437  17.77  0.001009147    1.495    0.331
        60 -10.5688    127.5357    248.6179   1.2056441862e+02   3.6315122081e+00    0.2026585    0.2006254 -64.02 0.0005417512    1.137    0.121
        61 -10.6485    123.9429     58.2605   7.9688770787e+01   4.5569167578e+01    0.2230738    0.2115873 -28.62 0.0002582538    1.126    0.112
        62 -12.1714    167.8557     39.7636   6.6065903257e+01   3.8175442026e+01    0.4198945    0.3620535  82.91 0.0008464003    1.032    0.031
        63  -9.2563    219.5746     44.7365   6.0351498200e+01   2.5981894897e+01    0.2212832    0.1200478 -34.98  0.001123895    2.105    0.525
        64  -9.6535    162.4417    246.6068   1.1292380047e+02  -1.6437743889e+00    0.2454015    0.1882426  37.98 0.0008517914    1.194    0.163
        65  -9.9037    116.9607    246.0656   1.2245355195e+02   5.8375824775e+00    0.2119601    0.1913845   5.65 0.0002974566    1.330    0.248
        66 -10.9247    140.5527    222.6435   1.1382509569e+02   6.7365904082e+00    0.5289245    0.2057838  34.89  0.001806991    2.610    0.617
