#   1 NUMBER                 Running object number                                     
#   2 MAG_AUTO               Kron-like elliptical aperture magnitude                    [mag]
#   3 X_IMAGE                Object position along x                                    [pixel]
#   4 Y_IMAGE                Object position along y                                    [pixel]
#   5 X_WORLD                Barycenter position along world x axis                     [deg]
#   6 Y_WORLD                Barycenter position along world y axis                     [deg]
#   7 A_WORLD                Profile RMS along major axis (world units)                 [deg]
#   8 B_WORLD                Profile RMS along minor axis (world units)                 [deg]
#   9 THETA_WORLD            Position angle (CCW/world-x)                               [deg]
#  10 FWHM_WORLD             FWHM assuming a gaussian core                              [deg]
#  11 ELONGATION             A_IMAGE/B_IMAGE                                           
#  12 ELLIPTICITY            1 - B_IMAGE/A_IMAGE                                       
         1 -15.5465    176.5586     89.2620   2.9254113110e+01   2.8325557409e+01      3.49175      1.40946 -38.68  0.007209848    2.443    0.591
         2 -16.3757    212.8555     35.9575   1.0207371328e+01   2.8062847765e+01     16.05384     2.993246 -31.09   0.04320242    6.728    0.851
         3 -15.8107    244.2788     16.1704   3.0959708951e+00   2.3701009166e+01     3.281817     2.157012 -61.39   0.01721679    1.248    0.199
         4 -18.1695    235.5354     84.6306   1.8445229782e+01   1.5959419248e+01     8.328754     6.990246  43.86   0.04960027    1.443    0.307
         5 -16.6218    248.4142     64.1308   1.2471241312e+01   1.6533554200e+01     2.813617      1.92082 -79.92  0.008669763    1.566    0.361
         6 -12.0282    221.2860     14.5251   4.6066510798e+00   2.8748831824e+01    0.4040255    0.2440658  77.12  0.002347751    1.494    0.331
         7 -10.7716    155.3068     13.6462   1.1821498038e+01   4.4277499981e+01    0.3662983    0.1936458 -10.09  0.001644814    2.858    0.650
         8 -10.8233    210.7546      1.6717   2.7212012790e+00   3.2422556298e+01    0.2519264    0.1339849 -85.48 0.0009032045    1.779    0.438
         9 -12.6813    192.3309    194.4712   5.0316816794e+01   4.1486246428e+00     1.004135    0.5182776 -61.93  0.003131635    4.994    0.800
        10 -12.6688    247.7451    248.4841   4.9345304027e+01  -1.2410858828e+01    0.4734066    0.2745301  24.66  0.002961611    1.505    0.336
        11 -10.9026    249.3436    192.0845   3.8943158068e+01  -4.6376970154e+00    0.2000197    0.1535587   3.22 0.0002569892    1.217    0.178
        12 -11.9901    243.8973    235.1399   4.7774995419e+01  -1.0193999612e+01    0.1764533    0.1520642  -1.04  0.001253173    1.280    0.218
        13 -10.5676    249.6622    231.6812   4.6155477945e+01  -1.0463763722e+01    0.1271614    0.0752554  -1.54 0.0007049358    1.706    0.414
        14 -11.9392    248.0652    221.6251   4.4660893236e+01  -8.8690850239e+00     0.265056    0.2021773  35.29  0.001040503    1.593    0.372
        15 -15.0423    198.5483     94.0929   2.6368089440e+01   2.2350593592e+01     2.001113    0.5039468  46.09  0.005466357    4.894    0.796
        16 -11.4018    182.1351    214.8371   5.6248582288e+01   2.1798694206e+00    0.2003618    0.1833178  36.36 0.0005462612    1.207    0.171
        17 -13.8270     62.3533    132.9968   7.1507710613e+01   4.1250198055e+01     1.656676     1.380045  47.07  0.009099481    1.295    0.228
        18 -14.2933     41.2893    135.6191   7.8335338366e+01   4.3068273881e+01     1.007926    0.6980898 -61.69  0.002972692    1.253    0.202
        19 -13.6716     33.1794    137.7801   8.1058039177e+01   4.3333511505e+01    0.6056142    0.4904816   4.27   0.00125112    1.538    0.350
        20 -13.6002     48.5518    135.0498   7.6064701054e+01   4.2421188527e+01    0.7407313    0.4083135 -64.42  0.001893289    1.620    0.383
        21 -12.4273    166.3965    152.1775   4.7181528209e+01   1.7703655433e+01    0.4277141     0.316025 -12.08 0.0003071641    1.717    0.418
        22 -11.3292    134.0000    148.5031   5.4334203557e+01   2.5170312302e+01    0.5859358    0.2484115 -54.28  0.001817381    2.612    0.617
        23 -11.8117    133.2213    143.2668   5.3346589962e+01   2.6552910117e+01    0.9574638    0.2922026 -55.42  0.002403375    4.739    0.789
        24 -12.5539    211.8611    146.0961   3.6195114330e+01   9.7377018232e+00    0.5497248    0.4185062 -47.75  0.002837552    1.320    0.242
        25 -11.4043    144.1515    146.1322   5.1192894631e+01   2.3654881707e+01    0.6435199    0.3489477 -68.94  0.001955286    3.760    0.734
        26 -11.9183    199.5196    143.9996   3.8130653893e+01   1.2590372673e+01    0.3275397    0.2581455 -80.17  0.001565532    1.798    0.444
        27 -13.1045    161.5008    128.3870   4.2689056813e+01   2.3909108527e+01    0.6268808    0.4824177  45.54  0.002064071    1.323    0.244
        28 -13.2375    171.4669    123.7350   3.9243989470e+01   2.2695761011e+01    0.6412356    0.4784775 -86.82  0.002774372    1.948    0.487
        29  -9.6211     91.7886    122.4105   6.0188712422e+01   3.9418723763e+01    0.1972595     0.149022  20.53 0.0004742249    1.505    0.336
        30 -11.2001    142.1405    121.5006   4.5716621952e+01   2.9661593638e+01    0.2683035    0.2288927 -17.04  0.001206393    1.297    0.229
        31  -9.5591    108.6004    109.1614   5.1747184790e+01   3.9449798939e+01    0.2094757    0.1431878 -36.85 0.0009182806    1.500    0.334
        32 -12.3335    143.6228     98.3199   3.9127535128e+01   3.4286633521e+01    0.5066535    0.3437697  52.25  0.002202053    1.509    0.337
        33 -13.2645    177.5142    170.3610   4.8633571301e+01   1.1624920584e+01    0.6496313    0.5449932 -19.31  0.002987295    1.214    0.176
        34 -10.8200    113.0686     95.8550   4.6723610144e+01   4.1491565515e+01    0.3985619    0.2944028  -3.83  0.001399376    1.792    0.442
        35 -10.4434    157.1352     90.8525   3.3822544171e+01   3.2619902484e+01    0.2343373    0.2087991 -68.45 0.0006294305    1.199    0.166
        36  -9.7615    113.3360     87.1079   4.4072027108e+01   4.3259103005e+01    0.2034334     0.185855 -38.69  0.000325507    1.104    0.095
        37 -12.2820    249.3017    210.7749   4.2472765989e+01  -7.4700271386e+00    0.2974506    0.2873985  -6.25  0.001196996    1.514    0.340
        38 -10.6119    158.2131     71.5070   2.8120261191e+01   3.5858441938e+01    0.2508824    0.2039111 -36.79  0.000325617    1.268    0.212
        39 -14.0195      3.3215    147.1040   9.0428306886e+01   4.3414041295e+01     1.041161    0.3814694 -76.03  0.004075589    2.230    0.551
        40 -11.1487    185.9237     64.0419   2.0865016830e+01   3.0381090422e+01     0.326965    0.2150886 -37.81 0.0007764116    1.530    0.346
        41 -14.2192     15.6382    144.7501   8.6906607317e+01   4.3107923084e+01     1.611042     1.443647 -62.65   0.01082825    1.158    0.136
        42  -9.7224    131.5087     51.9394   2.8144302014e+01   4.5383449030e+01    0.2014681    0.1441071 -31.54 0.0004537781    1.492    0.330
        43 -11.4638    205.7428     48.3460   1.3987786815e+01   2.8030122264e+01    0.3218447    0.2476885 -48.77 0.0006955373    1.238    0.192
        44 -11.6029    198.1014     47.6337   1.4832044706e+01   2.9910836695e+01     0.271907    0.2349989 -69.20 0.0004510765    1.069    0.065
        45 -12.6023     67.8800    144.4193   7.1978092804e+01   3.7624040138e+01    0.7701138    0.4609551  62.39  0.003281969    2.197    0.545
        46 -10.2862    182.4326     37.7239   1.4497902684e+01   3.4974653526e+01    0.2000686     0.163786 -26.47 0.0003799794    1.414    0.293
        47 -10.9486    191.1300     35.7541   1.2797243044e+01   3.3141758360e+01    0.3999533    0.2080167  53.20  0.001873182    1.953    0.488
        48 -12.5871    148.5020     35.2396   1.9336183651e+01   4.3560789892e+01    0.3625266    0.2670743   2.31  0.001864181    1.803    0.445
        49 -12.2961    185.9828    171.7706   4.7074710865e+01   9.7069360165e+00    0.6896917    0.3998818 -66.56  0.002350735    3.679    0.728
        50 -12.6611    142.8415     31.9067   1.9379802512e+01   4.5340356092e+01    0.4977526    0.1853687  64.25  0.001580595    2.633    0.620
        51 -11.6765    125.0317     31.9905   2.3081754372e+01   4.9585813497e+01    0.2145005    0.1932306  47.62 0.0005327593    1.008    0.008
        52 -10.6777    160.2849     29.3965   1.5576484919e+01   4.1385096795e+01    0.1962997    0.1212623  76.05 0.0006553137    1.621    0.383
        53 -10.9783    169.4285     22.8972   1.2383614438e+01   3.9894708995e+01    0.4171522    0.1998902 -15.64  0.001693718    3.281    0.695
        54 -10.1639    170.5700     18.5054   1.1037209308e+01   4.0091541974e+01    0.1901281    0.1797673  85.80 0.0005666978    1.115    0.103
        55 -12.0056    246.8012    202.5259   4.1373824014e+01  -5.8884271820e+00    0.3710974    0.2971285  53.96  0.002235559    1.986    0.497
        56 -10.5157    190.0125     15.0094   7.7731814859e+00   3.5816857227e+01    0.2318675    0.1661356  76.16  0.001279414    1.219    0.180
        57 -12.2186    205.3581    199.2266   4.8554389626e+01   1.0580030884e+00    0.4704016    0.2899977  -7.58  0.002129019    2.160    0.537
