#   1 NUMBER                 Running object number                                     
#   2 MAG_AUTO               Kron-like elliptical aperture magnitude                    [mag]
#   3 X_IMAGE                Object position along x                                    [pixel]
#   4 Y_IMAGE                Object position along y                                    [pixel]
#   5 X_WORLD                Barycenter position along world x axis                     [deg]
#   6 Y_WORLD                Barycenter position along world y axis                     [deg]
#   7 A_WORLD                Profile RMS along major axis (world units)                 [deg]
#   8 B_WORLD                Profile RMS along minor axis (world units)                 [deg]
#   9 THETA_WORLD            Position angle (CCW/world-x)                               [deg]
#  10 FWHM_WORLD             FWHM assuming a gaussian core                              [deg]
#  11 ELONGATION             A_IMAGE/B_IMAGE                                           
#  12 ELLIPTICITY            1 - B_IMAGE/A_IMAGE                                       
         1 -11.5983     18.7228     23.3245   1.1458778861e+02   6.7706614998e+01    0.3480837    0.1538139 -35.83  0.001934522    1.807    0.446
         2 -11.1106     69.3243     20.2017   9.3683419923e+01   6.1893257189e+01    0.3265464    0.1667473 -21.89  0.001697588    2.002    0.501
         3 -11.9135     57.8080     18.1363   9.6846484067e+01   6.3913213946e+01    0.3794017     0.187965 -25.72  0.001004451    1.939    0.484
         4 -11.5549     24.9483     12.4150   1.0753534991e+02   6.8679701085e+01     0.346734    0.2264457  37.99     0.002318    2.103    0.525
         5 -12.0847     24.5216      6.6754   1.0524454122e+02   6.9454954716e+01    0.3394028    0.1873086 -32.63 0.0009739763    1.602    0.376
         6 -11.0989     41.3930     14.4922   1.0155293455e+02   6.6576212929e+01    0.2977559    0.2180317 -27.16  0.001339512    1.333    0.250
         7 -11.5139     47.9727     10.2238   9.7161852345e+01   6.6231426162e+01    0.3819575     0.246012  25.01  0.002504495    1.385    0.278
         8 -10.8056     77.5287     12.9863   8.8153338916e+01   6.1316107835e+01    0.2841866      0.13622 -28.16  0.001471989    2.121    0.529
         9 -11.2059     74.5221     10.4797   8.8072776565e+01   6.2096882496e+01    0.2943857    0.1758711 -33.44  0.001083854    1.874    0.466
        10 -11.4177     13.1395     14.0401   1.1346332185e+02   6.9521025862e+01    0.2542947    0.1856453 -17.28  0.001310367    1.024    0.023
        11 -11.5397     16.5367      7.8205   1.0932972307e+02   7.0078006420e+01    0.3302095    0.1707685  13.75  0.001997093    1.956    0.489
        12 -11.7156    176.1375      7.6159   6.5836012770e+01   4.0103059106e+01    0.3002873    0.2393339 -29.06 0.0004921381    1.466    0.318
        13 -11.2692     85.2844     13.0157   8.5849304151e+01   5.9914856418e+01    0.3119457    0.2090835  77.36  0.001524082    2.992    0.666
        14 -11.1256     66.5729     11.4592   9.1042229047e+01   6.3324017277e+01    0.3746285    0.1738652  17.90  0.001586899    3.283    0.695
        15 -10.8045     32.7571     11.9895   1.0401727862e+02   6.7907894001e+01    0.2376155    0.1371678  26.88  0.001531435    1.683    0.406
        16 -10.9295    112.0208     14.8272   7.9539932840e+01   5.4392563510e+01    0.1970456    0.1774287  -0.34 0.0003459826    1.168    0.144
        17 -11.1226     87.2074      7.5666   8.3169527660e+01   6.0083921572e+01    0.3388079    0.1384964 -11.46  0.001393073    3.481    0.713
        18 -11.9132    107.6530      7.2850   7.7865943510e+01   5.6022935549e+01    0.2610953    0.2334463  31.24  0.000621882    1.077    0.071
        19 -10.4396     39.1665      7.8427   9.9576834855e+01   6.7651322412e+01    0.1984118    0.1291923  19.77 0.0008604287    1.358    0.263
        20 -11.6042    208.7854      4.9876   6.1366138621e+01   3.2465858492e+01    0.2552326    0.1846451 -62.88 0.0003781463    1.322    0.244
        21 -10.0260     61.4835      6.4916   9.0667771359e+01   6.4649198339e+01    0.1184137   0.09200514  12.43 0.0008103421    1.017    0.017
        22 -10.1515    133.8225      4.9929   7.1678861606e+01   5.0444001383e+01    0.2160274    0.1276456  25.84  0.001086293    2.017    0.504
        23 -11.4172    217.5051      3.4498   6.0157187653e+01   3.0565442938e+01    0.2339926     0.208152  54.15  0.001557605    1.368    0.269
        24 -10.7483     76.8844      4.1820   8.4779029894e+01   6.2286500747e+01    0.1898302    0.1464675  34.63  0.000469829    1.133    0.117
        25 -11.1951     73.4962      2.4850   8.5097631262e+01   6.3035272646e+01    0.2653869    0.2137551 -11.30  0.001851798    1.274    0.215
        26 -10.5290     68.9761      3.9688   8.7124455150e+01   6.3674444551e+01     0.187129    0.1120151  20.30 0.0004013244    1.581    0.367
        27 -10.6002     30.9734      3.2150   1.0089709882e+02   6.9161714194e+01    0.1921707    0.1271336 -17.37  0.001317158    1.244    0.196
        28  -9.8903      1.5200      4.5828   1.1504923368e+02   7.1696141854e+01    0.1035217   0.07123235 -19.26 0.0001776049    1.022    0.021
        29 -10.4706    195.0004      3.4921   6.2483222899e+01   3.5922307000e+01    0.1950825    0.1098631  73.01 0.0004320554    1.513    0.339
        30 -10.7600    179.9914      2.4501   6.3981936399e+01   3.9654798893e+01    0.2333731    0.1826363  17.71  0.001382481    1.701    0.412
        31 -11.2623    160.8325      1.8272   6.6356286919e+01   4.4342219002e+01    0.3291082    0.1913576  73.13  0.001223125    1.542    0.351
        32 -10.8464    118.2884      2.9719   7.4019900918e+01   5.4104150495e+01    0.2055639    0.1553356  54.47 0.0003209986    1.143    0.125
        33 -10.2559     91.1221      2.4826   8.0134525488e+01   5.9780968902e+01    0.1708139    0.1437639   9.84 0.0005299847    1.144    0.126
        34 -10.1016     38.3189      2.6117   9.7577139138e+01   6.8341082469e+01    0.1361593    0.1263959 -22.59 0.0005856186    1.679    0.405
        35  -9.8361     87.3116      2.3158   8.1077151184e+01   6.0528241236e+01    0.1285486   0.07484449  26.56 0.0007033119    1.638    0.390
        36 -10.4507    138.1585      1.4211   6.9780143025e+01   4.9740518883e+01    0.1882415     0.107105  62.53 0.0004610654    1.481    0.325
        37  -9.8665    154.2311     14.5775   7.1069187705e+01   4.4743275033e+01    0.1977695     0.102064  52.94  0.000770288    1.674    0.403
        38  -9.8322    206.0153    250.7840   1.1641671637e+02  -7.6266893586e+00     0.160818   0.08342895  39.51 0.0003281618    1.596    0.374
        39 -12.1853    180.7890    245.6127   1.2033905292e+02  -2.6514102152e+00     0.546887    0.3015082 -39.71  0.002825651    2.204    0.546
        40 -12.7719    185.7649    240.0871   1.1855319008e+02  -2.6681717555e+00    0.3801928    0.2795018 -11.63    0.0015549    1.772    0.436
        41 -11.1080    150.2332    249.1936   1.2661906367e+02   2.0453536193e+00    0.3333638    0.2143618 -38.52 0.0009921438    2.103    0.524
        42 -10.9004    136.3531    244.0424   1.2857131476e+02   5.2812660052e+00    0.2305503    0.2207111  62.83  0.001496226    1.200    0.167
        43 -12.0347    141.2566    247.5390   1.2809338065e+02   3.8515853680e+00    0.4140637    0.3196152  71.77  0.002441287    1.368    0.269
        44 -11.5565    141.7155    242.9138   1.2740296575e+02   4.5543849369e+00    0.2589169    0.2268394  34.07 0.0008479876    1.236    0.191
        45 -10.9030    114.9285    223.1293   1.3002906515e+02   1.2795061707e+01    0.2124683    0.1688808  50.83 0.0002689306    1.138    0.121
        46 -13.2197    105.7991    237.8523   1.3361463060e+02   1.1492937697e+01    0.9479896    0.6229169  36.15  0.005374901    1.668    0.400
        47 -13.4860    106.1271    224.0357   1.3189620843e+02   1.4090893718e+01    0.5405253    0.3182756  64.07  0.001389143    1.719    0.418
        48 -11.2403     89.3320    244.3054   1.3735969773e+02   1.2878744000e+01    0.2932419    0.2161604  35.16  0.001483277    1.655    0.396
        49 -12.6788    131.5030    236.2541   1.2849008821e+02   7.4841788293e+00    0.7183973    0.4350908  22.05  0.002899231    2.855    0.650
        50 -13.2086    114.5722    239.9510   1.3219919768e+02   9.6721935448e+00     0.908599    0.6625838 -75.14  0.005578575    1.499    0.333
        51 -11.5707    119.4307    234.1293   1.3055668176e+02   9.9331220397e+00    0.2961745    0.2340316 -86.63 0.0003801929    1.332    0.249
        52 -12.6600    124.1592    247.7529   1.3132561526e+02   6.6963477374e+00    0.6667506    0.2995594  33.49  0.001247128    2.810    0.644
        53 -12.3120    129.2897    245.4558   1.3008556687e+02   6.2357196231e+00    0.5379518    0.3735995 -74.07  0.003183726    1.720    0.419
        54 -11.3973    101.8834    234.1984   1.3393827480e+02   1.2811986034e+01    0.3793704    0.2699185  21.37 0.0003606206    2.267    0.559
        55 -11.9676    103.6793    229.9186   1.3309281344e+02   1.3342626791e+01    0.2795435    0.1937968  86.82 0.0006736136    1.518    0.341
        56 -11.5370     85.0704    243.1277   1.3801398335e+02   1.3740423544e+01    0.2537055    0.2194039 -87.84 0.0007461372    1.256    0.204
        57 -12.1452     83.7544    237.3351   1.3767522341e+02   1.5029569902e+01    0.8948605    0.2789917  51.51  0.003724869    2.818    0.645
        58 -11.6154    107.0753    250.5821   1.3479151625e+02   8.9830183549e+00    0.3827079    0.1215504  40.96 0.0007981197    2.820    0.645
        59 -11.9149    105.9355    247.2601   1.3464061931e+02   9.7533768962e+00    0.3794269    0.2264205  46.01 0.0004031282    1.421    0.296
        60 -11.4413    108.9971    244.6646   1.3378897351e+02   9.7278597307e+00    0.1878045    0.1363823  63.50 0.0007516293    1.168    0.144
        61 -12.7950     96.4650    239.5460   1.3555398122e+02   1.2662361473e+01    0.2831185    0.2484464 -80.78 0.0007260686    1.277    0.217
        62 -13.6048     93.1661    237.3164   1.3592863793e+02   1.3596604655e+01     0.433617    0.2959159 -85.05 0.0009475344    1.492    0.330
        63 -12.0455     95.6576    248.5800   1.3664874785e+02   1.1129997759e+01    0.3649248    0.2530195  70.03  0.001521762    1.268    0.211
        64  -9.9170     83.6374    250.7778   1.3900352060e+02   1.2552095594e+01      0.10363   0.08536793  36.83 0.0004899756    1.573    0.364
        65 -10.4386     52.7068    250.6377   1.4428445850e+02   1.6893129362e+01    0.1985083   0.08144789  59.61 0.0009038062    2.090    0.522
        66 -13.6517     31.8996    178.7046   1.4186095425e+02   3.4176941320e+01     1.294245    0.6890463 -74.62  0.003992748    1.556    0.357
        67 -13.7056      6.6976    179.8208   1.4705972652e+02   3.6350475565e+01     1.247703     0.829419  40.62  0.008564203    1.733    0.423
        68 -12.8899     71.8986    203.2658   1.3627484004e+02   2.3726154480e+01     1.038721    0.3836549  60.30  0.001352262    3.843    0.740
        69 -13.7404     42.3443    197.2917   1.4159317424e+02   2.8908416458e+01     1.271763     0.570935  57.41  0.006344389    2.182    0.542
        70 -13.9076     42.1512    208.9068   1.4272139234e+02   2.6452161961e+01     1.170077    0.5666782  59.70  0.006270912    1.911    0.477
        71 -13.8141     68.6395    190.7549   1.3545106326e+02   2.6938290910e+01     1.280501    0.6770196 -84.15  0.005981632    2.129    0.530
        72 -14.1105     75.2167    182.4740   1.3293886545e+02   2.7861814374e+01     1.871431     0.826767 -72.51  0.007770399    2.484    0.597
        73 -14.4982     22.8773    200.0304   1.4559310607e+02   3.0493525318e+01     1.075416       0.8395 -71.08  0.007696575    1.349    0.259
        74 -14.4026     43.4337    237.6483   1.4486525512e+02   2.0512245550e+01     1.620025    0.9978267 -47.87  0.009293394    2.821    0.645
        75 -13.5532     47.9541    229.8823   1.4346643281e+02   2.1454214876e+01    0.3049382    0.2065104  60.81   0.00098625    1.213    0.176
        76 -13.8164     39.9117    226.1652   1.4458822290e+02   2.3190296494e+01    0.8859003    0.6757127 -54.87  0.005794034    1.832    0.454
        77 -13.5464     28.3213    224.4203   1.4648037975e+02   2.4895744006e+01    0.6479727    0.3014857 -76.06   0.00323325    1.846    0.458
        78 -14.3413     21.7096    221.1273   1.4738706195e+02   2.6282386404e+01    0.8437377    0.4132752 -89.56  0.004954091    1.751    0.429
        79 -14.5867     12.0064    217.7417   1.4881941151e+02   2.7970552958e+01    0.8077168     0.521018 -68.89  0.005641337    1.561    0.359
        80 -14.0341      8.8622    206.9784   1.4865153680e+02   3.0452087671e+01    0.9075508    0.5185688 -53.26   0.00554592    2.353    0.575
        81 -14.0564      3.9092    201.0408   1.4912761116e+02   3.2131345027e+01    0.6383997    0.2919556 -81.40  0.003767883    1.707    0.414
        82 -13.9329     12.9727    238.4693   1.4992361011e+02   2.3857673933e+01    0.4169676    0.2624272  67.07  0.001991238    1.184    0.155
        83 -15.2677      7.2600    234.3273   1.5059173032e+02   2.5228503519e+01    0.7448149    0.6784398 -71.33  0.005344146    1.704    0.413
        84 -15.1697      3.6110    245.4641   1.5173991242e+02   2.3531839896e+01    0.7357926    0.3502262 -81.23  0.004919084    1.707    0.414
        85 -15.4618     19.0701    249.1391   1.4958081860e+02   2.1225915159e+01    0.9450888    0.5959244  29.73  0.006159581    2.591    0.614
        86 -15.3146     12.9303    246.9403   1.5040293108e+02   2.2294130829e+01     1.028342    0.7745561 -24.36  0.006136893    4.147    0.759
        87 -11.0836    172.4642    226.2128   1.1895476656e+02   1.9466570025e+00    0.3733545    0.2112731  48.93  0.001098488    1.633    0.388
        88 -10.0595    139.8076    227.0342   1.2559082447e+02   7.7096906381e+00    0.1731036    0.1523305  57.07 0.0003084953    1.034    0.033
        89  -9.9191    225.0278    224.9787   1.0860073435e+02  -7.1289711663e+00    0.1516003    0.1297154  12.74 0.0003980061    1.026    0.025
        90  -9.9695    250.1776    223.6254   1.0379885616e+02  -1.0969760140e+01    0.1735842   0.09874863  27.27 0.0005997876    1.656    0.396
        91 -10.8214    180.9445    222.0701   1.1659440581e+02   1.1030827554e+00    0.1986416    0.1743079  39.85 0.0003323433    1.029    0.028
        92 -10.0234    134.9928    214.6744   1.2475488920e+02   1.0927775610e+01    0.1887171    0.1605033  50.84 0.0008313821    1.067    0.063
        93 -12.4615    128.4944    209.1865   1.2527963164e+02   1.3197827932e+01    0.4080141    0.3460188 -63.48 0.0004032455    1.269    0.212
        94 -10.3940    139.7885    218.1845   1.2429681533e+02   9.3771522499e+00    0.2989431    0.1834279  72.60  0.001344666    2.293    0.564
        95 -10.3736    128.3006    217.9716   1.2661525691e+02   1.1482303162e+01    0.1779264    0.1598271  78.82  0.000175729    1.094    0.086
        96 -10.6063    124.6323    215.9498   1.2707692333e+02   1.2530704946e+01    0.3211066    0.1798697  42.43  0.001120107    1.635    0.388
        97 -10.2319    131.2068    221.0413   1.2646367397e+02   1.0370116575e+01    0.2423816    0.1648394 -75.93 0.0008208486    1.772    0.436
        98 -11.6551    134.9667    219.3830   1.2545933640e+02   1.0017785783e+01    0.7595946     0.346831  58.36  0.002153404    2.720    0.632
        99 -10.4181     53.5785    220.7768   1.4165757222e+02   2.2556518971e+01    0.2295333    0.1326011  75.58  0.001307721    1.603    0.376
       100  -9.6607    250.4739    220.4993   1.0317845879e+02  -1.0589989819e+01    0.1241039     0.103192   6.21 -3.154399e-05    1.022    0.022
       101 -11.8311    197.1965    219.3741   1.1292753547e+02  -1.4102921218e+00    0.4689509    0.2716632  36.45  0.001633555    1.565    0.361
       102 -12.5624     62.5460    219.7076   1.3987635077e+02   2.1576230145e+01    0.2181088    0.1700871  74.65 0.0004565679    1.014    0.013
       103 -11.4235     77.3868    216.6854   1.3669953784e+02   2.0087370745e+01    0.6046867    0.2070668  37.55  0.002442776    3.128    0.680
       104 -11.4730     70.7013    213.8297   1.3769920158e+02   2.1652475932e+01    0.3061677    0.1716276  42.98 0.0004106063    1.730    0.422
       105 -11.7802     68.9323    209.8127   1.3761194664e+02   2.2749111519e+01    0.4442524    0.2982149  46.27   0.00204838    1.454    0.312
       106 -11.8942     58.3118    216.1979   1.4033692812e+02   2.2872421531e+01    0.3713188    0.1369616  47.71  0.001739275    2.355    0.575
       107 -12.9023     60.8608    212.8338   1.3951332911e+02   2.3230301481e+01    0.6019581     0.391722  75.65  0.001763667    1.376    0.273
       108 -10.6133     47.7449    218.4144   1.4252480419e+02   2.3787774606e+01    0.3283482    0.2067218 -57.89  0.001979604    1.864    0.464
       109 -12.0623    193.0475    213.7262   1.1275242578e+02   2.9036517774e-01    0.6005052    0.2558635 -52.29            0    3.277    0.695
       110 -10.8170    229.1791    216.2072   1.0624892362e+02  -6.5306315723e+00    0.2544893    0.2134163  24.03 0.0007961821    1.079    0.073
       111 -10.8166    231.1263    212.1969   1.0514712132e+02  -6.2567252974e+00     0.309246    0.2444709 -48.49  0.001826479    1.603    0.376
       112 -10.5076    217.9849    217.0715   1.0850766927e+02  -4.7414778731e+00    0.2240641    0.1491345   5.50  0.001138963    1.861    0.463
       113 -11.9585    176.9377    216.1443   1.1639909502e+02   2.8691614326e+00    0.3196192    0.2083592  37.81 0.0004485274    1.395    0.283
       114 -12.6548     96.2129    212.5891   1.3244524022e+02   1.8030054531e+01    0.6280285     0.344935  64.25   0.00202766    1.951    0.487
       115 -12.6632    106.6942    216.4016   1.3080519342e+02   1.5525445268e+01    0.5497028    0.4790813  56.62 0.0003585274    1.131    0.116
       116 -11.1769    112.2005    214.0231   1.2936171672e+02   1.5079097242e+01    0.3119302    0.2025134  84.26  0.001098008    1.861    0.463
       117 -11.0869    145.9462    214.6329   1.2248638316e+02   8.9300459873e+00    0.3570099    0.1866454 -55.08 0.0007521069    2.167    0.538
       118 -11.4737    216.9199    212.8385   1.0793842936e+02  -3.8929024077e+00    0.2898321    0.2296241  24.96  0.000993859    1.142    0.124
       119 -11.7207    214.3487    208.6421   1.0765540713e+02  -2.7620413512e+00    0.3030752    0.2335999  71.61  0.000859439    2.000    0.500
       120 -10.3263    172.8955    211.6962   1.1645956857e+02   4.4245157975e+00    0.1857087    0.1567177  47.38 0.0003237727    1.091    0.083
       121  -9.2167    211.6879    227.7095   1.1158179361e+02  -5.2739528420e+00    0.1302383   0.09075938  11.84 0.0001826685    1.586    0.370
       122 -11.4693    237.8112    209.9176   1.0349110213e+02  -7.0394827768e+00    0.3343148    0.1981844 -34.36  0.001064408    1.700    0.412
       123 -11.7358    103.7315    208.2395   1.3032467056e+02   1.7705286285e+01    0.4131639    0.2843648 -65.98  0.001575962    1.485    0.327
       124 -12.0698     99.2288    205.3192   1.3086923317e+02   1.9067758359e+01    0.3915881    0.2183799  60.77 0.0002434567    1.842    0.457
       125 -10.4187    151.2201    209.9623   1.2064504471e+02   8.8462260234e+00    0.2012043    0.1707015  71.51 0.0002968797    1.222    0.181
       126 -10.3156     91.4199    208.4772   1.3290430415e+02   1.9658218564e+01    0.1863392    0.1749045 -80.49 0.0001239493    1.254    0.202
       127 -11.8168     89.3506    203.2458   1.3266211698e+02   2.1101139861e+01     0.442522    0.3464258 -72.53  0.001559417    1.248    0.199
       128 -11.2985    195.2011    205.9827   1.1092397696e+02   1.2199913269e+00    0.3089218    0.2050369 -27.39  0.001146619    1.763    0.433
       129 -11.6874    199.6324    204.8729   1.0983459273e+02   5.7842886804e-01    0.2630737    0.2352719  49.66 0.0004130187    1.187    0.157
       130 -11.3244    116.1337    205.0387   1.2726653935e+02   1.6253375752e+01    0.2666622    0.2059707  44.08  0.000604663    1.264    0.209
       131 -11.7449    112.0487    205.0300   1.2812975028e+02   1.6966384275e+01    0.2993753    0.2426111  78.06 0.0002962401    1.171    0.146
       132  -9.4384    226.6714    206.2885   1.0486906713e+02  -4.5759947473e+00     0.120988    0.1069927  75.03 0.0007014286    1.617    0.382
       133 -12.0472    188.5389    196.1949   1.1044440131e+02   4.2537831861e+00    0.5131526    0.2460165  40.64 0.0003570961    1.964    0.491
       134 -11.9917    188.8779    191.3118   1.0943758188e+02   5.0943042220e+00    0.5233594     0.332604  61.39   0.00232851    2.043    0.511
       135 -11.5036    190.0028    186.9236   1.0834598894e+02   5.6964444176e+00    0.3355092    0.2594435  24.71 0.0006688208    1.366    0.268
       136 -12.0609    183.1727    204.3740   1.1306328864e+02   3.7960543840e+00    0.3133019    0.2548254 -40.56 0.0003195424    1.340    0.253
       137 -11.2220    184.0432    200.2714   1.1213215893e+02   4.3781701964e+00    0.2648521    0.1995134 -34.11 0.0002543147    1.460    0.315
       138 -11.1409    144.8481    205.8871   1.2131538483e+02   1.0843313044e+01     0.215392    0.1975373 -58.47 0.0003050739    1.199    0.166
       139 -10.4637    145.8442    202.5804   1.2055737225e+02   1.1315925206e+01    0.2203558    0.1917947  88.18 0.0003773103    1.221    0.181
       140 -12.5521    241.5526    200.3846   1.0099140621e+02  -6.2222241632e+00     0.363324    0.3095572 -29.55  0.001237797    1.225    0.184
       141 -12.1447    247.0350    199.8024   9.9893457526e+01  -7.0527443396e+00    0.2891197    0.2804688 -77.44 0.0003376446    1.447    0.309
       142 -11.2747    248.7894    185.3875   9.6735368259e+01  -5.1123812390e+00    0.2948108    0.2417068  26.83 0.0008818817    1.205    0.170
       143 -11.7856    248.2323    181.9538   9.6140354322e+01  -4.4676053374e+00    0.4615903    0.2326713 -48.03  0.001442178    2.415    0.586
       144 -11.9370    250.5968    194.9587   9.8317480503e+01  -6.9076606167e+00    0.2445633    0.1607791 -33.55 0.0003357697    1.458    0.314
       145 -13.0069    246.1484    190.8264   9.8290508336e+01  -5.5183880501e+00    0.3754273    0.3091784  19.13 0.0005507016    1.150    0.131
       146 -11.8026    208.6229    198.8568   1.0691888533e+02  -7.4497741500e-02    0.3137078    0.2057759 -50.79 0.0009730274    1.825    0.452
       147 -11.5140    204.8977    197.8338   1.0745763380e+02   8.0577390477e-01    0.2783745    0.1885519  33.72 0.0008297739    1.414    0.293
       148 -11.6378    121.0112    200.3540   1.2551908422e+02   1.6372914396e+01    0.5540772    0.3888847  78.57  0.001944376    1.634    0.388
       149 -13.5239      3.8567    190.0948   1.4837893190e+02   3.4412292145e+01    0.9896976    0.2984681  35.43   0.00492137    3.396    0.706
       150 -11.0086    170.1746    197.9161   1.1458294699e+02   7.5290131061e+00    0.4851372    0.2660793 -53.21  0.002133176    2.095    0.523
       151 -11.9897    138.8073    197.9396   1.2128984852e+02   1.3595070655e+01    0.3983504    0.3439909  77.65   0.00216343    1.166    0.142
       152 -11.1873    139.9918    194.2677   1.2041017966e+02   1.4133063148e+01    0.2296346    0.1970423  43.94  0.000311608    1.134    0.118
       153 -12.0471    100.0734    198.8361   1.2979397132e+02   2.0320140293e+01    0.4456043     0.270794  52.50  0.001089641    1.524    0.344
       154 -11.6519    107.4484    195.3465   1.2769254890e+02   1.9832382873e+01    0.5282806    0.3424275  65.92  0.002616158    1.625    0.385
       155 -12.0778    113.4173    194.3548   1.2623849285e+02   1.9008801158e+01    0.4356397    0.3719636   8.47  0.001865253    1.655    0.396
       156 -12.0575    214.7980    195.5169   1.0506517552e+02  -6.5959466480e-01    0.4683281    0.2897425 -10.68  0.001914178    2.383    0.580
       157 -10.3295     86.7918    191.4434   1.3162834984e+02   2.4088186765e+01    0.1955204    0.1271397  43.63 0.0006442397    1.529    0.346
       158 -11.1629     89.9056    195.4763   1.3150927995e+02   2.2704918748e+01    0.3707324    0.1760183 -65.69  0.001657625    2.125    0.529
       159 -10.7666     93.8054    195.9287   1.3073248077e+02   2.1981177001e+01    0.2825038     0.267189  41.26  0.001660582    1.302    0.232
       160 -11.1220    233.8192    193.8100   1.0112154553e+02  -3.8448780983e+00    0.2221935     0.198367 -23.20 0.0003738879    1.139    0.122
       161 -11.2560    209.4138    192.0280   1.0543422053e+02   9.6184548041e-01    0.2617498    0.1745662 -51.90  0.001275626    1.796    0.443
       162 -11.5985    165.0771    192.2095   1.1461452912e+02   9.6527666070e+00    0.5577546     0.260637  31.04  0.001984827    2.924    0.658
       163 -11.9201    163.1088    188.8210   1.1440510361e+02   1.0724394693e+01     0.429212    0.2850211  42.88 0.0005743256    1.416    0.294
       164 -12.3351    154.6683    192.3243   1.1687672554e+02   1.1687237297e+01    0.2854438    0.2610283  54.76 0.0003176214    1.015    0.014
       165 -11.5835    149.3802    191.1504   1.1781457793e+02   1.2965718291e+01    0.2729506    0.2404939  82.74 0.0005341397    1.190    0.160
       166 -10.4515    123.8715    192.2551   1.2360725466e+02   1.7582262163e+01    0.2779482    0.1874696 -30.54  0.001255353    2.282    0.562
       167 -10.9168    120.5081    189.3638   1.2387682535e+02   1.8824500694e+01    0.3724611    0.1416425 -59.50   0.00134175    2.951    0.661
       168 -11.2817     82.1417    189.6201   1.3239083966e+02   2.5213276247e+01    0.3230965    0.2366427 -69.69  0.001087337    1.290    0.225
       169 -12.0007    106.4594    187.7697   1.2675035132e+02   2.1670444617e+01    0.4161073    0.2721205  59.02  0.001290791    1.513    0.339
       170 -11.3457    208.5502    202.5084   1.0762984625e+02  -6.8384338179e-01    0.2206728    0.1996621   8.93  0.000268039    1.045    0.043
       171 -10.4317    215.9756    189.3095   1.0361078819e+02   1.8712831844e-01    0.1968932    0.1740998  28.76 0.0003899672    1.080    0.074
       172 -11.2701     91.7630    188.2152   1.3008173638e+02   2.4021630727e+01    0.2492698    0.2019072  87.41 0.0003092251    1.138    0.121
       173 -10.5764     90.4526    184.4969   1.2982943753e+02   2.5069083221e+01    0.3853428    0.1740674  41.77  0.001663327    2.170    0.539
       174 -12.4102     92.7149    180.2779   1.2868458509e+02   2.5663270064e+01    0.4499759    0.2762435 -46.14  0.001659927    1.924    0.480
       175  -9.7486     58.5239    187.4958   1.3721087463e+02   2.9043863826e+01    0.1291728    0.1067987  88.00 0.0001153105    1.024    0.024
       176 -11.7545    199.2193    185.4804   1.0617089944e+02   4.1291709650e+00    0.2416775    0.2327281  -7.43 0.0003075024    1.057    0.054
       177 -10.3512    175.3766    184.7510   1.1099019374e+02   9.0672134584e+00    0.2547124    0.1854934 -35.70 0.0008687234    1.509    0.337
       178  -9.9214    150.8214    185.3215   1.1643387715e+02   1.3896150750e+01    0.2128234    0.1289473  35.73 0.0004192151    1.735    0.424
       179 -11.1095    140.2806    184.3789   1.1860157953e+02   1.6171543972e+01    0.2399086    0.2172993  22.51 0.0005759832    1.265    0.209
       180 -11.4844    118.1527    178.1403   1.2250792063e+02   2.1743493591e+01    0.3429561    0.2738376 -40.01  0.001126924    1.486    0.327
       181  -9.9715     51.8146    184.2404   1.3825821616e+02   3.0634713179e+01    0.1619521      0.12839 -63.18  0.000380136    1.322    0.244
       182 -12.0714    107.8972    180.4346   1.2524782275e+02   2.3065396350e+01    0.3628002     0.258969 -54.86 0.0002718286    1.437    0.304
       183 -11.6561    103.5163    182.4075   1.2656500248e+02   2.3378282872e+01    0.2809187    0.2387106  60.47 0.0004462755    1.108    0.098
       184 -12.0694    104.0723    178.2975   1.2577261944e+02   2.4214678522e+01    0.3167892    0.2652218 -79.81  0.000441208    1.139    0.122
       185 -10.1256    212.8769    182.6654   1.0287526352e+02   1.9543464419e+00    0.1985771    0.1269815  52.13 0.0005612894    1.725    0.420
       186 -11.6411     59.6395    181.4204   1.3623264374e+02   3.0267089742e+01    0.3935105    0.3606144  -5.92  0.002351833    1.605    0.377
       187 -10.6573     55.3514    180.7323   1.3708203144e+02   3.0979549542e+01    0.2288949    0.1542676  72.90 0.0004710199    1.427    0.299
       188 -10.2133    220.4352    181.2809   1.0112441158e+02   7.3908071916e-01    0.1898416    0.1317831 -47.88 0.0007981625    1.592    0.372
       189 -10.1916    156.3057    181.5798   1.1451641154e+02   1.3581837029e+01    0.2023865    0.1378214  35.93 0.0009374772    1.511    0.338
       190 -10.8082     47.7725    179.4100   1.3856582196e+02   3.2219664489e+01    0.3673435    0.1734871 -69.95  0.001815375    1.842    0.457
       191 -12.1350    122.6819    182.9406   1.2230711061e+02   1.9836893369e+01    0.4129706    0.2622221  62.37  0.001539291    1.729    0.422
       192  -9.6039    128.3174    180.3012   1.2056469563e+02   1.9363225232e+01    0.1392966    0.1184721  -4.73 0.0002102693    1.619    0.383
       193 -11.0677    177.9654    189.7486   1.1141092015e+02   7.5654472189e+00    0.2438094    0.2110165 -59.18 0.0003481531    1.283    0.221
       194 -10.3398     42.1515    179.1600   1.3974316824e+02   3.2939114192e+01    0.1886418    0.1558234 -57.41  0.001231033    1.399    0.285
       195 -10.4052    190.1692    180.2479   1.0697350351e+02   6.9382161477e+00    0.2570241    0.1917804 -75.64 0.0006844727    1.933    0.483
       196 -11.3425    177.3219    176.0578   1.0883637855e+02   1.0407609083e+01    0.3992744    0.1755978 -39.68  0.001476627    2.518    0.603
       197 -11.8209    136.3513    176.2448   1.1798955772e+02   1.8708489681e+01    0.2873403    0.2532006 -50.29 0.0002532553    1.205    0.170
       198 -10.8005     61.2131    166.9952   1.3397555240e+02   3.3376008417e+01     0.261345    0.2400489 -58.02  0.001674674    1.268    0.212
       199 -12.1991     41.6359    165.5712   1.3827269869e+02   3.6087397284e+01    0.5196507    0.3351983 -26.32  0.002561921    2.916    0.657
       200 -11.4236     50.9568    161.9064   1.3566190112e+02   3.5851007358e+01    0.4696244    0.3031638  35.72  0.001960376    1.778    0.438
       201 -10.6564     59.2330    171.3813   1.3502875719e+02   3.2619006291e+01    0.3426178    0.1931099 -88.46  0.001240138    1.983    0.496
       202 -11.4202     57.2985    176.7120   1.3615603851e+02   3.1644937321e+01     0.547528    0.2410356  61.00  0.002055712    2.878    0.653
       203 -11.6424     56.8476    168.1330   1.3513815543e+02   3.3677054936e+01     0.273069    0.2354854  -0.83 0.0002696615    1.714    0.416
       204 -11.8771     50.2047    170.3705   1.3693796011e+02   3.3986266627e+01    0.4429898    0.2620329  70.41  0.001135409    1.832    0.454
       205 -11.0012     52.6312    166.7617   1.3592222048e+02   3.4521979934e+01    0.2649878    0.1766126 -77.45 0.0003994892    1.316    0.240
       206 -11.4081    203.9451    174.7737   1.0302229404e+02   5.1782702530e+00    0.3119847    0.2764514 -20.30 0.0006925475    1.143    0.125
       207 -10.7890    129.3495    175.5423   1.1946517830e+02   2.0222396797e+01    0.2597703    0.1939958  67.09 0.0006041307    1.426    0.298
       208 -11.0080    194.9845    174.7596   1.0484679664e+02   7.0112389868e+00     0.301412    0.2055484 -41.26  0.001031916    1.504    0.335
       209 -10.9259    230.3423    180.7726   9.9144368562e+01  -1.0464556081e+00     0.360065    0.2177968 -59.11  0.001143988    2.679    0.627
       210 -10.2707    189.7656    174.4608   1.0586888201e+02   8.1457896460e+00    0.2707359    0.1407496  48.92 0.0006430682    1.938    0.484
       211 -11.1264     90.3193    173.7137   1.2821201584e+02   2.7557444725e+01     0.235266    0.1602687  48.60 0.0002942313    1.446    0.309
       212 -12.1759     87.7760    171.0493   1.2838246423e+02   2.8580120824e+01    0.4304233    0.2514554 -78.69  0.001941069    1.969    0.492
       213 -10.9369    237.0449    173.3340   9.6371028443e+01  -1.0255915639e+00    0.3015042    0.1265365  44.95 0.0009420624    2.463    0.594
       214 -11.5154    173.0928    172.1166   1.0894253858e+02   1.2091675765e+01    0.3349863    0.2335047  -0.74  0.001379573    2.363    0.577
       215 -11.3505    156.7506    172.5001   1.1263532076e+02   1.5411458890e+01    0.2842487     0.265698 -88.74 0.0008671351    1.099    0.090
       216 -11.1197    139.9898    171.5115   1.1625138601e+02   1.9032927954e+01    0.2743001    0.2178792  25.63  0.001353286    1.487    0.328
       217 -10.9113     24.1014    172.0404   1.4282495109e+02   3.6458212214e+01    0.2047816    0.1819732  13.94 0.0009916761    1.651    0.394
       218 -10.2485    232.5946    170.7731   9.6649383927e+01   2.5307315912e-01    0.1952944    0.1265253 -46.54 0.0006752203    1.643    0.391
       219 -10.9530     19.2799    169.6245   1.4360363084e+02   3.7455510782e+01    0.2305623    0.1794526  84.66  0.001596727    1.084    0.078
       220 -10.2232      3.5103    167.4839   1.4668083482e+02   3.9283655889e+01    0.2606907    0.1633476 -13.90  0.001431895    3.431    0.709
       221 -10.8372      7.5028    169.4192   1.4603159585e+02   3.8537045271e+01    0.2074052    0.1421097  85.89 0.0005948037    1.175    0.149
       222 -11.9499      8.3002    165.9491   1.4555969631e+02   3.9230970143e+01     0.316444    0.1940604 -42.01  0.001447562    2.280    0.561
       223 -11.3002    170.2997    168.6971   1.0884406052e+02   1.3386649170e+01    0.2749937    0.2349214  39.36 0.0004249123    1.152    0.132
       224 -10.4100    119.5919    168.7059   1.2047539250e+02   2.3615800336e+01    0.1978078     0.137597 -68.88 0.0006317262    1.529    0.346
       225  -9.5794    108.6521    169.2616   1.2316143018e+02   2.5484156545e+01    0.1494667    0.1049456  71.45 0.0006974509    1.605    0.377
       226  99.0000     80.1773    224.0738   1.3696389309e+02   1.8165373346e+01     2.296319     1.879925   6.61   0.01358511    2.198    0.545
       227 -11.1045    193.8439    167.9983   1.0365821165e+02   8.5641467799e+00    0.3101162    0.2086158  44.70 0.0006878049    1.459    0.315
       228 -11.2481    195.4736    164.2377   1.0251273661e+02   8.9607373550e+00    0.2583269    0.2405422  40.42 0.0002997052    1.062    0.058
       229 -10.5194    113.7383    168.1407   1.2175562695e+02   2.4826395106e+01    0.2432202      0.18423  56.24 0.0006684382    1.297    0.229
       230 -10.2927    217.1006    167.1204   9.8801434080e+01   3.9420941650e+00    0.2144053    0.1854728  -2.36 0.0003991334    1.197    0.165
       231 -11.3236    186.4171    165.4406   1.0466985182e+02   1.0639845803e+01    0.4395269    0.2128264 -42.79  0.001546849    2.111    0.526
       232 -10.0373     23.8696    167.4322   1.4240458728e+02   3.7511265283e+01    0.1513567    0.1136946  43.78  0.000679028    1.518    0.341
       233 -10.7992    204.1413    164.9799   1.0090240396e+02   6.9984967783e+00    0.3051733    0.2090028 -61.79  0.001365081    1.918    0.479
       234 -10.7977    124.1864    164.2191   1.1853636133e+02   2.3771121855e+01     0.422335    0.2038251 -54.98  0.001366225    2.098    0.523
       235 -10.4165    139.4419    165.2326   1.1513839133e+02   2.0537718117e+01    0.2069606    0.1439172 -65.80 0.0009363483    1.603    0.376
       236 -13.3548     53.1889    193.1686   1.3897377270e+02   2.8473596907e+01    0.9454735    0.4194863  63.07  0.003910496    2.623    0.619
       237 -10.5208    239.3182    164.2991   9.4059069053e+01   1.0097207993e-01    0.1414085    0.1042677   3.14 0.0001842031    1.617    0.381
       238  -9.6000    119.7157    164.7457   1.1970242811e+02   2.4499475607e+01    0.1340352    0.1184753  -6.36            0    1.474    0.322
       239 -11.3703    100.9507    163.4874   1.2397403837e+02   2.8170271771e+01    0.2525019    0.1881398 -75.82 0.0005134426    1.357    0.263
       240 -11.3476     99.0000    160.0613   1.2383242510e+02   2.9305376534e+01    0.3083347    0.1810866 -55.95  0.000985336    1.633    0.388
       241 -10.6089    178.8965    162.6832   1.0568899356e+02   1.2806362425e+01    0.2558906    0.2092675 -30.64 0.0005762498    1.316    0.240
       242 -11.3624    225.0098    161.6299   9.6110726321e+01   3.3594070444e+00    0.3224375    0.2493367  62.92  0.001645029    1.592    0.372
       243 -10.1304     25.2115    161.8965   1.4152186057e+02   3.8628978548e+01    0.1864703    0.1332512  79.57  0.000700645    1.274    0.215
       244  -9.9115      4.1828    162.1701   1.4608077869e+02   4.0390708581e+01    0.1568606    0.1023498  83.64 0.0003670583    1.297    0.229
       245 -10.7941    160.3037    161.0088   1.0945427198e+02   1.7136094339e+01    0.2120253    0.2046534 -62.80 0.0004907425    1.054    0.052
       246 -10.5022    196.6966    159.9147   1.0131821389e+02   9.5538501780e+00     0.208842    0.1941453 -42.32 0.0006289001    1.090    0.083
       247 -11.6738    192.3411    159.4289   1.0211604461e+02   1.0582127845e+01    0.3868037    0.3027019 -78.64  0.001728516    1.703    0.413
       248 -11.0430    181.7066    158.9873   1.0427719244e+02   1.2963100489e+01    0.2129604    0.1902941 -42.73 0.0003636022    1.137    0.121
       249 -11.2596    107.3526    158.0671   1.2142251318e+02   2.8316277171e+01    0.2954288    0.2291875 -67.07 0.0003819233    1.257    0.204
       250 -10.5761    106.6989    154.7020   1.2094028164e+02   2.9220730290e+01    0.2450715    0.1813572  30.48 0.0006839443    1.585    0.369
       251 -11.9231     34.6543    158.4678   1.3899491990e+02   3.8469649320e+01    0.2685212    0.2044182  58.13 0.0004082577    1.359    0.264
       252 -10.6810     37.7761    154.6585   1.3779175917e+02   3.9019634549e+01    0.2706629    0.1669693 -85.18  0.001403768    1.523    0.343
       253 -13.2514    136.7443    156.4023   1.1396637849e+02   2.3070406681e+01    0.4282946    0.3787007  53.34  0.001215323    1.110    0.099
       254  -9.9961     66.4926    158.0852   1.3141694046e+02   3.4753971954e+01    0.2013502     0.119444 -65.15 0.0006540006    1.504    0.335
       255 -10.6218     12.3338    156.3532   1.4378002664e+02   4.1021890896e+01    0.2533453    0.1530358 -50.44  0.001526613    1.807    0.447
       256 -10.6847      7.5176    156.5083   1.4484668874e+02   4.1375978342e+01    0.1949303    0.1183447 -51.00  0.001195766    1.792    0.442
       257 -10.5569    132.7987    162.4151   1.1613567738e+02   2.2500901751e+01    0.2852723     0.139016  47.92 0.0008265089    2.036    0.509
       258 -10.4791    156.5247    156.0417   1.0924895901e+02   1.9020459806e+01      0.22318    0.2041676  50.85 1.288956e-05    1.072    0.067
       259 -11.5679    146.4569    155.0393   1.1137543616e+02   2.1372262421e+01    0.3336073    0.3051601 -64.88 0.0006413805    1.098    0.089
       260 -10.1722    123.0208    155.2163   1.1703258378e+02   2.6064314681e+01    0.2027054     0.186368  69.56            0    1.056    0.053
       261 -11.3778    114.1330    154.5700   1.1907997664e+02   2.7898203636e+01    0.3781274    0.2738858  82.62  0.001048075    1.692    0.409
       262 -11.0558     18.2154    154.1184   1.4223551043e+02   4.1023922886e+01    0.2636436    0.2173066 -19.19  0.001202244    1.787    0.440
       263 -12.1519    154.4157    152.6911   1.0900453584e+02   2.0206539764e+01    0.5516822    0.3201163  41.33  0.002288947    1.744    0.427
       264 -11.9404     18.7806    160.6603   1.4280698271e+02   3.9503149217e+01    0.3592046     0.249302 -56.95  0.001294188    1.457    0.314
       265 -12.0836    247.9944    150.6344   8.9617618396e+01   8.2138936885e-01    0.4219856    0.2939419 -60.58  0.002073188    1.886    0.470
       266 -11.0566    236.9805    154.2459   9.2315597387e+01   2.3148155734e+00    0.1928783    0.1811939  -4.36 0.0002934397    1.043    0.041
       267 -11.8361    178.1885    149.9288   1.0302097617e+02   1.5613001427e+01    0.2813922     0.260869 -43.06 0.0002952755    1.090    0.082
       268 -11.7005    103.3776    149.5768   1.2077006673e+02   3.1013242802e+01    0.4060529    0.2981815  32.28  0.002006241    1.559    0.358
       269 -10.6407    226.0706    151.8968   9.3783933961e+01   4.9245331506e+00    0.2096672    0.1946503 -65.43 0.0004082898    1.207    0.171
       270 -10.1913    203.0040    148.2357   9.7421839703e+01   1.0499207782e+01    0.1974082    0.1261679  47.03 0.0004977773    1.583    0.368
       271 -11.2470    165.6451    148.0858   1.0539650131e+02   1.8771201294e+01    0.3041838    0.2233074  39.55  0.001091348    1.394    0.283
       272 -10.2070     82.3354    153.9580   1.2685273561e+02   3.3439389051e+01    0.2053393    0.1628809 -62.10 0.0008430009    1.173    0.148
       273 -10.4477     91.4717    148.0220   1.2347937788e+02   3.3400029588e+01    0.2165663    0.1328932 -58.09 0.0004002521    1.525    0.344
       274 -10.7979     36.5432    146.5216   1.3700876617e+02   4.1028408591e+01    0.2904134    0.1969459 -85.90  0.001241139    1.368    0.269
       275  -9.9371     31.7248    148.3914   1.3841776241e+02   4.1079926339e+01    0.1395756    0.1233483   5.78 0.0005471697    1.563    0.360
       276 -10.1508    195.7998    146.8517   9.8574855281e+01   1.2352278175e+01    0.2317197    0.2035051   3.09 0.0007795126    1.278    0.217
       277  -9.7816    148.4897    147.4542   1.0923350886e+02   2.2634418185e+01     0.152916    0.1507249  18.33  0.000807421    1.084    0.078
       278  -9.3132     43.6653    147.2953   1.3537661282e+02   4.0092654906e+01    0.1312834   0.08730045  74.49 0.0007028219    1.645    0.392
       279  -9.6724    189.4858    146.4608   9.9802580676e+01   1.3827883373e+01     0.151499    0.1496893 -89.22 1.013655e-05    1.030    0.029
       280 -13.8541     29.8850    212.2415   1.4527990116e+02   2.7185308932e+01     1.162248    0.5313109  75.17   0.00594802    2.252    0.556
       281 -10.2237    166.2272    152.0332   1.0615331123e+02   1.7794104972e+01    0.2086375    0.1963623 -62.08  0.001092543    1.078    0.072
       282 -10.4062    161.4729    144.9624   1.0563702093e+02   2.0365729960e+01    0.3418338    0.1972289  64.08  0.001259817    2.390    0.582
       283 -10.2558    139.9644    145.4534   1.1082833361e+02   2.4886101084e+01    0.2252213     0.150564  45.62 4.207686e-05    1.491    0.329
       284 -12.5657    131.2693    140.1329   1.1176819453e+02   2.7895252009e+01    0.5510169    0.4492281 -83.48  0.001646937    1.388    0.279
       285 -11.5927     22.4559    144.4952   1.4013919944e+02   4.2833033993e+01    0.2356491    0.1809568  56.77  0.001009769    1.416    0.294
       286 -11.9669     21.6207    141.1938   1.3993086055e+02   4.3656882595e+01    0.3305787       0.2225 -60.01  0.001462624    1.292    0.226
       287 -11.6718    219.6674    143.1351   9.3017235532e+01   7.8930097805e+00    0.2969238    0.2397799  58.59  0.001523621    1.362    0.266
       288 -11.0413    177.5521    143.5556   1.0169878716e+02   1.7091383170e+01    0.2484705    0.2382813 -32.23 5.395528e-05    1.067    0.062
       289 -10.0486    177.4839    140.5174   1.0100511271e+02   1.7745005118e+01    0.1545054    0.1520269  88.52 4.912556e-05    1.014    0.014
       290 -10.6664     85.4712    144.0402   1.2425979611e+02   3.5303056097e+01    0.2520925    0.1834331  60.88 0.0005790946    1.491    0.329
       291 -11.3772     52.7318    144.0040   1.3262675870e+02   3.9824003158e+01    0.2318609    0.1903705  66.63 0.0003626259    1.265    0.210
       292 -11.7306     49.3594    140.4562   1.3292523136e+02   4.1050271594e+01    0.3218307    0.2157887  55.34  0.001445285    1.647    0.393
       293 -10.4143    231.1518    143.1360   9.0907806727e+01   5.4893073892e+00    0.1956523    0.1644979 -57.79 0.0002947762    1.296    0.228
       294 -11.4053    225.4854    142.9978   9.1905200646e+01   6.6908591954e+00    0.2551941    0.2139607  45.70 0.0003187034    1.249    0.199
       295 -10.7362      4.8743    142.9688   1.4407827341e+02   4.4576640202e+01    0.1916281    0.1570838  55.85  0.001108267    1.394    0.282
       296 -10.6632    168.5407    141.9938   1.0334061926e+02   1.9439038932e+01    0.2352212    0.1536368 -45.02 0.0003874129    1.540    0.350
       297 -11.1143    240.9322    141.1851   8.8757746450e+01   3.8575768715e+00    0.2510487    0.1762891  59.43  0.001245971    1.692    0.409
       298 -10.6917     58.5629    140.9948   1.3065477906e+02   3.9818758018e+01    0.2284433    0.1568371  63.01 0.0006651033    1.638    0.390
       299 -10.2619     41.5188    139.4964   1.3477069891e+02   4.2139965035e+01    0.1929601    0.1094246 -77.74 -4.637084e-06    1.704    0.413
       300 -11.7783     37.3777    137.3594   1.3550313318e+02   4.3064778879e+01    0.3275643    0.2432374  -4.58 0.0007060431    2.016    0.504
       301  -9.9619    207.5212    138.5118   9.4289097281e+01   1.1415488043e+01    0.1503008    0.1455443 -55.65 0.0001954275    1.045    0.043
       302 -11.0390    181.0212    137.1724   9.9445124799e+01   1.7644613480e+01    0.4375148    0.2571951  57.75  0.001104144    1.911    0.477
       303 -10.9277    168.9038    137.9781   1.0231623725e+02   2.0217476373e+01    0.2756568    0.2247023  45.59 0.0007426662    1.226    0.185
       304 -10.8414    156.7698    136.3566   1.0472367141e+02   2.3284809698e+01    0.3197972    0.2492169 -88.24 0.0006907146    1.621    0.383
       305 -11.6049      7.4478    135.0900   1.4261199239e+02   4.6145361144e+01    0.3828648    0.2627831 -27.97  0.002081868    2.029    0.507
       306  -9.8049    195.5086    135.4684   9.5985895470e+01   1.4706150889e+01    0.1548815    0.1471546 -76.85 5.030762e-05    1.094    0.086
       307 -10.4472    149.1061    135.1218   1.0624815626e+02   2.5245886069e+01    0.2223945    0.2105214  -6.51            0    1.169    0.145
       308 -11.1651     77.5145    134.9328   1.2459545664e+02   3.8668264718e+01    0.2642656     0.214303  62.33 0.0009491178    1.324    0.245
       309 -10.4551    213.5656    133.3679   9.1923860178e+01   1.1076962463e+01    0.2680421    0.1404875 -43.55  0.001084368    1.848    0.459
       310 -12.0434    143.5780    132.7494   1.0702183865e+02   2.6975376609e+01     0.454449    0.2963115  35.23 0.0002679559    1.709    0.415
       311 -10.4814    147.4312    130.0606   1.0544035232e+02   2.6733565814e+01    0.2614518    0.2119821  35.56 0.0005792144    1.313    0.238
       312 -10.9826     59.2925    133.3776   1.2915343231e+02   4.1519053391e+01    0.2242043    0.1892179 -43.84 0.0005809399    1.258    0.205
       313 -10.6515     40.1368    132.8164   1.3410357828e+02   4.3835593026e+01    0.1985935    0.1548174 -88.83 0.0006858583    1.248    0.198
       314 -10.7137    248.6569    129.8511   8.4962246722e+01   4.3199757721e+00    0.3324274    0.2433646 -81.73  0.001617349    1.994    0.499
       315 -10.6131    101.9759    131.3092   1.1732931992e+02   3.5551495767e+01    0.2009075    0.1926495  67.00 0.0004895711    1.077    0.071
       316 -11.0466     22.0050    130.7443   1.3846845093e+02   4.6000503495e+01    0.1844149    0.1423866  87.84 0.0005486736    1.246    0.197
       317 -10.2525    184.6662    130.0262   9.6949851981e+01   1.8289918700e+01    0.2136822    0.1951487 -44.23 0.0004087138    1.088    0.081
       318  -9.8762    162.4371    130.4390   1.0198439442e+02   2.3298372940e+01    0.1548406    0.1528571 -89.82 9.080584e-05    1.010    0.010
       319 -10.4818    128.4011    130.1373   1.1018245087e+02   3.0762787298e+01    0.2140322    0.1885459 -62.34 0.0005475859    1.126    0.112
       320 -10.7671    122.0646    130.1088   1.1179717211e+02   3.2048700661e+01    0.2337659    0.2029823 -18.40 0.0005936295    1.360    0.265
       321 -10.0374     86.3053    129.9590   1.2123518804e+02   3.8496116530e+01    0.2009784    0.1710356 -60.58 0.0004001964    1.081    0.075
       322 -11.0163     34.4743    129.4711   1.3506385570e+02   4.5172590616e+01    0.3134964     0.168883 -32.39   0.00145725    2.788    0.641
       323 -11.5548     61.3817    128.6959   1.2774072396e+02   4.2352851994e+01    0.2580262    0.2047182 -50.70 0.0006683195    1.195    0.163
       324 -10.4016     50.9494    128.5121   1.3052654957e+02   4.3658835373e+01     0.175047    0.1339099  28.13  0.001020233    1.572    0.364
       325 -11.4289    125.5025    124.2845   1.0952400220e+02   3.2681936995e+01    0.3796545    0.2729497  70.81 0.0004189424    1.768    0.434
       326 -12.1737    206.7455    124.6722   9.1174344626e+01   1.4288935429e+01    0.3312493     0.274887 -28.35 0.0003122785    1.256    0.204
       327 -11.6136     69.0872    123.4857   1.2461359637e+02   4.2552698002e+01    0.3123446    0.2775713  81.01  0.001061294    1.195    0.163
       328  -9.6917     48.9600    124.7970   1.3041057332e+02   4.4747637320e+01    0.1472142    0.1065969  30.23 0.0002973015    1.638    0.389
       329 -12.1481     14.0598    122.5707   1.3939238411e+02   4.8466835135e+01    0.2349386    0.2112651  51.99 0.0006836154    1.348    0.258
       330 -12.0381     19.9503    117.9799   1.3717600544e+02   4.9050616364e+01    0.3411996    0.2296204 -28.55  0.001479008    1.875    0.467
       331 -10.3447    238.5313    122.4856   8.4965889530e+01   7.7040449591e+00    0.1438131    0.1331852 -36.27 7.285148e-05    1.032    0.031
       332  -9.6889    120.2657    122.3275   1.1041139229e+02   3.4179448271e+01    0.1501025    0.1199602 -17.76 0.0002546488    1.571    0.364
       333 -12.3892     83.6192    120.2043   1.1987034032e+02   4.1191871874e+01    0.4020612    0.3066204  83.61  0.002014326    1.634    0.388
       334 -11.4274     58.4664    119.4650   1.2677609869e+02   4.4865913044e+01    0.2736626    0.2111408 -46.27  0.001268815    1.235    0.190
       335 -11.4969     60.7725    116.2377   1.2547496027e+02   4.5322851124e+01    0.3325948    0.2284248 -24.92  0.001697471    1.901    0.474
       336 -10.8282     31.8729    120.0880   1.3427291404e+02   4.7565132879e+01    0.1883973    0.1470159 -83.14 0.0004255097    1.236    0.191
       337 -10.0050    226.9865    119.4750   8.6231867661e+01   1.0735930083e+01    0.2132434    0.1462525  50.97 0.0008803871    1.540    0.351
       338  -9.7367    127.4782    119.4613   1.0782770757e+02   3.3359402751e+01    0.1522288     0.149263 -60.32  0.000200563    1.017    0.016
       339 -10.5916    106.4961    118.8581   1.1324736758e+02   3.7609491360e+01    0.4008556    0.2580727  17.69  0.001642482    2.384    0.581
       340 -11.1345     92.4941    118.2883   1.1696274170e+02   4.0201824639e+01    0.2648316    0.2457068 -48.28 0.0005963924    1.046    0.044
       341 -10.9047      3.0270    118.0643   1.4165695324e+02   5.0210128799e+01    0.2242256    0.1544522  45.26  0.001079196    1.760    0.432
       342 -11.1490    140.3307    116.3414   1.0377271280e+02   3.1306145752e+01    0.2707955    0.2538644  87.53 0.0004089298    1.104    0.094
       343 -10.9059     49.7642    117.3092   1.2881054640e+02   4.6385447739e+01    0.3651927    0.1644149  40.56  0.001484551    2.509    0.601
       344 -10.3275    155.3257    115.8844   1.0001029438e+02   2.8038417525e+01    0.2869363    0.2088765  58.49 0.0007427805    1.450    0.310
       345 -10.4486    147.2272    116.1275   1.0201752335e+02   2.9822995787e+01    0.2274834     0.214519   1.70 0.0006016318    1.162    0.139
       346 -11.4449     87.9079    114.4593   1.1735565807e+02   4.1831959089e+01    0.3336834    0.2068863 -56.50 0.0006217244    1.537    0.349
       347  -9.4369    108.3130    114.2715   1.1163131154e+02   3.8309580746e+01    0.1448793    0.1178338  -8.04  0.000227804    1.553    0.356
       348 -12.2694     20.5810    110.3989   1.3582172360e+02   5.0696589109e+01    0.5227661    0.2847659 -23.89  0.002632886    2.764    0.638
       349 -11.7365     77.3437    109.1181   1.1913320157e+02   4.4680645225e+01    0.3627568    0.2140713  57.76  0.001589469    2.360    0.576
       350 -10.9425     27.4177    118.6383   1.3525393592e+02   4.8289562206e+01    0.2058557     0.150455  34.60 0.0007197995    1.646    0.393
       351  -9.8858     48.7693    111.8423   1.2803535020e+02   4.7745025742e+01    0.1671921    0.1428153  86.91 0.0007528617    1.286    0.223
       352 -10.3620    104.8918    110.8086   1.1170704498e+02   3.9720584084e+01    0.2300866    0.1975939 -22.93 0.0007591824    1.280    0.218
       353  -9.8506     34.6787    111.6643   1.3204899855e+02   4.9216409098e+01    0.1322445   0.08037989 -39.89 0.0007050161    1.708    0.414
       354  -9.3368    137.2833    110.6794   1.0307280577e+02   3.3198127979e+01    0.1556986    0.1229761 -83.08 0.0002805136    1.590    0.371
       355 -10.8794     70.2102    109.8152   1.2137011755e+02   4.5544157316e+01    0.3267306    0.1892326  40.28  0.001409526    1.908    0.476
       356 -10.0037    181.5398    108.9422   9.2353342177e+01   2.3302994239e+01    0.2264167    0.1419525 -15.37  0.000808932    2.673    0.626
       357 -10.7126    126.0550    114.1224   1.0685008090e+02   3.4838497315e+01    0.2242454    0.2188137 -83.79  0.000273071    1.028    0.027
       358 -10.5098      3.5736    109.5282   1.4038041695e+02   5.2045955102e+01    0.1791717    0.1171875  17.50 0.0006632943    2.029    0.507
       359 -12.2341    152.0102    105.9617   9.8204028141e+01   3.0883636938e+01    0.3845128    0.3034071 -73.36 0.0007458674    1.516    0.340
       360  -9.8193     36.6724    108.2788   1.3085442095e+02   4.9790852780e+01    0.1200649   0.09118849  77.33 0.0002691262    1.596    0.373
       361 -11.5507    210.0533    106.9319   8.6247005435e+01   1.6918486795e+01    0.2324847    0.2200362 -63.14  0.001260095    1.016    0.016
       362 -12.9787    165.8884    104.9076   9.4707337406e+01   2.7847251574e+01    0.4716671    0.4103324 -24.91 0.0007996748    1.252    0.201
       363 -11.0672    171.8937    105.7316   9.3591941712e+01   2.6250827066e+01    0.3904572    0.2800393 -58.33 0.0009425518    1.535    0.348
       364 -10.3925    118.9974    107.5578   1.0702006640e+02   3.7718926386e+01    0.2205302    0.1493208  42.96  0.001001097    1.518    0.341
       365  -9.8308    111.4299    107.4820   1.0905415531e+02   3.9226129058e+01    0.1490243    0.1416682 -63.56 4.657827e-05    1.057    0.054
       366 -12.5436     45.1402    101.4863   1.2699462458e+02   5.0461917253e+01    0.4062243    0.2665287  32.11  0.001303018    1.772    0.436
       367 -10.5837     43.3385    107.0930   1.2867747837e+02   4.9397466103e+01    0.2015347    0.1719938  -7.03 0.0007963206    1.400    0.286
       368 -10.2619     91.7479    105.3126   1.1403573505e+02   4.3257365892e+01    0.3233403    0.2006999  82.07 0.0008655767    3.782    0.736
       369 -10.7994    138.2988    103.6921   1.0096025320e+02   3.4458775887e+01    0.2309235    0.2125334 -71.77 0.0003558462    1.141    0.124
       370 -11.3082    135.7675    100.7309   1.0079823232e+02   3.5635412483e+01    0.3570442    0.2783066  50.11 0.0009704457    1.298    0.230
       371 -10.7980     82.5279    103.8733   1.1635682643e+02   4.5068256511e+01    0.2227887    0.1979155  33.86  1.82473e-06    1.223    0.182
       372 -12.1514    233.6718    102.3202   8.1107788165e+01   1.2363857550e+01    0.2776568    0.2600094 -29.52 0.0003627854    1.131    0.116
       373 -11.8315     75.8755    101.8578   1.1782739122e+02   4.6520109025e+01    0.3351416    0.2999759  39.58  0.001256644    1.233    0.189
       374 -10.2994    180.4573    102.5261   9.0920754244e+01   2.4829019296e+01    0.1557894    0.1502369 -79.77 9.827315e-07    1.019    0.018
       375 -10.7894    120.2949    102.2829   1.0526970708e+02   3.8593104562e+01    0.3296001    0.1802167  33.10  0.001290104    2.199    0.545
       376 -10.3191     67.5904    101.2450   1.2016020351e+02   4.7823303823e+01    0.2526624    0.1221474 -56.49  0.001106079    1.924    0.480
       377 -10.6629      1.8953    101.9815   1.3977097220e+02   5.3778497981e+01    0.1707642    0.1200923  75.11  0.001119308    1.682    0.406
       378 -10.5361     26.4765    108.5051   1.3383539093e+02   5.0647058241e+01    0.1802964   0.09047733 -55.70 0.0001099943    1.567    0.362
       379 -11.4365    148.5745     98.3450   9.6971805814e+01   3.3235729575e+01    0.5209088    0.2351779 -49.44  0.001084535    2.412    0.585
       380 -11.4725     85.3800     99.3450   1.1437413057e+02   4.5613924060e+01    0.3511131    0.2310195 -35.12 0.0009720832    1.582    0.368
       381 -12.3287     31.7530     97.6561   1.3026654495e+02   5.2595252552e+01    0.3925377    0.2869241  57.74  0.002385616    1.766    0.434
       382 -10.5633     16.2182     98.8654   1.3514896602e+02   5.3554034080e+01     0.169086    0.1325819 -70.65 0.0003478488    1.145    0.126
       383 -10.9536      9.1430     98.8172   1.3721348395e+02   5.4032450105e+01    0.2202311    0.1592763 -73.67  0.001477455    1.220    0.180
       384 -11.0897    173.2554     96.8267   9.0941577387e+01   2.7679215127e+01    0.2594725    0.2382227  54.74 0.0003111502    1.085    0.078
       385 -11.0790     57.4216     95.7896   1.2196604155e+02   5.0327091787e+01    0.4191705    0.2656897 -22.09  0.002008892    2.065    0.516
       386  -9.8456    118.5128     96.4898   1.0416938232e+02   4.0178289897e+01    0.1496415    0.1441005 -17.31 -2.811568e-06    1.039    0.038
       387 -10.0404     23.0075     95.9881   1.3259872736e+02   5.3679753280e+01    0.1430843    0.1166968 -55.52 0.0003409345    1.027    0.026
       388  -9.7366      1.4781     95.0515   1.3884692442e+02   5.5285112816e+01    0.1736846   0.05199251 -50.43 0.0008083924    2.455    0.593
       389 -10.3212    183.4858     94.0553   8.8076465855e+01   2.5721821776e+01    0.2424323    0.1515721 -40.21  0.001035081    1.598    0.374
       390 -10.9008    107.9445     98.8729   1.0773935793e+02   4.1756964295e+01     0.665797    0.2590563  51.80  0.002170347    3.409    0.707
       391 -10.3411     18.0423     92.9088   1.3353336086e+02   5.4712371565e+01    0.2352175    0.1280165 -60.71  0.001344185    1.435    0.303
       392 -10.4122    240.9970     92.9898   7.7823004389e+01   1.2370780275e+01    0.2116078    0.1918838 -60.89  0.001221332    1.014    0.014
       393 -10.3529    225.4868     92.9815   8.0211457122e+01   1.5865418539e+01    0.2173301     0.138487 -39.06 0.0003985538    1.503    0.335
       394 -11.0843    107.5813     92.6460   1.0612858025e+02   4.3136312093e+01    0.3083324    0.2210822  11.93  0.001410505    1.876    0.467
       395 -11.3319     53.1142     92.9070   1.2262269367e+02   5.1463503752e+01    0.2439763    0.1888524  16.43 0.0006274196    1.504    0.335
       396 -10.7693    143.6620     91.9993   9.6406416856e+01   3.5633829960e+01    0.3869585    0.1497208  49.13  0.001311856    2.572    0.611
       397 -11.1830    135.9131     91.0466   9.8068768459e+01   3.7573057379e+01    0.4389167    0.2245701 -47.22  0.001718705    2.019    0.505
       398 -11.1001     25.0200     92.0535   1.3122088316e+02   5.4372392959e+01    0.2074107     0.173582  -9.47 0.0007753798    1.394    0.283
       399 -10.7767    202.5033     90.9343   8.3628144124e+01   2.1670379736e+01    0.2210748    0.1475333 -38.30 0.0003119954    1.493    0.330
       400 -11.2588     84.9399     83.3776   1.1017833660e+02   4.9049719722e+01    0.2734477    0.2624264 -69.77 0.0007177835    1.186    0.157
       401 -11.4473     77.9911     87.9799   1.1359988246e+02   4.9193010863e+01    0.5059493    0.2408027 -31.58  0.001922125    2.861    0.650
       402 -11.5029     80.8945     84.8077   1.1182772403e+02   4.9402902931e+01    0.2551193    0.2236919 -23.22 0.0002648011    1.096    0.087
       403 -10.6310    114.5502     89.7567   1.0336360694e+02   4.2363949103e+01    0.2806912     0.193246 -33.03  0.001311108    1.513    0.339
       404 -10.4072    111.1925     88.8621   1.0404230999e+02   4.3212041975e+01    0.2141967    0.1946755 -67.69 0.0003192969    1.218    0.179
       405 -11.1048     64.2260     87.4934   1.1777497428e+02   5.1245657269e+01    0.3945216    0.3262441  73.56  0.002135811    1.627    0.385
       406 -11.7151     69.9709     85.3073   1.1537881666e+02   5.0921024203e+01    0.2889259    0.2251032  31.92 0.0002811561    1.404    0.288
       407 -10.7772     65.9298     81.9848   1.1576234544e+02   5.2163790942e+01    0.2357033    0.1671426 -55.70  0.001260005    1.412    0.292
       408 -10.4843      6.4657     89.4277   1.3643989693e+02   5.6199414570e+01    0.1663598   0.09669755  37.36 0.0005788878    2.195    0.544
       409 -10.7932    180.9019     86.9663   8.6713603515e+01   2.7673879730e+01    0.2315215    0.2181422 -87.07 0.0004257296    1.047    0.045
       410 -11.9470    128.8029     86.0863   9.8476221372e+01   4.0114947045e+01      0.52702    0.3085624  65.91  0.001809679    2.539    0.606
       411 -10.1364     10.9583     86.6639   1.3456098570e+02   5.6512587848e+01    0.1583201    0.1304711 -52.09 0.0006386195    1.078    0.072
       412 -10.4786    190.5260     86.0009   8.4576041658e+01   2.5484204188e+01    0.2179155    0.2020934  74.28  0.001156061    1.056    0.053
       413 -10.0787    198.6493     84.8098   8.2759773924e+01   2.3706322387e+01    0.2116785    0.1326123 -48.08 0.0003150136    1.591    0.371
       414 -10.2408    154.5686     85.5226   9.1988286464e+01   3.4336886964e+01    0.1509482    0.1495216  42.31 7.248334e-05    1.025    0.024
       415 -11.1454     27.4178     85.0655   1.2901570011e+02   5.5668120610e+01    0.1977171    0.1749116  -0.87 0.0001625133    1.310    0.237
       416 -12.3741    119.6962     83.4234   1.0012074595e+02   4.2571266982e+01     0.372274    0.2859202  41.28  0.001127517    1.310    0.237
       417  -9.7185    105.4851     84.5424   1.0441308318e+02   4.5185131955e+01    0.1435544    0.1377497 -19.94 0.0001364083    1.014    0.014
       418  -9.9110     98.5270     84.4960   1.0641920957e+02   4.6487655167e+01    0.1450186    0.1321357 -15.82 0.0008088988    1.077    0.071
       419 -11.7588    132.6434     82.4774   9.6434250428e+01   3.9967696274e+01    0.2691949    0.2601513  -3.71   0.00029567    1.041    0.039
       420 -10.8319    128.6198     80.0032   9.6742524966e+01   4.1322169027e+01    0.2609975    0.2049172  16.89 0.0007099039    1.503    0.335
       421 -11.3502     53.5359     82.6446   1.1994795837e+02   5.3590179292e+01    0.2167451    0.1846272 -28.46 0.0006177989    1.103    0.093
       422 -10.6054     18.1951     81.7742   1.3129954545e+02   5.7058014315e+01    0.2606387    0.1097617  39.42  0.001275181    3.131    0.681
       423 -11.2098     13.2338     81.3361   1.3281474116e+02   5.7482910131e+01    0.3470746     0.133527 -59.19  0.001467081    1.938    0.484
       424 -10.3063     94.0808     80.5937   1.0659943823e+02   4.8059695599e+01    0.2305931    0.1748931 -39.51  0.001213287    1.251    0.201
       425 -11.2927     45.2749     81.0946   1.2225867051e+02   5.4831336174e+01    0.2224239    0.1784521  35.60  0.001401635    1.477    0.323
       426 -10.1811    150.0799     79.4334   9.1289670047e+01   3.6532267255e+01     0.317495    0.1973104   5.36 0.0008562524    3.539    0.717
       427 -10.2736    154.6262     78.8449   9.0075223090e+01   3.5557783765e+01    0.2128262    0.1390945 -48.98 0.0005617393    1.623    0.384
       428 -10.7751     86.6534     78.2814   1.0817314957e+02   4.9786553891e+01    0.3039323    0.2255157  70.88  0.001486221    2.091    0.522
       429  -9.7887     36.8945     79.2444   1.2457566656e+02   5.6050768746e+01    0.1601709    0.1354384 -43.91  0.000378794    1.037    0.036
       430 -11.2408     51.6358     76.8264   1.1904127698e+02   5.5003863832e+01    0.3238394    0.3142736  76.14  0.001531534    1.288    0.224
       431 -11.1405      4.1804     77.6317   1.3501870554e+02   5.8781604204e+01    0.2687925    0.1790234 -18.24  0.001020141    1.724    0.420
       432 -11.5430      1.8594     72.9415   1.3487460268e+02   5.9856355288e+01    0.3769227   0.09774249 -56.21   0.00160308    2.400    0.583
       433 -10.0875    107.5291     77.5549   1.0175770461e+02   4.6154364424e+01    0.1421998    0.1368047  -9.97 8.992822e-05    1.023    0.023
       434 -11.1183     62.9078     76.6714   1.1526990893e+02   5.3644101939e+01    0.3403854    0.2065561  23.77  0.001748255    1.894    0.472
       435 -11.8647     58.0445     74.1425   1.1616573514e+02   5.4772598354e+01     0.293138    0.2517906  -3.72 0.0003856683    1.189    0.159
       436  -9.7401     28.2880     77.6256   1.2706084670e+02   5.7145541863e+01    0.1149107   0.08941399 -89.25  0.000701953    1.721    0.419
       437  -9.8996    167.6494     76.7036   8.6623956015e+01   3.2781157503e+01    0.1569354    0.1183743  23.79 0.0007034036    1.684    0.406
       438 -10.9698    113.9851     74.2998   9.8953661916e+01   4.5479288230e+01    0.2078689    0.1844427  36.43 0.0004682671    1.123    0.109
       439 -10.5558     68.9961     73.8453   1.1246688534e+02   5.3372968408e+01    0.1824083    0.1756334 -82.47 0.0004723731    1.286    0.222
       440 -10.1377     29.4009     74.2508   1.2588334469e+02   5.7741185371e+01    0.1636275    0.1020263 -62.43 0.0009378175    1.556    0.357
       441 -10.1659     17.9481     72.6228   1.2939929564e+02   5.8953061231e+01    0.1563417    0.1275058 -37.21 0.0004579355    1.109    0.098
       442 -10.9992     35.9581     71.3858   1.2291900358e+02   5.7733691075e+01    0.3142407    0.2303745 -60.44  0.001424494    1.385    0.278
       443 -10.1374    166.5945     71.1775   8.5287872307e+01   3.3999428847e+01    0.2191685    0.1475631 -20.07  0.000949558    1.882    0.469
       444 -10.6878    205.1628     69.4799   7.7709586226e+01   2.4728944123e+01    0.2433186    0.1971855 -43.79 0.0002866235    1.229    0.186
       445 -10.6865    173.0119     70.3054   8.3738554917e+01   3.2562868898e+01    0.2117709    0.1856202  61.79 0.0002767314    1.100    0.091
       446 -10.1570    152.9869     69.9695   8.7872966185e+01   3.7516282373e+01    0.1750723    0.1740789 -48.71 0.0004027595    1.039    0.038
       447 -11.5220     53.1145     68.9892   1.1636156941e+02   5.6385349987e+01    0.4398887    0.2070543 -50.44  0.001615804    1.925    0.481
       448 -10.9392     57.3954     68.0954   1.1464171599e+02   5.6035247548e+01    0.2221462    0.2083636 -49.10 0.0003643796    1.231    0.188
       449 -11.6979    132.7423     68.1202   9.2110803318e+01   4.2554447600e+01    0.3135951    0.2557524  15.36 0.0004346038    1.387    0.279
       450 -11.5264     88.3074     68.7558   1.0476750898e+02   5.1325139007e+01    0.3903404    0.2259219  23.20  0.001318103    2.194    0.544
       451 -11.2686     80.6875     65.6757   1.0619576393e+02   5.3155128357e+01    0.3925422    0.1919003  32.20  0.001732292    2.256    0.557
       452 -10.1190     81.6857     68.3275   1.0670910330e+02   5.2505427590e+01    0.2138565    0.1658823 -39.00 0.0005437788    1.219    0.180
       453 -10.2043     15.0804     65.3127   1.2869580082e+02   6.0604408295e+01    0.1748698    0.1163868 -23.69 0.0008910492    1.510    0.338
       454 -10.9415     27.8186     64.0376   1.2384865654e+02   5.9899758901e+01    0.2583662    0.1471734  43.78  0.001377912    2.514    0.602
       455 -10.0637    120.4903     62.9550   9.3655891591e+01   4.6126386391e+01     0.212504    0.1405241 -35.91 0.0008856154    1.535    0.349
       456 -10.0585     88.5364     62.8553   1.0282232705e+02   5.2351894649e+01    0.2085262    0.1267783 -37.32  0.001022984    1.576    0.366
       457 -10.2829    137.9305     62.7710   8.9201502378e+01   4.2274406623e+01    0.1961091    0.1169709  50.24 0.0006174893    1.605    0.377
       458 -10.9642     77.7540     61.0885   1.0567463981e+02   5.4449097921e+01    0.3449026    0.2260231  -3.29  0.001683777    2.004    0.501
       459 -10.0441     71.1619     61.3815   1.0793509998e+02   5.5404751636e+01    0.1739167    0.1211819  44.15  0.000945336    1.676    0.403
       460 -10.9300     58.7532     59.9028   1.1167958459e+02   5.7394974460e+01    0.3543472    0.2047654  -8.80   0.00137005    2.608    0.617
       461 -10.1798     31.5816     61.1990   1.2172754232e+02   6.0120471102e+01     0.175264   0.08642138 -42.57 0.0007354843    1.640    0.390
       462 -11.1677      6.0195     60.2117   1.3072210119e+02   6.2150195096e+01    0.2578157    0.1689023 -46.86 0.0009483924    1.135    0.119
       463  -9.6242    159.9980     60.7123   8.3651697958e+01   3.7345603292e+01    0.1803657    0.1273483  56.65 0.0003766727    1.349    0.259
       464 -11.0888     95.8850     59.1779   9.9380727273e+01   5.1675133421e+01    0.2266116    0.1889373 -14.13 0.0003392108    1.167    0.143
       465 -11.6697     93.5189     54.5620   9.8560578769e+01   5.2877469885e+01    0.3039107    0.2746694  27.26  0.001062632    1.117    0.105
       466  -9.7862     39.9409     61.0000   1.1866095716e+02   5.9362300649e+01    0.1774656   0.06825101  27.63 0.0008009871    2.932    0.659
       467 -10.5128     16.0264     59.9770   1.2704596604e+02   6.1576547967e+01    0.1772996     0.135281 -44.43 0.0006342208    1.039    0.037
       468  -9.7960    173.6262     58.2324   8.0240658070e+01   3.4366451612e+01    0.1875131    0.1438885 -21.54 0.0004311924    1.523    0.344
       469 -10.8690     44.8910     56.8232   1.1562730693e+02   5.9614798270e+01     0.321413    0.1530292 -43.93  0.001141741    1.776    0.437
       470 -10.1744     37.5896     57.7611   1.1856047351e+02   6.0202730760e+01    0.1652025    0.1045431 -55.59 0.0009474708    1.630    0.387
       471 -10.8297    106.5329     57.2047   9.5625227515e+01   4.9962821332e+01    0.3902769    0.1853777  50.21  0.001633391    2.207    0.547
       472 -10.8271     52.7713     56.4276   1.1267946704e+02   5.8774733412e+01    0.3013607    0.1916274 -58.14  0.001086373    2.005    0.501
       473 -10.9712     27.9260     54.5249   1.2117552797e+02   6.1690565757e+01    0.2511996    0.1807437 -33.24    0.0016759    1.124    0.110
       474 -10.7154     76.2700     53.7431   1.0373344881e+02   5.5952743786e+01    0.1992756    0.1896489 -11.01 0.0002919214    1.180    0.152
       475 -10.8677      2.5006     53.5008   1.3041554172e+02   6.3617031541e+01    0.1848154     0.164491  65.23  0.001443332    1.627    0.386
       476 -11.2361      5.2361     51.9867   1.2901655322e+02   6.3753611189e+01    0.2088453    0.1155023 -47.00 0.0007548461    1.321    0.243
       477 -10.3724     20.7085     44.7046   1.2101413294e+02   6.4048244194e+01    0.1674269    0.1169284 -40.32 0.0002676796    1.140    0.123
       478 -11.7887     14.8442     48.6187   1.2444855874e+02   6.3778227744e+01    0.3280526    0.2984939  36.06  0.002472758    1.525    0.344
       479 -11.1050     17.0183     46.2395   1.2291893918e+02   6.4053298180e+01     0.225306     0.132404  16.25  0.001428668    1.917    0.478
       480 -11.7833     10.7148     49.5834   1.2630412313e+02   6.3873854239e+01    0.3657874    0.1749506 -61.76  0.001994793    2.164    0.538
       481 -11.1983      7.4689     48.4317   1.2724139173e+02   6.4282219766e+01    0.1898484    0.1439532 -25.65 0.0005313364    1.181    0.154
       482 -11.7389     40.5635     50.8411   1.1533909578e+02   6.1152955064e+01    0.3405473    0.2890702 -73.71  0.001299443    1.768    0.434
       483 -12.3497     61.9472     44.4249   1.0539462615e+02   5.9614619122e+01    0.4069855    0.2114364 -39.70 0.0004276244    1.799    0.444
       484 -11.1957     61.1619     52.1847   1.0833558335e+02   5.8438196724e+01      0.29731    0.1725613  31.16  0.001593949    1.803    0.446
       485 -10.3591     62.9730     48.7535   1.0654044983e+02   5.8766271102e+01    0.1770321    0.1498532  39.63 0.0002370046    1.432    0.301
       486 -10.2611     33.1680     51.8947   1.1843108160e+02   6.1700236573e+01    0.1677791    0.1550995 -51.19  0.001217006    1.355    0.262
       487 -10.5318    148.4608     51.4387   8.3333987914e+01   4.1568615254e+01    0.1441772    0.1347147  50.19 4.906957e-05    1.008    0.008
       488  -9.9201    124.5096     51.4865   8.8940834467e+01   4.7087955368e+01    0.1396801    0.1335291  34.73  0.000809958    1.050    0.047
       489 -10.3198    105.9678     50.5387   9.3567736042e+01   5.1134582210e+01    0.2126262    0.1728086 -23.82 0.0002848257    1.227    0.185
       490 -10.6116    176.1756     49.0882   7.7215063649e+01   3.5100882646e+01    0.3344602    0.2140898 -17.76  0.001251598    2.065    0.516
       491 -10.4029    100.8618     48.9007   9.4468613037e+01   5.2391219696e+01    0.2061112     0.168866   5.71 0.0004835786    1.221    0.181
       492  -9.8793    196.5766     48.5487   7.3691218551e+01   3.0085499013e+01    0.1440958    0.1281642 -84.07 6.087664e-05    1.053    0.050
       493  -9.9971    122.5092     46.0465   8.7667304300e+01   4.8330911319e+01    0.1931605    0.1374023 -28.10 0.0004180013    1.474    0.321
       494 -10.0310    130.1800     44.8045   8.5390161277e+01   4.6796813143e+01    0.1887667    0.1556807  19.36 0.0004815267    1.276    0.216
       495 -10.4168     34.9975     44.9623   1.1554193202e+02   6.2742503615e+01    0.1695349    0.1362411 -25.25            0    1.028    0.027
       496 -11.4501     25.8139     44.3583   1.1890660028e+02   6.3692074697e+01    0.2305856    0.1418939 -30.68  0.000673595    1.356    0.263
       497 -10.1175    180.2861     44.3995   7.5207882202e+01   3.4739258205e+01    0.1984481    0.1304944  74.49  0.000617913    1.551    0.355
       498 -10.0184     74.1995     48.3821   1.0258367558e+02   5.7160442236e+01    0.1767671    0.1188982  45.66 0.0009584668    1.722    0.419
       499  -9.7042    103.4716     43.4951   9.1867476605e+01   5.2682133429e+01    0.1368817    0.1208681  14.76 -1.532079e-05    1.037    0.035
       500  -9.7442     87.3046     43.6676   9.6710148793e+01   5.5699527525e+01    0.1213951    0.1067039 -71.96 0.0002450672    1.660    0.398
       501  -9.7040     49.3246     41.2974   1.0886359363e+02   6.1770197833e+01    0.1252358   0.08081633 -10.55 0.0007024155    1.627    0.385
       502 -10.5885     37.3624     40.8751   1.1325983735e+02   6.3190523327e+01    0.2256628    0.1375594  -2.06  0.001295291    1.861    0.463
       503 -11.5571    175.3110     39.1653   7.4598004180e+01   3.6692733551e+01    0.2455057    0.2174641  77.46 0.0002798779    1.049    0.047
       504 -11.3476    147.9236     38.2954   7.9425180548e+01   4.3531305429e+01    0.2541398    0.2134849 -51.09 0.0002653136    1.318    0.241
       505 -10.2483     97.7958     40.3664   9.2395134320e+01   5.4237516806e+01    0.2349477    0.1705302  34.98 0.0002467287    1.290    0.225
       506 -10.8287    101.7560     39.1625   9.0840535754e+01   5.3633065613e+01    0.2206736    0.1770671  40.16 0.0005318986    1.185    0.156
       507 -11.2433     23.3439     38.4757   1.1798736325e+02   6.4905576789e+01    0.2733272    0.2115288  24.51  0.001963562    1.546    0.353
       508  -9.3938     12.9561     40.3577   1.2277069507e+02   6.5373611560e+01    0.1746528   0.07265407  -9.98 0.0007043837    4.459    0.776
       509 -11.9489      3.3756     36.4886   1.2551256030e+02   6.6638536819e+01    0.3234581    0.1735293 -47.39  0.001176134    1.399    0.285
       510 -11.0664    129.4536     36.5475   8.2873551002e+01   4.8076526112e+01    0.2347964    0.2279495  75.39 0.0002464708    1.139    0.122
       511 -10.0085    110.9518     37.2262   8.7662214326e+01   5.2025663024e+01    0.1782465    0.1049291  50.60 0.0005174213    1.617    0.381
       512 -11.5033     41.1023     36.1876   1.1016288958e+02   6.3543277607e+01    0.2131514    0.1686653 -44.34 -0.0006383859    1.458    0.314
       513 -11.4284     41.1830     30.5226   1.0804387363e+02   6.4402287978e+01    0.4844261     0.270048 -53.29  0.002481884    2.779    0.640
       514 -10.3036     71.7133     36.3373   9.9094810815e+01   5.9387966715e+01    0.2186288    0.1417069   0.17 0.0005398447    1.763    0.433
       515 -10.5168     70.7178     33.3127   9.8301686950e+01   5.9973602365e+01    0.1999761    0.1584801 -24.69 0.0001846335    1.219    0.180
       516 -11.8093     60.7101     34.5035   1.0222686298e+02   6.1306268293e+01    0.2598312    0.1875695 -33.36 0.0005109215    1.349    0.259
       517 -11.3990     77.3097     33.1770   9.6066730514e+01   5.8920955732e+01    0.3203847    0.2269133  45.75  0.001727187    1.551    0.355
       518  -9.6055     35.7130     34.7082   1.1174135759e+02   6.4357669826e+01    0.1176291   0.07321744 -16.47 0.0002498216    1.541    0.351
       519 -11.4246    141.7728     33.1301   7.9082685797e+01   4.5652593478e+01    0.3549283    0.2015246  39.66  0.001617426    1.817    0.450
       520 -11.5469    135.0197     32.4843   8.0308670180e+01   4.7312049454e+01    0.2246385    0.2109573 -18.67 2.962311e-05    1.154    0.134
       521 -10.1571    117.8246     33.3092   8.4565262321e+01   5.1069457174e+01    0.1735001    0.1654297 -23.17 0.0004544422    1.163    0.140
       522  -9.9136     92.4881     33.4772   9.1476184516e+01   5.6185065039e+01    0.1300689     0.114764  14.24 0.0001261144    1.026    0.025
       523 -10.2960    222.9732     31.5003   6.5955377400e+01   2.5983504688e+01    0.1959026    0.1637089 -57.72 0.0003188491    1.152    0.132
       524 -10.2804    182.7069     31.9614   7.1433924438e+01   3.5779784456e+01    0.1839088    0.1744391 -56.42 0.0004454149    1.143    0.125
       525 -10.8169    106.1952     32.1533   8.7150759619e+01   5.3665311972e+01    0.2124801    0.1631721  21.53 0.0006275573    1.270    0.213
       526 -10.3698    171.3378     30.9927   7.2971959931e+01   3.8724603191e+01    0.1801769    0.1753384 -70.18 0.0002733326    1.115    0.103
       527 -10.2505     24.4199     31.0491   1.1500167713e+02   6.6023121043e+01     0.160307    0.1239073  -5.52 5.222525e-05    1.175    0.149
       528 -11.0090     55.6788     34.3053   1.0397107196e+02   6.2033008417e+01    0.2454527    0.1750577 -19.95  0.000656516    1.230    0.187
       529 -10.3585    123.1910     28.8938   8.1782727163e+01   5.0430671853e+01    0.1899351    0.1770099  66.51 0.0004912496    1.176    0.149
       530 -10.7078     70.4865     28.5182   9.6555291398e+01   6.0661425644e+01    0.2816896    0.1606526 -13.76  0.001444841    1.987    0.497
       531 -11.1716     76.0119     27.3094   9.4264189631e+01   5.9914285708e+01    0.2480389    0.1746862  -2.03 0.0004753634    1.411    0.291
       532 -10.5698     31.9949     27.5056   1.1058423489e+02   6.5847080417e+01    0.2012635    0.1434187 -47.75 0.0008907429    1.705    0.413
       533 -11.6046    187.2389     27.0136   6.9445436731e+01   3.5261979023e+01    0.2722866    0.1795584  68.39 0.0005117628    1.359    0.264
       534 -10.0444    169.8136    249.3380   1.2295218382e+02  -1.3356111125e+00    0.1861413   0.09829966  36.31 0.0009412228    1.687    0.407
       535 -10.7592     66.0145     24.0332   9.6329319920e+01   6.1945495991e+01     0.193309    0.1523247   4.66  0.000638913    1.076    0.070
       536 -10.3869     60.8588     24.1043   9.8161715117e+01   6.2716497240e+01    0.1709387    0.1535191  -8.31 0.0005359739    1.249    0.200
       537  -9.6835      1.3158     24.7203   1.2269625654e+02   6.8715548617e+01   0.08367502   0.08078001 -48.75 0.0002917128    1.573    0.364
       538 -11.3562    109.8331     22.8574   8.2916120974e+01   5.4012974790e+01     0.237281    0.1814494  28.01 0.0003366902    1.222    0.181
       539 -10.3216     90.5289     22.8737   8.8117542345e+01   5.7865022806e+01     0.185618    0.1189875 -22.16  0.001030157    1.591    0.372
       540 -10.4039      5.0556     23.3474   1.2057811636e+02   6.8707912419e+01    0.1411113    0.1063703 -16.43 0.0004516169    1.146    0.127
       541 -11.6781    151.0480     20.0862   7.3267703853e+01   4.4939659573e+01     0.206899    0.1854631  56.12 0.0002940934    1.027    0.027
       542 -10.1504     73.9875     20.6383   9.2321730526e+01   6.1073820376e+01     0.170575    0.1362345  21.02 0.0004763349    1.083    0.077
       543  -9.8745    196.3258    246.6759   1.1757814313e+02  -5.4497482387e+00    0.1192528   0.09334771  64.49 0.0002326071    1.690    0.408
       544 -12.2015    191.2369    235.4644   1.1677690341e+02  -2.9091727294e+00    0.3053332    0.2075407  34.76 0.0005985754    1.276    0.216
       545 -11.1302     38.7156     21.0299   1.0532474632e+02   6.6042494977e+01      0.23525    0.1488522  23.63 0.0008689375    1.536    0.349
       546 -11.4646     34.0364     17.8376   1.0593511459e+02   6.7003855976e+01    0.2482175    0.1840117 -31.09 0.0009614808    1.342    0.255
       547 -10.8316     28.5369     20.2017   1.0918797410e+02   6.7258365982e+01    0.1576813    0.1184967 -20.04 0.0005588012    1.077    0.071
       548 -11.0689     25.8702     16.9710   1.0902310382e+02   6.7974109592e+01    0.1818134    0.1330194 -13.57  0.000253881    1.034    0.033
       549 -13.9328     75.9099    240.7510   1.3943608571e+02   1.5537187612e+01    0.4804476    0.2610328  71.65  0.001618145    1.854    0.460
       550 -10.3773    174.4348    244.2526   1.2134283360e+02  -1.3459482753e+00    0.1549149    0.1245058 -66.34 0.0009484961    1.634    0.388
       551 -10.5325    158.0907     17.3506   7.1244872875e+01   4.3526181314e+01    0.1984121    0.1801038   9.62 0.0002772886    1.272    0.214
       552  -9.8622    140.0008     17.9697   7.4653279854e+01   4.7787292514e+01    0.1543462    0.1433826  43.94 0.0003689502    1.068    0.064
       553 -10.2712    145.9662     16.7431   7.3160493203e+01   4.6503588162e+01    0.1886666    0.1523075  57.70 0.0003380645    1.080    0.074
       554 -11.4141    131.4853     16.6761   7.5916001085e+01   4.9894458183e+01    0.3267908     0.176329  46.09 0.0008415376    1.643    0.391
       555 -12.2674    203.3023    241.5309   1.1546246163e+02  -5.8825034071e+00    0.2542487    0.2470208 -15.33 0.0006324518    1.263    0.209
       556 -10.0708    199.6846    243.3019   1.1642254036e+02  -5.5290324382e+00    0.1770792    0.1134345  50.42 0.0004729068    1.622    0.384
       557 -10.5716    161.1165    241.6391   1.2350932452e+02   1.3925015628e+00    0.2044037    0.1737352 -77.14  0.001295411    1.443    0.307
       558 -11.8246    146.9697    241.2484   1.2617297792e+02   3.9282607675e+00    0.2938816    0.2166977 -42.44  0.001336583    1.702    0.412
       559 -10.8823    160.9465    249.7975   1.2468478223e+02   1.1322834482e-01    0.2604504    0.2199611  37.91  0.001106727    1.097    0.088
       560 -10.0488    233.8532    239.1515   1.0944098743e+02  -1.0517832500e+01    0.1619781    0.1187621  10.94            0    1.250    0.200
       561 -10.5801    179.0352     13.3088   6.6962989827e+01   3.8823086088e+01    0.2099511    0.1607146 -85.76 0.0005695074    1.287    0.223
       562 -10.2458     65.9759    239.0429   1.4105436810e+02   1.7272517057e+01    0.2077652    0.1429196  46.67 0.0008737802    1.420    0.296
       563 -11.0994     68.4537    235.1130   1.4025302473e+02   1.7682160464e+01    0.2528198     0.154107  57.13  0.000740805    1.348    0.258
       564 -10.0571     70.0671     13.0477   9.0544030715e+01   6.2582425713e+01    0.1970297    0.1593724  69.67 0.0006806689    2.052    0.513
       565 -10.4618    168.2742    238.6134   1.2168899285e+02   6.2886401749e-01     0.211938    0.1595502 -66.49  0.001022451    1.739    0.425
       566 -10.9625    142.2314    237.4951   1.2657581133e+02   5.4017117058e+00    0.3286277    0.1073411  44.34 0.0008650227    2.552    0.608
       567 -10.4584    126.1751    234.9113   1.2934860176e+02   8.6428568811e+00     0.210129     0.143188 -72.60 0.0008474751    1.707    0.414
       568 -10.8932    173.0277     13.9648   6.7981892708e+01   4.0228805197e+01    0.1993194    0.1728945  72.13            0    1.009    0.009
       569 -10.8891    249.4778    233.2135   1.0563013926e+02  -1.2130917069e+01    0.2189654    0.1792303  12.60 0.0004156905    1.054    0.051
       570 -11.3430    219.3430    232.8682   1.1102962087e+02  -7.3210861953e+00    0.2382179    0.1958006  15.85 0.0003859313    1.066    0.062
       571 -12.0593    176.5577    233.1277   1.1924440453e+02   5.4376037139e-02    0.3549762    0.2094311  32.86 0.0009236409    1.636    0.389
       572 -11.2911    161.1230    232.2326   1.2212896422e+02   2.9665017481e+00    0.2359917    0.2113603  83.97 0.0006668997    1.267    0.211
       573 -10.6195    183.1531    232.6084   1.1787957652e+02  -1.0355679895e+00    0.2420115    0.1698095  20.85 0.0006612767    1.584    0.369
       574 -10.2256    156.2996    233.0096   1.2319234750e+02   3.6958726582e+00    0.1717555    0.1596474  56.76  0.001110736    1.101    0.092
       575 -12.4977    142.4565    231.8943   1.2575547663e+02   6.3549176114e+00    0.3789815    0.2228699  44.22  0.001972597    1.456    0.313
       576 -11.1588    112.8391    231.8883   1.3155556286e+02   1.1458743483e+01    0.3291764    0.2445598  16.29  0.001067335    2.207    0.547
       577  -9.8194    115.2610    227.3528   1.3051104399e+02   1.1918675732e+01    0.1750969    0.1058612  52.34 0.0003789897    1.428    0.300
       578 -10.3002    243.9937    231.0263   1.0621687178e+02  -1.1012471405e+01    0.1565201     0.150166  59.82 0.0003333998    1.567    0.362
       579 -10.6545    125.2339    221.1825   1.2769306985e+02   1.1396557861e+01    0.3174219    0.2007913 -82.60  0.001554057    2.086    0.521
       580 -10.3222    117.2399    218.6632   1.2896598893e+02   1.3280968575e+01    0.2188974    0.1697041 -84.77 0.0004134334    1.347    0.258
       581  -9.9456    125.4973    228.9589   1.2869994852e+02   9.8637086678e+00    0.2847339    0.1949615 -26.60  0.001162158    2.680    0.627
       582 -10.3164    128.7292    228.3156   1.2797380698e+02   9.4238233675e+00    0.2042188    0.1602986  66.55 0.0002718651    1.192    0.161
       583 -12.0792    123.7988    224.9061   1.2849291097e+02   1.0927574063e+01    0.5408152    0.2180349  47.44  0.001526389    2.153    0.536
       584 -11.0564    118.8828    222.1692   1.2910878328e+02   1.2306955107e+01     0.193371    0.1773122 -50.69 0.0003147622    1.354    0.261
       585 -10.1103    165.1236    228.2259   1.2072750755e+02   2.9343585397e+00    0.3861338    0.1992897 -58.77  0.001111026    2.657    0.624
       586 -11.0088    162.4220    221.5057   1.2021112582e+02   4.6100423527e+00    0.3760934    0.2588299  82.88  0.001452076    2.268    0.559
       587 -11.0025    162.3918    217.7631   1.1961554576e+02   5.2916775892e+00    0.2643102    0.2352127  -7.54 0.0008649341    1.347    0.257
       588 -10.4635    202.0892    226.8080   1.1325938722e+02  -3.4687875196e+00     0.236172    0.1590941  -3.95 0.0007774305    2.012    0.503
