#   1 NUMBER                 Running object number                                     
#   2 MAG_AUTO               Kron-like elliptical aperture magnitude                    [mag]
#   3 X_IMAGE                Object position along x                                    [pixel]
#   4 Y_IMAGE                Object position along y                                    [pixel]
#   5 X_WORLD                Barycenter position along world x axis                     [deg]
#   6 Y_WORLD                Barycenter position along world y axis                     [deg]
#   7 A_WORLD                Profile RMS along major axis (world units)                 [deg]
#   8 B_WORLD                Profile RMS along minor axis (world units)                 [deg]
#   9 THETA_WORLD            Position angle (CCW/world-x)                               [deg]
#  10 FWHM_WORLD             FWHM assuming a gaussian core                              [deg]
#  11 ELONGATION             A_IMAGE/B_IMAGE                                           
#  12 ELLIPTICITY            1 - B_IMAGE/A_IMAGE                                       
         1 -13.8683    204.1650    114.7241   6.7169877643e+01   1.7058884637e+01     2.996509     2.330729  40.23   0.01034234    1.359    0.264
         2 -13.1159    248.9581     60.4403   4.7083471277e+01   1.6178529112e+01      1.94721    0.5431827 -34.97  0.007019815    3.024    0.669
         3 -13.2047    191.5781     51.1597   5.2365637743e+01   3.0829117277e+01     2.382306     1.359605 -46.20   0.01060902    1.750    0.429
         4 -14.8841    218.3187     73.3813   5.4225155841e+01   2.0998510285e+01     10.87949      2.56288 -46.76   0.02747128    5.455    0.817
         5 -14.6013    233.0604     61.5329   4.9242296478e+01   1.9468128081e+01     4.019485     1.224496 -47.37   0.01133454    3.398    0.706
         6 -14.3399    178.7995     76.5522   6.1839335131e+01   2.9936594373e+01     5.294327     2.229479 -54.81   0.00513398    4.030    0.752
         7 -15.1708    237.8005     34.7453   4.2305790854e+01   2.2109928226e+01     8.208209     1.877094  61.95   0.02866895    3.948    0.747
         8 -12.3686    249.1763      4.0828   3.4528348187e+01   2.3228016596e+01    0.9001406    0.4669761 -14.67  0.004184649    3.191    0.687
         9 -13.2592    229.6798     24.0861   4.0594259262e+01   2.5261722895e+01     1.928631    0.5126274 -28.22  0.004866935    4.078    0.755
        10 -10.8283    145.4214     27.5666   5.3109148660e+01   4.5553248170e+01    0.4169009    0.3066137 -35.75  0.001456304    1.435    0.303
        11 -11.3476    215.2912     12.9460   3.9281776980e+01   2.9873961248e+01    0.3252652    0.2272753  72.37 0.0004843462    1.354    0.261
        12  -9.3483    115.9555     12.5204   5.3768565547e+01   5.4282993315e+01    0.3010043    0.2092252  57.69  0.001145512    1.335    0.251
        13 -11.2898    120.2849      8.9944   5.1490352683e+01   5.3603208181e+01    0.4473125    0.3752405  47.40  0.001433819    1.052    0.050
        14  -9.1505    224.0530      8.3468   3.7387861281e+01   2.8327626528e+01    0.3304728    0.1735194 -28.56   0.00126554    2.002    0.500
        15 -11.0476    208.6897      6.7645   3.8373983988e+01   3.2087843630e+01    0.3133419     0.259503  24.98  0.001342957    1.591    0.371
        16  -9.7081    184.8342      5.7014   4.0532825579e+01   3.7991445001e+01    0.7814245    0.3881522  72.72  0.003668044    1.833    0.454
        17  -9.2184    242.7655      5.9679   3.5381718116e+01   2.4400916907e+01    0.2256792    0.1696214 -32.55  0.001428844    1.419    0.295
        18  -8.0032     58.3206      7.7026   6.8707589515e+01   6.6483966145e+01    0.1055644   0.09965424 -50.43 0.0002900723    1.618    0.382
        19  -9.7199    135.5826      5.4579   4.7307560351e+01   5.0242538530e+01    0.2285844    0.2105325  46.90 0.0006120984    1.049    0.046
        20  -8.7672    171.9939      2.4485   4.1095644192e+01   4.1475635281e+01    0.2332085    0.1625208 -50.06 0.0006106606    1.502    0.334
        21  -9.3566     79.9445      1.7913   5.8476950249e+01   6.3087567351e+01    0.1872363    0.1560973  23.17 0.0006280898    1.018    0.018
        22 -12.7496     36.6662    163.0040   1.1776920331e+02   3.6468183704e+01    0.6614516    0.6506513  89.84  0.002192878    1.287    0.223
        23 -10.0369    109.5603    249.7041   1.1167594500e+02   9.0642139374e+00    0.2041904    0.1724168  43.94 0.0005345547    1.147    0.128
        24 -12.7242     46.8676    157.1587   1.1461900950e+02   3.6742023796e+01    0.8951235    0.7551075 -67.80   0.00259397    1.154    0.134
        25  -8.3779    209.2151    165.4433   7.7969048007e+01   6.7475331181e+00    0.1944194    0.1351633  54.21  0.000940673    1.766    0.434
        26  -9.3962    135.5004    241.7609   1.0588727092e+02   6.4484203647e+00    0.3480241    0.1621865  51.12  0.001691987    2.101    0.524
        27  -9.1150    234.2106    239.5442   8.7163528709e+01  -8.3256466678e+00    0.2771254   0.08713678  30.69  0.001145613    3.146    0.682
        28  -8.4808    222.2690    227.2438   8.7254750819e+01  -5.0452819110e+00     0.147952    0.1311559  24.87  0.000299707    1.305    0.234
        29  -8.7069    221.0739    210.0003   8.4466226432e+01  -2.4724148371e+00    0.1754254    0.1624035  77.93  0.001116151    1.733    0.423
        30  -9.9034    133.6884    144.6243   9.0172295714e+01   2.6085029915e+01     1.042535    0.2608532 -54.20  0.002446598    5.782    0.827
        31  -8.4407    218.1611    148.4292   7.2531086261e+01   8.0227750634e+00    0.1873971     0.139696  58.42 0.0006499036    1.696    0.410
        32 -10.5719    149.7881    146.8067   8.6729339391e+01   2.2362394601e+01    0.4828786    0.3381559 -87.95  0.001025359    2.370    0.578
        33  -8.3684    222.9071    145.4603   7.0987948726e+01   7.6189668081e+00    0.1979818    0.1404336  43.61 0.0005842751    1.504    0.335
        34 -11.1287    181.1857    144.2761   7.9012452318e+01   1.6340699310e+01    0.6241382    0.3839656  41.03  0.002747257    1.640    0.390
        35  -8.5363    192.2258    144.2364   7.6672236718e+01   1.4037565171e+01    0.2129478    0.1944977   5.10 0.0003761625    1.075    0.070
        36  -9.7866    196.2121    143.2822   7.5634114739e+01   1.3391285766e+01    0.4007329    0.2560943  57.48  0.001365494    1.930    0.482
        37  -8.6022    159.0107    142.4992   8.3575754490e+01   2.1376880601e+01    0.2310783    0.1508586  44.89 0.0006320219    1.538    0.350
        38  -8.6383    209.0057    204.2969   8.5701324023e+01   3.4774347067e-01    0.1779683    0.1463038  20.39 0.0002054545    1.067    0.063
        39  -9.5002    211.1831    136.8186   7.1184635524e+01   1.1499075338e+01    0.2179846     0.202316 -45.52 0.0009410709    1.162    0.140
        40 -10.5233    179.9884    136.5226   7.7447934137e+01   1.8145251921e+01    0.3105282    0.2159289 -55.10  0.001387822    1.650    0.394
        41  -9.6795    156.9657    134.9295   8.2275650198e+01   2.3424527413e+01    0.2495531    0.1961365  88.64 0.0009153054    1.744    0.427
        42 -10.1082    160.3760    128.3383   7.9870559142e+01   2.4091883397e+01    0.4232572    0.2930307 -48.58  0.001894455    1.468    0.319
        43 -10.1620    240.5149    202.6402   7.9597163633e+01  -4.4647513524e+00    0.2239156    0.1810713   3.40 0.0005265772    1.012    0.012
        44  -8.9606    137.5083    128.4755   8.5478286924e+01   2.8946716167e+01    0.3171238    0.2908146  56.89  0.001641428    1.132    0.117
        45  -9.4779    135.5083    125.0048   8.5137924114e+01   3.0139747115e+01    0.3629239    0.1904542 -56.61   0.00122889    2.230    0.552
        46  -9.8426    223.6792    128.1054   6.6853637924e+01   1.0500930924e+01    0.2703527    0.2131967  33.51   0.00105619    1.356    0.263
        47  -8.8995    145.8368    122.8832   8.2005936375e+01   2.8421743603e+01    0.2280785     0.205643 -13.90   0.00032173    1.182    0.154
        48 -10.0883    162.9166    120.7729   7.7376878367e+01   2.5122285657e+01    0.4109127    0.3017054 -72.85  0.001020909    1.887    0.470
        49  -9.8527    168.3207    114.6408   7.4557160835e+01   2.5170759065e+01    0.3627186    0.2413888 -52.07  0.001559359    1.617    0.382
        50 -10.1475    135.0000    108.9716   8.1131163397e+01   3.3800506905e+01     1.006355    0.1909393 -45.52  0.002343958    5.226    0.809
        51 -12.4352    241.6056     46.6562   4.4694206427e+01   1.9693009843e+01     0.744649    0.5409442  87.77  0.001901478    1.456    0.313
        52 -10.6991    123.8322    105.2620   8.3102114021e+01   3.6977928117e+01    0.7233269    0.3853084 -48.57  0.001633248    1.861    0.463
        53  -8.2219    138.4984    107.5406   7.9839626189e+01   3.3352082594e+01    0.1569212    0.1520378 -16.55 0.0001079857    1.028    0.027
        54  -8.8429    210.0961    199.6664   8.4637591404e+01   8.8418541562e-01    0.1911918    0.1711948 -17.82 0.0003179965    1.184    0.155
        55 -10.5519    213.9702    103.8305   6.2661624484e+01   1.6853649126e+01    0.4656165    0.3683761  76.54  0.001550403    1.561    0.359
        56  -8.3068    142.9866    105.0000   7.8003728272e+01   3.2905171695e+01    0.2570519   0.09044261  46.50 0.0006072036    2.901    0.655
        57  -9.5179    149.5112    101.5485   7.5430402626e+01   3.2156738553e+01    0.3456497    0.2701401  33.67 0.0007640922    1.364    0.267
        58  -9.1751    135.3793     97.7393   7.7918504267e+01   3.6127600550e+01    0.2868378    0.2428513 -88.55 0.0009266205    1.461    0.315
        59 -10.4407    160.7514     95.7159   7.1136668210e+01   3.0728204179e+01    0.6107925    0.3421318  39.74  0.002405511    1.952    0.488
        60  -7.7759     91.7325     97.2883   9.0257859808e+01   4.4906932595e+01    0.1401153    0.1166207 -87.39 0.0001857016    1.501    0.334
        61  -8.7068    209.5093     94.9989   6.1194910375e+01   1.9408190984e+01    0.2861249    0.1737325 -76.12 0.0008589589    3.201    0.688
        62  -9.8909    168.2646     92.8042   6.8637803205e+01   2.9515151431e+01    0.3471016    0.2150026  50.54  0.001279688    1.644    0.392
        63  -9.8804    143.4598     91.3155   7.4002260934e+01   3.5630853746e+01    0.2956465    0.2752151 -88.71 0.0006379712    1.193    0.161
        64  -9.4823    191.6932    192.3951   8.6894887484e+01   5.2875180829e+00    0.5200651    0.3007397 -67.05  0.001671227    5.359    0.813
        65 -11.3672    158.9924     86.1134   6.8783152667e+01   3.3004780785e+01    0.3870044    0.2990106 -19.23 0.0005770335    1.448    0.309
        66 -10.0289    208.6362     85.3406   5.8845240478e+01   2.1274262971e+01    0.4946742    0.2633905 -54.51  0.001252232    2.264    0.558
        67  -9.3641      1.6230     84.1907   1.1749061232e+02   5.7730033283e+01    0.1830994   0.07825248 -60.54 0.0005854136    1.668    0.400
        68  -9.4534    153.2240     79.5380   6.8156476646e+01   3.5620797844e+01    0.5562366    0.3289521  24.46  0.002008906    2.671    0.626
        69  -9.8812      8.6077     80.1813   1.1441572771e+02   5.8284167272e+01    0.1920114   0.07916395 -57.42 0.0009569454    1.745    0.427
        70  -8.7245    139.8632     78.3649   7.1009688781e+01   3.8998439313e+01    0.2244659    0.1392504  38.88 0.0004545548    1.713    0.416
        71 -10.2052    108.1578     76.8059   7.9186335960e+01   4.6242552716e+01      0.38065    0.2775686  -0.87 0.0004140084    1.786    0.440
        72  -8.7881    160.3677     77.2183   6.5851615291e+01   3.4322428870e+01    0.2202473    0.1392454 -45.54 0.0004721823    1.613    0.380
        73 -10.7584    122.6015     74.5259   7.4325024382e+01   4.3641325518e+01    0.4649275    0.3418666 -19.77  0.002164362    1.520    0.342
        74  -9.7119    151.1729     71.8625   6.6290053012e+01   3.7511095176e+01     0.331567     0.225563 -63.48 0.0006210919    1.952    0.488
        75  -9.8067    135.7783     69.3949   6.9210112762e+01   4.1612085726e+01    0.2245969    0.1382177  39.93 0.0008681856    1.693    0.409
        76  -8.3611     72.7595     58.5389   8.4656654396e+01   5.6275481588e+01    0.1654327     0.134029  44.31 0.0002753292    1.447    0.309
        77  -9.2637    210.9192    194.9853   8.3597802271e+01   1.4829691280e+00    0.2038239    0.1748476   8.58 0.0004616524    1.005    0.005
        78  -9.4544    158.3560    157.0804   8.6972515746e+01   1.8431616660e+01    0.5308942    0.3391676 -76.76  0.001955987    3.019    0.669
        79  -8.6822    172.5343     42.5222   5.2970494955e+01   3.6823913870e+01    0.2677936    0.1339243 -36.53  0.000698892    1.976    0.494
        80  -9.2332    171.5928     38.3014   5.1855394464e+01   3.7630543945e+01    0.3625443    0.1867825 -39.44  0.000924405    1.941    0.485
        81  -8.6600    153.5126    151.5016   8.6887539187e+01   2.0591929818e+01    0.2171636    0.1466548 -57.40 0.0007338076    1.672    0.402
        82 -10.2895    123.4591     38.8379   6.1860621068e+01   4.9409475714e+01    0.3089474    0.1698768  38.52  0.001328112    1.885    0.469
        83  -8.2639    206.1754    155.3693   7.6376881848e+01   9.1315683975e+00    0.2048449    0.1861076  31.96  0.001149015    1.141    0.124
        84  -8.7189    203.8141    152.6284   7.6233882613e+01   1.0098441992e+01    0.2413917    0.2240067 -39.40 0.0004596769    1.162    0.139
        85  -7.9156    184.0000     31.8730   4.8030274300e+01   3.5329437847e+01    0.2143808   0.07978687 -28.58  0.000398078    2.796    0.642
        86  -9.4069    198.1286     30.7745   4.5799990093e+01   3.1951132174e+01    0.2253767    0.1839758 -32.61 0.0003953488    1.278    0.217
        87 -10.1040    178.3578    190.4066   8.9259113915e+01   8.0542438827e+00    0.2338785    0.2214756  51.03 0.0002523606    1.190    0.160
        88 -10.9312     60.4450    148.3283   1.0994782283e+02   3.7241046452e+01    0.8764675    0.5227125  79.05  0.004033106    2.118    0.528
        89 -11.3164     67.9397    144.3647   1.0734262213e+02   3.7225989459e+01    0.7785956    0.4608368  57.62   0.00365403    1.936    0.484
        90 -10.3128    179.3259     24.2204   4.6484482226e+01   3.7421075790e+01    0.5191613    0.3624386  73.32  0.002295837    1.370    0.270
        91 -12.3405    199.1815     74.8649   5.7659261700e+01   2.5268758652e+01     1.459648    0.6449626  40.35  0.004280919    3.091    0.677
        92  -8.4220    165.2873     21.0108   4.7582641229e+01   4.1319382141e+01    0.1817229    0.1689366 -39.00  0.001078663    1.146    0.128
        93  -8.6243    159.9568     18.7833   4.7715690715e+01   4.2903138872e+01    0.2035735    0.1707312  42.12 0.0004404275    1.210    0.174
        94  -8.0833    130.7150    189.9583   9.9524990541e+01   1.6775655350e+01     0.155876    0.1245057 -53.13 0.0004085384    1.340    0.254
        95  -9.8563    209.4087    187.3003   8.2404746356e+01   2.9891091075e+00    0.4023725    0.2926087  72.29  0.001579634    2.653    0.623
        96 -12.4389      3.9739    181.5764   1.2649868472e+02   3.5291931680e+01     0.816805    0.3705993 -79.30  0.004611508    1.759    0.431
        97  -9.2336    219.9465    184.1665   7.9772690028e+01   1.6546317643e+00    0.1920103    0.1846645  30.56 0.0006807517    1.298    0.230
        98  -8.9743     63.1435    184.2338   1.1403183670e+02   2.8496569339e+01    0.1727958    0.1604699  88.47 0.0004552958    1.161    0.139
        99 -10.4977    236.4051    174.6517   7.4835360788e+01   3.3553350459e-01    0.4517356    0.3023765  66.05   0.00202883    3.060    0.673
       100 -10.1204    230.2477    166.7816   7.4302423307e+01   2.6588744750e+00    0.4707015    0.2713716 -55.32  0.001954514    2.922    0.658
       101  -9.4909    199.6358    174.6153   8.1787053135e+01   6.9342450005e+00    0.2689759    0.2135639   3.92 0.0008072963    1.300    0.231
       102 -12.1850     24.7264    164.3965   1.2069565071e+02   3.7318889272e+01    0.8019392     0.356961 -79.60  0.003939902    1.978    0.495
       103  -8.4327     64.0919    168.8889   1.1192308184e+02   3.1884211715e+01    0.1615258    0.1435133 -61.37 0.0009953908    1.218    0.179
       104 -10.0947    191.6095    151.6458   7.8489159637e+01   1.2743430030e+01    0.4553715    0.2683513 -58.61  0.001795593    2.503    0.600
