#   1 NUMBER                 Running object number                                     
#   2 MAG_AUTO               Kron-like elliptical aperture magnitude                    [mag]
#   3 X_IMAGE                Object position along x                                    [pixel]
#   4 Y_IMAGE                Object position along y                                    [pixel]
#   5 X_WORLD                Barycenter position along world x axis                     [deg]
#   6 Y_WORLD                Barycenter position along world y axis                     [deg]
#   7 A_WORLD                Profile RMS along major axis (world units)                 [deg]
#   8 B_WORLD                Profile RMS along minor axis (world units)                 [deg]
#   9 THETA_WORLD            Position angle (CCW/world-x)                               [deg]
#  10 FWHM_WORLD             FWHM assuming a gaussian core                              [deg]
#  11 ELONGATION             A_IMAGE/B_IMAGE                                           
#  12 ELLIPTICITY            1 - B_IMAGE/A_IMAGE                                       
         1 -14.4024    214.1199     28.8647   3.8265447004e+01   2.8634189685e+01      1.10528    0.9083086  32.48  0.004252262    1.713    0.416
         2 -14.5800    202.2181     40.4097   4.2375503454e+01   2.9894211652e+01     2.044298     1.502108  33.59  0.006529929    1.904    0.475
         3 -11.6981    217.5410     11.8405   3.4076282207e+01   2.9847537528e+01    0.3108434    0.2570182  66.58  0.002061359    1.337    0.252
         4 -12.9574    241.8965      4.4531   3.0731193849e+01   2.5442383861e+01    0.6622901    0.4690577  79.14  0.003576848    1.360    0.265
         5 -12.3085    236.1210      4.1375   3.1047845781e+01   2.6671306783e+01    0.5351035    0.2175075 -45.26  0.002795162    2.016    0.504
         6 -11.0287     56.2857      5.9418   6.1794573223e+01   6.7029212821e+01    0.3660775    0.2114383  61.89  0.001814943    2.710    0.631
         7 -11.3142    108.1263    203.5311   1.0073484383e+02   1.7045467545e+01    0.4248794    0.2565978  36.83  0.001420936    1.567    0.362
         8 -13.8519     68.6132    171.6362   1.0583158474e+02   3.0585557969e+01     2.334837     1.134004 -30.12  0.006047548    7.207    0.861
         9 -13.4310     84.4131    219.1587   1.0815641440e+02   1.7332439792e+01     1.049849    0.6636642  56.28  0.001256865    1.479    0.324
        10 -13.7362     68.1601    155.5356   1.0348808419e+02   3.4673221609e+01    0.6815791    0.6055334   4.77  0.001547171    1.377    0.274
        11 -14.8021     68.3849    144.3046   1.0151250895e+02   3.7488166109e+01     4.319133     2.373933  81.43  0.003077474    3.283    0.695
        12  -9.9981     99.4110    180.8444   9.9355548976e+01   2.3651650667e+01    0.2528149     0.206237  33.70 0.0005963072    1.269    0.212
        13  -8.9869     89.5018    180.4368   1.0178901503e+02   2.5341991236e+01    0.1442295    0.1314744  72.88 0.0001439142    1.025    0.025
        14 -10.6906    189.2040    177.6191   7.7634488755e+01   7.9363555131e+00    0.4546209    0.3219615 -59.06  0.002178091    1.826    0.452
        15 -10.3287     34.7859    171.5771   1.1448107503e+02   3.4733935625e+01    0.2672908    0.1769134  84.18 0.0002622616    1.429    0.300
        16 -10.4840    146.2245    171.7331   8.6094811957e+01   1.7323637465e+01    0.3227946    0.2511639 -82.23 0.0008762181    1.702    0.412
        17 -15.8424      5.4416    165.2919   1.2110264586e+02   3.8915396904e+01     6.950695    0.9946012 -72.99  0.008699437    4.703    0.787
        18  -9.1855    111.0104    167.9767   9.4154854710e+01   2.4739652451e+01    0.1809334    0.1689461 -69.22 0.0004084246    1.067    0.063
        19  -9.7732    230.3052    166.6486   6.7405601960e+01   2.6450880335e+00    0.1305457    0.1062157 -63.91 0.0007041581    1.707    0.414
        20 -14.0634     20.3722    221.1610   1.2179831482e+02   2.4901867214e+01    0.6680696    0.5299304 -88.85  0.001568931    1.179    0.152
        21 -12.3426     87.1464    153.6160   9.7883003485e+01   3.2311286127e+01    0.6389244    0.4648714 -22.28  0.002934859    1.905    0.475
        22 -11.2373    133.6211    144.3806   8.3388840700e+01   2.6062666819e+01     1.247016    0.3290132 -54.71  0.002882825    5.593    0.821
        23 -10.4935    174.4949    148.9741   7.4630078188e+01   1.6609667733e+01    0.2889917    0.2638372  70.69 0.0007410654    1.250    0.200
        24  -9.2757    111.2197    149.7801   9.0509304562e+01   2.9106943588e+01    0.2662199    0.1666472  77.00  0.000944498    2.776    0.640
        25 -10.8403     29.4126    144.1860   1.1268941298e+02   4.2069347359e+01     0.397235    0.2607819  20.41  0.002134733    1.875    0.467
        26 -10.3627    198.2368    139.7786   6.7540897591e+01   1.3604099020e+01     0.311217    0.2232592 -61.23 0.0007537083    1.711    0.416
        27 -11.0642    101.3431    139.2698   9.1008675540e+01   3.3483119475e+01     0.575519    0.3848089 -17.71  0.002290724    2.373    0.579
        28 -12.4425     88.5543    138.9563   9.4616108912e+01   3.5761127412e+01    0.2993211    0.2651376 -49.17  0.000432641    1.113    0.102
        29 -11.1740     25.6193    137.5361   1.1290878401e+02   4.4081161803e+01    0.3702123    0.1910642  38.89   0.00144421    2.087    0.521
        30 -10.6374    105.9130    131.1333   8.7878073481e+01   3.4647259284e+01    0.4053562    0.3123443 -55.72  0.001741472    1.271    0.213
        31 -10.3072    110.7224    129.9179   8.6223717796e+01   3.4033666742e+01    0.3304979    0.2528901  12.47  0.001078504    1.661    0.398
        32 -11.0080    135.6383    127.9605   7.8965926602e+01   2.9456774814e+01    0.5540211    0.1802121 -49.13   0.00165271    3.132    0.681
        33  -9.8625    160.8819    128.1078   7.2772753121e+01   2.3969579676e+01    0.2527869    0.2220238 -77.70  0.001248661    1.294    0.227
        34 -11.2046     97.9881    125.8864   8.8957862510e+01   3.7379850348e+01    0.3216144    0.2685939 -13.63  0.000716435    1.421    0.296
        35 -15.5920     40.4201    197.2499   1.1571091307e+02   2.8006130991e+01     4.274057     1.817819  73.03   0.01230584    3.283    0.695
        36 -10.3577    116.9487    124.0355   8.3042221438e+01   3.4222707777e+01    0.3086661    0.2169406   7.47  0.001237276    2.136    0.532
        37 -10.7030     43.9411    129.6949   1.0627281746e+02   4.4257827193e+01    0.1892709    0.1797135 -85.04  0.001076512    1.093    0.085
        38  -9.7408     86.1009    119.7431   9.1104808204e+01   4.0948125110e+01    0.3084196    0.2212389  76.51  0.001228591    1.941    0.485
        39  -9.9859    107.1469    118.9162   8.4566615368e+01   3.7360528895e+01     0.224502    0.2160305 -20.48 0.0004665732    1.063    0.059
        40 -14.2865     51.2063    189.1528   1.1238526038e+02   2.8618021662e+01      1.51569    0.9682848  78.35  0.007938333    1.585    0.369
        41 -10.8376     40.0556    113.5418   1.0463235260e+02   4.8725623409e+01    0.2615318    0.1813493 -83.76 0.0007587384    1.583    0.368
        42 -11.9722    247.2453    107.8626   5.2120602409e+01   9.7539506634e+00     0.357642    0.2160546 -31.35  0.001807997    1.582    0.368
        43 -10.2609    205.1899    110.4514   5.9298423702e+01   1.7777626646e+01    0.3411145    0.2584615  35.77  0.001053215    1.530    0.346
        44 -11.9721     33.0606    108.4343   1.0601393419e+02   5.0673455613e+01     0.468042    0.3619789  52.65  0.002676635    1.511    0.338
        45  -9.5047    114.9742    109.5117   7.9849341387e+01   3.8004930802e+01    0.2209421    0.1399279  16.13 0.0008098548    2.502    0.600
        46  -9.9744    134.6064    105.7728   7.3440279045e+01   3.4649423334e+01    0.3413412      0.15604 -44.85  0.001222497    2.159    0.537
        47  -9.2849    137.5302    104.5377   7.2341439863e+01   3.4265018698e+01    0.2652745    0.1531988  46.48 0.0005192203    1.755    0.430
        48 -17.5235     18.7656    242.4931   1.2333935554e+02   2.0742123679e+01     7.734955     2.593403  27.61   0.03286696    4.216    0.763
        49 -10.1964     42.4746    103.9262   1.0188989430e+02   5.0840792442e+01    0.2482736    0.1806469  47.19 0.0006858102    1.609    0.379
        50 -11.3263    241.5745    101.3155   5.1469833794e+01   1.1921297980e+01    0.2753858    0.1098198 -41.97 0.0008551528    2.111    0.526
        51 -10.9083     36.0853    101.0079   1.0351224893e+02   5.2200552182e+01    0.3075929    0.2492529  78.64  0.001352476    1.468    0.319
        52 -10.2994     64.8027    192.0179   1.0946780843e+02   2.6187095119e+01    0.2440851    0.1713232 -69.83  0.001324685    1.369    0.270
        53 -11.6008    242.1140     93.1129   4.9587707746e+01   1.3172896739e+01    0.2386723    0.1964589  21.42  0.001370846    1.649    0.393
        54 -10.2599    149.5678    187.4196   8.8339523559e+01   1.3300264130e+01    0.3051488    0.2307066  85.14 0.0008622098    1.931    0.482
        55 -10.6500     52.9598     90.8067   9.5086290270e+01   5.2764217420e+01    0.2653824     0.186825 -51.57 0.0009031489    1.270    0.212
        56 -10.1637    234.4651     86.4762   4.9122906923e+01   1.5790294937e+01    0.1375964    0.1182356 -52.35 7.033138e-05    1.007    0.007
        57  -8.6277     75.6063     85.2723   8.5449675378e+01   5.0763950162e+01    0.1439757    0.1146985  70.51 0.0006988418    1.731    0.422
        58  -9.9561    159.2985     82.2987   6.0900080034e+01   3.3633353229e+01    0.2651694    0.1868412 -36.39 0.0008014757    1.438    0.305
        59  -9.3190    151.0418     82.8527   6.2890599387e+01   3.5504125230e+01    0.2293209    0.2003159 -79.20 0.0004595984    1.261    0.207
        60  -9.8910     79.4999    182.6032   1.0462774220e+02   2.6348054296e+01    0.2808407    0.2115865  88.95  0.001473679    1.369    0.269
        61  -9.3990    110.1923     80.1001   7.2693436241e+01   4.5332284297e+01    0.2712043    0.1980886  73.91  0.001192371    1.959    0.490
        62  -9.3427     51.9930     64.2620   8.7750159295e+01   5.8697282101e+01    0.1804405    0.1631032  -1.76 0.0003417213    1.104    0.094
        63 -15.5331      9.4898    207.3537   1.2312050616e+02   2.8931496661e+01     1.268985     1.160199 -45.25  0.006617693    1.558    0.358
        64 -12.8916    192.7756     47.2438   4.5346174299e+01   3.1192707891e+01    0.7595656    0.5427781  50.36   0.00100275    1.528    0.346
        65 -12.0989    194.2915    197.3379   8.0459828174e+01   3.3610283392e+00     1.231253    0.6577367 -61.35  0.004291886    4.257    0.765
        66 -11.1083    138.3967     44.2544   5.3863474186e+01   4.4919129871e+01    0.3574171    0.2673367 -81.38 0.0002590332    1.671    0.401
        67 -10.7784     13.4446     59.8512   1.0284824970e+02   6.3425331855e+01    0.2469707     0.189295 -56.10 0.0004351113    1.200    0.167
        68 -10.3992    198.0289     23.8682   3.8772555290e+01   3.2954428500e+01    0.2729704    0.1956303 -19.62  0.001011514    1.780    0.438
        69 -10.6716      3.7926     25.2216   9.6687594513e+01   7.0784103675e+01    0.4051501    0.1354485  23.68  0.001980356    3.110    0.678
        70  -9.3922    189.5081     15.0118   3.7491669557e+01   3.5962068107e+01    0.1795792    0.1248374 -34.07 0.0005927844    1.549    0.355
        71  -8.8709     76.4524    194.4482   1.0698161004e+02   2.3992109778e+01    0.1389017    0.1206446  71.82 8.031453e-05    1.037    0.036
        72  -9.8963     89.9108    212.9730   1.0619338226e+02   1.7843248558e+01    0.2504627    0.1728622  79.23 0.0008220695    1.624    0.384
        73 -10.0702    112.4374    205.5162   1.0002399057e+02   1.5909357271e+01    0.2292018    0.1754697 -63.14 4.572657e-05    1.400    0.286
