#   1 NUMBER                 Running object number                                     
#   2 MAG_AUTO               Kron-like elliptical aperture magnitude                    [mag]
#   3 X_IMAGE                Object position along x                                    [pixel]
#   4 Y_IMAGE                Object position along y                                    [pixel]
#   5 X_WORLD                Barycenter position along world x axis                     [deg]
#   6 Y_WORLD                Barycenter position along world y axis                     [deg]
#   7 A_WORLD                Profile RMS along major axis (world units)                 [deg]
#   8 B_WORLD                Profile RMS along minor axis (world units)                 [deg]
#   9 THETA_WORLD            Position angle (CCW/world-x)                               [deg]
#  10 FWHM_WORLD             FWHM assuming a gaussian core                              [deg]
#  11 ELONGATION             A_IMAGE/B_IMAGE                                           
#  12 ELLIPTICITY            1 - B_IMAGE/A_IMAGE                                       
         1  -9.2482     26.2109     35.1516   7.8809582998e+01   7.0865188304e+01    0.3387118    0.2283713 -75.91 0.0009240897    1.809    0.447
         2  -8.2474     97.1243     14.6819   3.5298578479e+01   5.9557255778e+01    0.2865492    0.1378035 -39.06 0.0007942106    2.099    0.524
         3  -8.5393     55.5617      9.7920   4.6074384541e+01   7.0476021203e+01     0.249912    0.2104962 -77.53 0.0006355093    1.504    0.335
         4  -7.7446     47.6291      9.7923   4.9993461672e+01   7.2199336213e+01    0.1894198    0.1215096 -41.94 0.0005719522    1.674    0.402
         5  -7.7075    101.6319      8.2758   3.1160774493e+01   5.9027261538e+01    0.1531808     0.102962 -67.70 0.0007006546    1.678    0.404
         6  -8.2903     90.7050      8.3806   3.3576404667e+01   6.1937094070e+01    0.2306311    0.1567004 -65.00 0.0007527393    1.723    0.419
         7  -8.2892     33.7570      5.3028   5.5002574458e+01   7.5598736826e+01    0.2397148    0.1529712 -45.40 0.0009780609    1.759    0.431
         8  -8.6024     79.1079      3.5838   3.3788227746e+01   6.5439965957e+01    0.2731606    0.1755037 -40.91 0.0009502131    1.658    0.397
         9  -7.8357     15.6960      3.3017   6.8660592956e+01   7.8811602336e+01     0.114878    0.1026171  76.04 0.0003867983    1.592    0.372
        10  -7.7242     44.5537      2.5531   4.6156050573e+01   7.3813356657e+01    0.1323532    0.1230946  20.72 0.0001397582    1.027    0.026
        11  -8.0486     62.5197      1.4433   3.7494385654e+01   6.9811592981e+01    0.1354066    0.1284819  50.56 0.0002111033    1.047    0.045
        12  -9.4709    120.2252    245.1422   8.5653082954e+01   1.1098659907e+01    0.2761127    0.1884174  80.19  0.001695171    2.683    0.627
        13  -8.7691    249.0023    249.0052   6.4030010913e+01  -3.5803654400e+00    0.2717716    0.1275457  -9.94   0.00184981    2.018    0.504
        14  -9.7481    248.7755    241.7538   6.3088692041e+01  -2.9245633277e+00    0.3334328    0.1406186 -28.34  0.001678796    2.230    0.552
        15  -8.7155    247.5948    234.2771   6.2225175321e+01  -2.1340681430e+00    0.2023814    0.1238778  -5.81  0.001066761    1.240    0.193
        16  -9.3780    246.4975    229.1697   6.1660715638e+01  -1.5490157468e+00    0.2579485    0.1586702 -28.43  0.001109921    1.732    0.423
        17  -9.9023    233.5241    246.5863   6.5969749052e+01  -1.8857193763e+00    0.4613248     0.212059 -19.15  0.002505164    2.109    0.526
        18  -9.3542    211.4012    247.1993   6.9477411452e+01   3.1350073229e-01    0.2711742    0.1990001 -50.07  0.001659579    2.923    0.658
        19  -8.0111    199.3313    250.3165   7.1834953365e+01   1.2830920767e+00    0.1075966   0.06021499   5.59 0.0007046786    1.685    0.407
        20  -8.5497     94.2917    249.6087   9.1205666821e+01   1.3511299335e+01    0.2381837    0.1265665  49.54  0.001040011    1.789    0.441
        21  -7.5379     86.3056    250.6228   9.2881647585e+01   1.4272427757e+01    0.1160051   0.06337442  52.04 0.0007027966    1.775    0.437
        22  -7.6261     72.3066    250.6786   9.5696881248e+01   1.5823798107e+01    0.1151635   0.06074255  50.16 0.0003964785    1.640    0.390
        23  -8.0352     25.6709    250.3139   1.0502169744e+02   2.0620039291e+01    0.1175164    0.0498987  49.88 0.0004295228    1.674    0.403
        24  -8.4868     63.9578    248.0000   9.7218991291e+01   1.7148288340e+01    0.1872385    0.0476795  29.70 0.0007988688    2.918    0.657
        25  -8.8379     67.4495    244.7501   9.6305361667e+01   1.7284976670e+01    0.1687676    0.1079127 -86.10  0.001064673    2.017    0.504
        26  -8.3926     50.2081    244.2184   9.9818844659e+01   1.9210637088e+01    0.2666743   0.09718227  73.34  0.001102051    4.774    0.791
        27  -8.8051    201.9531    243.1879   7.0495807629e+01   1.7434328946e+00    0.1792862     0.131504 -33.17  0.000825271    1.769    0.435
        28  -8.5457    139.4556    244.2381   8.1819174061e+01   8.9038045006e+00    0.1201598    0.1101552  89.10 0.0009106268    1.664    0.399
        29  -9.3959     78.5320    243.4869   9.3940309244e+01   1.6248659140e+01    0.3148175    0.1084674  49.84  0.001469115    2.849    0.649
        30  -8.0828     34.5114    244.0007   1.0302212736e+02   2.0821313769e+01    0.1498292   0.05990664  60.59 0.0005531506    2.337    0.572
        31  -8.6184      9.6253    243.4306   1.0802247706e+02   2.3191078311e+01    0.1986759   0.05954998  72.00 0.0009556948    3.410    0.707
        32  -8.5515    169.1734    243.1029   7.6154779781e+01   5.4936302798e+00    0.1864576    0.1259644  32.59 0.0006856425    1.320    0.242
        33  -8.5674    153.6055    242.6293   7.8959656293e+01   7.4070267662e+00    0.1763606    0.1379873 -37.50  0.001331266    1.622    0.383
        34  -9.2286    183.2887    240.1078   7.3275310936e+01   4.1943092194e+00    0.3339972    0.2083607  48.66   0.00203428    2.605    0.616
        35  -9.6050    160.1432    240.2328   7.7461531674e+01   6.9231613607e+00    0.2522669    0.2115136  78.67  0.001366056    2.262    0.558
        36  -8.1093     88.1713    242.1189   9.1853208495e+01   1.5354573540e+01    0.1523068    0.1070928  52.83 0.0007537849    1.377    0.274
        37  -8.6955    146.7018    239.8252   7.9943481643e+01   8.6090145007e+00    0.2217231    0.1562366  61.32  0.001063739    2.386    0.581
        38  -8.6553    240.5168    240.0859   6.4057764240e+01  -1.9747921932e+00    0.1331091   0.07728739 -19.89 0.0005388326    1.532    0.347
        39  -8.8427    193.9634    239.2996   7.1330069640e+01   3.0583240947e+00    0.1497771    0.1051054  18.08 0.0005288128    1.079    0.073
        40  -8.9988    135.6279    238.6418   8.1952638921e+01   1.0129979561e+01    0.2064476    0.1302935  51.67 0.0009699249    1.982    0.496
        41  -8.3572     40.5103    239.0112   1.0157280950e+02   2.1069354023e+01     0.144639    0.1010251  83.43  0.001025963    1.583    0.368
        42  -9.1990    231.0491    236.9111   6.5036920616e+01  -7.2095447258e-01    0.2098465    0.1940843  36.78  0.001407496    2.255    0.556
        43  -9.2974    217.3181    235.6918   6.7003763410e+01   8.5021899654e-01    0.2125733    0.1848724 -27.67  0.001308626    1.809    0.447
        44  -9.5694    213.6817    231.6521   6.7029620125e+01   1.6712867236e+00     0.223029    0.2147807  31.51  0.001554055    1.982    0.495
        45  -8.3387    209.1787    238.1786   6.8650054062e+01   1.4782774156e+00    0.1277026    0.1051188  11.54  0.000478822    1.352    0.260
        46  -8.6327    129.2028    238.2111   8.3171655307e+01   1.0983604637e+01    0.1551069    0.1128516  44.63 0.0009225169    1.395    0.283
        47  -9.1092     25.7653    236.6727   1.0454863969e+02   2.2901789105e+01    0.3087835   0.08025484  53.33   0.00143342    2.882    0.653
        48  -8.1954     13.9736    238.0000   1.0701864743e+02   2.3741297973e+01    0.1777029   0.04772241  26.62 0.0008059691    2.967    0.663
        49  -8.5647    242.7329    236.1747   6.3194377806e+01  -1.8309746836e+00    0.1938661   0.09233999   9.01  0.001173765    2.045    0.511
        50  -9.0996    203.0391    234.3743   6.9148279717e+01   2.5713246781e+00    0.2197277    0.1451709 -43.47  0.001063843    2.282    0.562
        51  -9.7801    175.7633    233.2324   7.3731126084e+01   5.9051461158e+00    0.3558014    0.2198189 -52.77  0.002193484    2.708    0.631
        52  -9.8938    120.2052    234.9718   8.4635580416e+01   1.2569602674e+01    0.3241672    0.1837756  19.54 0.0005782475    1.713    0.416
        53  -9.8023    109.2210    234.1664   8.6804156223e+01   1.4055221525e+01    0.4698934    0.2030371  48.85  0.001928122    2.518    0.603
        54  -8.0130     58.1287    236.7778   9.7754324773e+01   1.9609869992e+01    0.2725187   0.03942842  34.73  0.001049386    3.385    0.705
        55  -8.1760     99.9690    234.4480   8.8752584968e+01   1.5148047080e+01    0.2260295    0.1083428  59.90  0.001034324    3.362    0.703
        56  -8.9675     78.6467    234.1804   9.3224313882e+01   1.7736852499e+01    0.2479901    0.1488474  61.59  0.001136014    1.841    0.457
        57  -8.8853      7.5990    234.8165   1.0824785716e+02   2.4844829151e+01    0.1468166   0.07613544  67.54 0.0009433958    1.672    0.402
        58  -8.5462    194.6494    232.3986   7.0298004396e+01   3.7571038689e+00    0.1522325     0.124931 -27.04 0.0006951028    1.541    0.351
        59  -7.7159    145.6272    233.3250   7.9396967616e+01   9.6188653615e+00     0.113725   0.07594441  49.21 0.0007030511    1.819    0.450
        60  -8.4311    132.6566    232.4085   8.1849251591e+01   1.1381679699e+01     0.187999    0.1468175 -81.91 0.0009053278    2.094    0.522
        61  -9.9097     67.9865    231.2708   9.5291034743e+01   1.9451863838e+01    0.4700011    0.2085599  63.44  0.002255637    2.976    0.664
        62  -9.4909    235.6141    230.6857   6.3478615420e+01  -5.8564590285e-01    0.3419218    0.1900597   1.95  0.001623158    1.577    0.366
        63  -9.3053    186.4064    230.4451   7.1465883969e+01   4.9599362908e+00    0.2507355    0.2185338 -72.96  0.001580314    2.380    0.580
        64  -7.9711    157.8368    231.8495   7.6873840141e+01   8.2884376100e+00    0.1437169    0.1173086  34.73 0.0005161109    1.314    0.239
        65  -8.5221     92.4301    231.4091   9.0066409586e+01   1.6551523148e+01    0.2374806    0.1206581  55.05  0.001259303    2.233    0.552
        66  -9.9960    149.8095    226.1109   7.7705009982e+01   1.0087751064e+01    0.5078253     0.350006  85.60  0.002462565    4.278    0.766
        67  -8.8442    140.3828    230.0434   8.0039063066e+01   1.0740216542e+01    0.2602969    0.1241594  42.88 0.0009064308    2.023    0.506
        68  -8.6248      1.6204    230.1636   1.0938849943e+02   2.6164377440e+01    0.1766071   0.09235615  58.51  0.001155504    1.449    0.310
        69  -8.8934    229.8181    228.5283   6.4050974508e+01   2.3826506656e-01    0.1665252    0.1207309 -32.37  0.001046696    1.825    0.452
        70  -8.7054    162.5122    227.6909   7.5462679742e+01   8.2517027347e+00    0.2723836    0.1568924  48.68  0.001523739    2.378    0.579
        71  -8.8330    127.6692    226.9885   8.2246634773e+01   1.2816542075e+01    0.2588654    0.1581895  49.49  0.001256141    1.811    0.448
        72  -8.2363    223.4586    226.5958   6.4760753327e+01   1.1247494827e+00    0.1898399   0.08832727 -30.15 0.0007903047    2.115    0.527
        73  -7.6952    177.7428    227.0112   7.2552336004e+01   6.4344090476e+00    0.1240275   0.09048378 -27.74 0.0008280175    1.508    0.337
        74  -7.7327    119.9900    227.4990   8.3885926040e+01   1.3725063415e+01    0.1664692   0.07441929  46.95  0.000591092    2.348    0.574
        75  -8.2794     49.6686    226.6685   9.8978259181e+01   2.2276280760e+01    0.2290491    0.1035946  65.44  0.001169874    2.474    0.596
        76  -8.6735      7.3659    226.6912   1.0811927231e+02   2.6315791669e+01    0.1941414   0.07821712  51.54  0.001035473    1.741    0.426
        77  -8.7455    206.1279    225.5193   6.7407598956e+01   3.2003485897e+00    0.2058035    0.1606734 -37.29     0.001269    1.807    0.447
        78  -8.5881    200.0551    226.0349   6.8500653594e+01   3.8528641891e+00     0.141899    0.1269376  33.28  0.000642833    1.674    0.403
        79  -8.7046    180.7918    224.2534   7.1626013687e+01   6.4020127840e+00     0.215848    0.1443725  40.67  0.000889899    1.687    0.407
        80  -9.0487     94.1988    224.0977   8.9019233704e+01   1.7542267062e+01     0.376963    0.1783514  51.42  0.001907741    2.225    0.551
        81  -9.0939    216.4964    223.1950   6.5377619555e+01   2.2653412273e+00    0.2090405    0.1645927 -21.90  0.000873851    1.464    0.317
        82  -8.0417    113.9964    223.9293   8.4754824020e+01   1.5054416013e+01    0.1857287    0.1191251  52.53 0.0006208306    1.707    0.414
        83  -8.7343    104.8005    223.3703   8.6657115388e+01   1.6324929383e+01    0.2787953    0.1739391  68.26  0.001532743    2.374    0.579
        84  -7.9632     38.3546    224.2415   1.0133379124e+02   2.3891347835e+01     0.151238   0.09079009  74.02 0.0006579395    1.700    0.412
        85  -8.3353    248.9828    221.7668   6.0230506892e+01  -1.0938628734e+00     0.194019    0.0956822 -28.79  0.001323286    1.893    0.472
        86  -8.6011    249.2650    218.1410   5.9653640294e+01  -7.7120485010e-01    0.1545991    0.1468555  -5.77  0.001318028    2.085    0.520
        87  -8.5722    173.1706    222.7564   7.2814627952e+01   7.5501609246e+00    0.1866213    0.1749254  66.59 0.0008166964    1.740    0.425
        88  -8.4163    163.0207    222.8097   7.4727739990e+01   8.8404901027e+00    0.2145514     0.132212  35.61  0.001345825    1.429    0.300
        89  -8.5859    159.1459    220.2256   7.5127768404e+01   9.6975031048e+00    0.2361088    0.1487923  46.78  0.001015275    1.898    0.473
        90  -7.8312     59.6948    223.3448   9.6557311637e+01   2.1776965847e+01    0.1268702   0.06714167  53.82 0.0007041681    1.691    0.408
        91  -9.1315    239.0720    220.9511   6.1555997653e+01   1.7207031051e-02    0.2670758    0.1346487 -21.11  0.001492274    1.763    0.433
        92  -9.5719    225.5586    221.4772   6.3691268251e+01   1.4309674608e+00    0.2088693      0.17998  -6.40 0.0009542094    1.490    0.329
        93  -9.2945    192.3512    221.2181   6.9147293794e+01   5.3485201393e+00    0.2087233    0.2066078  46.37  0.001044774    1.748    0.428
        94  -8.4359      8.4966    222.4679   1.0778019275e+02   2.6995933543e+01     0.114099   0.08145314  49.70 2.468646e-05    1.008    0.008
        95  -9.1120    120.4204    218.9810   8.2841561453e+01   1.5006382080e+01    0.4173275    0.1934719  53.47   0.00182247    3.221    0.690
        96  -8.9256     82.8828    220.3422   9.1162972047e+01   1.9587447657e+01     0.277307    0.1578592  67.80  0.001379671    2.315    0.568
        97  -8.3359     27.4602    221.0114   1.0359270914e+02   2.5559890783e+01    0.1538115    0.1040386  89.56  0.001027338    1.585    0.369
        98  -8.2688    202.6767    220.0129   6.7197897655e+01   4.2392015942e+00    0.1499277    0.1128284  -7.79 0.0005047065    1.184    0.155
        99  -8.3719    209.9047    219.1244   6.5860079643e+01   3.4819662831e+00    0.1519028    0.1230937   7.30 0.0003764744    1.206    0.171
       100  -9.2440    133.0413    216.0435   7.9833282402e+01   1.3786167100e+01    0.4193345    0.2649315  67.31  0.002067673    3.126    0.680
       101  -8.6187     62.1916    217.2394   9.5566615639e+01   2.2606269910e+01    0.3582568    0.1366571  52.19  0.001650293    2.495    0.599
       102  -8.9976     51.5600    216.9939   9.7967688048e+01   2.3843260577e+01     0.272089    0.1588292  71.16   0.00111844    1.831    0.454
       103  -8.6143    143.0863    216.5065   7.7824295594e+01   1.2364535408e+01    0.2218632     0.174881  64.02  0.001354031    1.853    0.460
       104  -8.1657    111.7846    216.9371   8.4462293200e+01   1.6480571159e+01    0.1856677     0.124554  64.63  0.001010963    2.015    0.504
       105  -8.7334    169.2284    215.7222   7.2580958446e+01   8.9958171486e+00    0.1960405    0.1774875  66.39 0.0009504933    1.759    0.431
       106  -8.7603    232.3742    214.4477   6.1593733612e+01   1.4163269837e+00    0.1796689    0.1620738   4.51  0.001186446    1.636    0.389
       107  -8.1924    154.2629    215.1205   7.5397720104e+01   1.1068551424e+01    0.2111717    0.1335118  49.27  0.001209302    1.979    0.495
       108  -8.2565     41.7521    215.1714   1.0009542798e+02   2.5234880143e+01    0.2196477   0.07207832  54.61 0.0009536959    2.802    0.643
       109  -7.8492     18.5313    215.5002   1.0537295778e+02   2.7431938102e+01     0.118691   0.08531831  50.42 0.0001034131    1.036    0.035
       110  -8.1764    185.6141    214.2805   6.9344866388e+01   7.0587133841e+00    0.1482827    0.1321946  48.38  0.001073686    1.705    0.413
       111  -8.8808     93.2408    213.9196   8.8239300216e+01   1.9418453894e+01    0.3167609     0.136649  50.04  0.001325014    2.410    0.585
       112  -9.5549     73.2003    211.8002   9.2611913320e+01   2.2314984405e+01    0.6606336    0.2007978  51.19  0.002438534    3.770    0.735
       113  -9.5836    213.9956    211.7805   6.4092223840e+01   3.8370917111e+00    0.2801126    0.2463683   2.98  0.001678317    1.403    0.287
       114  -8.2102    106.8755    212.8817   8.5085680284e+01   1.7815270573e+01     0.196913    0.1229414  52.66  0.001109055    1.697    0.411
       115  -8.0162    225.1336    212.2229   6.2375872697e+01   2.4773272057e+00    0.1311729    0.1100406  -2.39 0.0004502912    1.338    0.253
       116  -8.9894    204.3106    210.5804   6.5522733831e+01   5.1598068842e+00      0.22185    0.1740024 -39.88 0.0009278952    1.771    0.435
       117  -8.4025    161.7074    211.9882   7.3502048157e+01   1.0517943377e+01     0.173739    0.1668855 -86.86 0.0008528354    1.565    0.361
       118  -9.3835    175.5489    209.7528   7.0532790835e+01   8.9734924918e+00    0.3203188    0.2397188  59.29  0.001740265    2.338    0.572
       119  -8.7004    148.1454    210.3973   7.5982802625e+01   1.2598818965e+01    0.2490666    0.1941501  64.98  0.001167334    1.959    0.490
       120  -9.1280    116.2714    210.1403   8.2697687238e+01   1.7018460718e+01    0.2578185    0.1831621  59.39 0.0008721297    1.705    0.413
       121  -8.4909     32.6745    210.3533   1.0193138069e+02   2.7088618374e+01    0.3336317   0.06947805  54.29  0.001146654    4.465    0.776
       122  -8.3960    192.1103    210.0951   6.7564300231e+01   6.7601798711e+00    0.1498668    0.1367378  42.28 0.0006401105    1.644    0.392
       123  -8.4650     85.4697    209.3059   8.9550531815e+01   2.1247572885e+01    0.2819678    0.1278949  53.65   0.00121044    2.447    0.591
       124  -9.2189    236.5487    207.8053   5.9944837595e+01   1.6547236730e+00    0.2658554    0.1792985 -36.60  0.001431029    1.927    0.481
       125  -8.0050    179.4246    217.2637   7.0898964999e+01   7.4668008646e+00    0.1323973    0.1087057 -40.91 0.0004829308    1.634    0.388
       126  -9.4204    246.4201    207.1474   5.8390110464e+01   6.3157223804e-01    0.2078058     0.141908 -21.74 0.0006098018    1.367    0.269
       127  -8.4028    139.0202    207.7898   7.7512959095e+01   1.4265134592e+01    0.1845531    0.1625205  85.23 0.0007986286    1.628    0.386
       128  -8.1699    126.4933    208.0320   8.0210797086e+01   1.5966833758e+01    0.1552649    0.1258982 -56.68 0.0006249633    1.550    0.355
       129  -9.3161      5.0858    206.1676   1.0814368413e+02   3.0408392163e+01    0.3660484     0.140918  69.18  0.001865615    2.306    0.566
       130  -9.1897     99.4362    205.8238   8.5973535139e+01   2.0053501845e+01    0.3571787    0.2181564  68.19  0.001281314    2.338    0.572
       131  -8.5625     56.6175    205.4104   9.5987378862e+01   2.5499523796e+01    0.3261566    0.1095258  50.89  0.001350494    2.758    0.637
       132  -8.4034     11.5259    206.5176   1.0667403350e+02   2.9801918238e+01    0.1168258   0.08996382  51.92  0.000538179    1.032    0.031
       133  -9.3391    194.9165    203.3896   6.6042343319e+01   7.2554331340e+00     0.268192    0.2447331  30.00  0.001260346    1.491    0.329
       134  -9.2811    192.5652    197.1631   6.5476482883e+01   8.3863918426e+00    0.3103303    0.2553749 -54.82  0.001358935    1.961    0.490
       135  -9.6844    164.1841    202.9839   7.1712955717e+01   1.1482631592e+01    0.4615997    0.2408966  48.72   0.00128133    2.581    0.612
       136  -8.2075    108.9899    204.9863   8.3702705738e+01   1.8906164011e+01    0.1938026    0.1330169  57.49 0.0008247389    1.657    0.396
       137  -8.1996     25.0000    204.9450   1.0347275636e+02   2.8903786646e+01    0.1707089   0.06337684 -81.41 0.0007944157    2.887    0.654
       138  -9.0300    183.6735    203.5037   6.8085146824e+01   8.7342655689e+00    0.2392558    0.1849408  47.69  0.001246226    1.761    0.432
       139  -8.5324    131.1764    203.6827   7.8629611568e+01   1.6031909313e+01    0.2333453    0.1747746  61.74 0.0009187851    1.767    0.434
       140  -9.5978    249.9589    201.7115   5.7031754232e+01   8.0629275842e-01    0.3101251    0.1475488 -24.88  0.001471078    1.788    0.441
       141  -8.4517    210.9886    201.8056   6.3040090545e+01   5.3868640336e+00    0.2153476    0.1451045 -46.38 0.0009531512    2.267    0.559
       142  -8.8891    140.5436    200.8705   7.6236534264e+01   1.5160449975e+01    0.2967252    0.1969527  56.76  0.001373925    2.071    0.517
       143  -8.2961     48.6546    202.3382   9.7675159164e+01   2.7005530499e+01    0.2097791     0.107134  54.91  0.001099388    1.747    0.428
       144  -7.6908     41.3290    202.6538   9.9460632400e+01   2.7732409383e+01    0.1372534   0.06765538  54.61 0.0007050064    1.755    0.430
       145  -8.6550     10.7735    202.5867   1.0672936816e+02   3.0653990765e+01    0.1753482   0.07630969  38.89 0.0005655452    1.678    0.404
       146  -7.9949    222.0364    201.2501   6.1155722256e+01   4.0842670501e+00    0.1400463    0.1103029 -34.28 0.0005632749    1.661    0.398
       147  -8.4986     80.0360    200.9012   8.9995217249e+01   2.3530544383e+01     0.275837    0.1385994  56.42  0.001311686    2.198    0.545
       148  -7.9863     72.5163    201.5569   9.1859860717e+01   2.4354570174e+01    0.1275024    0.1034338  43.00 0.0002621217    1.006    0.006
       149  -9.3795    149.7912    198.6170   7.3970960556e+01   1.4192691700e+01     0.375565    0.2615585  65.24  0.001642474    2.510    0.602
       150  -8.8040    124.1414    199.1280   7.9559965391e+01   1.7806143982e+01    0.2770986     0.202564  72.05 0.0009957075    2.018    0.504
       151  -9.4303    113.0397    198.2866   8.1953963301e+01   1.9538274390e+01    0.4273722    0.2399906  61.02   0.00184047    2.705    0.630
       152  -9.1778    236.9868    197.9920   5.8326863757e+01   2.6697698102e+00    0.2523832     0.146761 -33.36   0.00167077    1.781    0.439
       153  -8.5138    177.0701    198.6954   6.8571569733e+01   1.0304385491e+01    0.1773423    0.1598215 -27.37  0.000549329    1.357    0.263
       154  -9.2094     88.6455    198.0656   8.7640131139e+01   2.2949073237e+01    0.3539361    0.2279781  82.42  0.001865585    2.136    0.532
       155  -8.4070    202.4805    197.6493   6.3814598306e+01   6.9996947321e+00    0.1826674    0.1623222 -69.44 0.0009084343    2.156    0.536
       156  -8.9023     61.4934    196.9729   9.4131903015e+01   2.6614455481e+01    0.4005949    0.1800889  60.17  0.001563938    2.547    0.607
       157  -8.1340     54.1783    197.0047   9.5936591233e+01   2.7465311019e+01    0.2242481    0.1109523  61.25  0.001086799    2.104    0.525
       158  -8.3477     12.4232    196.6817   1.0614767998e+02   3.1722255033e+01    0.2358764   0.07407933  74.74 0.0009581806    3.402    0.706
       159  -8.7157    215.9005    195.4054   6.1201134101e+01   5.5426883980e+00    0.1872917    0.1438946 -35.98 0.0007966415    1.633    0.388
       160  -8.1667    133.0248    195.9186   7.7154534520e+01   1.7072600188e+01    0.1903448    0.1437061  59.80  0.000840649    1.690    0.408
       161  -7.8219     36.3103    196.6434   1.0031886246e+02   2.9484387344e+01    0.1376694   0.06881253  55.81 0.0005632468    1.733    0.423
       162  -9.7673    245.8931    192.7831   5.6175218841e+01   2.2070915371e+00    0.3795913    0.1972744 -27.24  0.001598413    1.662    0.398
       163  -8.8107    224.6560    193.7812   5.9532210009e+01   4.6359137401e+00      0.25106    0.1250887 -37.01  0.001442437    2.127    0.530
       164  -9.2140    243.3135    200.7560   5.7835710674e+01   1.6443084149e+00    0.2617491     0.153177 -29.76  0.001026554    1.643    0.391
       165  -9.0552    185.2245    194.5715   6.6393172646e+01   9.7479385166e+00    0.2255808    0.1897121 -27.83 0.0007047643    1.339    0.253
       166  -9.1876    160.8985    194.1095   7.1014828323e+01   1.3287863426e+01    0.2825007    0.2204677  71.74 0.0009285324    2.253    0.556
       167  -8.1233    230.9692    193.9972   5.8587804413e+01   3.8355277218e+00    0.1438362    0.1326643 -24.04 0.0008332313    1.674    0.403
       168  -8.8025     77.1468    193.8044   8.9977507623e+01   2.5302985182e+01    0.2583735    0.1760213  52.55 0.0005564558    1.346    0.257
       169  -8.9477     43.7828    193.1383   9.8236876620e+01   2.9427811518e+01    0.4288446    0.1789691  59.92  0.001921677    2.462    0.594
       170  -8.3050    198.9834    191.3418   6.3391918907e+01   8.2895676235e+00    0.1759734    0.1634393 -34.99 0.0006623289    1.538    0.350
       171  -8.2149    172.6559    191.7041   6.8307811168e+01   1.1945112506e+01    0.2100411     0.175466  71.85 0.0008720687    2.041    0.510
       172  -9.0573    139.5893    190.4131   7.4913621872e+01   1.7040217851e+01    0.3073947    0.2231442  73.85  0.001254591    2.352    0.575
       173  -9.3596    249.2272    185.3011   5.4461607998e+01   2.6353423527e+00    0.2572482    0.1477665 -24.02 0.0009896545    1.443    0.307
       174  -8.0917    205.3560    191.2868   6.2281750987e+01   7.4357181097e+00    0.1463076    0.1001527 -36.70   0.00055321    1.638    0.390
       175  -8.1961    179.3320    191.2514   6.6955501907e+01   1.1050843020e+01    0.1533787    0.1092936 -42.91 0.0005636531    1.676    0.403
       176 -10.3972     92.3448    188.6702   8.5661218595e+01   2.4282404228e+01    0.9516081    0.2190032  42.84  0.003133251    3.736    0.732
       177  -9.0117      6.5039    190.4977   1.0739188180e+02   3.3508086166e+01    0.2349449    0.1051689 -88.39  0.000882301    2.186    0.543
       178  -8.0805     15.6793    190.6984   1.0513282207e+02   3.2697203197e+01    0.1071059   0.09113839 -35.16 0.0004636694    1.627    0.385
       179  -7.5536    210.3081    189.6433   6.1171835434e+01   6.9862566936e+00   0.09735923    0.0945371 -53.48  0.000704204    1.727    0.421
       180  -8.3545    148.5966    189.1372   7.2782533248e+01   1.5903096948e+01     0.172736    0.1605521 -77.50  0.001133758    1.456    0.313
       181  -8.8461    129.2920    188.4132   7.6896756706e+01   1.8934423982e+01    0.2531439    0.2000817  63.04 0.0008759795    1.588    0.370
       182  -8.9896     34.3182    187.9514   1.0029278650e+02   3.1525576066e+01    0.3718445    0.1493543  66.45  0.001596922    2.732    0.634
       183  -7.6497    242.6572    188.2869   5.5899542559e+01   3.0787176062e+00   0.08982105   0.08309694 -14.24 0.0007020368    1.644    0.392
       184  -8.1539    237.1933    188.2294   5.6692644728e+01   3.7401658084e+00    0.1383711    0.1110609 -21.46 0.0006899716    1.366    0.268
       185  -8.8594    216.5314    187.6122   5.9804080324e+01   6.4209931265e+00    0.1981359    0.1715993 -22.49 0.0007536872    1.397    0.284
       186  -8.6333    191.5555    187.3822   6.4052764669e+01   9.8592974581e+00    0.2127266    0.1899796 -71.24  0.001405299    1.923    0.480
       187  -9.2280    156.0572    187.3568   7.0936562558e+01   1.5071597713e+01    0.2635583     0.221267 -58.15 0.0008405223    1.593    0.372
       188  -9.5241    120.6989    186.0923   7.8524701496e+01   2.0649347098e+01    0.4085283    0.2658381 -80.67  0.001963113    2.613    0.617
       189  -9.1564     54.8368    186.7756   9.4935806721e+01   2.9528489287e+01    0.4433024     0.184575  59.94  0.001655862    2.776    0.640
       190  -8.5052    230.5513    186.8217   5.7457951667e+01   4.7208424709e+00    0.1964474   0.09218831 -27.79 0.0008691198    1.914    0.478
       191  -8.6870    165.0598    186.5995   6.8976812668e+01   1.3839951578e+01    0.2297172    0.1997566  82.87  0.001396001    1.840    0.456
       192  -9.1636    109.5671    185.6883   8.1094045154e+01   2.2387301232e+01    0.4126172    0.2770229  81.22  0.001420324    2.337    0.572
       193  -9.0312    210.2483    184.2156   6.0262367241e+01   7.6908481803e+00    0.2177729    0.1607148 -28.23 0.0005233422    1.360    0.265
       194  -8.7279    202.9344    184.4766   6.1549275988e+01   8.6604857686e+00    0.1952548    0.1581728 -39.23 0.0006915187    1.563    0.360
       195  -8.6435    183.0300    184.7219   6.5173786549e+01   1.1463507898e+01    0.2179616    0.2003372 -46.37  0.001096218    1.497    0.332
       196  -9.0223     66.7742    184.4750   9.1643783389e+01   2.8562725946e+01    0.3726904    0.1957006  50.22  0.001156889    1.734    0.423
       197  -8.3890    224.1155    183.3359   5.7862928674e+01   5.9592549451e+00    0.1870202      0.12702 -14.54 0.0005131057    1.252    0.202
       198  -8.9933    174.3263    183.4223   6.6616029051e+01   1.2943088663e+01    0.2330397    0.2129537 -60.72 0.0007242578    1.566    0.362
       199  -8.0437    197.1044    183.1614   6.2342349261e+01   9.6569617801e+00    0.1490183    0.1396562  16.01 0.0004628024    1.365    0.267
       200  -9.0944     44.4970    182.0860   9.7245221780e+01   3.1723270375e+01    0.3868446    0.1949169  60.29   0.00110411    1.937    0.484
       201  -7.8838      1.7662    183.5629   1.0837899704e+02   3.5361756410e+01    0.1733679     0.082583  39.36 0.0009426768    1.626    0.385
       202  -8.1887    235.3991    181.2271   5.5772424309e+01   4.7710753536e+00    0.1491039   0.09034295 -35.12 0.0005498641    1.720    0.419
       203  -9.2202    147.5462    180.4034   7.1608554983e+01   1.7535460343e+01    0.2765417    0.2345973  69.17  0.001053015    1.612    0.380
       204  -9.6750     25.5120    178.6246   1.0203566963e+02   3.4437746349e+01    0.6721472    0.2067598  69.15   0.00228227    4.316    0.768
       205  -8.7006    137.6029    178.9838   7.3567824093e+01   1.9342724201e+01    0.2676023     0.209795  70.34  0.001244111    1.799    0.444
       206  -7.6127    240.4983    179.5078   5.4725163194e+01   4.3357235453e+00      0.11192   0.08456587  -5.28 0.0008105764    1.018    0.018
       207  -9.4129    191.4989    178.2184   6.2487649835e+01   1.1161556076e+01    0.2349227    0.2256159  57.68 0.0007041917    1.534    0.348
       208  -8.1991    244.6051    169.3347   5.2355142733e+01   5.0026204233e+00    0.1896607    0.1674067 -89.51  0.001108703    2.505    0.601
       209  -8.7620    250.5065    172.8289   5.2148584683e+01   3.8690502354e+00    0.2084667    0.1340549 -18.60 0.0007243469    1.231    0.187
       210  -9.2384    248.9137    177.1443   5.3118345840e+01   3.5765012315e+00    0.2550656    0.2117818 -34.59  0.001024954    1.667    0.400
       211  -8.5909    217.8707    177.1676   5.7784305912e+01   7.5619519926e+00    0.1842402    0.1533431 -40.65 0.0008609695    1.628    0.386
       212  -8.9661    205.0350    177.4065   5.9958493898e+01   9.3166101511e+00    0.1997217    0.1555253 -38.12 0.0003897528    1.521    0.342
       213  -7.9875    169.4161    178.2773   6.6703181709e+01   1.4485289122e+01    0.1574647     0.121056 -48.58 0.0005206857    1.607    0.378
       214  -8.4086    129.2395    177.2062   7.5189988258e+01   2.0984275725e+01    0.2526284    0.1800122  68.01 0.0008008565    2.037    0.509
       215  -9.1203     35.4732    175.9616   9.9199719875e+01   3.4051595392e+01    0.5275853    0.1945394  65.14  0.002010975    3.243    0.692
       216  -8.6167    231.1343    176.7554   5.5637450004e+01   5.8484152206e+00     0.188114    0.1310212 -29.94 0.0006241965    1.415    0.293
       217  -9.0407    183.1226    175.8817   6.3624952567e+01   1.2755981227e+01    0.2375164     0.197582 -50.70 0.0007639012    1.615    0.381
       218  -7.9969     97.8347    177.1311   8.2801869573e+01   2.5826800379e+01     0.180881    0.1558829  -0.78 0.0005888608    1.346    0.257
       219  -8.9046     89.1845    176.6850   8.4950914334e+01   2.7182185597e+01    0.2871636    0.1841488  59.43 0.0008423109    1.708    0.415
       220  -9.2008     59.1073    175.6079   9.2778906537e+01   3.1450887277e+01    0.5224398    0.1970089  57.01   0.00190796    3.273    0.694
       221  -9.2713     55.7850    170.3841   9.3163618689e+01   3.3034265753e+01    0.4362187    0.1972949  64.83  0.001733921    2.817    0.645
       222  -8.9019     13.0517    176.3781   1.0522878714e+02   3.6050248017e+01    0.2943637    0.1469873  61.48  0.001172378    1.706    0.414
       223  -7.9597    211.5396    176.4903   5.8700372472e+01   8.5230680174e+00    0.1194834   0.09582102  -1.03 7.534642e-05    1.006    0.006
       224  -9.4988    158.1467    174.2015   6.8299393900e+01   1.6915951822e+01     0.509018      0.34104  71.51  0.002052394    3.423    0.708
       225  -9.1041    104.1722    174.5043   8.0832631570e+01   2.5412542629e+01    0.5035691    0.2505338  58.68   0.00190417    3.047    0.672
       226  -9.2788     81.8781    154.7379   8.3869035666e+01   3.3096724845e+01     0.498163    0.2642444  61.87  0.001835386    2.491    0.599
       227 -10.7627     75.8211    169.8025   8.7606339543e+01   3.0556906473e+01     1.161439    0.4686988 -80.40  0.003706145    4.781    0.791
       228  -8.2647     78.8952    158.3511   8.5238324315e+01   3.2705887658e+01    0.2754529    0.1743146  17.10  0.001267924    1.939    0.484
       229  -8.5960    224.5801    173.9415   5.6148250115e+01   7.0621877565e+00    0.2066991    0.1275714 -38.68  0.000925442    1.791    0.442
       230  -8.0317    247.3209    173.6863   5.2740681306e+01   4.1617138783e+00    0.2004766   0.09189817 -25.59 0.0005966809    1.854    0.461
       231  -9.6000    175.7708    172.0443   6.4349487397e+01   1.4477832056e+01    0.3254327    0.2368963 -33.53 0.0009358521    1.400    0.286
       232  -8.3999    142.9909    172.4672   7.1277807278e+01   1.9653006661e+01    0.1963042    0.1749593 -37.14 0.0004895126    1.230    0.187
       233  -8.8453    134.7767    171.5688   7.2986552502e+01   2.1147930141e+01    0.2436614    0.2188633  84.87 0.0008598731    1.410    0.291
       234  -9.2325     45.1769    170.9897   9.6155900535e+01   3.4137710835e+01    0.3716848    0.1845024  69.56  0.001303959    2.267    0.559
       235  -8.9786    230.3225    169.2923   5.4433007265e+01   6.8702000715e+00    0.3313825    0.1461732 -39.49  0.001703926    2.411    0.585
       236  -8.4192    205.7689    170.0554   5.8512539891e+01   1.0215454655e+01    0.2400669    0.1504604 -48.59 0.0009054314    2.242    0.554
       237  -8.6580    198.7061    170.0335   5.9730456162e+01   1.1262234078e+01    0.2284228    0.1867343 -56.44 0.0008351617    1.865    0.464
       238  -9.5254    121.2953    169.9733   7.5905258233e+01   2.3633294095e+01    0.3646549    0.2584404 -73.33 0.0009510444    1.933    0.483
       239  -8.4994    149.9438    169.4319   6.9215691986e+01   1.9061623145e+01    0.2235952    0.1912286 -74.15 0.0008245545    1.610    0.379
       240  -8.3248    237.3321    169.0605   5.3349867529e+01   5.9703442386e+00    0.1646965    0.1170237 -20.17 0.0009333374    1.178    0.151
       241  -9.1515    167.0428    168.4234   6.5431586634e+01   1.6448643103e+01    0.2997057    0.2153665  59.97  0.001188619    2.056    0.514
       242  -8.5526    218.8817    167.9987   5.5974941525e+01   8.6089292256e+00    0.1994021    0.1452749 -29.91 0.0006596067    1.340    0.254
       243  -7.9754    211.4882    168.0030   5.7177011634e+01   9.6640313172e+00    0.1528688   0.09968691 -52.05 0.0007372963    2.474    0.596
       244  -8.5448    111.5392    167.2113   7.7866233620e+01   2.5753066373e+01    0.2801522    0.1884611  64.13  0.001001782    1.915    0.478
       245  -8.1842     88.6716    168.3635   8.3964436148e+01   2.9035495797e+01    0.2189625    0.1439988  60.99 0.0009365813    1.684    0.406
       246  -9.1368    191.8672    166.4919   6.0299366338e+01   1.2816083967e+01     0.244292    0.1720602 -39.81 0.0006004439    1.537    0.349
       247  -8.8778    185.0689    166.4761   6.1550937987e+01   1.3879006517e+01    0.2206229    0.1693364 -46.85 0.0004971619    1.596    0.374
       248  -8.2013     13.3048    167.6475   1.0478189816e+02   3.8017880206e+01    0.1423898   0.07006589  56.84 0.0007041148    1.709    0.415
       249  -9.6950    137.0248    164.3268   7.1212916167e+01   2.2134266647e+01     0.625558     0.280214  53.12  0.002246543    3.403    0.706
       250  -9.9447     94.9050    162.5437   8.1453564164e+01   2.9360581797e+01    0.7909192    0.3996576  66.95  0.002632845    4.075    0.755
       251  -9.0480     20.5416    165.9747   1.0268068756e+02   3.7786429831e+01    0.3341254    0.1297845  47.83  0.001367352    2.084    0.520
       252  -8.3272    234.0470    164.6864   5.3040172345e+01   6.9394314161e+00    0.1890553    0.1328303 -30.74 0.0006303467    1.378    0.274
       253  -8.7759    159.5146    164.0275   6.6181935933e+01   1.8423468605e+01    0.2392166    0.2115918 -72.25 0.0007817427    1.542    0.351
       254  -9.4806     33.5063    163.2297   9.8814014751e+01   3.7195677523e+01    0.6007699     0.168079  48.70  0.002200047    3.064    0.674
       255  -8.2208    240.0619    164.0072   5.2042107564e+01   6.2211240512e+00    0.1568969    0.1316978 -41.99 0.0006249563    1.681    0.405
       256  -8.5774    212.9368    163.4849   5.6100874824e+01   1.0065421507e+01    0.2062452    0.1509986 -38.50 0.0005921681    1.518    0.341
       257  -9.1535    241.7631    154.0754   4.9966007106e+01   7.1999901057e+00    0.2866969    0.2263097  86.68    0.0016498    3.200    0.687
       258  -8.8416    246.2010    162.6084   5.0923709503e+01   5.5875392643e+00    0.2372134     0.123159 -28.83 0.0005930937    1.608    0.378
       259  -9.8692    249.6228    157.1867   4.9466269527e+01   5.7831288193e+00    0.3122533    0.2508384 -45.34  0.001317331    1.793    0.442
       260  -8.9287    245.4677    158.5100   5.0276119433e+01   6.1690333555e+00    0.1881232    0.1382751 -13.92 0.0006836781    1.058    0.055
       261  -8.4312    204.8898    162.4065   5.7241787222e+01   1.1413846314e+01    0.1981937    0.1511986 -32.41 0.0005436441    1.328    0.247
       262  -9.3177      3.1560    162.1377   1.0738659248e+02   4.0080572818e+01    0.4247741    0.1451237  50.10   0.00190545    2.260    0.558
       263  -9.1413    177.4989    160.4012   6.1850250627e+01   1.6048392421e+01    0.2553481    0.2242797 -51.32 0.0008308304    1.437    0.304
       264  -8.6835    151.6684    160.8246   6.7271719201e+01   2.0306316702e+01    0.2388455    0.2029281  89.74 0.0008172551    1.690    0.408
       265  -8.8195     60.7739    159.8969   9.0615605574e+01   3.4836340423e+01    0.4036942    0.1815047  57.45   0.00140555    2.556    0.609
       266  -8.7628    227.3140    158.6846   5.2934015927e+01   8.6271244877e+00    0.2568283    0.1598951 -41.09  0.001060425    1.811    0.448
       267  -8.3125    237.0514    158.8342   5.1523033813e+01   7.2556458088e+00    0.1659639    0.1387902 -23.33 0.0006196098    1.276    0.217
       268  -8.1237    128.1232    158.5262   7.2281011656e+01   2.4762721787e+01    0.2182747     0.192477  82.58 0.0007756604    1.381    0.276
       269  -9.5565    105.6865    157.4722   7.7776813809e+01   2.8743113625e+01    0.4668741    0.3229905  76.41  0.001520275    2.024    0.506
       270  -8.5597    196.7748    157.6956   5.7749231836e+01   1.3351956530e+01    0.2104335    0.1591874 -56.30 0.0008916588    1.954    0.488
       271  -8.4492    188.1683    157.6572   5.9297447163e+01   1.4737367648e+01    0.2069557    0.1620887 -38.29 0.0005132509    1.365    0.267
       272  -9.1609    167.5566    157.0487   6.3185951872e+01   1.8262983694e+01    0.2966181    0.2376826 -80.64 0.0009001117    2.061    0.515
       273  -8.5544    217.9951    156.4854   5.3960428421e+01   1.0267973982e+01    0.2225119    0.1488189 -40.59 0.0007668409    1.648    0.393
       274  -9.1889    157.3683    155.8438   6.5085512438e+01   2.0218756320e+01    0.2341489    0.2045094 -76.11 0.0007944229    1.556    0.357
       275  -9.1873    119.7004    155.0312   7.3732610332e+01   2.6910203060e+01    0.3780166    0.2691422  82.91  0.001349703    2.158    0.537
       276  -9.0915     49.8722    155.2488   9.3289043998e+01   3.7297577674e+01    0.4296515    0.1910684  55.30  0.001452726    2.329    0.571
       277  -8.0501    204.6734    154.9115   5.5840092894e+01   1.2515679608e+01    0.1716522    0.1031405 -40.84 0.0005405712    1.750    0.429
       278  -8.5784    144.7417    154.6681   6.7649653673e+01   2.2631966014e+01    0.2927773    0.2012301  66.88  0.001019035    2.267    0.559
       279  -9.2391     68.0911    153.4485   8.7673157614e+01   3.5383436280e+01    0.4687269    0.2466475  64.30  0.001650766    2.403    0.584
       280  -9.5804    133.0324    152.7711   7.0025402644e+01   2.5053076466e+01    0.4084487    0.2947123  65.44  0.001281544    1.862    0.463
       281  -9.0596    133.5748    148.1730   6.9002817330e+01   2.5870184315e+01    0.3574606    0.2438666 -26.25  0.001714477    1.785    0.440
       282  -8.3882    151.5235    152.1129   6.5628635694e+01   2.1914106317e+01    0.2485172    0.1345993 -48.46  0.001122546    2.030    0.507
       283 -10.3176    149.0063    144.8994   6.4736503142e+01   2.3708356385e+01    0.5347974    0.3785079  89.26  0.001621045    2.755    0.637
       284  -8.8892      8.8611    153.2529   1.0539787783e+02   4.1770480759e+01    0.2778356    0.1096529  17.18  0.001182451    2.818    0.645
       285  -7.2986    223.3109    152.6514   5.2393985559e+01   9.9958417653e+00    0.1106346   0.09204493 -51.24  0.000297343    1.714    0.417
       286  -9.5730     29.4172    150.4944   9.9026500450e+01   4.0675811279e+01    0.5528489    0.2140737  66.51  0.002041738    3.038    0.671
       287  -9.2273     20.0863    152.1126   1.0198033410e+02   4.1138126835e+01    0.2299095    0.1201529  58.48 0.0009641983    1.714    0.416
       288  -8.8127      3.1080    150.5778   1.0699310679e+02   4.2829018800e+01    0.3265282    0.1269209  88.82  0.001245343    2.381    0.580
       289  -8.1796    182.6492    151.1004   5.9035692283e+01   1.6682418110e+01    0.1962049    0.1602737 -52.89  0.001142803    1.546    0.353
       290  -8.5690     98.3995    150.7598   7.8601178965e+01   3.1408886860e+01    0.2763199    0.2081102  65.84 0.0007936687    1.492    0.330
       291  -9.5136    248.8581    149.1681   4.8076701425e+01   6.8361899571e+00    0.2653621    0.1411977 -27.09 0.0007640307    1.528    0.345
       292  -9.3610    242.6264    149.6116   4.9003506002e+01   7.6293957591e+00    0.3150043    0.2024715  39.57  0.002025756    1.776    0.437
       293  -8.7733    189.2598    149.7083   5.7523769133e+01   1.5790111138e+01    0.2364376    0.1840689 -51.98 0.0007191644    1.637    0.389
       294  -8.0382    162.2307    150.2092   6.2937562749e+01   2.0365822029e+01    0.1770545    0.1650369  83.54 0.0007585656    1.383    0.277
       295  -8.2897    212.9971    149.3824   5.3376510851e+01   1.2003406002e+01    0.1657019    0.1421715   7.62 0.0004122073    1.106    0.096
       296  -8.3019    198.6812    148.8577   5.5670531945e+01   1.4361675694e+01    0.1769659    0.1451531 -25.92 0.0005495832    1.157    0.136
       297  -9.9662     89.3865    146.2081   8.0362561574e+01   3.3907009550e+01    0.6906236    0.3892346  81.84  0.002448863    3.418    0.707
       298  -9.6658     39.9331    147.6530   9.5523694387e+01   4.0292500411e+01    0.5040731    0.2233878  59.04  0.001568716    2.408    0.585
       299  -9.4360    233.4897    147.1943   4.9824321449e+01   9.2224191905e+00    0.2908228   0.09898391 -32.53 0.0008772467    2.520    0.603
       300  -8.9359     78.0791    147.1381   8.3812800013e+01   3.5443892638e+01    0.3214669    0.2202279  86.58  0.001084127    1.757    0.431
       301 -10.3863     55.0055    144.1201   9.0413575065e+01   3.9386980163e+01     1.002841    0.4890211  71.11  0.003755521    2.872    0.652
       302  -8.9260     57.9940    134.7642   8.8176788830e+01   4.1338640598e+01    0.3172395    0.1829007  16.79  0.001345944    2.200    0.546
       303  -8.3516    223.3078    146.7030   5.1232865006e+01   1.0791550143e+01    0.2047347    0.1258203 -31.87 0.0005880003    1.446    0.308
       304  -9.7081    139.1641    144.7985   6.6989621139e+01   2.5526116986e+01    0.4034895    0.2889904 -79.69  0.001331818    2.267    0.559
       305 -10.1333    106.5879    144.3418   7.5203735877e+01   3.1459343503e+01    0.6757365    0.3926095  69.01   0.00242469    3.036    0.671
       306  -7.9922    105.3237    138.3778   7.4409034928e+01   3.3012953918e+01    0.2065076    0.1478103  20.33 0.0009655158    1.631    0.387
       307  -8.0698    206.6971    146.1818   5.3768000793e+01   1.3455690052e+01    0.1861189    0.1451501 -41.37 0.0006438122    1.429    0.300
       308  -8.2865    175.7142    146.1309   5.9362969648e+01   1.8690924784e+01    0.2012118    0.1652261 -54.89 0.0006925782    1.513    0.339
       309  -9.3263     13.2570    145.7271   1.0368275520e+02   4.3271912352e+01    0.3626078    0.1815418  57.46  0.001757931    1.767    0.434
       310 -10.3240    240.4786    143.1448   4.8055305816e+01   8.7335196401e+00    0.3907133    0.3161083 -10.20  0.002779783    1.043    0.041
       311  -7.8228    194.4666    143.9467   5.5410755370e+01   1.5807129336e+01    0.1696142    0.1080287 -55.61 0.0006286842    2.375    0.579
       312  -8.6929    165.9221    143.8391   6.0860833114e+01   2.0826473773e+01    0.2590339    0.2154729 -65.89 0.0008689777    1.597    0.374
       313  -9.7245    125.1021    142.5799   6.9984853456e+01   2.8543472021e+01    0.4581016    0.3352885  82.13  0.001642478    2.044    0.511
       314 -10.6174     69.4607    140.7887   8.5437981405e+01   3.8245108890e+01    0.6260902    0.4492536  87.91  0.002039611    1.541    0.351
       315  -9.8364     69.4911    134.0107   8.4348984412e+01   3.9913279490e+01     0.369112    0.2195769  17.40  0.001553046    2.180    0.541
       316  -9.2866      2.6303    141.4226   1.0678283136e+02   4.5098423844e+01    0.4249652    0.1370645  61.23  0.001498655    2.817    0.645
       317  -9.0283    247.0423    143.5824   4.7255065098e+01   7.7587176847e+00    0.2215456     0.137422 -26.83  0.000519607    1.309    0.236
       318  -8.4504    182.0642    141.3606   5.7143882506e+01   1.8361038413e+01    0.2280858    0.1824482 -57.63 0.0006886631    1.627    0.386
       319  -8.2629    250.4044    140.2883   4.6181842289e+01   7.6950079074e+00    0.1579758   0.08761359 -34.65 0.0009129941    1.583    0.368
       320  -9.7925     23.4179    137.7494   9.9894267242e+01   4.4424198220e+01    0.6124902    0.2450174  66.12  0.001918743    2.778    0.640
       321  -8.5987     15.3145    139.4097   1.0264874148e+02   4.4686409900e+01    0.3453344    0.1617253 -21.29  0.001207244    4.528    0.779
       322  -9.1895    139.4712    137.4344   6.5379415199e+01   2.6923954187e+01    0.3769649    0.2438803 -13.98   0.00158175    2.391    0.582
       323  -7.8779    218.5528    138.4792   5.0306350830e+01   1.2652663797e+01    0.1245548    0.1043612 -14.63 0.0001725496    1.029    0.028
       324  -8.3863    207.7864    137.7569   5.1860690970e+01   1.4504004969e+01    0.2241133    0.1499995 -51.57 0.0007493292    1.976    0.494
       325  -8.5717    197.6738    137.2164   5.3443927113e+01   1.6293428055e+01    0.2148336    0.1914272 -61.84 0.0009814104    1.495    0.331
       326  -8.7109    172.1766    137.7455   5.8296300141e+01   2.0746984046e+01    0.2632744    0.2042642 -61.88 0.0006508138    1.726    0.421
       327  -9.1534    150.9586    136.0210   6.2416934297e+01   2.5023470432e+01    0.5313029    0.2985018  24.16  0.002162755    2.413    0.586
       328 -10.3365     83.4390    132.8736   7.9774657847e+01   3.8028087599e+01    0.5970744    0.3824991 -72.68  0.001479612    1.774    0.436
       329  -8.9600    248.5923    134.8115   4.5349662843e+01   8.6148854347e+00    0.2357441    0.1511354 -31.12 0.0007411654    1.317    0.240
       330  -8.7861    250.7933    129.9258   4.4108416171e+01   8.9003223844e+00    0.3499202   0.08824072 -28.64  0.001310272    3.676    0.728
       331  -7.5509    192.4936    136.4974   5.4198416917e+01   1.7304283782e+01    0.1323047     0.117313  -9.17  0.000810643    1.008    0.008
       332  -8.3912    162.6384    136.1405   5.9903860926e+01   2.2797844513e+01    0.2072053    0.1695032 -54.77 0.0005256727    1.418    0.295
       333  -9.2978     39.1662    135.8601   9.4517213620e+01   4.3345283353e+01    0.3015245    0.1975268  60.05 0.0008362209    1.460    0.315
       334  -8.1693    187.5957    135.4866   5.4863755378e+01   1.8331007785e+01    0.1326509    0.1185133 -13.65 9.471391e-05    1.029    0.028
       335  -7.8675    231.4903    133.9763   4.7482836563e+01   1.1242691565e+01     0.180165    0.1012463 -29.93 0.0004362481    1.502    0.334
       336  -8.6217    179.3772    133.7272   5.6016663844e+01   2.0107260454e+01    0.2558046    0.2145605 -71.90 0.0006238549    1.665    0.399
       337  -8.8626    112.7483    133.0061   7.1268057154e+01   3.2871755441e+01    0.3330045    0.2340234  67.14 0.0008856542    1.819    0.450
       338  -8.0267    237.4217    133.2314   4.6510526744e+01   1.0440934220e+01    0.1692316   0.09355316 -37.78 0.0009410346    1.675    0.403
       339  -9.8627    132.5373    131.2747   6.5726669031e+01   2.9493715122e+01    0.5061955    0.3617582  85.58  0.001091462    2.282    0.562
       340  -9.1512    143.1198    131.5026   6.3220499419e+01   2.7399803332e+01    0.2824557    0.2459499 -68.87 0.0006949785    1.352    0.260
       341 -10.1704     97.9679    129.5681   7.4749958810e+01   3.6338425302e+01    0.6672593     0.314372 -55.01  0.002384772    2.194    0.544
       342 -10.4371     60.1256    125.0656   8.5954857009e+01   4.3515318758e+01    0.8275275    0.4270067  72.84  0.002952409    3.007    0.667
       343 -10.1021     12.8128    128.2976   1.0274063479e+02   4.7708947555e+01     0.662612    0.2615687  73.09  0.002269118    2.680    0.627
       344  -8.3861    246.9697    129.9542   4.4595990089e+01   9.4470129036e+00    0.1827756    0.1373169 -22.57 0.0006000887    1.068    0.064
       345  -8.0292    204.4922    130.0455   5.0764549582e+01   1.6201916486e+01    0.1961101    0.1148111 -35.56  0.001011059    1.560    0.359
       346  -8.2434    192.9061    130.1487   5.2752515545e+01   1.8229523640e+01    0.1912182    0.1732493 -40.05 0.0004523683    1.216    0.178
       347  -9.0204    168.4009    129.3519   5.7206876278e+01   2.2916484217e+01    0.2741966    0.2279759 -80.02 0.0007869432    1.685    0.406
       348  -9.6476    153.0024    128.1074   6.0196101949e+01   2.6128610760e+01    0.6365341    0.2568681 -41.97  0.002015976    2.481    0.597
       349  -9.8179     73.2366    128.8463   8.2259139944e+01   4.0634011238e+01    0.4863032    0.3211242  85.18  0.001236339    1.891    0.471
       350  -8.0551      1.5785    129.8194   1.0663269696e+02   4.8069798601e+01    0.1905728    0.1017977  76.23 0.0006888123    1.660    0.398
       351  -7.6666    220.5154    129.5476   4.8156748453e+01   1.3579399840e+01    0.1255131    0.1055534 -15.84 7.008103e-05    1.013    0.013
       352  -7.9271    211.7969    129.2068   4.9414674391e+01   1.5075918754e+01    0.1922788    0.1330217 -66.46 0.0009315951    2.694    0.629
       353  -7.9303    186.6783    129.3132   5.3681944427e+01   1.9493938020e+01      0.12841    0.1078694 -71.12 0.0007039375    1.655    0.396
       354  -9.6649    163.8706    126.9618   5.7595593654e+01   2.4216814312e+01    0.5074162    0.2665606 -22.18  0.001915598    2.866    0.651
       355 -10.8202     44.9817    123.1697   9.0919594592e+01   4.5963181656e+01     1.277652    0.5406033  69.94  0.003903636    4.168    0.760
       356  -9.8219    117.8959    124.9925   6.8119215807e+01   3.3664855975e+01    0.5289447    0.3469712  71.36  0.001376625    2.329    0.571
       357  -9.6135    235.1234    124.8861   4.5116161371e+01   1.1877029763e+01     0.236409    0.2198608 -84.02  0.001665047    1.560    0.359
       358  -7.5648    228.6639    125.3157   4.6091850156e+01   1.2841197513e+01    0.1174473   0.09111709 -54.10 0.0007047611    1.695    0.410
       359  -8.9749    179.1633    124.4479   5.3981672913e+01   2.1705030350e+01    0.2666348    0.2340059 -69.05 0.0006506175    1.443    0.307
       360 -10.2908     28.5870    122.1651   9.6646837333e+01   4.7979526296e+01    0.9277407     0.352797  67.40   0.00303672    3.692    0.729
       361  -7.6833    243.7756    123.9935   4.3800618696e+01   1.0666140813e+01    0.1575984   0.08052658 -29.49 0.0004629704    1.591    0.371
       362  -7.9657    188.5774    123.7781   5.2099433075e+01   2.0038300848e+01    0.1864832    0.1192873 -44.23  0.000384889    1.603    0.376
       363  -8.7201     85.2146    122.3753   7.7170465085e+01   4.0284459267e+01    0.4483049    0.2642706  13.23  0.001639748    2.882    0.653
       364  -8.7618    171.9990    121.4437   5.4670746092e+01   2.3606375916e+01    0.2520527    0.1862473 -51.09 0.0004047379    1.500    0.333
       365  -9.2194    158.6450    121.4029   5.7405887609e+01   2.6265106114e+01    0.3031392    0.2468355  84.08  0.001046924    1.679    0.405
       366  -7.8609    203.2425    121.6378   4.9124458623e+01   1.7686034104e+01    0.1281887   0.09476058 -51.50 0.0003407219    1.601    0.375
       367 -10.6158    131.0117    117.8040   6.2990388033e+01   3.2592310841e+01    0.7124733    0.4541556 -66.67  0.002195998    2.220    0.550
       368 -10.1658    133.3419    108.8648   6.0168947556e+01   3.3960995584e+01    0.7197155    0.3430948 -51.80  0.002691161    2.342    0.573
       369  -7.6382    247.7064    120.3225   4.2560454162e+01   1.0537309026e+01    0.1130613   0.08051994 -46.33 0.0003422333    1.614    0.381
       370 -10.1042    141.6558    117.7042   6.0352354927e+01   3.0430968838e+01    0.6437644    0.3135044 -47.92  0.001266093    2.137    0.532
       371  -9.6553     70.9221    119.2653   8.1239615309e+01   4.3398962578e+01    0.4055902    0.2615381 -79.78  0.001231291    1.791    0.442
       372  -8.3299     14.6500    119.6937   1.0145324127e+02   4.9808311969e+01    0.1381333   0.09492031 -43.22 0.0003885499    1.706    0.414
       373  -9.5132      2.8710    116.9892   1.0555096629e+02   5.1287810597e+01     0.536593     0.189801  62.65  0.002077115    2.781    0.640
       374  -8.2177    231.5705    117.7093   4.4085238998e+01   1.3392531943e+01    0.1724598   0.09792258 -37.89 0.0007837182    1.574    0.365
       375  -8.0423    185.5892    115.7531   5.0780677816e+01   2.1912100835e+01     0.190318    0.1207521 -44.22 0.0004301784    1.585    0.369
       376 -10.2848    109.3038    113.0941   6.7727517358e+01   3.8008177606e+01    0.8452279    0.4088292 -57.54  0.002368272    2.388    0.581
       377  -8.7749     59.0606    115.1263   8.4592467912e+01   4.6228033003e+01    0.3237054    0.2094533 -26.43  0.001357169    2.301    0.565
       378  -8.3875    192.9639    115.1948   4.9363257794e+01   2.0583700541e+01    0.1992143    0.1740749 -49.91 0.0004681998    1.263    0.208
       379 -10.1031     92.8128    112.3145   7.2539332119e+01   4.1367078818e+01    0.5161999    0.3564234 -77.47  0.001402537    1.813    0.448
       380  -8.2601    250.1197    114.5225   4.1081855174e+01   1.0895410665e+01    0.1486891    0.1159381  41.42  0.001017928    1.549    0.355
       381  -8.1663    167.4254    114.2518   5.3865335538e+01   2.5787052035e+01    0.1939913    0.1307911 -47.01 0.0003671492    1.530    0.346
       382  -9.9124     78.9145    112.2055   7.7068553743e+01   4.3870656372e+01     0.575489      0.36494  77.13  0.001792842    2.284    0.562
       383  -9.9241    122.0721    112.2291   6.3950133193e+01   3.5611578590e+01    0.3793689    0.2579059 -57.18 0.0005468063    1.606    0.377
       384  -8.3872    174.9252    111.9161   5.1829692337e+01   2.4671212126e+01    0.2173451    0.1690307 -66.94 0.0006315073    1.677    0.404
       385  -8.7697    159.2088    111.6229   5.4910999624e+01   2.7956866789e+01    0.2880914    0.2133591 -62.91 0.0007162273    1.688    0.408
       386  -9.8741     14.2610    111.0572   1.0086808391e+02   5.2113276770e+01    0.4479077    0.2114008  61.96  0.001660014    2.152    0.535
       387 -10.2249     66.3198    109.4224   8.0866886742e+01   4.6625321964e+01    0.6007587    0.3356459 -66.58  0.002195035    1.841    0.457
       388  -7.7208    149.9931    109.7540   5.6447456497e+01   3.0245907082e+01     0.189817    0.1252014  46.57 0.0004386341    1.537    0.350
       389  -9.0581     42.5805    109.2958   8.9700631911e+01   4.9903307923e+01    0.3695416    0.1451129  17.36  0.001211987    3.609    0.723
       390  -9.7394    248.5573    107.7306   3.9855233629e+01   1.1978306948e+01    0.2540855    0.2090205 -22.45  0.001785726    1.049    0.047
       391  -8.1777    189.3575    107.7479   4.8213904474e+01   2.2470701248e+01     0.189875    0.1212739 -26.65 0.0004599656    1.533    0.348
       392 -10.8428    109.6886     98.9687   6.3956954736e+01   4.1116151018e+01     1.231517    0.5874045  63.29  0.003444427    4.411    0.773
       393  -9.0369    107.7906     92.3068   6.2645945272e+01   4.3005524175e+01    0.5628972    0.3262677  27.07  0.002071847    2.513    0.602
       394 -10.5360     45.6966    102.1039   8.7234739868e+01   5.1436194729e+01    0.8561011    0.3985792  63.73  0.002896782    3.257    0.693
       395 -10.7149     22.7002    102.1561   9.6570912758e+01   5.3830449365e+01    0.8684667    0.3688647  68.17  0.002710131    3.017    0.669
       396  -9.5603    150.6775    102.7593   5.4483972667e+01   3.1432813834e+01    0.4957482     0.297235 -62.52   0.00170742    2.451    0.592
       397  -9.4828    139.8720    104.4174   5.7409381737e+01   3.3460075057e+01    0.3455621    0.2707807 -81.68 0.0008533934    1.677    0.404
       398  -8.4917    166.8202    104.0577   5.1441884456e+01   2.7721096454e+01    0.2226336     0.188427 -60.28 0.0006016607    1.315    0.240
       399  -9.9727    248.6825    102.6128   3.8763740125e+01   1.2596064270e+01    0.2547187    0.2158767 -28.41  0.001810481    1.110    0.099
       400  -8.8928      6.7065    102.8577   1.0315695740e+02   5.4781103247e+01    0.2771353    0.1608676  60.79 0.0007142352    1.649    0.393
       401  -7.9057    175.6333    101.8191   4.9185007866e+01   2.6247986932e+01    0.2029568    0.1229092 -44.65 0.0004908289    1.629    0.386
       402  -8.4934    159.9363    100.9050   5.2015927835e+01   2.9763244551e+01    0.2266529    0.1761807 -70.53  0.000595774    1.626    0.385
       403  -9.1945     82.0804     99.9045   7.3070704923e+01   4.6363834171e+01    0.4022576    0.2735781 -82.15 0.0009155904    1.917    0.478
       404  -8.6460     78.6612    104.6278   7.5421257258e+01   4.5804685276e+01    0.2344357    0.1855425 -16.24 0.0009873959    1.672    0.402
       405  -9.1188     95.1204     96.8807   6.7888253682e+01   4.4593746712e+01    0.3373038    0.2599806 -72.62 0.0007303025    1.466    0.318
       406  -8.6963    151.8276     94.7291   5.2069673520e+01   3.2686788996e+01    0.2385689    0.1861101  27.96  0.001078249    1.473    0.321
       407  -8.2178    164.9170     93.9467   4.9165019241e+01   2.9913554760e+01    0.2277146    0.1724177 -67.44 0.0005049267    1.632    0.387
       408  -9.1563    120.4942     93.0816   5.9235072182e+01   4.0056107848e+01    0.3069024    0.2645676 -19.17  0.001016845    1.321    0.243
       409  -9.8133    124.6351     90.7064   5.7434802201e+01   3.9625407897e+01    0.4578761    0.3344945 -68.89  0.001019215    1.690    0.408
       410 -10.1777     64.0364     95.9818   7.8717171340e+01   5.0439035085e+01     0.665493    0.3933311  87.10  0.001570132    2.671    0.626
       411  -9.4625     45.6198     92.5850   8.5390440846e+01   5.3972003115e+01    0.5261542    0.3191576  -8.33  0.002055626    2.774    0.639
       412  -9.7998    128.5669    101.8775   5.9541554490e+01   3.6434111337e+01    0.3800561    0.2943689 -89.59 0.0009517675    1.708    0.414
       413  -7.7857    188.5463     93.4951   4.4817803688e+01   2.4906481553e+01    0.1404349    0.1261026 -40.67 0.0001335892    1.070    0.065
       414  -8.1972    176.4826     92.9968   4.6751086320e+01   2.7548246310e+01    0.2183816    0.1318934 -37.95 0.0006976554    1.538    0.350
       415  -9.2377    139.2350     92.1903   5.4209163185e+01   3.6014903960e+01    0.3882259    0.2777549 -75.06  0.000931074    1.937    0.484
       416  -9.6530     34.9469     89.6466   8.9407135252e+01   5.6015860156e+01    0.5614557    0.2886667  80.66  0.001722838    2.712    0.631
       417  -9.6750      5.2259     91.5256   1.0285107995e+02   5.7879594063e+01     0.386978    0.1806735  55.59  0.001252567    2.169    0.539
       418  -8.0797    157.7946     91.3151   4.9872948851e+01   3.1969289055e+01    0.2095414    0.1756553 -43.46 0.0003870068    1.154    0.134
       419  -9.0489     22.8780     89.6571   9.4782361827e+01   5.7177280169e+01    0.2861034    0.2605214   4.02  0.001143452    1.254    0.202
       420  -7.8882    151.2103     88.9377   5.0586837666e+01   3.3896558726e+01    0.2034236    0.1172361 -39.51  0.000435418    1.676    0.403
       421  -9.8669     86.6320     86.4119   6.7778986752e+01   4.8757221094e+01    0.5583511     0.384811  87.75  0.001314468    2.155    0.536
       422  -8.1093     86.9959     80.5207   6.5859286144e+01   5.0063702663e+01    0.2608721    0.2002097  -0.06  0.001070953    1.874    0.466
       423  -7.7145    164.2296     86.9707   4.7393342198e+01   3.1280519742e+01    0.1935904    0.1169691 -37.04 0.0004560058    1.570    0.363
       424  -8.8616     65.4590     87.0417   7.5893076474e+01   5.2486820817e+01    0.3149537    0.2020998   9.61  0.001210852    2.441    0.590
       425  -9.6508     48.5007     84.0075   8.2213041682e+01   5.5848599673e+01     0.588208    0.3269096  68.01  0.001675041    2.700    0.630
       426  -7.5504    179.3217     85.6511   4.4307550477e+01   2.8132802459e+01    0.1506804    0.1058617 -63.28 0.0007048915    1.742    0.426
       427  -9.7331    104.7449     82.8927   6.0747397324e+01   4.5745592543e+01     0.499975    0.3227479 -66.43 0.0008266282    2.007    0.502
       428  -8.3472    105.4171     76.7857   5.8592693402e+01   4.6912369675e+01    0.2863759    0.2072812   9.71  0.000710085    2.151    0.535
       429  -8.3199    157.9903     83.5851   4.7660854786e+01   3.3296955826e+01    0.2353022    0.1862317 -37.87 0.0004169037    1.212    0.175
       430  -9.1868    141.0057     82.3161   5.0915168481e+01   3.7496098972e+01    0.4230279     0.227606 -46.23  0.001194861    1.863    0.463
       431  -9.4125     10.1957     81.0803   9.9490783642e+01   6.0397254706e+01    0.4542657    0.1836728  56.22  0.001741053    2.837    0.647
       432  -7.8603    185.3237     82.3077   4.2427430721e+01   2.7349805757e+01    0.1412259    0.1083989  12.99  0.000302178    1.647    0.393
       433  -8.1471     64.0544     82.3263   7.5163494032e+01   5.3909026575e+01    0.2111735    0.1973867  74.44 0.0006678213    1.072    0.067
       434  -9.5011     24.5634     80.2254   9.2446398375e+01   5.9564497801e+01    0.5219069    0.2675313  82.20  0.001557838    2.450    0.592
       435  -8.3016    150.2845     80.1765   4.8245658434e+01   3.5700746506e+01    0.3265115    0.1613538 -47.03 0.0009888001    2.073    0.518
       436  -8.7254    119.3600     80.0428   5.5617973579e+01   4.3025498712e+01    0.3270368    0.2288639 -63.63 0.0008068444    1.696    0.411
       437  -8.9392     74.4381     80.0473   7.0357782594e+01   5.2632394624e+01    0.4193752    0.2497649 -69.33  0.001367155    2.133    0.531
       438  -8.1474    166.9495     79.5074   4.4789856010e+01   3.1924770073e+01    0.2222322    0.1837967 -40.18  0.000420955    1.140    0.122
       439  -8.0456    184.2023     78.2774   4.1524123576e+01   2.8221319971e+01    0.2299541   0.08890194 -41.48 0.0005400961    2.359    0.576
       440  -7.9654    157.3647     76.1634   4.5626531584e+01   3.4728891645e+01    0.2115234    0.1283211 -45.87 0.0003787411    1.616    0.381
       441  -9.3663    128.1311     75.1439   5.1769853064e+01   4.1920973134e+01    0.3691095     0.254251 -62.03 0.0006386107    1.712    0.416
       442 -10.0369     63.1708     73.3451   7.2863609037e+01   5.6288517281e+01    0.5332361    0.3389781 -73.51  0.001312447    1.965    0.491
       443  -8.4685    140.5079     75.0782   4.8818683651e+01   3.8954369169e+01    0.2326564    0.1474311 -39.63 0.0005927394    1.536    0.349
       444  -9.7088     82.5646     71.5842   6.4546673510e+01   5.3025120129e+01    0.7999856    0.3540948 -49.83  0.002277801    2.259    0.557
       445  -8.2834    163.5037     73.0814   4.3563162443e+01   3.3793016401e+01    0.2275859    0.1379817 -37.45  0.001013008    1.549    0.355
       446  -8.0027    151.3988     73.2036   4.5921867788e+01   3.6662165004e+01    0.2203432    0.1311778 -46.86 0.0007795956    1.671    0.401
       447  -8.5443    115.7354     72.7121   5.4240415640e+01   4.5357251460e+01    0.3046105    0.2009296 -50.87 0.0004785773    1.560    0.359
       448  -7.6278    175.4697     72.4799   4.1323399798e+01   3.1095201499e+01    0.1433353    0.1349646 -32.20 0.0003208041    1.051    0.048
       449  -8.9815    105.8921     71.6515   5.6736289896e+01   4.7881462483e+01    0.2957674    0.2222256 -54.38 0.0006221917    1.372    0.271
       450  -9.2302     95.1919     71.0410   5.9923498991e+01   5.0439807714e+01    0.3803808    0.2527408 -62.38 0.0009160783    1.774    0.436
       451  -8.1575     42.7665     72.5754   8.1919729273e+01   5.9588333227e+01    0.1967538    0.1321572  43.93 0.0003636777    1.551    0.355
       452  -9.3987     51.5206     69.4125   7.6849686096e+01   5.9154317701e+01    0.4980897    0.2976887 -82.81  0.001479276    2.465    0.594
       453  -9.2888     29.8504     69.5887   8.7604817858e+01   6.1881405565e+01    0.4902862    0.2434047 -18.68  0.001662372    3.791    0.736
       454  -8.9882     16.7639     70.0008   9.4531937252e+01   6.2924543713e+01    0.3208446     0.192145  83.40 0.0008156514    1.814    0.449
       455  -7.5656    170.3175     70.6579   4.1660116196e+01   3.2579639156e+01     0.155755    0.1063192 -63.04 0.0005605673    1.714    0.417
       456  -9.1402    146.8880     68.1963   4.5289949623e+01   3.8620959673e+01    0.3688619    0.2462265 -33.27  0.001079595    1.496    0.332
       457  -8.8108    138.7158     66.1532   4.6371014725e+01   4.0989908090e+01    0.3876395    0.1963151 -38.47  0.001259602    1.908    0.476
       458  -8.9270    121.7316     65.6914   5.0258416271e+01   4.5269821442e+01    0.3071128    0.2362273 -59.39 0.0006458701    1.389    0.280
       459  -7.3034    163.6769     65.6710   4.1329000171e+01   3.4949352377e+01    0.1498386    0.1152322  18.35 0.0002744252    1.695    0.410
       460  -9.1826     37.3418     63.9898   8.2240220187e+01   6.2483163650e+01    0.3198239    0.2433887  83.05  0.001035284    1.523    0.343
       461  -7.6739    131.0107     64.4961   4.7569946865e+01   4.3195594771e+01    0.2062284    0.1354003  89.76 0.0004937301    2.237    0.553
       462  -9.0711    110.1530     63.3791   5.2589503468e+01   4.8532493512e+01    0.3281414    0.2467936 -47.33 0.0005448623    1.329    0.248
       463  -8.8525     64.6246     62.8055   6.8692115858e+01   5.8552694300e+01    0.4834104    0.3034368  -1.51  0.001645207    3.513    0.715
       464  -8.0697    158.1995     61.7777   4.1104897829e+01   3.6899852122e+01    0.1926543    0.1742446  10.64 0.0004281611    1.274    0.215
       465  -9.2601     97.6574     60.4447   5.5303307747e+01   5.2084401966e+01    0.3195919    0.2615405  67.62 0.0008316914    1.299    0.230
       466  -9.6272     73.4082     59.2763   6.3666188560e+01   5.7655173683e+01    0.4474498    0.2865281 -62.21 0.0009959427    1.845    0.458
       467  -7.9843     51.6384     61.6733   7.4285124990e+01   6.1045262811e+01    0.1568648    0.1133977 -20.44 0.0007041279    1.791    0.442
       468  -8.0010    146.8519     58.8280   4.2284195030e+01   4.0194860814e+01     0.212467     0.168914 -61.60 0.0004721697    1.302    0.232
       469  -7.9979     89.1561     59.2351   5.7695607538e+01   5.4283764592e+01    0.2148576    0.1815777 -81.14 0.0005827891    1.351    0.260
       470  -8.0114    130.7848     57.7561   4.5310562622e+01   4.4433237045e+01    0.2168794     0.173869 -69.33 0.0005770067    1.358    0.263
       471  -9.8100     23.4506     56.2033   8.7756728846e+01   6.5984644181e+01    0.5090302    0.2824942  72.08  0.002063262    2.653    0.623
       472  -9.3132      7.5349     56.8892   9.7391072376e+01   6.6958499013e+01    0.3379007    0.2037218  73.50  0.001168704    1.842    0.457
       473  -8.4749    140.1302     56.0398   4.2699643772e+01   4.2347675958e+01    0.3284558    0.1715776 -48.42 0.0007459729    1.987    0.497
       474  -8.6963    108.2047     56.8742   5.0757097593e+01   5.0244368842e+01    0.2304101    0.2039515 -71.48 0.0003298761    1.182    0.154
       475  -8.5156    105.8596     53.1059   4.9990358821e+01   5.1517446516e+01    0.3448671    0.2306176 -70.67 0.0009218741    2.056    0.514
       476  -7.6884    193.5382     56.5087   3.4244665544e+01   2.9299629543e+01     0.139457    0.1231899 -45.05 1.247349e-05    1.006    0.006
       477  -8.7719    119.2110     55.6759   4.7346479827e+01   4.7721289013e+01    0.3194598    0.2171774 -62.04 0.0007437809    1.733    0.423
       478  -8.7890     44.2613     55.3125   7.5795653072e+01   6.3709433161e+01    0.3068625    0.2250224 -69.74 0.0008730832    1.463    0.316
       479  -9.2795     62.7699     53.5875   6.6014462595e+01   6.0998182269e+01    0.6379944    0.2133927 -52.41  0.002022962    3.194    0.687
       480  -9.1052     53.9583     53.3973   7.0116953601e+01   6.2624599327e+01    0.4595683    0.2155613 -62.47  0.001181963    2.752    0.637
       481  -8.7722    250.3819     54.1913   2.8003325501e+01   1.8142801375e+01    0.1828921   0.08143577 -37.10 0.0009500734    1.675    0.403
       482  -9.4525     92.4715     50.2611   5.2997997602e+01   5.5291136471e+01    0.4523166    0.2553183 -51.55  0.001102105    1.959    0.490
       483  -8.2878    144.8011     49.0027   3.9385514728e+01   4.2261019525e+01    0.2079397    0.1160562 -32.55 0.0008622073    1.763    0.433
       484  -8.0387    129.8432     48.7987   4.2325568819e+01   4.6158393268e+01    0.2139348    0.1714703 -63.36 0.0004546395    1.303    0.233
       485  -8.6936    120.8580     47.1807   4.3765010133e+01   4.8743832944e+01    0.2346093    0.2016876 -66.64 0.0005463558    1.196    0.164
       486  -8.0314    112.4714     46.9031   4.5743370482e+01   5.0944489079e+01    0.2266535     0.149254 -38.44 0.0007297631    1.514    0.340
       487  -9.0442     82.3225     46.3496   5.4891956764e+01   5.8399396830e+01    0.3394637     0.249786 -63.30 0.0008449566    1.613    0.380
       488  -8.6405     45.0289     44.4954   7.1150133334e+01   6.6126077168e+01    0.2617601    0.1983908 -70.69 0.0006421905    1.536    0.349
       489  -8.6386     16.8397     44.3839   8.8573711201e+01   6.9554404336e+01     0.222783    0.1778161 -84.02 0.0005477404    1.308    0.235
       490  -8.3634    132.6610     43.0120   3.9613706590e+01   4.6321043981e+01    0.2185445    0.1879909 -39.59 0.0004548688    1.155    0.134
       491  -9.3518     69.6260     41.1257   5.7559639832e+01   6.2216518467e+01    0.4871593    0.2793655 -52.99  0.001444956    1.978    0.494
       492  -8.8397     58.2775     42.5867   6.3402484672e+01   6.4222810470e+01    0.2988957    0.2347284 -82.38 0.0008736124    1.701    0.412
       493  -9.6416      5.2268     41.8994   9.5941901637e+01   7.0929452948e+01    0.3934465    0.2103169  84.12  0.001429612    2.192    0.544
       494  -8.8085     92.8933     42.2629   4.9470056071e+01   5.6644938562e+01    0.2891179    0.2062376   0.39  0.001231528    2.058    0.514
       495  -9.1108    106.0139     40.5613   4.4878140910e+01   5.3642109478e+01    0.4108918    0.2328723 -26.40  0.001341126    2.002    0.500
       496  -8.5616     36.9267     40.4931   7.4141573485e+01   6.8251547160e+01    0.2583839    0.1979477 -74.72 0.0009042257    1.544    0.352
       497  -8.6254     95.7315     37.8951   4.6661596853e+01   5.6682117715e+01    0.2830061    0.1950609 -54.21 0.0007003554    1.605    0.377
       498  -8.4098     80.6954     36.5797   5.1043566342e+01   6.0561959241e+01    0.2504018    0.1730335 -56.43 0.0007066942    1.679    0.404
       499  -7.6006    133.6749     36.3005   3.6922081828e+01   4.7025271645e+01    0.1592589    0.1089648 -66.28 0.0002313366    1.635    0.388
       500  -7.8143    191.5213    249.5168   7.3038581032e+01   2.2176941842e+00    0.1042511   0.07521361  16.64 0.0001715343    1.080    0.074
       501  -8.9000    111.9479     34.5110   4.0823384278e+01   5.3034881460e+01    0.2930699    0.1955093 -51.20 0.0006709585    1.583    0.368
       502  -8.8798    118.9969     32.1980   3.8263453395e+01   5.1500631153e+01    0.3908481    0.1801025 -41.27  0.001274657    2.133    0.531
       503  -8.6148     60.8413     32.2967   5.7121440286e+01   6.5739740122e+01    0.2409544    0.1956011 -53.83 0.0006770481    1.334    0.250
       504  -8.7606     48.5363     32.9416   6.3745148334e+01   6.8005888580e+01    0.2501676    0.2193373  88.38 0.0007173713    1.419    0.295
       505  -8.8195    155.6694     30.8828   3.1424121940e+01   4.1941694008e+01    0.2060906    0.1746235 -47.23 0.0005477293    1.112    0.101
       506  -8.5973     72.0662     30.9968   5.1572541029e+01   6.3520911328e+01    0.2230211    0.2155076 -77.42 0.0006630837    1.098    0.089
       507  -8.7928     12.8655     29.7831   8.6580038233e+01   7.3433884013e+01    0.4210872    0.1961257 -78.31  0.001689977    2.817    0.645
       508  -8.4427    101.7818     29.1612   4.1025613418e+01   5.6472159745e+01    0.2306086    0.1965367 -64.88  0.000525343    1.236    0.191
       509  -7.6966     42.2931     29.6733   6.5624340931e+01   6.9754362212e+01    0.1355706    0.1128942  89.12 0.0006171542    1.622    0.384
       510  -9.0596     81.5212     27.0767   4.6060321477e+01   6.1914090547e+01    0.3515678    0.2297386 -59.52 0.0009959582    1.946    0.486
       511  -8.8218      3.8285     27.5485   9.3275151012e+01   7.4551125265e+01    0.2529987    0.1587764  83.40 0.0009363655    1.920    0.479
       512  -8.2930    110.3673     27.1786   3.8049142431e+01   5.4483190626e+01    0.2174516    0.1288806 -41.20 0.0004914096    1.691    0.409
       513  -8.9700     91.9008     26.1751   4.2340700146e+01   5.9449317203e+01    0.3531271    0.1886984 -43.01 0.0008938803    1.945    0.486
       514  -8.0508     34.8993     22.9597   6.6568623166e+01   7.2305171514e+01    0.2111738    0.1713369  76.60  0.001122344    1.760    0.432
       515  -8.7501    104.5118     22.5331   3.7317489040e+01   5.6647315851e+01    0.1484277    0.1403941  89.09 4.886651e-05    1.031    0.030
       516  -9.0262     63.6605     20.8293   4.9473283003e+01   6.7074446049e+01    0.3336508    0.2120902 -52.06 0.0008978008    1.891    0.471
       517  -8.8182     48.3278     21.3016   5.7276824615e+01   7.0232326692e+01    0.2803793    0.2128964 -49.11 0.0007752528    1.430    0.301
       518  -8.0722    121.3586     21.1834   3.3233621424e+01   5.2285403171e+01    0.2165595    0.1235989 -39.47 0.0005073108    1.719    0.418
       519  -8.1394    126.0212     35.3138   3.8040951474e+01   4.9195598206e+01    0.2096008    0.1895689  79.32 0.0004169066    1.073    0.068
       520  -8.8482     74.2789     19.3722   4.4461140121e+01   6.4801416162e+01    0.3396044    0.2038671 -56.05 0.0008204789    2.182    0.542
       521  -8.2174     87.8964     17.5207   3.9124717920e+01   6.1635042614e+01    0.2941181    0.1659711 -46.29 0.0006492784    1.939    0.484
       522  -8.0160     38.8852     17.6807   6.0626386831e+01   7.2629640673e+01    0.2306052    0.1542661 -44.34 0.0008414508    1.516    0.340
       523  -7.9405    112.5872     16.5134   3.2867481843e+01   5.5199026347e+01    0.1455588    0.1372236 -82.10 6.207597e-05    1.028    0.027
       524  -8.1156     30.1902     15.9820   6.5539633113e+01   7.4389621366e+01    0.2038108    0.1552011 -73.27 0.0006407133    1.941    0.485
       525  -8.1905    113.2984    248.7406   8.7357243336e+01   1.1417089126e+01    0.1706178    0.1049082 -73.56  0.001059711    2.682    0.627
       526  -7.6796      7.6508     15.3252   8.4904550420e+01   7.7168930931e+01    0.1270664   0.09522905  59.74 0.0007049052    1.752    0.429
       527  -7.7842     17.0388     13.7670   7.5008135088e+01   7.6610817255e+01    0.1599698    0.1054368  25.43  0.000511705    1.565    0.361
       528  -9.3257    103.9820    246.9117   8.9043522681e+01   1.2778531056e+01    0.3250164    0.2002984  86.43  0.001900246    2.945    0.660
       529  -9.4194    243.1287    246.3051   6.4515680317e+01  -2.7919353704e+00     0.309011    0.1228077 -24.18  0.001986917    2.377    0.579
       530  -8.9660    218.8181    246.7281   6.8241577073e+01  -4.1423852968e-01    0.2867932    0.1176973 -29.39  0.001791368    2.502    0.600
       531  -8.8884    175.6564    247.4572   7.5523072822e+01   4.2291244653e+00    0.2204504    0.1558754  50.13  0.001304496    2.246    0.555
       532  -9.0597    156.3233    247.7068   7.9034136802e+01   6.4474103949e+00    0.1781749    0.1552539  26.07 0.0007840985    1.317    0.241
       533  -8.6652    132.1232    247.6915   8.3589317821e+01   9.3233723984e+00    0.1594027    0.1381816  43.89 0.0005846699    1.358    0.264
       534 -10.1394    223.9381    243.9867   6.7083766865e+01  -6.7546142873e-01    0.3356654    0.1814001 -38.02   0.00225102    2.479    0.597
       535  -9.3442    147.0365    245.8840   8.0558737722e+01   7.7782586390e+00    0.2391717     0.174196  53.36  0.001196467    1.891    0.471
