#   1 NUMBER                 Running object number                                     
#   2 MAG_AUTO               Kron-like elliptical aperture magnitude                    [mag]
#   3 X_IMAGE                Object position along x                                    [pixel]
#   4 Y_IMAGE                Object position along y                                    [pixel]
#   5 X_WORLD                Barycenter position along world x axis                     [deg]
#   6 Y_WORLD                Barycenter position along world y axis                     [deg]
#   7 A_WORLD                Profile RMS along major axis (world units)                 [deg]
#   8 B_WORLD                Profile RMS along minor axis (world units)                 [deg]
#   9 THETA_WORLD            Position angle (CCW/world-x)                               [deg]
#  10 FWHM_WORLD             FWHM assuming a gaussian core                              [deg]
#  11 ELONGATION             A_IMAGE/B_IMAGE                                           
#  12 ELLIPTICITY            1 - B_IMAGE/A_IMAGE                                       
         1 -14.4501    165.1426     53.0360   7.2434792750e+01   3.7279771877e+01     2.028118     1.482806  14.29  0.006131954    1.652    0.395
         2 -14.2476    178.9285     37.8183   6.4873755248e+01   3.5883458462e+01     1.093513    0.9830644  40.40   0.00332077    1.101    0.092
         3 -13.6270    183.0725     30.9838   6.1948303010e+01   3.5660110595e+01    0.6828923    0.6147946  30.35  0.001394308    1.121    0.108
         4 -13.4261    189.8434     15.0063   5.5743844200e+01   3.5668780800e+01    0.6699226    0.4308054 -76.20  0.002409718    1.935    0.483
         5 -14.5131    198.5787      6.0046   5.1805389809e+01   3.4230641227e+01     1.449136    0.9374576  55.53  0.005841277    1.497    0.332
         6 -10.4744     70.7411      8.5858   7.9841753518e+01   6.4757219505e+01    0.1579044    0.1267677  53.52 0.0003409098    1.567    0.362
         7 -10.3913    153.2797    201.3573   1.0808976192e+02   1.4677355093e+01     0.111394   0.08682869  13.68 0.0007013091    1.662    0.398
         8 -12.3613    248.8934    247.6855   9.8927449193e+01  -5.1093760304e+00      0.30205    0.2076308 -22.80  0.002420256    1.822    0.451
         9 -17.7941     59.3604    238.3642   1.2748274181e+02   2.2364641452e+01     6.903349      5.31688  73.34   0.06142148    1.189    0.159
        10  -9.8588    169.1850    182.3885   1.0240616088e+02   1.4730133509e+01     0.180095    0.1024918  51.25 0.0009409255    1.637    0.389
        11 -10.9001    167.8300    176.0144   1.0162676744e+02   1.5928078842e+01     0.289726    0.2072883 -73.13  0.001172808    2.148    0.535
        12 -10.8812     73.1079    174.7967   1.2012687616e+02   3.1221001720e+01    0.2000762    0.1502512 -73.72 0.0006295231    1.335    0.251
        13 -11.4254    204.4626    165.6099   9.3036447289e+01   1.0652028601e+01    0.4734029    0.2888346 -43.66  0.002133508    1.999    0.500
        14 -11.0919    201.3824    168.8860   9.4196278382e+01   1.0780649592e+01    0.5285875    0.2579287 -50.87  0.002242495    3.338    0.700
        15 -12.0822    194.2558    167.4145   9.5213020035e+01   1.2317308588e+01    0.3193192    0.3053254 -39.50 0.0008218932    1.266    0.210
        16 -11.0780    190.2322    160.8274   9.4726323730e+01   1.4031772482e+01    0.2795348    0.2691621 -27.87  0.001021916    1.203    0.169
        17 -11.5933    189.4771    155.3414   9.3814079224e+01   1.4994222354e+01    0.3861341    0.3458526  25.01  0.001395845    1.035    0.033
        18 -11.2829    230.5455    166.7887   8.8767489466e+01   5.6877161369e+00    0.2750934    0.1044425 -39.85  0.001148649    3.251    0.692
        19 -10.4018    162.3016    167.9939   1.0133852517e+02   1.8185461369e+01      0.23013    0.1652814  63.75 0.0006903678    1.587    0.370
        20 -10.7156     65.3382    188.3158   1.2290794150e+02   2.9736828155e+01    0.4422306   0.09836717  51.81  0.001683851    4.283    0.767
        21 -10.6992    207.5261    193.9459   9.7464294241e+01   6.4643735007e+00    0.1576823    0.1172416 -26.44 0.0005058776    1.551    0.355
        22 -19.0895     37.8947    101.3564   1.1933364625e+02   5.0432884490e+01     14.70992    0.9035143 -66.97   0.02784492   13.635    0.927
        23 -10.8368    113.3875    160.5310   1.1005261592e+02   2.8029671325e+01    0.2186785    0.1885548  62.15 0.0005369581    1.021    0.021
        24 -10.7738     12.0603    159.9637   1.3104257893e+02   4.0541520507e+01    0.3039969    0.1549672  61.67  0.001404728    1.636    0.389
        25  -9.7148     16.5017    159.4777   1.3013609117e+02   4.0259436006e+01     0.139724    0.1105533 -64.42 0.0006242312    1.513    0.339
        26 -11.3142    120.5174    157.1689   1.0803174283e+02   2.7478298431e+01    0.3316184    0.1832431 -44.71  0.001646797    2.157    0.536
        27 -12.5114    153.1280    194.0687   1.0711746637e+02   1.5767930783e+01    0.3226397    0.2291166  61.96  0.001135959    1.483    0.326
        28 -11.3868    165.0272    153.1259   9.8129541298e+01   2.0098375380e+01    0.3448378    0.2363392  61.97  0.001745999    1.674    0.402
        29 -11.8706    152.4344    152.0439   1.0047900833e+02   2.2685900763e+01    0.4774455    0.3008246  87.02  0.001904009    3.421    0.708
        30 -12.3165    134.0063    146.1143   1.0327181509e+02   2.7176179190e+01     1.111632    0.3005598 -55.61  0.003156546    5.820    0.828
        31 -10.8307    174.2804    148.6236   9.5421079167e+01   1.9032760650e+01    0.3042387     0.251791 -79.48  0.001292836    1.612    0.380
        32 -12.1449    145.0168    146.4311   1.0098082038e+02   2.5079271212e+01    0.5160557    0.2661876  51.45  0.002352281    1.892    0.472
        33 -12.8181    110.9724    138.9122   1.0709133285e+02   3.2602672521e+01    0.6422006    0.4582967 -25.48  0.003273133    2.185    0.542
        34 -12.7803    100.9075    138.1006   1.0925756452e+02   3.4410281432e+01    0.2769151    0.2711268  56.31 0.0005600851    1.184    0.155
        35 -11.9892    105.9891    130.8258   1.0680424349e+02   3.5064546405e+01    0.3862534    0.2907571 -68.47  0.001201566    1.347    0.258
        36 -11.3444    105.8969    125.2644   1.0579107410e+02   3.6220641928e+01    0.2630704    0.2192265 -38.94 0.0006030006    1.387    0.279
        37 -11.9640    135.6606    126.8262   9.9144094654e+01   3.0529586888e+01    0.7809691    0.1274944 -47.60  0.001936464    6.443    0.845
        38 -11.2710    117.4657    129.2682   1.0382176413e+02   3.3412422845e+01    0.2729881    0.2440771 -36.20 0.0007869148    1.281    0.219
        39 -11.2489    160.8269    128.0804   9.3894099482e+01   2.5263286411e+01    0.3843668    0.2976799 -76.76  0.001947834    1.732    0.423
        40 -10.5987    121.2001    123.8146   1.0186081764e+02   3.3835846896e+01    0.1842431    0.1662838  -1.99 0.0006240626    1.362    0.266
        41 -10.4542    112.3620    118.5939   1.0290281885e+02   3.6482283034e+01    0.2329635    0.1989857  58.64 0.0005744096    1.151    0.131
        42 -11.2682    167.8328    112.8157   8.8886961865e+01   2.6491141812e+01    0.4058749     0.308513 -84.07  0.001458209    1.904    0.475
        43 -10.9799    134.6221    106.0050   9.4687984939e+01   3.4800330601e+01    0.4199544    0.1379235 -45.06  0.001417546    3.069    0.674
        44 -10.8265    205.4404    110.2036   8.0861787857e+01   1.8564050263e+01    0.3145083    0.2289887  43.58 0.0008534202    1.325    0.245
        45 -12.1127    152.1730    185.0450   1.0599319208e+02   1.7298480120e+01    0.3112797     0.222468 -64.52 0.0009034813    1.794    0.443
        46 -11.5723     81.2606    105.5514   1.0819469613e+02   4.4282089115e+01    0.3561636    0.2221899 -72.77  0.001794154    1.733    0.423
        47 -10.3051     67.2255     98.9406   1.1073239524e+02   4.7665318919e+01    0.2126024    0.1916207  48.07 0.0008653052    1.228    0.186
        48 -11.4543    157.1793    199.6988   1.0716477317e+02   1.4271479170e+01    0.1878875    0.1631127 -86.45  0.001317336    1.426    0.299
        49 -10.3548    150.0174     80.9539   8.4371887748e+01   3.6240121021e+01    0.2342248    0.2216998 -10.05  0.001152554    1.065    0.061
        50 -10.6454     83.4457     76.5418   1.0084990538e+02   5.0208549475e+01    0.2312433    0.2082474 -56.71 0.0002441238    1.024    0.023
        51 -11.1369    176.6153     74.7728   7.6848498147e+01   3.0981467218e+01    0.2842243    0.2454171 -81.81 0.0002482159    1.389    0.280
        52 -11.0789    167.9502    233.3346   1.0958595569e+02   8.1825906794e+00    0.3024143    0.1573322  54.45  0.001772271    1.921    0.479
        53 -11.1264     20.7206    214.3944   1.3230356254e+02   3.0136936540e+01    0.1177482   0.07732607  44.05 0.0009507296    1.505    0.336
        54  99.0000     12.4450    205.9496   1.3326756601e+02   3.2286096175e+01    0.3759458    0.1305281  40.31  0.002371515    2.375    0.579
        55 -10.3442     13.4311     59.8856   1.2015597177e+02   6.1465794165e+01    0.1643098    0.1418957 -89.87 0.0004160507    1.212    0.175
        56 -10.4639    113.0780     21.9555   7.2925391003e+01   5.4423410569e+01    0.3612575    0.2084554  72.21  0.001044085    2.662    0.624
        57 -12.0269    193.4968    195.5795   1.0013246346e+02   8.6686857141e+00    0.8965276    0.4968911 -64.09  0.003181567    6.561    0.848
        58 -10.9308     60.4229    202.4027   1.2493855721e+02   2.7886536405e+01    0.1663754    0.1185184  59.37 0.0001840244    1.095    0.087
