#   1 NUMBER                 Running object number                                     
#   2 MAG_AUTO               Kron-like elliptical aperture magnitude                    [mag]
#   3 X_IMAGE                Object position along x                                    [pixel]
#   4 Y_IMAGE                Object position along y                                    [pixel]
#   5 X_WORLD                Barycenter position along world x axis                     [deg]
#   6 Y_WORLD                Barycenter position along world y axis                     [deg]
#   7 A_WORLD                Profile RMS along major axis (world units)                 [deg]
#   8 B_WORLD                Profile RMS along minor axis (world units)                 [deg]
#   9 THETA_WORLD            Position angle (CCW/world-x)                               [deg]
#  10 FWHM_WORLD             FWHM assuming a gaussian core                              [deg]
#  11 ELONGATION             A_IMAGE/B_IMAGE                                           
#  12 ELLIPTICITY            1 - B_IMAGE/A_IMAGE                                       
         1 -13.1574    177.2219     36.2535   6.9279532314e+01   3.6498023510e+01      1.14351    0.9427022  19.53  0.004236354    1.607    0.378
         2 -12.3603    196.6563      4.7551   5.9080033405e+01   3.5455887883e+01    0.8339425    0.5180187  76.50  0.004603963    1.347    0.257
         3  -8.6494    198.9264    222.6560   1.0821041065e+02  -2.9192102218e+00    0.1845364    0.1547528  30.90 0.0003623059    1.097    0.088
         4 -19.4833     43.1641    146.4743   1.3146594619e+02   4.0391292551e+01     21.04435     3.447804 -65.58   0.05319199    6.121    0.837
         5 -10.4862     94.9648    200.2587   1.2691866708e+02   2.0252309454e+01    0.5255126    0.2995985  77.61  0.002138632    2.507    0.601
         6 -10.1609     16.1987    206.2261   1.4420862915e+02   2.9341919819e+01    0.1594729    0.1271361  83.93  0.001120993    1.090    0.083
         7  -8.8902     11.6770    205.6267   1.4502730216e+02   2.9923025783e+01    0.2314219    0.1655682  69.69  0.000824451    1.183    0.155
         8 -12.3728     83.3149    187.5442   1.2772803313e+02   2.5068212528e+01     1.208721     0.656207 -54.97  0.005581482    1.832    0.454
         9 -11.5675     74.7562    200.5935   1.3147165568e+02   2.3330963884e+01    0.7134582    0.4318086 -65.16  0.001676429    1.574    0.365
        10  -9.9817    139.6717    200.8681   1.1693550413e+02   1.2182719290e+01    0.2255997    0.1894976 -32.36  0.001018444    1.402    0.287
        11 -10.2639    192.8654    192.3937   1.0378686187e+02   3.7004438110e+00    0.7318599    0.3981863 -52.92  0.003103845    2.163    0.538
        12 -10.8893    103.2662    194.9984   1.2424119893e+02   2.0066652398e+01    0.4187785    0.3401744  62.02  0.001153972    1.157    0.136
        13  -9.3802     90.6687    194.1547   1.2700304137e+02   2.2354574364e+01    0.2817798    0.1609225  61.63 0.0009640929    1.944    0.486
        14  -9.4104     98.6095    190.3860   1.2459718888e+02   2.1922640735e+01     0.341088    0.1203569 -53.74  0.001232851    2.792    0.642
        15 -10.2062     85.7371    204.9454   1.2962431158e+02   2.0667078368e+01    0.4561471    0.3104259  16.91  0.001885596    2.396    0.583
        16  -8.2537    208.3223    196.3357   1.0141884330e+02   7.1770614199e-02     0.146218     0.105257  -0.81 0.0007050505    1.710    0.415
        17  -8.4604    167.0000    187.9666   1.0845931180e+02   9.6403384340e+00    0.2402692   0.08486157 -47.49 0.0008002828    2.928    0.658
        18  -9.5025     92.2172    185.2494   1.2529005060e+02   2.4188767213e+01    0.2548266    0.2065278  60.71  0.000391739    1.180    0.152
        19 -10.0431     99.0857    180.7770   1.2293184952e+02   2.4102955036e+01    0.3047958    0.2539164  26.20  0.001271839    1.439    0.305
        20  -8.5984      1.1217    177.3427   1.4489813217e+02   3.7122600105e+01     0.111853    0.0556499 -68.62 0.0004017288    1.596    0.373
        21 -10.3167    174.3050    221.4622   1.1301374857e+02   1.6462927982e+00       0.4325    0.1259646  39.19  0.001452809    3.226    0.690
        22  -9.9833    195.7854    169.7667   9.8539106832e+01   7.6184564194e+00    0.3355131    0.2943734  -8.92   0.00103802    1.218    0.179
        23  -9.3134    193.5059    164.9685   9.7983987129e+01   9.0609360416e+00    0.3338764     0.286036 -70.42  0.001720382    1.348    0.258
        24 -10.8448    102.6113    170.4654   1.2028488317e+02   2.5960270225e+01     0.455301    0.2153533  52.92  0.001730506    2.398    0.583
        25  -8.4093    120.2035    163.7882   1.1465008006e+02   2.4344207968e+01    0.1956966    0.1811258 -12.85 0.0005575936    1.278    0.217
        26  -8.6307    113.9342    160.9957   1.1566239660e+02   2.6192737097e+01    0.2543789    0.1799726  77.93  0.001120714    1.798    0.444
        27 -10.1323     98.8731    160.2955   1.1934664238e+02   2.9067877568e+01    0.2764952    0.2336994 -58.44 0.0003197508    1.147    0.128
        28 -11.5015    103.3459    153.4144   1.1685529251e+02   2.9952931152e+01    0.7588452    0.5299349 -43.72  0.003112708    1.512    0.339
        29 -10.1917    164.2463    217.9867   1.1452621399e+02   4.1253851517e+00    0.2175569    0.1873838  50.95 0.0008331451    1.129    0.114
        30 -11.8549     88.2332    154.7903   1.2105434637e+02   3.2192767395e+01    0.4035275      0.30305 -34.15 0.0007552219    1.620    0.383
        31  -8.5733    174.6774    149.3143   9.8559639877e+01   1.6361015706e+01    0.1588297    0.1240939 -88.55 0.0006964452    1.660    0.397
        32  -9.7162     88.9193    147.0624   1.1938662984e+02   3.3966679856e+01    0.2191721    0.2014459 -75.63 0.0003268407    1.014    0.014
        33 -10.4580    135.1620    209.9057   1.1944874839e+02   1.1097273857e+01     0.227741    0.1875061  69.94  0.001239305    1.250    0.200
        34 -10.2781    112.6868    138.8009   1.1129842068e+02   3.1748701444e+01    0.4809076    0.3514751 -17.00  0.002099821    1.980    0.495
        35 -10.9928    101.4945    138.9325   1.1432079860e+02   3.3783322837e+01    0.3001538    0.2676892 -31.62 0.0005578373    1.227    0.185
        36  -9.7547    106.0834    130.7917   1.1125125372e+02   3.4890451811e+01    0.3814316    0.2819951 -62.44  0.001345836    1.380    0.275
        37  -9.3947    106.2340    125.6438   1.1000411601e+02   3.6073214773e+01    0.2815886    0.2285244 -28.77 0.0004933496    1.378    0.274
        38  -9.2961    117.8533    129.8775   1.0786485502e+02   3.2851699070e+01    0.2388687    0.2099111 -19.38 0.0005598108    1.299    0.230
        39  -8.4392    112.4992    118.6002   1.0656510490e+02   3.6506310405e+01    0.1490714    0.1467765 -31.40 9.217238e-05    1.037    0.036
        40  -9.1709    168.5654    113.4219   9.1273384794e+01   2.5420977054e+01    0.3232714    0.2138021 -72.62  0.001042446    2.164    0.538
        41 -10.8729     84.6961    108.0384   1.1188327426e+02   4.3893213870e+01    0.4265845    0.3566266 -34.87  0.002316426    1.176    0.150
        42  -9.0020    205.3876    110.1315   8.3041538069e+01   1.7564769924e+01    0.2042699    0.1926478  41.53  0.001093852    1.171    0.146
        43  -9.9109     84.8908     77.1250   1.0331599268e+02   5.0345574607e+01    0.2465588    0.2008731  16.29 0.0007796255    1.269    0.212
        44 -11.8462    125.8074    209.1251   1.2138203694e+02   1.2959500459e+01    0.4034459    0.3124765  67.77  0.002149876    1.323    0.244
        45 -12.1112    163.2772     51.7915   7.5842079265e+01   3.7751645237e+01    0.6749445    0.4961303 -13.53  0.001259287    1.788    0.441
        46 -10.1712     92.5529    206.7483   1.2837016432e+02   1.9178538358e+01     0.354892     0.316125 -53.40  0.001016272    1.321    0.243
        47  -8.6516    168.7514    234.9773   1.1637694199e+02   2.0322345792e-01    0.1702675    0.1672998 -26.13 0.0004124057    1.153    0.133
        48 -11.6559    181.6222     29.2299   6.6819669660e+01   3.6312806111e+01    0.4913616    0.4112944  39.80  0.001326963    1.409    0.290
