#   1 NUMBER                 Running object number                                     
#   2 MAG_AUTO               Kron-like elliptical aperture magnitude                    [mag]
#   3 X_IMAGE                Object position along x                                    [pixel]
#   4 Y_IMAGE                Object position along y                                    [pixel]
#   5 X_WORLD                Barycenter position along world x axis                     [deg]
#   6 Y_WORLD                Barycenter position along world y axis                     [deg]
#   7 A_WORLD                Profile RMS along major axis (world units)                 [deg]
#   8 B_WORLD                Profile RMS along minor axis (world units)                 [deg]
#   9 THETA_WORLD            Position angle (CCW/world-x)                               [deg]
#  10 FWHM_WORLD             FWHM assuming a gaussian core                              [deg]
#  11 ELONGATION             A_IMAGE/B_IMAGE                                           
#  12 ELLIPTICITY            1 - B_IMAGE/A_IMAGE                                       
         1 -14.4152     86.1567     66.7675   1.0059529200e+02   5.2093931278e+01     1.753707     1.001022 -12.31  0.006865931    3.033    0.670
         2 -15.4385      6.5951     71.8554   1.2979021880e+02   6.0189157713e+01     1.204899    0.6689553 -49.57  0.003705334    1.347    0.257
         3 -13.3848    117.9266     28.6504   7.9046434023e+01   5.1377582951e+01     0.961593    0.5351127  22.48  0.004244665    2.538    0.606
         4 -15.1385    119.7131     54.8693   8.7136713780e+01   4.7473366818e+01     1.397914     0.949901  20.32  0.006374164    1.828    0.453
         5 -15.1160    122.3582     36.9483   8.0723270899e+01   4.9400717840e+01     1.505134     0.569908  42.42  0.004740481    2.670    0.625
         6 -15.4381     41.9953      7.0725   9.3922414100e+01   6.7329885315e+01     1.868051     1.107081   4.32   0.01156144    1.670    0.401
         7 -13.7711     25.5804     31.6194   1.1069761474e+02   6.6024181681e+01    0.7844748    0.6619683 -75.39  0.005243219    2.299    0.565
         8 -13.7923      8.7702      3.1236   1.0682102158e+02   7.1472374395e+01    0.6298105    0.4539263  18.03  0.004122104    1.458    0.314
         9 -15.2643      8.1855     29.4354   1.1746614276e+02   6.7798384671e+01    0.8813186    0.7194639  22.01  0.006860191    1.567    0.362
        10 -15.7118     14.8161     18.8484   1.1057421558e+02   6.8876378588e+01     1.390976    0.6862143 -16.42  0.007930728    2.144    0.534
        11 -13.5548    186.5106     14.3991   6.3078914189e+01   3.6851793163e+01     0.637255    0.5149136 -43.32  0.002779201    1.365    0.267
        12 -14.0030    189.3929     26.4343   6.5671917648e+01   3.4802301405e+01     1.621343    0.6401487 -57.93  0.005750852    3.756    0.734
        13 -12.4939    194.9414     23.5711   6.4255824723e+01   3.3814018144e+01    0.6397215    0.2753312 -38.93  0.002237742    2.339    0.572
        14 -14.8742    166.4558     30.1674   7.0020008687e+01   3.9897940975e+01     1.452982    0.7374619  69.55  0.004214119    1.901    0.474
        15 -14.7868    145.4313     30.7318   7.3883560268e+01   4.4864714344e+01     1.106678    0.5906903  60.42  0.004068788    1.671    0.402
        16 -12.7195    223.0126      5.6125   5.7272129769e+01   2.9335489270e+01    0.7090626    0.3047252 -27.43  0.003294833    3.094    0.677
        17 -12.8492    214.7385      9.6790   5.8896663509e+01   3.0762471302e+01    0.4485252    0.2673911  71.64  0.001540659    1.451    0.311
        18 -13.5988    215.3723     20.8266   6.1264804521e+01   2.9343140685e+01    0.4921548    0.4314629  25.27  0.002213248    1.653    0.395
        19 -13.2953    218.7224     15.2847   5.9713691731e+01   2.9225009641e+01    0.5643225    0.3693468  81.69  0.002456248    1.320    0.242
        20 -15.8148     99.5918     12.7135   7.7975827062e+01   5.6905338319e+01     1.405057    0.6840672  51.88  0.003458873    1.742    0.426
        21 -11.7023    202.0042     11.5491   6.0614189677e+01   3.3500894345e+01    0.2130235     0.186162 -48.95 0.0003780299    1.288    0.224
        22 -11.8351    125.9404      8.8396   7.0889474456e+01   5.1603644218e+01    0.2075278    0.1952452 -56.21  0.001413169    1.258    0.205
        23 -11.5450    153.4838      8.1815   6.5978860200e+01   4.5317695178e+01    0.2385573    0.1537446  65.98 0.0005303962    1.304    0.233
        24 -11.3009    229.5665      4.7477   5.6532133571e+01   2.7976450339e+01    0.1973342    0.1399164  75.63 0.0005370704    1.267    0.211
        25 -11.6904    232.6242      1.7058   5.5676583816e+01   2.7636313142e+01    0.3534605    0.1453414  63.22  0.001659555    2.253    0.556
        26 -11.6984     67.6788      3.9334   8.3509895579e+01   6.3688008735e+01     0.252841    0.1722781  14.95  0.001040149    1.329    0.248
        27 -11.9892    120.8405      4.0337   7.0331364041e+01   5.3142054445e+01    0.2965261    0.1636591  72.75  0.001337873    1.965    0.491
        28 -10.7317    192.6393      2.8245   5.9609830682e+01   3.6582319189e+01    0.1626398    0.1039236 -47.90 0.0003587652    1.617    0.382
        29 -12.2817     80.6951      1.8028   7.8829097457e+01   6.1539547604e+01    0.5357534    0.1194387  51.00  0.002108529    3.305    0.697
        30 -12.0048     60.7542      1.7983   8.4846026379e+01   6.5033350818e+01    0.3473541    0.1428989  47.23   0.00180655    2.186    0.543
        31 -11.7680    249.6206    181.8087   9.1627212704e+01  -4.5916887866e+00    0.1925977    0.1134856 -44.94 0.0008953308    1.717    0.418
        32 -12.8591     57.0770    246.8668   1.4054307098e+02   1.6125928658e+01     0.510484    0.1967257  42.82  0.002530196    2.242    0.554
        33 -10.6031     41.3264    250.3184   1.4358595984e+02   1.7506353418e+01   0.09676425   0.08791207 -59.48 0.0007045971    1.678    0.404
        34 -13.7056     28.2712    246.6218   1.4555325935e+02   1.9802197522e+01    0.4844055    0.3252443  70.63  0.003357117    1.108    0.098
        35 -11.9881      2.9646    249.9848   1.4986474337e+02   2.1933073630e+01    0.2759834    0.1584058  63.87  0.001951005    1.297    0.229
        36 -14.3205      9.1301    245.4901   1.4864557409e+02   2.2146893482e+01     0.754497    0.4094876  64.05  0.003235483    1.412    0.292
        37 -11.4653    121.8553    180.9936   1.1833746092e+02   2.0065373005e+01     0.410417    0.2433634  81.43  0.001464227    3.078    0.675
        38 -13.6471     30.0957    169.1957   1.3841212069e+02   3.6392098345e+01    0.5341489    0.3664528 -43.13  0.001133433    1.818    0.450
        39 -11.5085    243.4875    170.5126   9.0401713462e+01  -1.6071591819e+00    0.1363333    0.1221706 -24.86 0.0001893922    1.030    0.029
        40 -13.4320    124.0724    166.7373   1.1511135505e+02   2.2970888530e+01    0.6995826    0.4407862 -64.93  0.003035132    1.748    0.428
        41 -10.8950    192.5047    164.5042   9.8930863772e+01   9.3882880426e+00    0.1497403     0.144347  -7.49 0.0008104495    1.032    0.031
        42 -11.8341     25.7321    155.5459   1.3782539311e+02   4.0030366227e+01    0.3419526     0.245564 -33.27   0.00201008    1.860    0.462
        43 -12.3971     77.7002    157.2518   1.2502505678e+02   3.3283025499e+01    0.4148049    0.2826599  35.51  0.001111955    1.618    0.382
        44 -12.9591     73.9854    153.3557   1.2530603666e+02   3.4782714980e+01    0.5675166    0.4855052   5.95  0.002447142    1.526    0.345
        45 -12.4785    110.6337    154.7762   1.1608288067e+02   2.8354156351e+01     0.609392     0.373366  88.92  0.002226765    2.839    0.648
        46 -11.7847     85.4915    153.5155   1.2233857084e+02   3.2987866267e+01    0.5075433    0.2324689 -46.36  0.001979455    2.330    0.571
        47 -10.8369     56.2150    155.8210   1.3028786579e+02   3.6605273687e+01     0.181324    0.1522658 -44.67 0.0007233857    1.331    0.249
        48 -12.6930    245.8162    149.5994   8.5628849182e+01   1.6952568632e+00    0.4180932    0.2791372 -47.61  0.002143608    1.439    0.305
        49 -11.9769    103.5762    149.9274   1.1691994950e+02   3.0803820738e+01    0.3842377    0.3100402 -29.60  0.001912224    1.491    0.329
        50 -10.3664     44.5445    145.4623   1.3169852362e+02   4.0495368905e+01    0.1337583    0.1130216 -72.29 0.0001100543    1.007    0.007
        51 -11.4523    148.7282    140.7532   1.0344437130e+02   2.3957258491e+01     0.289671    0.1985469 -44.94  0.001057458    1.459    0.315
        52 -11.4286     42.5295    139.8730   1.3135755340e+02   4.2056996191e+01    0.2039988    0.1959999  41.27 0.0006836629    1.237    0.191
        53 -12.8122    245.9724    137.0708   8.2931466118e+01   3.9268587823e+00    0.4533596    0.2674339 -51.26  0.002138761    1.708    0.414
        54 -12.0354    230.1183    138.4516   8.5901238063e+01   6.7799847733e+00    0.3117408    0.1768698 -53.65  0.001341138    1.935    0.483
        55 -10.4345     15.0718    139.2022   1.3843342766e+02   4.4780856772e+01    0.1286821    0.1007488  23.35  0.000436895    1.639    0.390
        56 -10.8005     47.0004    135.1664   1.2937479788e+02   4.2688116419e+01    0.3843329    0.1002525 -45.68  0.001099499    5.089    0.804
        57 -11.6100     62.2593    134.2532   1.2499357971e+02   4.1044963494e+01    0.4453117    0.2168568  43.04  0.001879584    2.250    0.556
        58 -12.2901     43.6200    134.1764   1.3013475636e+02   4.3299077932e+01    0.2012283    0.1006178 -55.29  0.000951532    1.694    0.410
        59 -12.2666    132.7820    128.9018   1.0458873577e+02   3.0070605932e+01    0.7648004    0.2974556 -43.07  0.002531842    2.661    0.624
        60 -12.9295     98.2476     93.4311   1.0484477571e+02   4.4759362143e+01    0.8699696    0.5948175  63.95  0.002971931    2.052    0.513
        61 -13.9043    104.4197    123.0130   1.1073460321e+02   3.7059799577e+01     1.608866    0.7611026  41.38  0.006273597    2.193    0.544
        62 -15.0732    105.6371    108.7804   1.0684045935e+02   4.0073022724e+01     1.909135     1.465393 -38.99  0.009495071    1.293    0.227
        63 -13.6622     91.7606    109.0654   1.1091444604e+02   4.2509248220e+01     1.394407    0.6769956  32.23  0.005522948    2.393    0.582
        64 -11.6189     25.3911    127.2857   1.3403915305e+02   4.6702853011e+01     0.243218    0.1953056 -51.44 0.0008433582    1.183    0.155
        65 -13.3534     29.4502    122.5167   1.3214603681e+02   4.7455113497e+01    0.7245209    0.2704578 -59.28  0.003236558    2.065    0.516
        66 -11.2186     60.7998    124.8241   1.2357549578e+02   4.3488131613e+01     0.272191    0.1903628   3.70  0.001348281    2.031    0.508
        67 -11.1669    185.1583    124.1947   9.1201352131e+01   1.9374832207e+01    0.2128818     0.181528 -86.71 0.0003528045    1.316    0.240
        68 -15.1196     18.0924    110.9036   1.3349927553e+02   5.1055490781e+01     1.252109     1.190346 -68.17  0.004780215    1.181    0.154
        69 -14.4483      2.4778     96.9119   1.3587625309e+02   5.5166488502e+01     1.288193    0.6625234 -76.24  0.005167824    1.897    0.473
        70 -15.1217     20.9011     97.0525   1.3016126840e+02   5.3931504320e+01     1.269755    0.8352508 -73.27  0.006736485    1.523    0.344
        71 -14.7272     29.0522     92.6302   1.2664089247e+02   5.4236260138e+01     1.070883    0.8766276  88.37   0.00682754    1.511    0.338
        72 -11.1575    180.7443    121.3538   9.1437415362e+01   2.0976335067e+01    0.2865129    0.2021874  40.67 0.0009098181    1.520    0.342
        73 -12.4063      3.7702    119.8901   1.3889268835e+02   5.0002683043e+01    0.4135423    0.1923544  20.98  0.001954145    2.747    0.636
        74 -13.5399    249.2065    105.8372   7.5705414804e+01   8.8749948266e+00    0.7163475     0.200045 -36.93  0.002288775    3.653    0.726
        75 -12.2059     45.6988    110.2269   1.2508545017e+02   4.8689204610e+01    0.5148281    0.3142387 -41.11   0.00267933    1.587    0.370
        76 -12.9770     85.3438    115.5276   1.1437832127e+02   4.2103800697e+01    0.9803839    0.5237484  26.37  0.003727856    2.407    0.585
        77 -12.0593     61.7043    108.3378   1.1978032301e+02   4.7210860454e+01    0.6590298    0.2711076 -53.93  0.002723067    2.119    0.528
        78 -11.1614     65.3186    102.2962   1.1724278571e+02   4.8093030251e+01    0.2635498    0.1823705 -29.45 0.0006626134    1.575    0.365
        79 -12.4964     61.5560     98.1930   1.1742465909e+02   4.9503524159e+01    0.4941896    0.3542825  89.49    0.0022088    2.137    0.532
        80 -12.4779    135.9866    103.2799   9.7189084465e+01   3.5014447279e+01    0.5431367    0.3220298  47.28  0.001541269    1.693    0.409
        81 -12.7898    121.4281    102.1350   1.0069650795e+02   3.8380994447e+01    0.5267282    0.3616005  52.37  0.001441923    1.544    0.352
        82 -12.4113     43.3535     91.9472   1.2179933213e+02   5.3015858736e+01     0.693736    0.2284543 -60.55  0.002544781    3.213    0.689
        83 -13.1530     49.7267     99.2145   1.2143133557e+02   5.0725343054e+01    0.7507873    0.5065531  -6.29  0.003488069    1.959    0.490
        84 -12.2835    137.0855     96.2141   9.4980866611e+01   3.6225716584e+01    0.4434358    0.3313847 -47.48  0.002108373    1.352    0.261
        85 -10.7253     76.0681     95.5321   1.1217066923e+02   4.8032047245e+01    0.1873623    0.1385677  32.68 0.0003227226    1.450    0.310
        86 -11.5167     89.9641     87.5827   1.0568212593e+02   4.7442834035e+01    0.3763734    0.2385579  53.17  0.001733552    1.946    0.486
        87 -11.8661    125.6628     86.5511   9.5198189444e+01   4.0656337391e+01    0.3030354    0.2636842  80.91  0.001568743    1.344    0.256
        88 -13.2598    188.5281     84.5014   8.0581921954e+01   2.6299424534e+01    0.6657511    0.3448897  46.66  0.001279256    2.065    0.516
        89 -12.6286    132.6563     86.1202   9.3262792274e+01   3.9206212897e+01    0.4062011     0.227138  55.96  0.001658474    1.948    0.487
        90 -12.8802    241.1245    120.2359   8.0053593202e+01   7.9336359169e+00    0.3852371    0.1575879 -52.01  0.001397128    2.774    0.640
        91 -13.6617    238.2907     80.4420   7.1691403473e+01   1.5510233737e+01    0.6038747    0.3815251  89.31  0.002813824    1.974    0.493
        92 -14.0675    161.1433     80.4706   8.4982682632e+01   3.3635575033e+01    0.8847451    0.5957102  31.96  0.002007436    1.859    0.462
        93 -14.3677    170.7485     76.6940   8.1958089907e+01   3.1986198063e+01     1.188455    0.7836142  59.95  0.004965274    1.494    0.331
        94 -12.3341    216.9623     80.3666   7.4754485452e+01   2.0296574579e+01    0.4166226    0.3598497 -24.64  0.001783293    1.376    0.273
        95 -12.6850    210.6349     77.9084   7.5156064777e+01   2.2185692377e+01     0.516611    0.3262878 -76.88  0.002261565    2.051    0.512
        96 -13.3348     39.2069     67.9535   1.1703255628e+02   5.8371945282e+01     1.765474    0.4566316  24.28  0.005901232    5.342    0.813
        97 -13.4951     64.5450     65.4778   1.0731187525e+02   5.5738798045e+01    0.6879668     0.580384  17.28  0.004277125    1.193    0.162
        98 -13.6807     51.0950     68.5055   1.1293209369e+02   5.6937627307e+01    0.9506484    0.6593757 -60.28  0.005248247    1.742    0.426
        99 -13.3503     75.2125     74.1391   1.0639901403e+02   5.2528914525e+01    0.9589604    0.5395303  24.21  0.003810006    2.107    0.525
       100 -13.9964     94.4590    235.9205   1.3236900205e+02   1.2824380521e+01     0.835472    0.4442557  78.06  0.001279842    2.708    0.631
       101 -13.5311     56.6132     78.8266   1.1397854376e+02   5.4228671394e+01    0.5410285    0.3704441 -21.41  0.002933564    1.569    0.363
       102 -13.4471     60.8548     75.5160   1.1159707429e+02   5.4336958399e+01     0.590484    0.3722809 -44.98  0.001272011    1.437    0.304
       103 -11.6911    147.0894    238.6867   1.2212906337e+02   3.4728321182e+00    0.2114979     0.180429 -81.04 0.0008694833    1.366    0.268
       104 -14.4253      5.2797     63.7920   1.2844824294e+02   6.1861605057e+01    0.6201454    0.4715589 -31.79  0.003710098    1.154    0.134
       105 -13.0168    134.9292     79.6857   9.0833079338e+01   3.9907885408e+01    0.8458518    0.3960135  53.44  0.002738599    2.199    0.545
       106 -11.9255    114.0157     80.3118   9.6521680572e+01   4.4309945090e+01    0.3796453    0.3193344 -57.65  0.001830414    1.329    0.248
       107 -11.7748     90.6087     80.0633   1.0329506895e+02   4.8831700663e+01    0.4132631    0.3049376  11.12  0.002091345    1.601    0.376
       108 -12.2327     41.8002     77.4059   1.1869353706e+02   5.6229026835e+01    0.3215267    0.2249409 -44.24 0.0008300956    1.207    0.172
       109 -11.3971    219.5248     74.9766   7.3105282177e+01   2.0613987447e+01    0.2138008    0.1844754  78.70 0.0004298691    1.135    0.119
       110 -12.1658    128.9700     72.0580   9.0078767430e+01   4.2613839009e+01    0.5075593    0.3264781 -18.48   0.00220198    2.064    0.515
       111 -13.2166    135.4752     66.4594   8.6794650130e+01   4.2105812127e+01     0.780576    0.5681077  55.85   0.00389345    1.354    0.262
       112 -13.5237    199.5550     70.0723   7.5020537390e+01   2.6125022287e+01    0.6955274    0.3865819  56.93  0.002079882    1.761    0.432
       113 -13.2576    162.6366     71.9982   8.2326039205e+01   3.4760117571e+01    0.6230463    0.4747169  30.72   0.00303482    1.561    0.360
       114 -10.5708    152.3437     71.3050   8.4328829160e+01   3.7347761527e+01    0.1530348    0.1148422  22.91 0.0006072385    1.687    0.407
       115 -14.3626    101.3314     50.0906   9.0553784640e+01   5.2012636469e+01    0.8602132    0.6504122  65.27  0.002197148    1.699    0.411
       116 -12.4371     24.5823    217.2256   1.4409359964e+02   2.6194076288e+01     0.637252    0.3342173  72.31  0.003592056    1.735    0.424
       117 -13.6794     20.3279    224.4921   1.4541214557e+02   2.5136827635e+01    0.4368208    0.3275707  69.43   0.00173952    1.120    0.107
       118 -13.7698    112.1125     40.5837   8.4443731201e+01   5.1147987747e+01    0.8122836    0.4556504  24.08  0.003070643    2.445    0.591
       119 -13.3456     23.9865    230.7641   1.4520529011e+02   2.3445684225e+01     0.302542    0.2142201 -82.38  0.001335197    1.246    0.197
       120 -11.4444     99.8297     64.9224   9.5839782329e+01   4.9916400908e+01    0.2496735    0.2337415 -76.03  0.001000188    1.316    0.240
       121 -10.4359     98.5948     84.2651   1.0212250498e+02   4.6561847871e+01     0.143027    0.1141671  76.25  0.000696786    1.742    0.426
       122 -13.2783     78.8078     61.0727   1.0111811562e+02   5.4335994738e+01    0.5059211     0.419127   5.22  0.002405834    1.168    0.144
       123 -13.8237    177.8375     57.3246   7.5420762706e+01   3.3423023783e+01    0.8109419    0.5806275 -63.39  0.002620139    1.531    0.347
       124 -11.5579     39.1133     60.6214   1.1493129008e+02   5.9769308919e+01    0.2488212    0.2117255  64.45  0.001590332    1.818    0.450
       125 -12.3055     24.5959     60.0714   1.2023096040e+02   6.1234606106e+01    0.2830003    0.1769588 -46.19 0.0009496245    1.312    0.238
       126 -12.7927     63.3702     57.6777   1.0521914096e+02   5.7296768134e+01    0.3388868    0.3320521  77.37  0.002017778    1.390    0.281
       127 -11.9960    247.5289     53.7175   6.4829430547e+01   1.7727285705e+01    0.4217882     0.155452 -50.68  0.001748491    2.491    0.598
       128 -11.8997    250.0454     48.4474   6.3475217686e+01   1.7963084612e+01    0.2634425    0.2107344  -8.19  0.001507259    2.063    0.515
       129 -11.0025     56.4404     56.0000   1.0712282969e+02   5.8542153564e+01    0.2626661   0.06942526  34.84 0.0009372067    3.955    0.747
       130 -13.3597     66.7994     49.0964   1.0112916942e+02   5.8220919030e+01    0.5867659    0.4659065 -32.57  0.003586117    1.240    0.194
       131 -11.5477     85.9542     50.3284   9.5234590493e+01   5.4870299756e+01    0.3277528    0.1880676 -26.06  0.001594148    1.860    0.462
       132 -11.9269      5.8700     50.7527   1.2494729307e+02   6.4293194154e+01    0.2866806     0.170511 -35.45  0.001199113    1.326    0.246
       133 -12.4130    109.6367     54.1700   8.9581536848e+01   4.9713690479e+01     0.409972    0.2830527 -28.80  0.001647501    1.512    0.339
       134 -13.7443    157.3922     45.0158   7.5765982012e+01   4.0184383313e+01      1.29988     0.354151  49.32  0.004185524    3.464    0.711
       135 -11.1779    169.1642     43.3692   7.3172329274e+01   3.7553524443e+01    0.2120566     0.166904  68.39 0.0006375356    1.165    0.142
       136 -13.6044      8.6054     42.8226   1.2158111221e+02   6.5540301083e+01    0.7602108    0.6232053  47.07  0.005531296    1.900    0.474
       137 -13.3033     26.6123    226.1299   1.4439833638e+02   2.4101487171e+01    0.4420113    0.2706889 -85.44  0.002025598    1.351    0.260
       138 -11.9277    246.8600    235.0953   1.0217789097e+02  -1.2352532170e+01    0.1767998    0.1597284   5.60  0.001246447    1.255    0.203
       139 -13.2489     33.8588     32.7783   1.0768324525e+02   6.5007558930e+01     0.510457    0.3467429  47.44  0.003044517    2.426    0.588
       140 -13.3522     68.4763    222.1162   1.3602463934e+02   1.9596609870e+01    0.6857858     0.354976 -57.11  0.003475814    2.089    0.521
       141 -14.1168     63.0007    214.8601   1.3635640883e+02   2.1932938389e+01    0.9364035    0.5955788 -81.48  0.005257013    1.471    0.320
       142 -12.5255     94.5053    218.7522   1.3027810628e+02   1.6364735017e+01    0.2954491    0.2048015  43.98  0.001588561    1.372    0.271
       143 -12.5303    238.2433    215.2038   1.0013939319e+02  -8.1563689893e+00    0.3080769    0.2273786 -50.88  0.001759401    1.785    0.440
       144 -12.8752     98.8232    216.1049   1.2902077242e+02   1.6231226300e+01    0.3872496    0.2754389 -77.65  0.002116476    1.445    0.308
       145 -11.9077    249.0305    216.4956   9.8430677117e+01  -1.0004996058e+01    0.1973292    0.1859543 -89.36  0.001304497    1.676    0.403
       146 -12.5483    198.6884     37.1072   6.7038885405e+01   3.1227677873e+01    0.4636401    0.2924726  87.73  0.001644563    1.657    0.396
       147 -13.9655    217.7327     41.9670   6.5731116133e+01   2.6071154878e+01     1.037267    0.4411741  63.35  0.004554869    2.187    0.543
       148 -12.9984    205.3462     40.4378   6.6950235295e+01   2.9192274793e+01    0.5528646    0.3103314 -86.07   0.00211886    2.196    0.545
       149 -11.3661     25.6581     43.0143   1.1462080680e+02   6.4186235961e+01    0.1685366     0.120208 -33.14 0.0004610298    1.136    0.120
       150 -12.5735    105.4511     35.0613   8.4317318784e+01   5.3254189496e+01    0.5039023    0.2912087 -16.04  0.002427027    2.114    0.527
       151 -12.9002     75.8809     37.4618   9.3915351130e+01   5.8500395115e+01    0.3265944    0.2342677  33.24 0.0008415137    1.299    0.230
       152 -12.3780     70.3688     36.6138   9.5438255071e+01   5.9527631462e+01    0.2818474    0.2159631  -5.16  0.000569628    1.216    0.178
       153 -12.1473    242.7396     36.3043   6.1736305994e+01   2.1227740793e+01    0.5891844    0.2026824  74.63  0.002273882    3.342    0.701
       154 -13.1618     56.0336     27.6245   9.7080021172e+01   6.2933365533e+01    0.4531552    0.2698614  36.68  0.001700075    1.645    0.392
       155 -11.5550     45.2985     36.3619   1.0445424166e+02   6.3144800052e+01    0.2476737    0.1473897  -6.01  0.000819198    1.933    0.483
       156 -12.6148     47.0108     32.4885   1.0234630690e+02   6.3496925887e+01    0.4419758     0.241549   0.17  0.002158269    2.541    0.606
       157 -13.3842      9.6105    211.1401   1.4641408268e+02   2.9040483057e+01    0.6596432    0.2600369  43.31  0.003580537    2.342    0.573
       158 -13.0083    139.6074     21.8372   7.2319513457e+01   4.7225205100e+01    0.7214996    0.3557479  68.16  0.002043589    2.056    0.514
       159 -12.9964    152.3525     31.4679   7.2809414377e+01   4.3134271633e+01    0.3578611    0.3267897  55.59   0.00108333    1.059    0.056
       160 -11.1647    157.5032    213.5337   1.1601680815e+02   6.3503180155e+00    0.1413859    0.1283629  48.96 7.250201e-05    1.031    0.030
       161 -11.8112    211.1775     33.1772   6.4520265057e+01   2.8780759369e+01    0.1895147    0.1703716  81.98 0.0004957788    1.139    0.122
       162 -10.8111    136.7014    211.3188   1.2013722582e+02   1.0642775760e+01    0.1437428     0.104929  73.86  0.000460829    1.617    0.382
       163 -13.1974    216.1188     28.3777   6.2859373161e+01   2.8244143116e+01    0.4416836    0.2656274 -54.46  0.001957726    1.584    0.369
       164 -11.9463    222.6818     21.7499   6.0705788855e+01   2.7559842866e+01    0.3411205    0.2350906 -90.00 0.0007991289    1.275    0.216
       165 -11.7858     72.2337    206.6387   1.3349076936e+02   2.2438184959e+01    0.2981322    0.2333139  61.93  0.001559113    1.148    0.129
       166 -11.1402     13.9348    206.4466   1.4526768550e+02   2.9616010692e+01    0.1917239    0.1234798 -84.37  0.001237527    1.223    0.182
       167 -10.3549    149.4807    206.5462   1.1655739689e+02   9.2543687512e+00    0.1429092    0.1321337  47.33 0.0001036107    1.020    0.019
       168 -10.5582     89.2924     30.3142   8.7144790251e+01   5.7032021983e+01     0.131375   0.08806812  16.64 0.0002463615    1.595    0.373
       169 -11.8585     97.4358     26.5225   8.3480705979e+01   5.5903202504e+01    0.2852572    0.2744165 -47.95   0.00191565    1.305    0.234
       170 -12.6441     57.3423    203.5114   1.3628967628e+02   2.5220526605e+01    0.5074253    0.2376997 -81.17  0.002256216    2.343    0.573
       171 -11.3833     70.9058     16.9671   8.7742482839e+01   6.1862002928e+01    0.1811544    0.1479568  18.78 0.0004297466    1.021    0.020
       172 -10.7103     60.3084     15.3291   9.0636558322e+01   6.3770577453e+01    0.1240095   0.07617835  11.77 0.0003124917    1.661    0.398
       173 -12.4838     39.2644    195.2112   1.3921271028e+02   2.9365969465e+01    0.4411478    0.3391564  87.82  0.002819309    1.055    0.052
       174 -12.3866     16.7041    196.2762   1.4392587524e+02   3.1560315076e+01    0.5633601    0.1846254 -59.01    0.0025326    2.886    0.654
       175 -12.1630    249.4496    199.4346   9.5127083125e+01  -7.4440076114e+00    0.3704021    0.3295625  88.31  0.002275338    1.783    0.439
       176 -11.5747    185.6557    203.5373   1.0826853353e+02   2.9994941215e+00    0.2458711    0.1331961 -44.91  0.001088563    1.950    0.487
       177 -13.2423     22.4586    181.2729   1.4138578920e+02   3.4365056358e+01    0.5917267    0.3572135 -64.77  0.002677595    1.466    0.318
       178 -14.7417      7.9607    183.5801   1.4462833105e+02   3.5199790682e+01     1.117246    0.8799659  80.33  0.007949096    1.107    0.097
       179 -14.7299     15.4617    175.3356   1.4231684869e+02   3.6388767778e+01      2.18947     1.070131  74.56  0.009964059    2.260    0.558
       180 -11.8064    201.4097    191.5215   1.0269733132e+02   2.2941503346e+00    0.3270569    0.2540347  16.95  0.001707863    1.388    0.279
       181 -11.8804     49.1196    181.4059   1.3551302391e+02   3.1372492670e+01     0.409178    0.2298906 -54.47  0.002080846    1.813    0.448
