#   1 NUMBER                 Running object number                                     
#   2 MAG_AUTO               Kron-like elliptical aperture magnitude                    [mag]
#   3 X_IMAGE                Object position along x                                    [pixel]
#   4 Y_IMAGE                Object position along y                                    [pixel]
#   5 X_WORLD                Barycenter position along world x axis                     [deg]
#   6 Y_WORLD                Barycenter position along world y axis                     [deg]
#   7 A_WORLD                Profile RMS along major axis (world units)                 [deg]
#   8 B_WORLD                Profile RMS along minor axis (world units)                 [deg]
#   9 THETA_WORLD            Position angle (CCW/world-x)                               [deg]
#  10 FWHM_WORLD             FWHM assuming a gaussian core                              [deg]
#  11 ELONGATION             A_IMAGE/B_IMAGE                                           
#  12 ELLIPTICITY            1 - B_IMAGE/A_IMAGE                                       
         1 -11.5151    241.1262     18.4268   6.4719064539e+01   2.2244030559e+01    0.3803785    0.2892602 -36.20   0.00144807    1.245    0.197
         2 -10.2245    141.7506     19.8886   7.8306187868e+01   4.7044666122e+01    0.4715431    0.2374004  15.22  0.001667837    3.327    0.699
         3  -9.9726    201.1851     11.9215   6.7011911808e+01   3.2694720420e+01     0.243598    0.1893015  56.29 0.0003727995    1.272    0.214
         4  -9.9753    229.3647      8.9853   6.3425530965e+01   2.6023128915e+01    0.2333173    0.1797762  65.33 0.0004890968    1.305    0.234
         5 -10.0746    211.8358      8.4989   6.4945869831e+01   3.0358143262e+01    0.1974447    0.1729845 -38.54 0.0005966699    1.160    0.138
         6 -10.9530    248.9331      4.4911   6.0753337147e+01   2.1918577829e+01    0.3058446    0.2186764 -22.17  0.001790766    1.516    0.340
         7  -9.0338    139.3747      5.7850   7.3631082370e+01   4.9014362266e+01    0.1875487    0.1259588   3.30  0.000499126    1.673    0.402
         8  -9.3736    134.2426      4.0026   7.3874387092e+01   5.0428541434e+01    0.1864568    0.1714508  15.47 0.0004900551    1.088    0.081
         9  -9.3072    240.5078      2.4861   6.0915054225e+01   2.4045774746e+01    0.1280413    0.1117272 -67.33 0.0002800415    1.004    0.004
        10  -9.9827    160.1889    239.7863   1.2712888278e+02   5.5749407309e+00    0.3186562    0.2153165 -83.04  0.001811889    2.671    0.626
        11 -11.2037    233.7491    246.9438   1.1583941394e+02  -6.7371388792e+00    0.4516714    0.3413057  41.46  0.002750204    1.422    0.297
        12 -11.2514    224.9559    245.7865   1.1708386944e+02  -5.3149483512e+00    0.4034414     0.311011 -49.08  0.002346746    2.122    0.529
        13 -10.6416    232.7341    238.4073   1.1471170280e+02  -5.7215344536e+00    0.4849835    0.4174006  34.84  0.003684823    1.368    0.269
        14 -10.9757    239.9467    221.7543   1.1085902855e+02  -5.0467198938e+00    0.6496405    0.5029575   2.55  0.004558722    1.170    0.145
        15 -11.3571    243.1125    247.3274   1.1440946894e+02  -8.1328989464e+00    0.3902155    0.3437899  44.71  0.002644647    1.657    0.397
        16 -11.9389    241.3396    239.6072   1.1351072039e+02  -7.1248216752e+00    0.7843958    0.3910356 -36.60  0.004603736    2.551    0.608
        17 -11.9766    249.0634    242.1542   1.1268047613e+02  -8.4933033804e+00    0.5126337    0.2669768 -31.79  0.002964435    2.254    0.556
        18 -12.0212    247.9954    233.3126   1.1145277152e+02  -7.4746743925e+00    0.7006178    0.3083636 -32.89  0.003900983    2.588    0.614
        19  -9.6166    137.0495    240.5375   1.3120164882e+02   9.1225422038e+00     0.231321    0.1303522  78.14  0.001054263    3.703    0.730
        20  -9.3917    195.1574    239.6596   1.2113517291e+02  -1.2163816045e-02    0.1633764    0.1624021  23.28 0.0009882547    1.363    0.267
        21 -10.3496    204.3659    235.3947   1.1896077257e+02  -9.7427989196e-01    0.3076834    0.2768136 -69.66  0.002232312    1.716    0.417
        22  -9.0496    189.5625    237.0609   1.2171889989e+02   1.2010896669e+00    0.1423458     0.115601 -36.20 0.0007319834    1.540    0.351
        23 -10.8578    216.0765    233.5399   1.1671073267e+02  -2.6202371860e+00     0.398688    0.3203247  83.19  0.002466395    2.487    0.598
        24  -9.2074    226.4915    231.5163   1.1466251883e+02  -4.0276052940e+00    0.1633438    0.1074477 -42.10 0.0007736715    2.110    0.526
        25 -10.0252    186.5419    230.7291   1.2133436731e+02   2.4948903706e+00    0.2611981    0.2023954  68.68  0.001665756    1.788    0.441
        26  -9.5243    157.4048    231.1883   1.2650592239e+02   7.2192045495e+00    0.1781209    0.1492065 -66.71 0.0009316101    1.519    0.342
        27  -9.5852    223.1783    227.2035   1.1453117785e+02  -3.0223825169e+00    0.1959038    0.1924909  88.95  0.001428342    1.566    0.361
        28 -10.1680    149.5958    226.3593   1.2726022160e+02   9.2012098166e+00    0.2951826    0.2083105 -86.70  0.001498833    2.124    0.529
        29  -9.4880    206.4767    225.5913   1.1711250331e+02  -1.3362354736e-01    0.3942295    0.1115141 -41.53  0.001573779    4.464    0.776
        30 -10.1668    161.8776    225.1063   1.2489096089e+02   7.3555041851e+00    0.3250624    0.1805021 -50.79  0.001810038    2.262    0.558
        31 -10.0737    217.0505    223.6486   1.1499657655e+02  -1.6238298199e+00     0.288945    0.2091618 -49.40  0.001730142    2.064    0.515
        32  -9.9266    195.1501    232.6499   1.2012725313e+02   8.4389735490e-01    0.2521775    0.2011362 -47.07   0.00173376    1.678    0.404
        33  -9.5731    199.9521    224.7515   1.1810975412e+02   1.0466613503e+00    0.1891571    0.1702729 -12.36  0.001206609    1.274    0.215
        34  -9.8335    181.5335    224.8058   1.2134765066e+02   4.1109147490e+00    0.2586027    0.1691694  52.04    0.0012297    1.515    0.340
        35  -9.7362    173.1622    223.0419   1.2257866932e+02   5.7605904865e+00    0.2051472     0.172175 -89.10  0.001346022    1.648    0.393
        36  -9.9733    229.3363    222.6777   1.1276818613e+02  -3.4838894137e+00     0.242845    0.1877048  24.26  0.001668699    1.028    0.027
        37 -10.4498    226.1842    220.1840   1.1288563686e+02  -2.6919955516e+00     0.274102    0.2336204  -0.98  0.001110831    1.197    0.165
        38 -10.3121    192.3996    220.7785   1.1881824277e+02   2.8250139474e+00    0.2515517    0.2335563  71.89   0.00146711    1.408    0.290
        39 -11.2565    248.6376    216.0462   1.0847168075e+02  -5.7658360837e+00    0.4723256    0.3317232 -41.12  0.002769632    2.022    0.505
        40  -9.9035    210.6182    219.3346   1.1540400423e+02  -4.1537919842e-02    0.2508492    0.2172084  15.84   0.00133812    1.110    0.099
        41 -10.3950    233.0117    214.5749   1.1079445176e+02  -3.1369431252e+00    0.2923709    0.2509392 -32.72  0.001455095    1.510    0.338
        42  -9.5811    168.8610    216.1464   1.2234226862e+02   7.4855784310e+00    0.1878061    0.1541252  59.63  0.001135933    1.299    0.230
        43 -11.0471    131.7717    213.5768   1.2883903388e+02   1.4141594415e+01    0.4318844    0.2100266 -57.73  0.002187732    2.474    0.596
        44 -10.7699    249.8758    179.1682   1.0143332756e+02  -1.6064495823e+00    0.7397717    0.2041608 -31.63  0.002768663    3.568    0.720
        45 -10.1459    250.3571    201.9797   1.0569498663e+02  -4.4557740397e+00    0.3130811    0.1696841 -29.64   0.00129831    1.889    0.471
        46 -10.1552    241.1747    213.6505   1.0927791397e+02  -4.3345375121e+00    0.3159088     0.221335   8.20  0.002027891    1.306    0.234
        47 -10.1548    236.6925    208.1401   1.0905979130e+02  -2.9756517707e+00    0.5639286     0.241163 -36.30  0.002562662    2.620    0.618
        48 -12.0781    246.1143    189.4202   1.0404784353e+02  -2.2589717601e+00     1.245612    0.5429727 -43.16  0.005411068    3.248    0.692
        49 -10.0753    228.9866    200.4100   1.0898451678e+02  -7.4748139035e-01    0.3422255    0.2145258  -8.64  0.001230516    1.820    0.451
        50 -11.1296    224.5092    193.1333   1.0842423736e+02   9.6842730427e-01    0.5457793    0.3897898 -53.22  0.002811854    2.151    0.535
        51 -11.3098    244.9097    203.3574   1.0683872211e+02  -3.7429799468e+00     0.781008    0.4882782  61.25  0.003761132    3.225    0.690
        52 -10.9454    236.9402    196.5826   1.0692980848e+02  -1.6102468395e+00    0.4463058    0.2962028  11.98  0.002184747    1.503    0.334
        53 -10.4658    231.6843    195.0615   1.0754208471e+02  -5.2585775528e-01     0.269235    0.2547154  -8.71  0.001290361    1.313    0.238
        54 -10.3631    185.6559    213.2024   1.1883705414e+02   5.0155796584e+00    0.3010131    0.2346288 -45.01  0.001349104    1.567    0.362
        55  -9.4296    154.3075    214.4228   1.2476520975e+02   1.0234152191e+01    0.2018868    0.1532068 -84.76  0.001084024    1.823    0.452
        56 -11.1322    215.2738    209.8928   1.1302546291e+02   3.7152338043e-01    0.4465879    0.3784334 -19.58  0.002848256    1.298    0.229
        57 -10.0670    204.3015    211.4564   1.1521593707e+02   2.0389728876e+00    0.2662282    0.2159783  89.13  0.001537704    2.150    0.535
        58 -10.5978    204.5703    206.7560   1.1437715738e+02   2.6230238662e+00    0.3340402     0.323872   5.34  0.002346858    1.254    0.202
        59 -10.4442    175.7765    209.9740   1.2013018955e+02   7.2018281680e+00    0.4179433    0.2897883 -74.81  0.002168996    2.570    0.611
        60  -9.7671    161.7816    210.8407   1.2285348706e+02   9.5069683283e+00    0.3061627    0.1746886 -32.58  0.001559736    2.405    0.584
        61 -10.4498    227.4900    210.0001   1.1093935719e+02  -1.6889499936e+00    0.3147086    0.2202121   1.39  0.001926726    1.466    0.318
        62  -9.7890    227.1780    205.8214   1.1026168466e+02  -1.1219774335e+00    0.2491967    0.1760929  -8.30  0.001254437    1.462    0.316
        63  -9.7396    191.8015    208.6975   1.1699741622e+02   4.5820480549e+00    0.2366096     0.170762 -36.22  0.001052409    1.598    0.374
        64  -9.8945    147.8626    209.6994   1.2528897366e+02   1.2082484121e+01    0.2180885    0.1859303 -68.83 0.0009426043    1.379    0.275
        65 -10.8854    124.6283    206.2572   1.2921706042e+02   1.6553726734e+01    0.3613168    0.1788542  54.70            0    1.987    0.497
        66 -10.6443    196.6874    204.6903   1.1544293990e+02   4.2887993001e+00    0.3908364    0.2303862  57.19  0.001762832    2.188    0.543
        67  -9.7311    183.9856    202.4226   1.1738910127e+02   6.8735639520e+00    0.2764032    0.1855717 -31.28  0.001557606    1.733    0.423
        68 -10.0488    140.4336    198.7435   1.2510252369e+02   1.5193233899e+01    0.1652182    0.1227365 -38.08 0.0009557665    1.657    0.396
        69 -10.1057    163.8680    202.3256   1.2114795375e+02   1.0478292549e+01    0.2962049    0.1922273 -54.54  0.001622304    1.900    0.474
        70  -9.1948    222.4774    202.0611   1.1040468636e+02   1.5097210795e-01    0.1779324    0.1186546 -28.45  0.001036604    1.604    0.377
        71  -9.9630    210.9950    201.3319   1.1229262137e+02   2.2365683275e+00    0.2374057    0.1899008  11.75 0.0009072353    1.177    0.150
        72  -9.8937    203.2984    198.4710   1.1316782918e+02   3.9930412925e+00    0.1954934    0.1608388 -63.15 0.0009225953    1.785    0.440
        73 -10.0208    177.3228    198.6213   1.1799772760e+02   8.6488159148e+00    0.3005392    0.2064758  71.81  0.001504469    2.281    0.562
        74 -10.3570    148.4113    196.7430   1.2324218173e+02   1.4141020944e+01    0.3001477    0.2016045 -56.34  0.001666247    1.737    0.424
        75 -10.3197    216.3704    195.2021   1.1023703586e+02   2.1225364834e+00    0.2970659    0.2429989 -46.17  0.001564922    1.589    0.371
        76  -8.9095     60.5227    194.5155   1.4017299165e+02   2.8128817243e+01    0.1181199   0.09187762  75.08 0.0001813585    1.041    0.039
        77  -8.4123    104.2910    193.6642   1.3151137973e+02   2.2100766970e+01    0.1286433   0.08608178  74.18 0.0004236206    1.638    0.389
        78  -9.8039    185.2317    193.9020   1.1569832370e+02   7.9379795094e+00    0.2925598    0.1874603 -42.18   0.00157628    1.775    0.437
        79  -9.3721    210.1848    189.7575   1.1034011750e+02   3.9891371498e+00    0.2333276    0.1506387 -49.69  0.001204846    2.102    0.524
        80 -10.5153    231.4349    186.8450   1.0603527548e+02   5.8905170567e-01    0.4271981    0.3141162 -30.62  0.002487171    1.447    0.309
        81  -9.9932    235.7079    181.8974   1.0434319245e+02   4.9458803343e-01    0.2672907    0.2392124  61.06  0.001602778    1.561    0.359
        82 -10.1465    209.7581    195.4235   1.1145717446e+02   3.2672170915e+00    0.3217975    0.2549225  85.72  0.001260755    2.266    0.559
        83  -8.8733    191.4540    187.5097   1.1338137441e+02   7.7724417315e+00    0.1329912    0.1167505  27.18  0.000232338    1.006    0.006
        84  -9.2821    225.1295    183.8781   1.0656037163e+02   2.1101070186e+00    0.1866721    0.1756345  18.70   0.00122156    1.219    0.179
        85 -10.3481    147.5700    179.0455   1.2049918709e+02   1.7418949987e+01    0.3465749    0.1903135 -44.26  0.001648497    2.022    0.505
        86 -10.7590    238.5874    189.0347   1.0523347464e+02  -9.3635853657e-01    0.4766293    0.3369828 -13.75  0.002851675    1.378    0.274
        87  -9.0952     25.4962    178.4986   1.4547954021e+02   3.5243179225e+01    0.1100848   0.08662775  88.43 0.0008093681    1.082    0.075
        88  -8.7583    211.5445    176.4841   1.0754603012e+02   5.6717510341e+00    0.1335702    0.1191854  18.66 0.0008084862    1.038    0.036
        89  -9.2063    176.0000    170.5012   1.1316238699e+02   1.3507989263e+01    0.2953575   0.07949766 -42.14 0.0009431079    4.003    0.750
        90 -10.2621    132.5655    157.2141   1.1972672214e+02   2.4404221717e+01    0.1918216    0.1322856 -39.45 0.0004512549    1.634    0.388
        91  -8.8541    229.4318    153.4855   9.9559434447e+01   5.6685044789e+00    0.1375532    0.1217224   2.84 8.718062e-05    1.011    0.011
        92  -8.6774     39.7083    153.6930   1.4015363314e+02   3.8957671103e+01    0.1112404   0.08301044 -50.20  0.000344261    1.579    0.367
        93  -8.6873    243.4234    155.5226   9.7621913725e+01   2.7104022236e+00    0.1340773    0.1158057  -0.54 0.0001781117    1.017    0.017
        94  -9.2812    118.1200    152.4772   1.2207212406e+02   2.8015250562e+01    0.2032073     0.132218  43.60 0.0005159429    1.514    0.339
        95 -10.0043    241.0371    149.3676   9.6684809026e+01   4.0347543987e+00    0.2337989    0.2043062 -31.74 0.0007365269    1.244    0.196
        96  -9.6526    248.2097    143.1344   9.4137823364e+01   3.5623363140e+00    0.3460784    0.1450556 -19.20  0.001223381    3.357    0.702
        97  -9.0540    244.9531    144.7699   9.5027452801e+01   3.9481302627e+00    0.1708165    0.1081549  43.07 0.0008296348    1.607    0.378
        98  -8.7784    241.3774    138.2808   9.4162212167e+01   5.5811044779e+00    0.1453674   0.09746371  15.43 0.0007010145    1.711    0.416
        99  -8.9642    162.5376    136.5297   1.0877877891e+02   2.2489761845e+01    0.1453582    0.1425646  39.79 8.182268e-05    1.022    0.022
       100  -9.5992     96.2227    135.3620   1.2399487530e+02   3.5438244132e+01    0.1924783    0.1227668  50.84 0.0009471346    1.628    0.386
       101  -9.1542    113.6333    134.6995   1.1961956882e+02   3.2588813770e+01    0.1413882    0.1138175  -5.54 0.0007033467    1.733    0.423
       102  -9.3024    121.6593    133.2537   1.1738359551e+02   3.1417634021e+01    0.2053022     0.128961 -42.67 0.0006834248    1.656    0.396
       103  -9.6978    235.8443    130.0139   9.3180830247e+01   7.9215881041e+00    0.2219758    0.2004359  38.37 0.0005701974    1.185    0.156
       104  -8.9649    231.1689    129.8721   9.3930698415e+01   8.9033035116e+00    0.1997768    0.1552905   2.87 0.0004124999    1.345    0.256
       105  -9.9570    200.9340    125.6433   9.8350419983e+01   1.6082945662e+01    0.4161032    0.2014741 -33.87  0.001659363    2.066    0.516
       106  -8.9872    186.5979    128.2342   1.0178576364e+02   1.8802001159e+01    0.2089187    0.1411587 -24.69  0.000943883    1.622    0.383
       107  -9.2867    212.9740    123.2137   9.5525677019e+01   1.3840639066e+01    0.2524439    0.1598962  22.54  0.001082146    2.017    0.504
       108  -9.3723    232.2984    121.0880   9.1665635228e+01   1.0021959057e+01    0.2028501    0.1676282 -27.68  0.000438399    1.140    0.123
       109  -9.4626    171.5021    121.5010   1.0325807732e+02   2.3400599670e+01    0.2845207    0.1453352 -27.47  0.001037076    2.500    0.600
       110 -10.1714    192.4716    118.5592   9.8236981493e+01   1.9208864798e+01    0.3156237    0.2679999 -86.44 0.0008504131    1.509    0.337
       111  -8.7399    165.8042    119.0310   1.0386518400e+02   2.5141214284e+01    0.1989477    0.1177517 -40.10 0.0005632305    1.690    0.408
       112  -9.6564    153.3229    114.2967   1.0543914731e+02   2.8829245037e+01     0.302413    0.2208009 -79.96  0.001311392    2.019    0.505
       113  -9.3937    241.9271    112.7587   8.8123952461e+01   9.2672647889e+00    0.2219696    0.1671007 -75.27  0.001083893    2.020    0.505
       114  -9.7873     26.0957    111.1468   1.3796716171e+02   4.9644015111e+01    0.1895194    0.1389133 -49.20  0.001225482    1.376    0.273
       115  -9.9933    236.9755    107.2195   8.7556872805e+01   1.1152060217e+01    0.2597201    0.1887061  28.08  0.001175452    1.522    0.343
       116  -9.2141    197.2540    107.0000   9.4363824087e+01   2.0126029240e+01    0.2143292    0.1903435 -24.14  0.000636555    1.098    0.089
       117  -9.2871    209.3390    114.0144   9.3914390958e+01   1.6172207524e+01    0.2124394    0.1799029 -28.26 0.0004840182    1.140    0.122
       118 -10.1972    228.8208    104.5038   8.8186539282e+01   1.3347209543e+01     0.270995    0.2495789  75.59 0.0006052279    1.267    0.211
       119  -9.2699    214.1807    104.8426   9.0731853347e+01   1.6585100970e+01    0.2036327    0.1677533   5.49  0.000446707    1.313    0.238
       120  -9.1006    182.1985    104.1694   9.6564694665e+01   2.4140241386e+01    0.2099235     0.183985 -70.75 0.0009037207    1.330    0.248
       121 -10.7242    110.0223    114.4220   1.1600294709e+02   3.7627278867e+01     0.455168    0.2615817 -54.14  0.002024123    1.727    0.421
       122 -10.6982    247.1146    102.6727   8.4910866880e+01   9.6776155747e+00    0.3185737    0.2326446 -47.69 0.0005445383    1.461    0.315
       123 -10.3414    205.7076     98.6278   9.0617038325e+01   1.9566384925e+01    0.3885315    0.2750259  -3.81  0.001607327    1.764    0.433
       124 -10.6107    233.7051     95.1815   8.5081755598e+01   1.3696715410e+01    0.3473117    0.2889226 -69.24  0.001855087    1.460    0.315
       125  -9.5063    171.6190     95.8728   9.6490370265e+01   2.8133028904e+01    0.2326317    0.1365664 -46.77 0.0009488801    1.801    0.445
       126  -9.8320    245.0062     94.0286   8.3113788233e+01   1.1395736583e+01    0.2242319    0.1593635 -55.88 0.0006861582    1.654    0.395
       127  -9.5945    150.5102     92.7136   1.0025272136e+02   3.3653772333e+01    0.2740807    0.2090582  48.12 0.0006624892    1.328    0.247
       128  -9.9515    245.0262     88.1140   8.1654875209e+01   1.2255825963e+01    0.3637319    0.1743054 -19.73  0.001406943    2.515    0.602
       129  -9.2746    250.5212     88.0410   8.0874875855e+01   1.1082648468e+01    0.2173204    0.1261035 -29.59 0.0004098706    1.563    0.360
       130 -10.0348    227.4028     88.2629   8.4295111113e+01   1.6172821958e+01    0.2151047    0.1253097 -40.09 0.0009535693    1.636    0.389
       131 -10.0286    218.4209     86.2986   8.5203637559e+01   1.8559757365e+01    0.2980733    0.1430673 -26.18  0.001145702    2.190    0.543
       132  -9.2726    192.6097     84.6326   8.9209995357e+01   2.5022817085e+01    0.3896341    0.1269051 -38.27  0.001249364    2.885    0.653
       133  -9.6637    186.2708     83.3073   9.0026125983e+01   2.6791582151e+01    0.3719472    0.2589152 -15.57  0.001654846    1.659    0.397
       134  -9.7596    171.7984     83.8972   9.3060890479e+01   3.0221803595e+01    0.3022809    0.2129024 -89.05  0.001247837    2.163    0.538
       135  -9.9003    235.9805     86.5063   8.2553584868e+01   1.4491320579e+01    0.2303288    0.1780596 -30.26 0.0004943839    1.196    0.164
       136  -9.7914    244.7296     80.5747   7.9827101105e+01   1.3410720412e+01    0.3013391    0.2028878 -64.12 0.0008723793    1.921    0.479
       137 -11.3726    241.0370     76.5432   7.9321897956e+01   1.4810785585e+01    0.4112278    0.2866102  48.02  0.001426719    1.544    0.352
       138  -9.4598    249.8490     77.0915   7.8283006765e+01   1.2784184035e+01     0.223207    0.1757824 -48.43  0.001185336    1.256    0.204
       139  -9.2762    189.7419     76.4886   8.7439789155e+01   2.7060325671e+01    0.3357021    0.1637601 -44.78  0.001270074    2.158    0.537
       140  -9.8164     44.4951     77.4984   1.2599564033e+02   5.5332477906e+01    0.1286332    0.1063321 -50.44 0.0008106498    1.011    0.011
       141  -9.3505    157.6181     76.2113   9.3794257023e+01   3.4994735237e+01    0.2271041    0.1463243 -23.09 0.0009605284    1.726    0.420
       142 -10.2134    140.0435     75.2792   9.7532845637e+01   3.9299369694e+01    0.3742213    0.1930435 -51.24  0.001397633    2.369    0.578
       143  -8.9593    167.6549     78.3187   9.2285547059e+01   3.2196212997e+01    0.1597253     0.121503 -72.53 0.0007049121    1.725    0.420
       144  -8.7140    207.7052     74.3122   8.3719816290e+01   2.2983078911e+01     0.152156    0.1126237 -62.38 0.0004794712    1.595    0.373
       145 -11.2827    229.9158     70.7803   7.9391239329e+01   1.8190754491e+01    0.4987111    0.1842439 -46.58  0.001693091    3.069    0.674
       146  -9.5436    187.9125     70.1097   8.5934918528e+01   2.8533822893e+01    0.4001106    0.2441203  -4.16  0.001521722    2.502    0.600
       147 -10.8462    234.4711     67.9230   7.8019852184e+01   1.7538958669e+01    0.4822209    0.1697726 -28.36  0.001694095    2.796    0.642
       148  -9.2712    215.4501     69.9903   8.1312185631e+01   2.1752545139e+01    0.2256916    0.1398134 -30.36 0.0006031072    1.553    0.356
       149 -10.0493    239.3764     68.2578   7.7448838920e+01   1.6363513682e+01    0.2633696    0.2133558 -41.57 0.0006668564    1.152    0.132
       150  -9.1841    219.9555     68.7443   8.0296416618e+01   2.0849276434e+01    0.1955563    0.1860441  63.16 0.0003470276    1.100    0.091
       151 -10.4391     44.2275     67.9428   1.2362229019e+02   5.7389119729e+01     0.205886    0.1876142  11.71  0.001088616    1.276    0.216
       152 -10.8714    245.1225     65.3496   7.5975300604e+01   1.5466255236e+01     0.541789    0.2821332 -59.86  0.002141349    2.709    0.631
       153  -9.7608    214.3484     62.0449   7.9313748541e+01   2.3182463719e+01    0.2110963    0.1776255 -35.95 0.0005341315    1.140    0.123
       154  -8.9220    205.4792     61.5188   8.0518594485e+01   2.5448715921e+01    0.1459364    0.1429243 -14.53 8.612957e-05    1.029    0.028
       155 -10.1869    231.8073     58.6742   7.5979008953e+01   1.9453672997e+01    0.2019635     0.176589 -22.17 0.0007645244    1.141    0.124
       156  -9.2414    174.2108     59.2334   8.5213828418e+01   3.3666832034e+01    0.2057457    0.1767102 -71.23 0.0007375443    1.319    0.242
       157 -10.4133    225.7018     57.0145   7.6352586769e+01   2.1135132181e+01    0.2107739    0.1866065 -33.09   0.00117866    1.081    0.075
       158  -8.8787    209.3377     55.6819   7.8297561266e+01   2.5323535556e+01    0.1559368    0.1080815 -63.81 0.0007049033    1.704    0.413
       159  -9.5136    140.4136     54.7529   9.0803119232e+01   4.2703768494e+01    0.2124069    0.1434521 -18.70 0.0007292269    1.619    0.382
       160  -9.2013    121.5935     65.8021   9.9121329066e+01   4.5121709434e+01    0.2182936    0.1332659 -46.31    0.0009532    1.713    0.416
       161  -9.5012    149.2750     52.3992   8.8047938991e+01   4.0929339268e+01    0.2018428    0.1461334  67.59 0.0007774305    1.555    0.357
       162  -9.2644    195.0002     49.0601   7.8583373877e+01   2.9854026070e+01    0.4335929    0.1235206 -39.30   0.00136154    3.271    0.694
       163  -9.4928    221.0150     44.7142   7.3679357627e+01   2.3920052265e+01    0.2005988    0.1842112  69.78  0.001151073    1.114    0.102
       164  -9.3249     25.5022     46.5542   1.2430405987e+02   6.3534708286e+01    0.1198912   0.09516674 -42.76 7.634007e-05    1.028    0.027
       165  -9.5413    164.0097     43.2416   8.2079330220e+01   3.8570568300e+01    0.2044953    0.1984846  39.51 0.0005573108    1.008    0.008
       166  -9.1732    132.3016     43.6812   8.8859283385e+01   4.6305769491e+01    0.1453169    0.1147407 -64.53 0.0004341889    1.623    0.384
       167  -9.9353      4.8818     41.3826   1.3104096668e+02   6.6026122289e+01    0.2097113    0.1392703 -80.12  0.001305498    1.927    0.481
       168 -11.3600    248.8341     37.9288   6.8754708487e+01   1.8201300147e+01    0.4014523    0.2832467 -24.66 0.0007812261    1.420    0.296
       169  -9.4826    173.6454     40.1842   7.9377340045e+01   3.6519410489e+01    0.2305026    0.1808833 -42.69 0.0008442293    1.310    0.236
       170  -9.1535    105.3364     40.3125   9.4492228424e+01   5.2792069490e+01    0.1489897    0.1032553  13.63 0.0003553608    1.688    0.407
       171  -9.5603     93.1523     40.1978   9.7969533496e+01   5.5243306618e+01    0.1814299    0.1662976 -54.41 0.0007823483    1.340    0.254
       172 -11.0433    241.9566     38.0632   6.9504014039e+01   1.9761841850e+01     0.312545    0.2066394  28.56  0.001318502    2.097    0.523
       173  -9.7184    218.3682     34.4541   7.1238935733e+01   2.5864186632e+01    0.2652808    0.1581891 -33.12  0.000573876    1.599    0.375
       174  -9.5796    104.5542     34.2342   9.2366013705e+01   5.3845050192e+01    0.1940664    0.1284226 -14.92 0.0004113138    1.581    0.368
       175 -10.0394    229.4464     37.1270   7.0646334597e+01   2.2833555664e+01    0.2540629    0.2222429  64.50 0.0005010303    1.184    0.155
       176  -9.9634     96.1737     37.5915   9.6059933894e+01   5.5056709317e+01    0.2404163    0.1597098 -24.93  0.001217755    1.445    0.308
       177  -9.4382    164.4739     32.4858   7.8487290686e+01   3.9852105929e+01    0.2326269    0.1767323 -35.17 0.0005014219    1.346    0.257
       178  -9.7436    162.6891     29.3228   7.7756827537e+01   4.0692422664e+01    0.2545201    0.2002903 -42.61 0.0007089911    1.337    0.252
       179  -9.0008    194.0199     29.9406   7.3106436398e+01   3.2554736794e+01     0.171192    0.1649111  86.07 0.0006771483    1.007    0.007
       180  -9.2386    216.1300     30.1823   7.0348241860e+01   2.6932290935e+01    0.2001734    0.1536432 -61.81 0.0006653673    1.326    0.246
       181 -11.0199    244.0850     27.3883   6.6641895840e+01   2.0545939620e+01    0.4151671    0.1977472 -68.28   0.00164127    2.942    0.660
       182  -9.1316    174.6159     28.2421   7.5442658887e+01   3.7755259453e+01    0.1991034    0.1395273  -7.47 0.0006228364    1.653    0.395
       183  -9.9640    249.4626     22.7210   6.5012928762e+01   1.9849743223e+01    0.2440055    0.2169565   6.45  0.001336446    1.368    0.269
       184  -9.9546    220.7795     23.6658   6.8069666761e+01   2.6536335707e+01    0.1893687    0.1236504  82.98  0.000934166    1.606    0.377
       185  -9.5046    218.9402    248.9706   1.1852059890e+02  -4.7405402521e+00    0.1550339    0.1283194  57.01 0.0008925694    1.710    0.415
       186  -8.5992    191.3011     21.6977   7.1038202841e+01   3.4193787457e+01    0.1461387    0.1019273 -62.57 0.0003436662    1.588    0.370
       187  -9.6214    191.2620    247.6246   1.2288657996e+02  -3.3942933909e-01    0.1730669    0.1447937 -56.73   0.00114941    1.745    0.427
       188  -8.9292    227.4942     17.5327   6.5774575287e+01   2.5576838387e+01    0.1305596    0.1252442 -84.18 -2.372636e-05    1.074    0.069
       189  -9.1983    174.8024     17.6322   7.2063632401e+01   3.8882448505e+01    0.1955549    0.1302445  81.66  0.000542482    1.618    0.382
       190  -9.3873    120.8277     16.4042   8.1296588836e+01   5.2448433594e+01     0.202723    0.1129583  46.27 0.0007205117    1.643    0.391
       191  -9.6233     62.5282     15.0123   9.7341389726e+01   6.4268080325e+01    0.1954249    0.1092054 -28.62  0.001038786    1.613    0.380
       192  -9.5027     43.6465     15.2886   1.0474977739e+02   6.6998677883e+01     0.103606   0.09625468 -56.79  0.000345572    1.673    0.402
       193  -9.9687    206.4459     20.3051   6.8764479036e+01   3.0484305437e+01    0.2605951    0.2276038 -20.34 0.0009535703    1.224    0.183
       194  -9.7839    131.2280     14.0265   7.8199063891e+01   5.0229701508e+01    0.2212022    0.1738464  24.73  0.001206614    1.253    0.202
       195  -8.7554    249.6528     12.7130   6.2620309320e+01   2.0904230760e+01    0.1241472    0.0943485  39.08 0.0007022012    1.655    0.396
       196  -9.7754    210.5069    246.0420   1.1948041484e+02  -3.1462158446e+00    0.2069747    0.1078156 -42.50   0.00120278    2.631    0.620
       197  -9.8793     90.2319     18.9509   9.0142509836e+01   5.8779371280e+01    0.1720727    0.1031035 -25.45 0.0004080362    1.596    0.373
       198  -9.2852    120.3243    245.6896   1.3460120218e+02   1.0918071509e+01    0.1145818   0.07017221  64.55 0.0007038609    1.654    0.396
       199 -10.1147    146.5445    242.7389   1.2983027863e+02   7.3291849368e+00    0.2249797    0.1149999 -54.71  0.001284375    2.549    0.608
       200  -8.9825    169.4082    243.2073   1.2598658757e+02   3.6526650220e+00    0.1351977    0.1103793 -68.78 0.0009015871    1.716    0.417
       201  -9.0966    214.1559    241.2285   1.1818256776e+02  -3.1813596258e+00    0.1406675     0.119939  41.45 0.0006606404    1.328    0.247
       202  -9.4956    184.0004    240.5122   1.2314622561e+02   1.6657042360e+00    0.2099328    0.1429991  86.59  0.001037977    3.655    0.726
