#   1 NUMBER                 Running object number                                     
#   2 MAG_AUTO               Kron-like elliptical aperture magnitude                    [mag]
#   3 X_IMAGE                Object position along x                                    [pixel]
#   4 Y_IMAGE                Object position along y                                    [pixel]
#   5 X_WORLD                Barycenter position along world x axis                     [deg]
#   6 Y_WORLD                Barycenter position along world y axis                     [deg]
#   7 A_WORLD                Profile RMS along major axis (world units)                 [deg]
#   8 B_WORLD                Profile RMS along minor axis (world units)                 [deg]
#   9 THETA_WORLD            Position angle (CCW/world-x)                               [deg]
#  10 FWHM_WORLD             FWHM assuming a gaussian core                              [deg]
#  11 ELONGATION             A_IMAGE/B_IMAGE                                           
#  12 ELLIPTICITY            1 - B_IMAGE/A_IMAGE                                       
         1 -12.6662    137.9380     46.9668   3.9685831486e+01   4.3963221689e+01      1.04989    0.6301118 -84.74  0.001768454    2.311    0.567
         2 -11.0272     84.0227     49.0704   5.3580475338e+01   5.5940413481e+01     1.708749    0.8085126 -16.82  0.004839363    6.042    0.834
         3  -9.9495     40.7112     17.3265   5.6963813608e+01   6.8723587908e+01    0.4908779    0.2987289  56.08   0.00238996    2.136    0.532
         4 -11.3972     20.0178     26.3349   7.2515159279e+01   7.0559441409e+01     1.416695    0.6838171   4.86  0.005622209    3.507    0.715
         5 -10.5148     34.7298     26.3842   6.4294394614e+01   6.8499990049e+01    0.5313448    0.4264406  42.78  0.002169825    1.435    0.303
         6 -11.5613     31.1979     11.8103   5.8873606457e+01   7.0988644398e+01    0.6163903    0.3668644 -11.12 0.0005017086    1.968    0.492
         7 -12.4388     46.0031      8.6462   5.0269066417e+01   6.8726332458e+01    0.7268808    0.3909837   2.82  0.001680243    2.831    0.647
         8 -10.0277     39.5826      9.0266   5.3275900765e+01   6.9869335325e+01    0.2179213    0.1636856  27.18 0.0001695317    1.098    0.089
         9 -11.3625     57.3085     12.5487   4.7762605897e+01   6.6127925685e+01    0.7656773    0.3589711  61.56  0.003452168    2.498    0.600
        10 -10.1034     62.9993      9.9760   4.4616916318e+01   6.5213283356e+01     0.184922     0.151616  39.51 0.0003443596    1.030    0.029
        11 -11.1542     34.6719      2.7899   5.2226723188e+01   7.1377819802e+01    0.5005281    0.2770542  57.82  0.002619783    2.264    0.558
        12 -11.0177     39.7945      2.0233   4.9466562815e+01   7.0523640783e+01    0.4114698    0.2074259  58.28  0.002074581    2.249    0.555
        13 -10.8734     73.6062     34.7298   5.1579342222e+01   6.0189858335e+01    0.6580698    0.3439384 -20.58  0.002907036    2.601    0.616
        14 -10.7108    180.0776     30.7268   2.9464033173e+01   3.6458129187e+01    0.9074944    0.7032179   7.81  0.005355847    2.168    0.539
        15 -10.6857    178.8392     20.6356   2.7233006964e+01   3.7869303575e+01    0.4184522    0.1933442 -50.07  0.002162569    1.988    0.497
        16 -11.4751    236.1404     30.0780   2.4507547054e+01   2.5427545595e+01    0.4211718    0.2916505 -38.18  0.002953334    1.507    0.336
        17 -11.9890     55.1507     19.6308   5.1851775751e+01   6.5786634489e+01    0.4196357    0.2501136  30.47 0.0004382292    1.634    0.388
        18 -10.3826      8.3180      8.9188   7.1339306047e+01   7.4555788136e+01    0.4886007    0.2589543 -34.08  0.002842959    1.851    0.460
        19 -11.0661      6.5533     22.3603   7.9345501652e+01   7.2671430270e+01    0.7164753    0.3116363 -38.72  0.003618193    2.100    0.524
        20 -10.7194      9.0792     15.2383   7.4172304772e+01   7.3549964448e+01    0.3069144     0.244056  -9.84  0.001292171    1.086    0.079
        21 -11.5148      2.9222      3.6258   7.2279147500e+01   7.5886942407e+01    0.3264629    0.2976627  21.95  0.001951207    1.562    0.360
        22 -10.8464      6.8655      2.8314   6.8868833611e+01   7.5546592238e+01    0.2040539    0.1589772   5.34 0.0003080409    1.059    0.056
        23  -9.8617     75.7595     20.8480   4.5285429488e+01   6.1409075048e+01    0.3852378    0.2829924  82.48  0.002115526    1.789    0.441
        24 -10.5641     81.2366     20.3703   4.3503695365e+01   6.0264594319e+01    0.4869913    0.2008035 -35.60  0.001555896    2.722    0.633
        25 -10.6369     76.1850     12.4282   4.1694625230e+01   6.2165184661e+01    0.5303065    0.2393339 -16.80  0.002389142    3.015    0.668
        26 -10.0339     77.8300      5.8498   3.8538092459e+01   6.2380854156e+01    0.3308543    0.2281227 -70.10   0.00184375    2.051    0.512
        27 -12.4076    111.0130     19.2898   3.6187636907e+01   5.3570169275e+01    0.4908834    0.3687402   6.88  0.001985899    1.785    0.440
        28 -10.9197    112.1480     15.1567   3.4603619678e+01   5.3707677337e+01    0.1868866    0.1593658 -72.19 -0.000430966    1.248    0.199
        29 -11.2576    221.4423     15.3125   2.2709872471e+01   2.9795238071e+01    0.2748666    0.2135337  68.98  0.002039266    1.512    0.338
        30 -10.1649    223.2038     22.2526   2.3923854653e+01   2.8697682092e+01    0.3565688    0.1823152 -57.16  0.001644084    1.585    0.369
        31 -11.5016    229.5941     16.2425   2.2370733329e+01   2.8180156405e+01    0.5930122    0.4585488  44.54  0.004217649    2.108    0.526
        32 -12.1052    239.7334     19.3405   2.2323307695e+01   2.6020298106e+01    0.5597841    0.4330064 -46.78  0.001660953    1.325    0.245
        33 -10.1109    130.0172     19.6319   3.3004489819e+01   4.9078747814e+01    0.4799156    0.3262747 -25.22  0.002749764    1.777    0.437
        34 -10.2444    136.7585     16.8123   3.1179027307e+01   4.7785570348e+01    0.4079493    0.2844326  44.11  0.002155499    1.634    0.388
        35 -10.5591    131.2447     13.5033   3.0998835085e+01   4.9392187702e+01     0.395484    0.2487126 -67.54 0.0007663054    1.743    0.426
        36 -12.3270    128.8379      4.4908   2.8663699985e+01   5.0752861649e+01      0.80924     0.318669  62.84   0.00386295    2.025    0.506
        37 -10.1234    126.1274     14.9149   3.2184782377e+01   5.0455428140e+01    0.2649051    0.2220378 -51.64 0.0008423796    1.297    0.229
        38 -11.4340    123.0476     11.2342   3.1529347043e+01   5.1518611305e+01    0.5052662    0.2123711  57.69  0.001401918    1.984    0.496
        39 -10.3688    246.7620     14.1660   2.1017107268e+01   2.5369107129e+01    0.3031003    0.1738534  87.04  0.001849757    1.636    0.389
        40 -11.6292    192.9537     17.8784   2.5333872478e+01   3.5169652053e+01    0.3548031     0.253385  65.47  0.002344294    1.480    0.324
        41 -10.6990    151.9052      4.5995   2.5997461976e+01   4.5439724069e+01    0.5745519    0.2785992  61.16  0.002811033    1.850    0.459
        42 -11.7615    152.0183     18.4604   2.9629545339e+01   4.4089896437e+01    0.5155322    0.3387443  57.15  0.002025939    1.508    0.337
        43 -10.0479    149.6678     11.9631   2.8182925230e+01   4.5272852237e+01    0.2394204    0.1789751  78.40 0.0005370964    1.130    0.115
        44 -11.1748    154.7278     10.1626   2.7142322048e+01   4.4291302207e+01     0.524869    0.2494492  89.16  0.001805353    2.184    0.542
        45 -11.3416    100.9241     15.9434   3.7062815747e+01   5.6245527571e+01    0.5485495    0.3553002  43.86  0.002121324    1.501    0.334
        46 -10.2554     90.8648     10.2837   3.7174389938e+01   5.9074790860e+01    0.4533104    0.2289966  67.38  0.001819896    1.790    0.441
        47 -11.3297     89.5851      3.4934   3.4881295607e+01   5.9927115725e+01    0.5058447    0.3526734  86.77  0.002978903    1.557    0.358
        48 -10.1935    176.3419     12.3096   2.5529106688e+01   3.9280939004e+01    0.2713875    0.2036323 -69.70 0.0002570248    1.139    0.122
        49 -10.6118    204.3426      3.4713   2.1480556497e+01   3.4329690454e+01    0.3902597    0.2010381  77.45  0.001384642    1.731    0.422
        50 -11.4376    198.0221      3.1172   2.1819223192e+01   3.5632815667e+01      1.09564    0.2647956  72.10  0.004721819    3.439    0.709
        51 -11.5691    208.6138     10.4197   2.2597906472e+01   3.2785845804e+01    0.5048674    0.3803789  -8.27  0.001092875    2.264    0.558
        52 -11.5306    217.6713      4.3295   2.0840998341e+01   3.1652314823e+01    0.5038825     0.450469  31.29  0.002399268    1.845    0.458
        53 -12.5491    187.1015     13.6879   2.4904445250e+01   3.6837541587e+01    0.3244949    0.2983489 -76.57 0.0003821975    1.247    0.198
        54 -11.9030    182.4834     11.4287   2.4788414663e+01   3.8048009103e+01    0.3857862    0.2639798 -26.83  0.001508927    1.821    0.451
        55 -10.0807     24.1028      7.4179   6.0374660256e+01   7.2627070294e+01    0.4237232    0.1740545  29.54 0.0007465524    2.425    0.588
        56 -11.0907     24.8818     12.9141   6.2936739213e+01   7.1833585654e+01    0.3802297    0.2401229   5.05 0.0004715419    1.685    0.407
        57 -11.4527     16.5543     13.6987   6.8404408709e+01   7.2885120625e+01    0.3362246    0.1930744  37.35 0.0007863966    1.776    0.437
        58 -11.5276     17.6960      7.7709   6.4426236786e+01   7.3518802956e+01    0.5931118    0.3684621 -49.04 0.0005139113    2.598    0.615
        59 -10.2275    144.0995     11.9361   2.8842075280e+01   4.6554713822e+01    0.3611479    0.2559529 -68.57  0.002150294    1.378    0.274
        60  -9.1822     71.6480     12.1608   4.2884443005e+01   6.3175374513e+01    0.2220946    0.1016867 -37.30  0.001055146    2.591    0.614
        61 -10.4031    116.5178      8.5556   3.1708208740e+01   5.3282281097e+01    0.2421518    0.1757865 -83.07 0.0006558257    1.406    0.289
        62 -10.8528    103.5276      8.0971   3.3795570703e+01   5.6348293707e+01    0.3449684    0.1980509  64.26  0.001054874    1.427    0.299
        63  -9.8428    225.3670      7.2608   2.0952189312e+01   2.9909983097e+01    0.2170044     0.137141 -65.79  0.000872147    1.204    0.169
        64 -11.0255    168.2408      5.8688   2.4738881340e+01   4.1674705793e+01    0.3804732    0.3202478   6.68  0.001517022    1.784    0.439
        65  -9.0264     98.0537      7.4755   3.4625556371e+01   5.7666504428e+01    0.1742406    0.1678402  35.85  0.001220448    1.194    0.162
        66 -10.0294    249.4706      7.0617   1.9664757055e+01   2.5662657288e+01     0.310595    0.0956882 -46.98  0.001757334    2.190    0.543
        67  -9.5523    237.1508      5.8812   2.0067534983e+01   2.7916324759e+01     0.246732   0.09602471 -58.39  0.001424122    2.009    0.502
        68 -10.6129    105.8384      2.5761   3.1485840408e+01   5.6257841530e+01    0.4629974    0.2501232  86.21  0.002273381    2.020    0.505
        69 -10.6478    177.0649      4.1679   2.3587462351e+01   3.9913674038e+01    0.4242406    0.1859173 -64.25 0.0009376325    2.299    0.565
        70  -8.3397     64.2986      5.9596   4.2386026128e+01   6.5301295743e+01    0.1273501    0.1106026  -9.06 0.0003207532    1.323    0.244
        71  -9.3692    119.9392      2.1220   2.9159480174e+01   5.3014389888e+01    0.2171014    0.1752121 -81.46  0.001137018    1.199    0.166
        72  -9.2386    229.9492      2.0122   1.9743302741e+01   2.9600924716e+01    0.1614463    0.1133649 -66.92 0.0003333064    1.027    0.026
        73  -9.0916    138.1804      8.2870   2.8561041968e+01   4.8257906064e+01    0.2403439     0.144258 -84.51  0.001311188    1.667    0.400
        74  -9.2530     64.3260      1.9992   4.0582640594e+01   6.5621878300e+01    0.2288653     0.136627  40.74  0.001311008    1.452    0.311
        75  -9.3869     23.5500      1.9634   5.7553747583e+01   7.3325298753e+01    0.2325718    0.1569544  51.15  0.001414626    1.838    0.456
        76  -9.7041    238.0266      1.4008   1.9235968219e+01   2.8216278497e+01    0.2855475   0.07563012  73.65  0.001415307    3.450    0.710
        77  -9.5437    245.9481      1.7678   1.8930803763e+01   2.6804002600e+01    0.1942685    0.1157796  71.71  0.001410604    1.833    0.454
        78 -10.1245    130.8752    104.8570   5.7374470808e+01   3.5531587494e+01    0.4591097    0.3645118   6.92  0.002192744    1.657    0.396
        79 -10.5068     21.4833    104.9054   9.5378271641e+01   5.3491241901e+01    0.3207745    0.2454089 -65.14 0.0006088318    1.241    0.194
        80  -8.2634     95.4440    105.4642   6.7605973348e+01   4.2697063983e+01    0.1516179    0.1493878   5.54 6.305047e-05    1.009    0.009
        81  -9.4699     91.3995    104.2743   6.8587433797e+01   4.3746631264e+01    0.3396333    0.2406387 -14.25  0.001115962    1.925    0.481
        82 -11.8328     81.0363    103.1461   7.1766388636e+01   4.5930011663e+01    0.3037846    0.2843723  32.44    0.0003133    1.067    0.063
        83  -9.3481      1.7835    104.6598   1.0345583348e+02   5.4868870208e+01    0.2260634    0.1538629 -57.45 0.0005211697    1.253    0.202
        84  -9.5074    114.4834    104.2056   6.1562108573e+01   3.9131364690e+01    0.2617687    0.2117326  42.47 0.0005038329    1.230    0.187
        85 -10.6227    107.5704    103.0061   6.3226801891e+01   4.0820342252e+01    0.4249009    0.2928856  25.57  0.001593345    1.712    0.416
        86  -9.3338     16.7475    104.4023   9.7249263323e+01   5.3996137627e+01    0.1817553    0.1287519  -8.06 0.0003228317    1.534    0.348
        87  -8.5362     54.3510    105.2850   8.2163705569e+01   4.9710322171e+01    0.1569114    0.1105157 -19.34 0.0007020118    1.659    0.397
        88  -9.5161    127.1555    101.9836   5.7561574219e+01   3.6919432100e+01     0.216263    0.2102004 -76.48 0.0003375353    1.034    0.033
        89  -8.6734     61.5165    102.5050   7.8707659165e+01   4.9341022219e+01    0.1483468    0.1443913 -14.56  0.000810162    1.037    0.036
        90  -9.7367     70.8916    100.8893   7.4774888937e+01   4.8223360059e+01    0.3024244    0.2026869 -69.07 0.0007579952    1.912    0.477
        91  -9.0200     71.6443     97.1818   7.3489606669e+01   4.8961362674e+01    0.2847005    0.1931017  56.27 0.0008175632    1.852    0.460
        92  -8.3813    142.6730    100.6788   5.3459984366e+01   3.3841312121e+01    0.1488354    0.1191303   5.10 -0.0001961664    1.686    0.407
        93 -10.6591    117.1931     96.8328   5.8803798657e+01   4.0112542643e+01    0.4586269    0.2888552 -49.24 0.0008359296    1.634    0.388
        94 -11.4428    101.6924     97.8896   6.3577297656e+01   4.3130492527e+01    0.3024535    0.2846262  26.04  0.000301843    1.058    0.055
        95 -10.7068    108.1817     96.2136   6.1173171231e+01   4.2147187899e+01    0.5136632    0.2650583  51.06 0.0006224927    2.054    0.513
        96  -8.5240     63.4984     98.4922   7.6898907814e+01   4.9993756223e+01    0.1470255    0.1449256   7.82 -8.731258e-05    1.070    0.066
        97  -9.2103     27.0715     97.1457   9.1469773930e+01   5.4958014796e+01     0.234839    0.2039308 -83.97 0.0008016333    1.301    0.231
        98  -9.2277     17.0004     98.0189   9.5974981166e+01   5.5600083334e+01     0.205718    0.1790918 -42.14  0.001198816    1.028    0.027
        99  -9.7853     95.8984     96.1949   6.4902427050e+01   4.4665592703e+01    0.2747658    0.2275981  38.34 0.0006897678    1.186    0.157
       100  -9.9524     33.9842     83.9499   8.5286698494e+01   5.7444174035e+01    0.3184112    0.2100241   0.98  0.001263091    1.685    0.407
       101 -10.8507     34.3257     93.7056   8.7571768376e+01   5.5068400705e+01    0.4543536    0.2889231  65.86  0.001390865    2.478    0.596
       102 -12.4243     34.9538     89.4827   8.6270909521e+01   5.6022183829e+01    0.3831019     0.312108  79.10 0.0003341124    1.607    0.378
       103  -8.5479      9.6335     93.7643   9.8390230444e+01   5.7182817030e+01    0.4771698    0.2429357 -88.04  0.001310799    2.721    0.632
       104 -11.7245     12.8169     88.0781   9.5881364556e+01   5.8377791637e+01    0.2688927    0.2207777 -15.09            0    1.199    0.166
       105  -9.6328     17.4093     93.1676   9.4848342846e+01   5.6782718477e+01    0.3319408    0.1324264 -69.10  0.001272016    2.584    0.613
       106  -8.6745     45.4944     93.5758   8.2801532789e+01   5.3763847600e+01    0.1433879    0.1361232 -15.23  9.11566e-05    1.037    0.035
       107  -8.9045    137.4938     92.4221   5.2483896776e+01   3.6572857848e+01     0.229138    0.1880212 -50.61 4.273648e-05    1.215    0.177
       108  -9.3843    139.4037     88.7197   5.1055398243e+01   3.6850565709e+01    0.3898146    0.2024292 -41.14  0.001630857    1.938    0.484
       109  -9.9233    113.1550     91.5813   5.8449420480e+01   4.2048417058e+01    0.3157981    0.2509679  25.24  0.001019894    1.420    0.296
       110 -10.3514    126.9989     89.6921   5.4265071001e+01   3.9408825060e+01    0.3863852    0.2468007 -43.53 0.0007622473    1.584    0.369
       111  -8.3750     66.5399     91.5921   7.3833643351e+01   5.1102998438e+01    0.1460371    0.1408603  39.00 0.0001418384    1.110    0.099
       112  -9.5157     48.3548     89.6718   8.0575943509e+01   5.4308847211e+01    0.3567569    0.2537751  81.02 0.0007443737    2.265    0.559
       113  -8.9426     41.3516     91.1677   8.3930769722e+01   5.4865416796e+01    0.2330342    0.1601595  28.88 0.0006462046    1.476    0.322
       114 -10.3045    119.4496     87.1782   5.5493217839e+01   4.1554493187e+01    0.6039051    0.3975563  84.49  0.002379958    2.603    0.616
       115 -10.7637    120.8804     82.3877   5.3750787382e+01   4.2151439749e+01     0.446064    0.3101274  68.71 0.0003215881    1.706    0.414
       116 -12.3287    105.3284     80.9934   5.7585237388e+01   4.5820896884e+01    0.9624923    0.6170985 -22.47   0.00121955    2.142    0.533
       117 -10.9916    111.9869     82.9571   5.6284011976e+01   4.4000984057e+01    0.2985017     0.256549  34.77            0    1.187    0.157
       118 -10.2572     86.8729     87.7367   6.5395482098e+01   4.8259818916e+01    0.4633724    0.3417877  25.71  0.002219625    1.446    0.308
       119  -9.4877    110.0470     88.0553   5.8313391415e+01   4.3422792721e+01    0.2256729    0.2189824  40.60  0.000455942    1.012    0.012
       120  -9.5899    131.2952     86.3095   5.2280352652e+01   3.9101606196e+01    0.2275355    0.2150653  20.84 0.0003194759    1.159    0.137
       121 -10.3791     86.6642     80.3214   6.3213005188e+01   4.9830637434e+01    0.4240727    0.2401367  37.64 0.0001267038    1.745    0.427
       122  -8.9035     77.2744     86.6755   6.8417237571e+01   5.0308686355e+01    0.2783541    0.2287343 -73.85  0.000959545    1.533    0.347
       123  -9.8383     75.7215     83.3761   6.7981688496e+01   5.1298617976e+01    0.3094553    0.2249282  31.32 0.0007932338    1.357    0.263
       124  -9.8792    157.5601     85.1672   4.6336732774e+01   3.3482204666e+01    0.3508022    0.2588681  16.34  0.001153569    2.114    0.527
       125  -9.8151     54.2424     88.5564   7.7833030748e+01   5.3730302965e+01    0.2994889    0.1994408 -26.81 0.0006154662    1.684    0.406
       126  -9.6051     59.7958     85.2608   7.4637918598e+01   5.3625837334e+01    0.4399461    0.1911467  30.74 0.0006572031    2.352    0.575
       127  -8.6813     95.3606     84.2241   6.1575762443e+01   4.7282754327e+01    0.1970561    0.1408714 -53.85 0.0003503432    1.539    0.350
       128  -9.9507    187.9307     83.0105   4.0642428239e+01   2.7385274411e+01    0.1961734    0.1708032 -63.19  0.001197204    1.023    0.022
       129 -10.4532     79.8656     80.9900   6.5762134317e+01   5.1020224082e+01    0.2825052    0.2154818  28.06 0.0002937798    1.318    0.241
       130  -9.4180      2.0417     83.0316   9.9883497271e+01   6.0257193578e+01    0.2155064    0.1793587  -7.55 0.0008794428    1.233    0.189
       131  -9.4597    142.9757     81.5854   4.8352128913e+01   3.7352405430e+01    0.2901919     0.233034  13.30 0.0008332575    1.699    0.411
       132  -9.2134    146.7901     81.5985   4.7554955633e+01   3.6496256536e+01     0.260875    0.1436548  60.33  0.000418616    1.909    0.476
       133 -11.1593     53.8963     80.8356   7.5736862171e+01   5.5522957939e+01    0.2741207    0.2453977 -60.71  0.000263118    1.264    0.209
       134 -10.3012     56.2021     73.1561   7.2389606956e+01   5.6812821053e+01    0.6574414    0.3747649  -9.75  0.002359094    3.303    0.697
       135  -9.4863     42.3468     67.7179   7.6714592973e+01   6.0012865563e+01    0.2598216     0.233789  -0.87 0.0007652495    1.028    0.027
       136 -11.1366     43.7515     60.4302   7.3618957782e+01   6.1296266866e+01     0.452089    0.2927546 -40.20  0.001127835    1.524    0.344
       137 -11.5529     45.9527     72.8618   7.6719191656e+01   5.8420350983e+01    0.5452602    0.4159795  46.37 0.0005344806    1.524    0.344
       138 -11.7285     51.2173     69.9586   7.3477645504e+01   5.8256913255e+01    0.3580899    0.2787882 -56.46 0.0005132978    1.470    0.320
       139 -10.1650    150.7317     78.9888   4.6066911855e+01   3.6068661662e+01    0.2693129    0.2075042 -33.22 0.0003641639    1.409    0.290
       140 -10.8703    151.9690     73.5710   4.4396296678e+01   3.6704974813e+01    0.3525456    0.2448381 -42.97 0.0009769003    1.433    0.302
       141  -9.4930     42.9281     80.4820   8.0344346643e+01   5.7153449034e+01    0.3645822    0.1378699  27.43 0.0009440184    2.677    0.626
       142  -8.8908     22.7355     79.5025   8.9337294364e+01   5.9636190169e+01    0.3233756   0.03620516 -50.58 0.0008915163    4.668    0.786
       143  -9.1129    187.1784     76.1542   3.9175737667e+01   2.8642236342e+01    0.1812876    0.1695845 -63.94 0.0003503164    1.108    0.098
       144 -10.6188    123.6996     76.0973   5.1223479198e+01   4.2669998945e+01    0.4115739    0.2003823  54.90  0.001661762    2.049    0.512
       145  -9.8002     61.0466     76.0478   7.1322638647e+01   5.5417825249e+01    0.2087419    0.1949805  19.02            0    1.065    0.061
       146 -11.5611      7.9715     74.0342   9.5199965185e+01   6.2063552428e+01    0.3555099    0.2386816 -18.47 0.0007342888    1.455    0.313
       147 -10.5692     82.9086     72.6991   6.2070588671e+01   5.2077921820e+01    0.5099492    0.4514694  45.19  0.001369391    1.122    0.109
       148 -10.0978     78.9408     66.4255   6.1374414956e+01   5.4047155499e+01    0.4234264    0.2724751  28.73  0.001086002    1.671    0.402
       149  -9.6939     80.4515     62.1616   5.9395024858e+01   5.4516286227e+01    0.3477602    0.2396984  68.20  0.001472596    2.064    0.516
       150  -9.4160     82.0148     59.0070   5.7769464824e+01   5.4746970071e+01    0.2588826    0.1965695  41.72 0.0007509809    1.222    0.182
       151  -9.2295    142.7219     70.7131   4.5444386025e+01   3.9271598424e+01    0.2049648    0.1803688 -54.15 0.0002152388    1.136    0.120
       152 -10.8440    136.7494     72.0180   4.7055880736e+01   4.0415206678e+01    0.4798961    0.3272426 -43.83  0.002388323    1.490    0.329
       153 -10.7312    139.5932     69.7061   4.5808249151e+01   4.0151314097e+01     0.381403    0.2657947 -42.18  0.001372108    1.463    0.317
       154 -11.7669    159.3635     67.4069   4.1441828054e+01   3.6037677671e+01     0.744013    0.5592877 -10.40  0.003807398    1.954    0.488
       155 -10.2001    146.6707     65.9544   4.3363525450e+01   3.9140276310e+01    0.4097541    0.2561367  86.76  0.001778379    2.177    0.541
       156 -10.6134    153.0518     64.7427   4.1855071310e+01   3.7877607569e+01    0.3758543    0.2406453 -30.15  0.001840709    1.812    0.448
       157 -10.0166    147.1106     61.8242   4.2154194908e+01   3.9683539330e+01    0.2346877    0.2006223 -32.14 0.0004257332    1.309    0.236
       158 -12.4995    150.7026     57.5248   4.0338794206e+01   3.9507788276e+01    0.3564901    0.2813549 -65.54 0.0005414421    1.270    0.213
       159  -9.7380     23.9861     72.7384   8.6968641385e+01   6.1075909299e+01    0.2364737    0.1693792 -40.10            0    1.258    0.205
       160  -8.7746    183.0922     72.1242   3.8832908076e+01   3.0128897923e+01    0.1758378    0.1740067  55.17  0.001141342    1.233    0.189
       161  -9.5710    120.4237     72.5090   5.0979282107e+01   4.4041793346e+01    0.2985939    0.1377738  52.04   0.00118516    2.076    0.518
       162 -10.8995     63.0094     70.5322   6.8747740155e+01   5.6216643416e+01     0.351669    0.2791595  39.97 0.0007241456    1.265    0.210
       163 -11.2152     30.4076     70.8497   8.3317659868e+01   6.0827700452e+01     0.330472    0.2735533 -50.99  0.001905998    1.238    0.192
       164 -11.0622     17.4271     70.5134   8.9616572787e+01   6.2175482913e+01    0.3699087    0.2455277 -34.02  0.001315507    1.369    0.270
       165 -10.3578    103.6344     70.6569   5.4899628867e+01   4.8109101088e+01     0.908987    0.2984885  38.96  0.002640537    4.126    0.758
       166 -11.8062    111.0339     65.8833   5.1370572024e+01   4.7297157032e+01    0.2493878    0.2465526 -78.78 0.0002795635    1.061    0.058
       167  -9.2844    109.0112     60.9891   5.0362972639e+01   4.8563986062e+01    0.2339236    0.2096455 -10.76 0.0003411751    1.266    0.210
       168 -10.0115    106.4062     57.5595   4.9951061657e+01   4.9701792603e+01    0.5049818    0.2348053  52.82  0.001910511    1.995    0.499
       169  -8.9310     77.2984     71.2910   6.3578992980e+01   5.3448942079e+01    0.1448186    0.1109595   3.39 0.0002052972    1.561    0.359
       170 -10.1198    165.0724     70.0331   4.1142064877e+01   3.4352764684e+01     0.256023    0.1906857  63.07 0.0008743003    1.332    0.249
       171 -10.4060     34.8202     67.7581   8.0261319733e+01   6.0983370387e+01    0.3021906    0.2682126  76.39   0.00174835    1.532    0.347
       172  -9.7594     34.7710     61.9500   7.8417365713e+01   6.2208486368e+01    0.4070729    0.2306231 -23.19  0.001828861    2.111    0.526
       173  -8.3786    213.3222     68.7513   3.4189536448e+01   2.4562592254e+01    0.1226528   0.08104753 -70.81 0.0002263899    1.533    0.348
       174  -9.9827     73.6441     67.7038   6.3713288022e+01   5.4835636005e+01    0.3311394    0.2455315  26.11 0.0008906103    1.360    0.265
       175  -9.2108     11.4343     67.2881   9.1828554918e+01   6.3376424704e+01    0.3709763    0.1933612  31.97   0.00144626    2.097    0.523
       176 -10.8866    180.9391     63.9182   3.7205672505e+01   3.1837365597e+01    0.3683543    0.2352268 -36.07 0.0006680272    1.618    0.382
       177 -10.0855    177.2372     63.9936   3.7753812476e+01   3.2622030087e+01     0.216435    0.1804288 -53.38   0.00030023    1.130    0.115
       178 -10.2043    194.7915     65.7169   3.5761401515e+01   2.8670593000e+01    0.2713217    0.1779871 -44.46 0.0002894781    1.388    0.279
       179  -9.7718    191.0028     61.6045   3.5316296924e+01   3.0054635279e+01    0.4333793    0.1702986  55.20  0.001892122    2.682    0.627
       180  -9.1572     58.9264     66.0000   6.8886356789e+01   5.7812782470e+01    0.6015693    0.2710417  22.94  0.002059828    3.339    0.701
       181 -10.0454     61.0136     60.7310   6.6196476282e+01   5.8459874820e+01     0.241593    0.2291854  81.50 0.0002747042    1.327    0.246
       182 -10.9711     60.8775     57.3631   6.5043652169e+01   5.9101675478e+01    0.5625665    0.2465525  36.25   0.00124333    2.195    0.544
       183  -9.1432     88.4823     65.0594   5.7697022009e+01   5.2352359085e+01    0.2037751    0.1431586 -41.07   0.00042706    1.511    0.338
       184  -9.1049     26.1172     65.5110   8.3836276253e+01   6.2458927435e+01    0.1921403     0.126475  18.36  0.000668054    1.497    0.332
       185 -10.4802      2.4593     62.3743   9.5332096804e+01   6.5057657540e+01    0.5207778    0.1726673 -47.02  0.001534788    2.326    0.570
       186 -10.8842     22.1035     60.8624   8.4466212521e+01   6.3865897265e+01    0.2238623    0.1954981 -23.14  0.001382803    1.042    0.040
       187  -9.0477     26.9988     56.4376   8.0489625497e+01   6.4264411074e+01    0.1901638    0.1218329  17.79 0.0004061208    1.512    0.339
       188 -10.1215      8.4756     56.9433   9.0626411775e+01   6.5868171032e+01    0.2972889    0.1969941   3.82 0.0006160642    1.477    0.323
       189 -11.9033     31.4314     52.7700   7.6922949677e+01   6.4464102101e+01    0.5217683     0.400494  -5.02  0.003023894    1.229    0.186
       190  -9.8084     10.5897     52.0525   8.7993052508e+01   6.6743212960e+01    0.5120649    0.2541083  18.67  0.001624013    1.977    0.494
       191 -10.5342     25.4932     48.3447   7.8444147617e+01   6.6034125686e+01    0.8843826    0.2985592  26.33  0.003492419    2.880    0.653
       192 -10.7832     20.0123     55.3058   8.3813215649e+01   6.5234888901e+01    0.3765575     0.203026 -35.61 0.0009895316    1.747    0.427
       193 -10.5647     19.0516     50.0365   8.2576879203e+01   6.6397685066e+01    0.4300877    0.2827486   7.26   0.00190719    1.471    0.320
       194  -8.7206    203.6189     63.5259   3.4197084125e+01   2.7210561084e+01    0.1257826    0.1026193 -61.90 9.232183e-05    1.035    0.034
       195  -8.7539    172.4990     63.0287   3.8219768850e+01   3.3797134727e+01     0.191932    0.1260145 -38.90 0.0004649767    1.529    0.346
       196 -10.2789    166.7054     62.4502   3.8966712540e+01   3.5161084383e+01    0.3369414    0.2548621  12.15 0.0006273797    2.173    0.540
       197  -9.0072    115.3103     61.3801   4.8874497038e+01   4.7071512609e+01    0.2616623    0.1709206 -42.11 0.0007038914    1.617    0.382
       198 -10.2499    218.7184     59.6640   3.1734345220e+01   2.4835686060e+01    0.2787505    0.1732713 -47.31 0.0009222357    1.349    0.259
       199  -9.8118    222.7142     56.1354   3.0626605982e+01   2.4573400818e+01    0.2713259    0.2091033 -25.60  0.000891801    1.685    0.407
       200  -9.3568    131.8415     60.3391   4.4765311627e+01   4.3432063585e+01    0.2689961     0.207495 -32.52  0.001438896    1.435    0.303
       201 -11.3708    161.2638     56.7228   3.8367211007e+01   3.7224633012e+01    0.4259376    0.3214762 -72.17 0.0006527178    1.335    0.251
       202  -9.8707    161.9951     52.3031   3.7115009357e+01   3.7690621626e+01    0.2394253    0.1925926  80.07 0.0002985459    1.161    0.138
       203 -10.0979    201.3604     49.9552   3.1508037765e+01   2.9555047656e+01    0.2611674    0.1904174 -84.31  0.001027931    1.290    0.225
       204  -9.7583    196.8306     58.1488   3.3820244053e+01   2.9347948452e+01    0.2221401    0.1708521 -40.66 0.0003900002    1.315    0.240
       205 -10.6673    200.1680     54.9585   3.2729907238e+01   2.9114770837e+01    0.3004084      0.22945 -79.58  0.001898975    1.207    0.172
       206 -10.7255    185.0998     57.1905   3.5060342412e+01   3.1930006944e+01    0.3948003    0.1882116 -39.54 0.0003134186    1.980    0.495
       207  -8.9109    121.0148     58.5419   4.6629741799e+01   4.6212017351e+01    0.2174229    0.1804995 -41.08 0.0005881429    1.281    0.220
       208 -10.4349     92.2699     56.8076   5.3722062541e+01   5.2949847490e+01    0.3671263    0.2959797  -4.20  0.001144261    1.484    0.326
       209  -9.7868     95.5756     56.1827   5.2521801607e+01   5.2331020083e+01    0.3071912    0.2273309 -18.91  0.001039074    1.629    0.386
       210  -9.0877    107.1207    246.5561   9.0242635459e+01   7.8487097539e+00    0.1841554    0.1741871 -41.81 0.0009438232    1.221    0.181
       211 -12.2660    123.3713     50.3423   4.3591858903e+01   4.6890063672e+01    0.8192188    0.5128307  78.35  0.001251479    1.931    0.482
       212 -10.2898    117.8464     51.5732   4.5206348053e+01   4.7994749338e+01      0.35809    0.2510448  46.14 0.0004394853    1.395    0.283
       213 -10.9727    126.7815     34.0149   3.7906125997e+01   4.8242838669e+01    0.4433829    0.2054285 -38.94            0    2.267    0.559
       214 -10.7658    123.9866     30.7069   3.7406598528e+01   4.9290673704e+01    0.2663279    0.2242649  82.28 0.0003691892    1.107    0.097
       215  -9.1040     77.9761     55.4881   5.7911324917e+01   5.6165845611e+01    0.2024488    0.1782272 -24.68 0.0003259752    1.200    0.167
       216 -10.6467    179.0729     52.3363   3.4703148509e+01   3.3905242168e+01    0.3968238    0.2864867 -48.40  0.002053287    1.300    0.231
       217  -9.8071    174.1592     53.7943   3.5718988652e+01   3.4773412564e+01     0.343962    0.2301548 -37.05  0.001534639    1.550    0.355
       218  -9.5306    172.1597     49.8286   3.5023228662e+01   3.5763324071e+01    0.2224231    0.1634274  77.35    0.0012895    1.290    0.225
       219 -11.2872     76.6564    219.7798   9.4469904594e+01   1.7483484779e+01    0.6970649    0.4528425   0.73  0.002286022    2.062    0.515
       220 -10.8418     90.9464     44.0417   4.9651763218e+01   5.5185621912e+01     0.392321    0.2745425  41.87 0.0007301796    1.331    0.248
       221 -10.8487     89.1736     38.2071   4.8052767194e+01   5.6380578863e+01    0.2896012    0.2610818  76.78 0.0002332402    1.212    0.175
       222  -9.6027    206.1028     52.8280   3.1619739391e+01   2.8216321268e+01    0.1992252     0.161906  85.24  0.000675076    1.202    0.168
       223 -10.8220    211.7147     49.5873   3.0362349239e+01   2.7547576134e+01    0.3085482    0.2045511  80.72  0.001316443    1.508    0.337
       224  -9.1020     44.5659     53.2821   7.0668339397e+01   6.2542850879e+01    0.2026398    0.1295997 -40.47  0.001034678    1.582    0.368
       225  -8.9958     45.6247     49.2129   6.8634750752e+01   6.3117341620e+01    0.2688979    0.1916831 -19.56 0.0009624088    1.474    0.322
       226 -12.6695      2.1505     51.1464   9.2572147932e+01   6.7518287682e+01     0.370497    0.1954697 -36.55 0.0007386217    1.620    0.383
       227  -8.9283     40.4041     52.3312   7.2291493936e+01   6.3336227894e+01    0.1727804    0.1292398 -52.35 0.0009422791    1.572    0.364
       228  -9.8058    194.0198     48.9697   3.2100380285e+01   3.1191648191e+01    0.3200167    0.2242978 -44.43  0.001894141    1.343    0.255
       229  -9.2729    191.6674     44.2851   3.1312266877e+01   3.2301181175e+01    0.2678871    0.1608184 -65.40  0.001086549    1.624    0.384
       230 -11.7150    233.2641     48.3515   2.8159872755e+01   2.3682391167e+01    0.2508948    0.1848353 -76.35 0.0002216403    1.208    0.172
       231 -12.4040    140.1977     37.9036   3.6694672714e+01   4.4620925516e+01     0.533935    0.3643518  88.95 0.0003115707    1.545    0.353
       232  -8.9718    110.7457     49.2169   4.6137052294e+01   4.9975816631e+01    0.1804274     0.149421  35.88 0.0002417564    1.267    0.211
       233  -9.1260    103.6998     49.1188   4.7885371749e+01   5.1599565511e+01    0.2412657    0.1972536  50.21   0.00135239    1.118    0.105
       234  -9.0217     62.8152     48.1738   6.0828129596e+01   6.0330811622e+01    0.1919523    0.1848883  10.07   0.00118882    1.136    0.120
       235 -10.6464    154.4857     35.0384   3.3706868181e+01   4.1663731002e+01    0.3453034    0.2787192  83.99 0.0009443519    1.098    0.090
       236  -9.4128    149.1837     33.4653   3.4048995175e+01   4.3074732050e+01    0.2192598    0.1845351 -88.77 0.0002664689    1.058    0.055
       237 -12.4176    163.4830     42.6562   3.4425087376e+01   3.8657689072e+01    0.4025847    0.2868847 -83.26  0.002286697    1.392    0.282
       238 -10.1855    159.6696     38.0459   3.3769307238e+01   4.0108883232e+01    0.4745018    0.2028219  50.88  0.001757468    2.564    0.610
       239  -8.8796     97.1770     46.4119   4.8718158150e+01   5.3462454582e+01    0.1913529     0.125543  64.52 0.0005951553    1.607    0.378
       240  -9.8666     16.2345     22.6182   7.3101378704e+01   7.1603170588e+01    0.3017429    0.1793355  -6.15  0.001374545    1.842    0.457
       241 -10.7289     69.2411    217.2403   9.6077905705e+01   1.9020132471e+01    0.4572841    0.2805815  61.74  0.002150928    1.896    0.473
       242 -10.8373     34.3723     39.3963   7.0225252477e+01   6.6505222213e+01     0.778899    0.4917917 -30.49  0.003527871    1.593    0.372
       243 -10.2847     73.9228    213.9252   9.4478677361e+01   1.9188594774e+01    0.3480755    0.3341381  59.91  0.001395502    1.058    0.055
       244  -9.7741     56.0004    216.8491   9.9445404324e+01   2.0742027891e+01     0.212037    0.1803042 -82.02 0.0007479081    1.225    0.184
       245  -8.2652    101.0187    215.2121   8.7667667976e+01   1.5201069494e+01    0.1757408    0.1063841  28.82            0    1.523    0.344
       246  -9.0770     91.4143    214.5155   9.0025347987e+01   1.6700096434e+01    0.2872002     0.129081  29.92 0.0007668513    2.034    0.508
       247  -9.4597    123.9564    206.0016   8.0509557718e+01   1.3887080100e+01    0.1973233    0.1828145  10.31            0    1.016    0.016
       248  -8.5682    133.0276    198.9818   7.7105929043e+01   1.4034083851e+01    0.1615192    0.1469919   9.15            0    1.020    0.020
       249  -8.7297    223.0153    188.0425   5.6412126892e+01   3.0403574060e+00    0.1430063    0.1133771 -24.12 0.0009210014    1.010    0.010
       250  -9.3561      1.2938    184.9576   1.1124907415e+02   3.3953588938e+01    0.3141037    0.1065829 -79.00  0.001228261    2.681    0.627
       251  -9.9499    100.9912    176.0138   8.1489035456e+01   2.4447647725e+01    0.2111363    0.2052048  12.05  0.001151518    1.000    0.000
       252  -9.3389    180.3721     44.7625   3.2737495453e+01   3.4645283891e+01     0.252755     0.160475  59.82  0.001411074    1.607    0.378
       253 -10.7205    154.8258     44.3496   3.6130976700e+01   4.0405019649e+01    0.2636042    0.2588831 -33.06  0.001631803    1.235    0.190
       254  -9.9392    108.8039     44.0797   4.4925456085e+01   5.1146171886e+01    0.4262555    0.2328344  70.26  0.001845575    2.172    0.540
       255  -9.5299     78.6369     44.2701   5.3573653232e+01   5.7798099376e+01    0.2611504    0.2129598  85.20 0.0007455852    1.657    0.396
       256  -8.4687      6.5057    168.4978   1.0859716299e+02   3.7799947998e+01    0.1357282    0.1200135  84.66 0.0008105807    1.020    0.020
       257  -9.4206     72.4893     45.0291   5.5979651714e+01   5.8946740681e+01      0.36549    0.2829774  82.18  0.001887635    1.941    0.485
       258  -9.4969     67.3660     45.1883   5.7917454242e+01   5.9938362771e+01    0.3206459    0.2650437 -88.12  0.001749846    1.800    0.445
       259  -8.9957     55.9779     43.9824   6.1981878461e+01   6.2260508269e+01    0.1938398    0.1435331   9.17            0    1.444    0.308
       260 -10.0946     18.1354     41.3570   7.9953513643e+01   6.8166812033e+01     0.350368    0.2509862 -78.38   0.00181576    2.560    0.609
       261  -9.4562    209.8297     42.2098   2.9008488532e+01   2.8877090007e+01    0.2714992    0.1429682 -38.57  0.001506012    1.786    0.440
       262  -9.5343     48.7890     41.3130   6.4038287288e+01   6.3939996375e+01    0.2898527    0.1698293 -39.50  0.001466908    1.821    0.451
       263  -9.1531     97.4221     41.6849   4.7005955799e+01   5.4069994048e+01    0.2306384    0.1513091  63.10 0.0005545636    1.514    0.339
       264 -10.4367     46.3562     29.0595   5.9877472318e+01   6.6203631877e+01    0.6133911    0.4008031  -4.80  0.003241483    1.864    0.464
       265  -9.1154     61.5742     41.7412   5.8797118012e+01   6.1581962436e+01    0.2217269     0.205846  45.19 0.0007062228    1.201    0.167
       266 -10.0984     51.9249     28.0272   5.6968023969e+01   6.5348267917e+01    0.1881517    0.1641795  28.40 0.0003409534    1.078    0.072
       267 -10.8701     61.9875     37.2897   5.6832152691e+01   6.2165203012e+01    0.9085143    0.3524932  46.72  0.003736666    2.352    0.575
       268  -9.5508     59.8367     31.8250   5.5393771989e+01   6.3345547603e+01    0.2021077    0.1789535  -2.97   0.00036629    1.159    0.137
       269  -9.5896     27.4893     42.0115   7.4944954040e+01   6.6970878795e+01     0.234203    0.1656923  11.01 0.0005121465    1.312    0.238
       270  -9.4748    239.5040     40.5150   2.6196555346e+01   2.3571057065e+01    0.2242299    0.2091851   5.81  0.001181607    1.737    0.424
       271  -9.9231    250.5933     37.5618   2.4882518370e+01   2.2036128628e+01    0.2938027   0.09680282 -45.22  0.001503465    2.169    0.539
       272 -11.4774    245.7952     32.5823   2.4315246789e+01   2.3445220925e+01    0.4131232    0.3353408 -31.42  0.001132321    1.618    0.382
       273 -10.7647    230.5883     39.3212   2.6651273082e+01   2.5309617761e+01    0.2490964    0.1667603 -60.43 0.0005715408    1.176    0.150
       274  -9.4535    226.2317     37.6094   2.6665225642e+01   2.6320375190e+01     0.212853    0.1439597  77.43  0.001292207    1.492    0.330
       275  -9.0813    218.3287     41.4330   2.8079077103e+01   2.7328523014e+01     0.184916    0.1021923  67.93 0.0005673399    1.868    0.465
       276 -10.0181    201.8548     38.0619   2.8890869333e+01   3.0993722325e+01    0.3653631    0.1750114 -58.45  0.001536912    1.985    0.496
       277 -10.8343    115.3477     36.3698   4.0918342184e+01   5.0635383162e+01    0.5982826    0.4643697  -0.51  0.003326148    1.716    0.417
       278 -10.2528    118.6644     36.2977   4.0201240632e+01   4.9868514654e+01    0.4419233     0.231566  70.29  0.001999999    1.979    0.495
       279  -9.8393     75.3678     40.0418   5.3062989891e+01   5.9091794713e+01    0.2390447    0.1766349  52.00 0.0004708171    1.289    0.224
       280 -10.2027    194.7348     37.1142   2.9387569421e+01   3.2572565206e+01    0.2288568    0.1591117 -68.50 0.0003376109    1.269    0.212
       281  -9.5442      2.2317     37.9845   8.8419618264e+01   7.0186962348e+01    0.2057708    0.1671329 -19.54 0.0003069798    1.023    0.023
       282  -8.9152      1.5237     34.0378   8.7483697713e+01   7.0994167869e+01    0.1519472    0.1090784  86.78 0.0008099952    2.654    0.623
       283 -11.3594     54.1443     34.1859   5.8712284278e+01   6.4085213763e+01    0.4618595    0.2388209 -40.24  0.001305124    2.174    0.540
       284  -9.1377    186.3045     35.9973   3.0015274311e+01   3.4484239444e+01    0.1722134    0.1428438 -67.36 0.0005596525    1.060    0.056
       285  -9.8378     84.0171     35.5892   4.8595365276e+01   5.7857248029e+01    0.4398558    0.1864117  41.58  0.001805116    2.340    0.573
       286 -10.1592     79.6741     33.5380   4.9140844329e+01   5.9062579050e+01    0.2568951    0.1801824  70.41 0.0009644591    1.722    0.419
       287  -8.8325     28.5056     36.4937   7.2130056267e+01   6.7803984666e+01     0.131581    0.1068357  -0.72 -0.0001212632    1.055    0.052
       288  -8.5371    106.7787     35.1043   4.2403631048e+01   5.2785776833e+01    0.1732841    0.1391868  34.37  0.000383832    1.334    0.251
       289 -10.0347      8.1326    136.9245   1.0509236775e+02   4.6041851057e+01    0.3925743    0.2153185  55.44            0    2.079    0.519
       290 -10.4306    182.5288     24.5025   2.7765533321e+01   3.6645873625e+01    0.3376542     0.197221  87.05    0.0014562    1.610    0.379
       291 -11.5391     17.4451    141.0408   1.0237439384e+02   4.4270244206e+01    0.6527525     0.339013  47.96  0.002843259    2.122    0.529
       292 -10.2816    170.5397     32.1551   3.0885683621e+01   3.8382427387e+01    0.4699721     0.243756 -31.33  0.002038001    2.160    0.537
       293 -10.5236      4.8365    163.1094   1.0865453023e+02   3.9326150003e+01    0.5077119      0.15748  24.65  0.001936223    3.084    0.676
       294 -11.9178    132.3017     29.7871   3.5658852665e+01   4.7443397908e+01    0.3788196    0.2810377 -58.32            0    1.418    0.295
       295 -11.1008      6.1941    158.6093   1.0786036033e+02   4.0415530144e+01    0.3964114    0.2569925 -84.68  0.001616698    1.424    0.298
       296  -9.1288    223.3181     30.9006   2.5588410209e+01   2.7674977737e+01    0.1555911    0.1199471 -58.51 0.0004449116    1.099    0.090
       297 -10.0972    216.7500     30.0468   2.5929323035e+01   2.9023529991e+01    0.3097276    0.1787939 -65.08  0.001009512    1.503    0.335
       298  -9.2349    209.0134     30.4769   2.6649018448e+01   3.0481642261e+01    0.2000105    0.1326721 -64.72  0.001284398    1.259    0.206
       299  -9.2091    206.9994     26.2695   2.5947652252e+01   3.1373349337e+01    0.2605302     0.118629 -33.11  0.001357505    2.330    0.571
       300  -9.3597     24.2562     30.6996   7.2000116983e+01   6.9322171534e+01    0.2082451    0.1624671 -18.84  0.001263977    1.180    0.152
       301  -9.4383      2.6829     28.9985   8.4802105988e+01   7.1844546277e+01    0.2649488    0.1428722  24.88  0.001473819    1.838    0.456
       302 -11.2092     10.6870    128.7923   1.0323380751e+02   4.8035512598e+01    0.6537573    0.2523585  25.46 0.0006673827    2.623    0.619
       303 -10.7925     11.4691    144.9958   1.0484639409e+02   4.3660672114e+01    0.3781708    0.2843272  46.76 0.0003221284    1.396    0.284
       304 -10.9069     12.6861    135.0434   1.0329208096e+02   4.6231978472e+01    0.3494475    0.2499327 -62.16 0.0002092773    1.248    0.199
       305 -11.1220     17.5617    134.1719   1.0146377863e+02   4.6101392951e+01    0.3976114    0.3009142 -69.69  0.000454235    1.205    0.170
       306 -11.1830      3.4555    152.7632   1.0819937430e+02   4.2140268806e+01    0.5633237    0.2313695 -62.82  0.001685218    2.067    0.516
       307  -9.0145    201.2844     29.4797   2.7109712771e+01   3.2149043393e+01    0.1527086   0.09607543 -84.95 0.0004515204    1.474    0.322
       308  -9.8578    146.9981     29.0528   3.3159961560e+01   4.4096998784e+01    0.1872266     0.162719  82.12  0.001197526    1.034    0.033
       309 -10.7897      6.0048    147.9266   1.0693988251e+02   4.3255353475e+01     0.457081     0.238607  25.81  0.001292218    2.009    0.502
       310  -8.7305     79.3047     15.6742   4.2158783551e+01   6.1168997560e+01    0.1969051      0.11673  61.55 0.0003416969    1.521    0.342
       311 -10.1684     82.7468     27.8499   4.6007642623e+01   5.9096573608e+01     0.357813    0.2323078  58.11  0.001327769    1.409    0.290
       312 -10.4763     18.5800    160.1122   1.0416009741e+02   3.9074472089e+01    0.2687535    0.1795291 -14.59 0.0008522031    1.898    0.473
       313 -11.2908     16.0347    154.7009   1.0439584908e+02   4.0724130369e+01    0.5301182    0.2169347  40.86   0.00213716    2.453    0.592
       314  -8.7967     48.5085    151.4841   9.3364599614e+01   3.8363838797e+01    0.1479086    0.1421274 -59.73 0.0008103221    1.022    0.021
       315 -10.2522     72.3974     26.3496   4.8596770093e+01   6.1501729088e+01    0.4822236    0.1940073  47.91  0.002098875    2.090    0.521
       316  -9.3178     56.3141     26.5206   5.4491456123e+01   6.4722147182e+01    0.3129148    0.1053021 -39.87  0.001223173    3.485    0.713
       317 -11.1816     31.3583     32.4910   6.8853472122e+01   6.8070750456e+01    0.4120931    0.3362099 -74.93 0.0008341446    2.210    0.548
       318  -9.0183     29.7874    150.7755   9.9456363110e+01   4.0574074895e+01    0.1954179    0.1572319  65.56 0.0003440502    1.299    0.230
       319 -10.3030     23.7846    148.0980   1.0110628178e+02   4.1846388980e+01    0.2201416    0.2038993  27.33 0.0003347453    1.158    0.137
       320  -9.9854     29.3994    146.4419   9.9008585666e+01   4.1778276301e+01     0.318471    0.2023876  44.91 0.0008614906    1.652    0.395
       321  -9.1755     45.6765    145.8829   9.3421389359e+01   4.0204004436e+01    0.2129016    0.1847622 -72.49 0.0006893975    1.126    0.112
       322 -10.8077      2.7308    141.4606   1.0739106535e+02   4.5175556425e+01     0.480788    0.3048039  87.44  0.002426366    1.554    0.357
       323  -9.6266     44.4086    141.4945   9.3140148500e+01   4.1530695570e+01    0.2526225    0.2446876 -51.74 0.0006219182    1.023    0.022
       324  -8.5173    104.0070     23.9688   3.9214148137e+01   5.4716249493e+01    0.1715545    0.1383549  83.98            0    1.277    0.217
       325 -10.7232     99.5552     23.6914   4.0112539955e+01   5.5774710491e+01    0.3013197    0.2157129  63.61 0.0005309323    1.233    0.189
       326 -10.7716     67.0939     22.1723   4.8614576630e+01   6.3096567466e+01    0.4433994    0.2727088  26.13  0.001605122    1.818    0.450
       327 -10.0072    212.1713     22.5723   2.4785367255e+01   3.0774494843e+01    0.2412428    0.1561032 -55.10 0.0007467548    1.268    0.212
       328 -11.3781     28.7960    138.0329   9.8035594566e+01   4.4099502270e+01    0.6040874    0.3638497 -58.47  0.001678233    1.505    0.335
       329 -10.9170     27.4329    130.6219   9.7414722632e+01   4.6214564958e+01    0.4508519    0.3288117  36.67   0.00137297    1.448    0.310
       330  -8.6807    184.5719    134.4778   5.2749393049e+01   1.8765239391e+01    0.1403754    0.1256508 -38.85 5.370409e-05    1.012    0.012
       331 -10.2918      4.4336    131.4330   1.0577382569e+02   4.7731002474e+01    0.3410317    0.2096344  45.66  0.001087227    1.776    0.437
       332  -8.6245     71.9004    138.0838   8.3146811870e+01   3.8744874757e+01    0.1770336    0.1737973  33.90 0.0003203464    1.037    0.036
       333 -11.7652     98.9636    126.1108   7.1748557397e+01   3.7173438706e+01    0.2768466     0.272667  13.10   0.00029072    1.014    0.014
       334  -9.7539    248.6943     22.6228   2.2378806209e+01   2.4105539054e+01    0.1970802    0.1261097 -63.56 0.0006713921    1.162    0.140
       335 -10.4134     48.5113    126.6234   8.9019700178e+01   4.5004083795e+01    0.3834597    0.2527158  57.35 -0.0001541599    1.862    0.463
       336 -10.3554    163.0840     22.3060   2.9309341009e+01   4.1170089842e+01    0.4878188    0.2594275  77.99  0.002557311    1.730    0.422
       337 -10.1939      1.5478     21.4306   8.2417906715e+01   7.3266942912e+01     0.308952    0.1225806 -48.65 0.0009084587    2.357    0.576
       338  -9.7032    201.8458     18.8318   2.4814640731e+01   3.3242765339e+01    0.3802735    0.2011132 -69.00  0.001793281    1.753    0.430
       339 -10.4788    188.4557     20.5684   2.6316271065e+01   3.5819864876e+01      0.22665    0.1683348 -59.45 7.730356e-05    1.178    0.151
       340 -11.1554     30.5799    125.7167   9.5472847292e+01   4.7226503974e+01    0.5333583     0.312088  31.05  0.002443858    1.764    0.433
       341  -8.9996    143.1299     21.9933   3.1753651247e+01   4.5772017091e+01    0.2106809     0.131433 -72.36  0.000802928    1.737    0.424
       342  -9.0251     66.9747    123.9518   8.1829066085e+01   4.3151600918e+01    0.2413399    0.2078318 -28.06 0.0004978093    1.193    0.162
       343 -10.5645     23.4571    124.9847   9.8008911156e+01   4.8071784321e+01    0.3645382    0.2730016  70.78  0.001093407    1.529    0.346
       344 -10.4639     21.2606    118.8368   9.7872490271e+01   4.9884518380e+01    0.3443362    0.2861817  66.76  0.001230225    1.346    0.257
       345  -9.4148    230.5069    125.0266   4.3405469980e+01   1.2639732154e+01     0.207197    0.1719256 -82.97 0.0009461863    1.499    0.333
       346  -9.1297    117.9373     19.6707   3.5030500606e+01   5.1909755941e+01     0.181908    0.1429957  71.35 0.0004652187    1.098    0.089
       347  -9.3472     58.9949    125.0976   8.4915055406e+01   4.4019102255e+01    0.2257997    0.2107766 -19.17 0.0003190686    1.076    0.071
       348  -8.7790     15.2171     18.2142   7.1593704332e+01   7.2399207073e+01    0.1408042    0.1254942   2.53            0    1.263    0.208
       349  -9.6327     86.8390     15.7886   4.0228456945e+01   5.9479206533e+01    0.2424119    0.2001655  75.22 0.0008184382    1.236    0.191
       350  -9.2765     83.9553     13.2027   3.9945137949e+01   6.0372261996e+01    0.2295182    0.1498504  64.42  0.000581875    1.377    0.274
       351  -8.8055     69.4357    126.4127   8.1512768047e+01   4.2144358618e+01    0.2265185    0.1855311  66.48 9.664705e-05    1.431    0.301
       352  -8.8084     74.7813    124.6496   7.9275146623e+01   4.1751744653e+01    0.2224925    0.1375416  41.10 0.0009395948    1.652    0.395
       353 -10.8143     10.7680    112.3337   1.0095806945e+02   5.2365360560e+01    0.2628331    0.2127119 -66.63 0.0002234368    1.126    0.112
       354 -10.7754      1.7769    112.9202   1.0456280546e+02   5.2738946843e+01    0.5985916    0.2728991 -86.19  0.002451175    2.453    0.592
       355 -11.2462      6.7966    107.7957   1.0187257248e+02   5.3788771555e+01    0.7430272    0.3738401 -42.69  0.002417536    1.849    0.459
       356 -11.6679     11.6480    117.8594   1.0141859880e+02   5.0861183009e+01    0.7139047    0.3681436 -64.66  0.002681483    1.676    0.403
       357 -10.4937     15.5268    115.6787   9.9596444347e+01   5.1161100563e+01    0.3415533    0.2639421 -43.54 0.0009264318    1.211    0.174
       358 -10.6426     39.6770    119.8558   9.0998342433e+01   4.7827879338e+01    0.3759274    0.2908706  13.23  0.001916421    1.376    0.273
       359 -11.3610     98.7285    117.4780   6.9700948548e+01   3.9281328548e+01    0.3265716    0.2929872  43.33 0.0003089932    1.125    0.111
       360  -9.0829     98.5846    113.5390   6.8742847320e+01   4.0232325247e+01     0.239778    0.1523547  37.34 7.704085e-05    1.576    0.365
       361 -10.3050     57.7083    117.9014   8.3825023890e+01   4.6057513413e+01    0.4375261    0.2880715  42.16  0.001648141    1.606    0.377
       362 -11.3899     46.8142    116.3556   8.7577169896e+01   4.7898402416e+01    0.3571555    0.2542379 -57.63 0.0002000638    1.340    0.254
       363  -9.2384     49.8551    112.2490   8.5524288108e+01   4.8566733400e+01    0.2993584    0.1886195 -45.66 0.0007015889    1.524    0.344
       364  -9.9157     72.2917    117.3997   7.8449044412e+01   4.3978602040e+01    0.2830258     0.257236  54.40 0.0004737283    1.184    0.155
       365  -8.2386      4.2571     14.6661   7.7285167775e+01   7.4132355286e+01   0.09708638    0.0916436  27.97 0.0002659564    1.569    0.363
       366  -8.9850     93.6776     17.3903   3.9185813467e+01   5.7771670319e+01    0.1896748   0.09873061  53.28 0.0009434862    1.596    0.373
       367  -9.3683     67.1239    117.1813   8.0233091799e+01   4.4850274927e+01    0.3205628    0.1939615 -52.27  0.001126572    1.599    0.375
       368  -9.4625     30.6951    117.8862   9.4072420296e+01   4.9285966346e+01    0.2600898    0.2065334  29.37 0.0006200449    1.331    0.249
       369  -9.3624     40.4937    114.8525   8.9695903691e+01   4.9041002912e+01     0.299663    0.1745062  43.58  0.001301782    1.910    0.477
       370  -9.0427     75.4537    114.0260   7.6521570023e+01   4.4294692915e+01    0.2133207    0.1953159 -50.42 0.0003316897    1.094    0.086
       371  -9.1723     71.6748    112.9194   7.7582653022e+01   4.5190746394e+01    0.2243766    0.2017777 -19.30 0.0003346546    1.131    0.115
       372  -8.9809     84.2724    113.0742   7.3258259802e+01   4.3000766370e+01    0.2024161      0.20049  -1.43  0.000273972    1.029    0.028
       373 -10.7981     62.3209    111.6425   8.0673009680e+01   4.6971621708e+01    0.4020265    0.3087047 -37.13 0.0007754583    1.308    0.236
       374 -10.3421     21.3832    110.8189   9.6483791953e+01   5.1973426941e+01    0.3216744    0.2783172  67.34  0.001064462    1.309    0.236
       375  -9.3809     17.0098    110.0157   9.8103534680e+01   5.2528285237e+01    0.2219297     0.172373 -40.57 0.0005564982    1.207    0.171
       376  -9.6305     34.7549    110.9972   9.1170840912e+01   5.0669050024e+01     0.615857     0.320941   1.87  0.002389687    2.630    0.620
       377  -9.1633     34.7794    106.9801   9.0339310220e+01   5.1698141195e+01    0.2182535    0.2143282 -41.45 0.0003426833    1.075    0.069
       378  -9.2172     34.3558    103.7319   8.9824589731e+01   5.2569148854e+01    0.2273208     0.205658  43.65 0.0005372252    1.222    0.182
       379  -9.9159     28.5144    109.5937   9.3392982279e+01   5.1657028632e+01    0.3103493    0.2240307 -43.23  0.000655264    1.296    0.228
       380 -11.2802    120.4460    107.8244   6.0876451542e+01   3.7108414749e+01    0.4060455    0.2547278  41.27  0.001771403    1.610    0.379
       381 -10.5887     46.5407    108.8187   8.6044314581e+01   4.9863530688e+01    0.5742126    0.3178733  47.98  0.001861429    2.190    0.543
       382 -11.5409     45.8289    102.8064   8.4941199606e+01   5.1463785657e+01    0.3728285    0.2931701 -78.07  0.001069308    1.490    0.329
       383  -8.2723    138.9732    107.7379   5.6134589430e+01   3.3215260714e+01    0.1795869    0.1299587  46.60 0.0008464698    1.405    0.288
