#   1 NUMBER                 Running object number                                     
#   2 MAG_AUTO               Kron-like elliptical aperture magnitude                    [mag]
#   3 X_IMAGE                Object position along x                                    [pixel]
#   4 Y_IMAGE                Object position along y                                    [pixel]
#   5 X_WORLD                Barycenter position along world x axis                     [deg]
#   6 Y_WORLD                Barycenter position along world y axis                     [deg]
#   7 A_WORLD                Profile RMS along major axis (world units)                 [deg]
#   8 B_WORLD                Profile RMS along minor axis (world units)                 [deg]
#   9 THETA_WORLD            Position angle (CCW/world-x)                               [deg]
#  10 FWHM_WORLD             FWHM assuming a gaussian core                              [deg]
#  11 ELONGATION             A_IMAGE/B_IMAGE                                           
#  12 ELLIPTICITY            1 - B_IMAGE/A_IMAGE                                       
         1 -15.3243     68.6069    144.2445   1.0885212413e+02   3.7186013256e+01     5.415227     2.812819  74.23  0.004897156    3.335    0.700
         2 -14.2985    199.0656     36.2220   4.8472614658e+01   3.0706980350e+01     1.813293     1.340977  33.81  0.006273344    1.670    0.401
         3 -14.5394    210.6680     23.8642   4.3720366890e+01   2.9352377591e+01     1.458228      1.09584   9.68  0.007635806    1.896    0.473
         4 -14.1505      6.3407     13.7164   9.9153832821e+01   7.1903980896e+01      2.46546    0.6767321 -44.37   0.01171002    2.499    0.600
         5 -10.4910     60.7383      7.6019   6.9770921011e+01   6.6307631467e+01    0.1601669    0.1137823  47.48 0.0005306064    1.615    0.381
         6 -11.8706    234.9852      1.9809   3.6157591217e+01   2.6005705919e+01    0.6738927    0.2040433  74.33   0.00241977    3.090    0.676
         7 -11.2144     62.2262      1.6281   6.6187035392e+01   6.6689867557e+01    0.3182574    0.1184252  41.94  0.001449215    2.354    0.575
         8 -10.3725    107.9830    203.6944   1.0817910351e+02   1.7807581806e+01    0.1920292    0.1563231  55.24 0.0006904291    1.070    0.065
         9 -11.2240    139.5904    248.7857   1.0749421957e+02   4.7402074161e+00     0.386146    0.2063268 -61.49  0.002090311    2.602    0.616
        10 -10.7170    134.4462    248.5411   1.0842767578e+02   5.5818086009e+00    0.3178783    0.1939946 -85.85  0.001621551    2.965    0.663
        11 -12.9551     71.3138    175.2493   1.1265369135e+02   2.9513763267e+01    0.9291456    0.4901658 -33.47  0.003221335    4.728    0.788
        12 -14.1099     46.5382    222.8899   1.2251686291e+02   2.2636073953e+01     1.173018    0.7039669  45.27 0.0009647608    1.478    0.324
        13 -13.6144     15.0610    192.8264   1.2643546781e+02   3.2103901244e+01    0.8164122    0.2717698 -59.85  0.002351443    3.130    0.681
        14 -15.4190     45.9714    204.7003   1.2120798377e+02   2.6344195119e+01     2.844402      1.08129  53.59  0.008567098    2.355    0.575
        15 -14.4146     54.0047    194.6539   1.1866502424e+02   2.7487109085e+01     1.105873    0.9514725  65.49  0.003530676    1.141    0.123
        16 -16.1615     65.6185    247.7907   1.2091007294e+02   1.5673939228e+01     8.862002     2.836591  30.20   0.01301777    9.328    0.893
        17 -17.0663     11.8550    242.3060   1.2962137657e+02   2.2840028600e+01      4.10002     2.121778  28.73   0.02522294    2.757    0.637
        18  -9.8827     82.1483    194.9628   1.1266137772e+02   2.3614824925e+01    0.2377317    0.1725732  48.44  0.001382396    1.260    0.206
        19 -11.6343     73.9011    188.5710   1.1371079337e+02   2.6178312509e+01    0.4434724    0.2296978  67.75  0.001997573    2.326    0.570
        20  -9.2675     95.1431    188.1045   1.0889637308e+02   2.3117199626e+01    0.1840935    0.1791725  58.93  0.000397145    1.195    0.163
        21 -10.7694    147.0339    185.0087   9.6688366678e+01   1.4726757647e+01    0.2827723    0.1787096  63.09 0.0009053217    2.050    0.512
        22 -10.4992     99.4394    180.7813   1.0686813310e+02   2.4030763265e+01    0.2384387    0.2150334  30.87 0.0005891707    1.267    0.211
        23 -13.3954     88.9407    156.0920   1.0552352871e+02   3.1361925586e+01     1.632527    0.9628042 -82.67  0.002412356    2.203    0.546
        24 -13.1309     82.3671    163.0484   1.0828449194e+02   3.0737241864e+01     1.317162    0.4951812  54.61 0.0004582162    3.642    0.725
        25 -13.6968     70.1874    158.7055   1.1066305633e+02   3.3511238432e+01     0.591442    0.4664079 -47.36  0.001641758    1.437    0.304
        26 -10.9883    172.6913    243.0532   1.0052511517e+02   3.2085845249e-01    0.3750618    0.2384269 -68.43  0.001917175    3.072    0.675
        27 -10.3199     42.7114    167.6086   1.1841544456e+02   3.4841340207e+01    0.1683525    0.1032156  49.83 0.0005742182    1.578    0.366
        28  -9.8603    161.5150    166.0544   8.9814955070e+01   1.5733585458e+01    0.2198868    0.1480438 -47.96  0.001021028    1.576    0.366
        29 -11.4872     32.3329    164.9884   1.2054352632e+02   3.6543174826e+01    0.2017717     0.188086  33.97 0.0009232687    1.388    0.280
        30  -9.7980     49.4649    161.0529   1.1607234462e+02   3.5592848168e+01    0.1921515    0.1120582 -70.71 0.0004472324    1.515    0.340
        31 -10.3046     49.1305    154.1813   1.1530430001e+02   3.7249589111e+01    0.1862916    0.1356058  70.49 0.0008869125    1.335    0.251
        32 -10.6249    134.3876    148.2090   9.2503856743e+01   2.5021523572e+01    0.4560541    0.2367397 -59.62  0.001725074    2.330    0.571
        33 -11.2880    133.5211    142.5558   9.1493140244e+01   2.6467122821e+01    0.7405216     0.285202 -57.49  0.002254201    3.508    0.715
        34 -10.1920    174.6060    149.2058   8.3244453037e+01   1.6436444569e+01    0.2957768    0.2131179  43.67 0.0008265679    1.364    0.267
        35 -10.9496     39.6856    146.8483   1.1676002066e+02   4.0028367677e+01    0.2459675    0.1767878  48.40  0.001458368    1.450    0.310
        36 -10.8687     84.6319    144.0270   1.0455011738e+02   3.4910583466e+01    0.3649622    0.2386912  65.20  0.001566406    1.801    0.445
        37 -12.3723     90.1208    140.9087   1.0250507535e+02   3.4794640105e+01    0.2883016    0.2587576 -47.66 0.0004469345    1.173    0.148
        38 -11.0643    102.8275    140.7498   9.9072635156e+01   3.2696335297e+01    0.5811051     0.372371 -25.42  0.002355522    2.496    0.599
        39 -12.4171     45.0044    130.2592   1.1307137544e+02   4.3452522457e+01    0.4294703    0.3346277 -74.63  0.001894963    1.103    0.094
        40 -10.3566    106.0747    130.6337   9.6062597787e+01   3.4520800442e+01    0.3254444    0.2815886 -65.47  0.001469393    1.137    0.120
        41 -11.1078     32.0481    131.3146   1.1677728706e+02   4.4492487908e+01    0.2488369     0.187583 -59.89  0.001049664    1.222    0.182
        42 -10.4336    111.8550    130.7983   9.4526987231e+01   3.3415241871e+01    0.3296977    0.2558773  12.31  0.001126783    1.679    0.404
        43 -10.8635    135.6215    123.8054   8.6567440527e+01   3.0264158829e+01    0.3737329    0.1647245 -45.74  0.001325656    2.254    0.556
        44 -11.7546    118.2202    125.7338   9.1638276049e+01   3.3379664940e+01    0.9073273    0.4230535 -39.57  0.003245435    2.468    0.595
        45  -9.9326    126.0043    127.7945   9.0048516860e+01   3.1352484025e+01    0.2587441    0.1785138  71.29    0.0005795    2.007    0.502
        46 -11.0950     99.1046    127.0137   9.7192692334e+01   3.6623819430e+01    0.3144241    0.2560347 -21.60 0.0008241879    1.503    0.335
        47  -9.8079    160.6793    127.3496   8.1254606388e+01   2.4008939785e+01    0.1627725    0.1272098 -84.42 0.0007048537    1.742    0.426
        48 -10.8839    209.8277    199.5761   8.6273604358e+01   5.7068672019e-01    0.2404627    0.2110307 -50.42 0.0006282038    1.511    0.338
        49  -9.9850    108.0797    119.6404   9.2980358914e+01   3.6748938421e+01    0.2264612    0.2014524 -65.85 0.0002802193    1.125    0.111
        50  -9.6597    167.9310    112.7906   7.5831316763e+01   2.5385088345e+01    0.3093005    0.2086662 -67.97   0.00121903    2.139    0.533
        51  -9.8548    134.6831    112.5085   8.3922506472e+01   3.2986262278e+01    0.2884524     0.143772 -45.28  0.001074797    1.983    0.496
        52 -11.5154    117.8662    107.6775   8.7204877629e+01   3.7604127212e+01    0.5224514    0.3745006 -20.61  0.002277933    1.797    0.443
        53 -10.1645     48.3202    171.5481   1.1754620334e+02   3.3298708113e+01    0.2850018    0.1601523 -41.25  0.001340579    2.717    0.632
        54 -11.3464    138.2072    171.9070   9.6317157951e+01   1.9092839782e+01    0.4000964    0.2746088  86.35  0.001729664    2.249    0.555
        55  -9.8828    205.5483    110.2290   6.7330295624e+01   1.7118243047e+01    0.2682883    0.2136137  48.64 0.0005977512    1.309    0.236
        56 -10.9896     37.1927    167.7993   1.1970773527e+02   3.5396827973e+01    0.2894091    0.1472432  56.77  0.001213802    1.947    0.486
        57 -11.1131     52.9386     91.1503   1.0320064983e+02   5.1968267260e+01    0.3297314    0.1724494 -49.09  0.001549794    1.648    0.393
        58 -10.4704     41.7875     91.9599   1.0715122366e+02   5.2983797355e+01    0.1965027     0.190367 -31.84 0.0004425277    1.159    0.137
        59  -9.7976     75.4705     85.0137   9.3997272239e+01   5.0351216572e+01    0.2008892    0.1897989  14.78 0.0001558759    1.136    0.119
        60 -10.6549     13.4785     59.7885   1.1032172958e+02   6.2495776532e+01    0.2155335    0.1722088 -49.78 0.0004048839    1.035    0.034
        61 -13.2760    189.8786     42.9656   5.1702588209e+01   3.2136826656e+01    0.8640351    0.6881925  21.81   0.00100475    1.563    0.360
        62 -10.5184    198.6927    222.7971   9.2492540581e+01  -1.0125871255e+00    0.2159328    0.1457536  28.36 0.0005483901    1.267    0.211
        63  -9.6540    130.5101    213.0046   1.0468920293e+02   1.2265808175e+01    0.1722651     0.131769 -60.05 0.0003951723    1.495    0.331
        64 -10.9482    148.8173     44.7775   5.9731022822e+01   4.2426732405e+01     0.312458    0.2544554 -82.86 0.0006161025    1.465    0.318
        65  -9.1654    107.2962    210.3116   1.0918278414e+02   1.6604151523e+01     0.117454    0.1030941  -4.01 0.0003293157    1.597    0.374
        66  -9.4046    189.8389     14.8539   4.3730476227e+01   3.5600132221e+01    0.1916912    0.1488257 -68.86 0.0005461286    1.278    0.217
        67 -12.0055    193.2658    195.1986   8.8725560107e+01   4.2223080596e+00    0.9465929    0.5123425 -63.55  0.002943151    5.797    0.828
        68 -11.5338    147.2363     51.3900   6.2269981086e+01   4.1831367474e+01    0.5077621    0.3398208 -79.23  0.002060727    2.352    0.575
        69 -16.8622      6.8674    205.0413   1.2868946841e+02   3.0355142606e+01     7.562091     1.300887 -73.97   0.02623089    4.296    0.767
