#   1 NUMBER                 Running object number                                     
#   2 MAG_AUTO               Kron-like elliptical aperture magnitude                    [mag]
#   3 X_IMAGE                Object position along x                                    [pixel]
#   4 Y_IMAGE                Object position along y                                    [pixel]
#   5 X_WORLD                Barycenter position along world x axis                     [deg]
#   6 Y_WORLD                Barycenter position along world y axis                     [deg]
#   7 A_WORLD                Profile RMS along major axis (world units)                 [deg]
#   8 B_WORLD                Profile RMS along minor axis (world units)                 [deg]
#   9 THETA_WORLD            Position angle (CCW/world-x)                               [deg]
#  10 FWHM_WORLD             FWHM assuming a gaussian core                              [deg]
#  11 ELONGATION             A_IMAGE/B_IMAGE                                           
#  12 ELLIPTICITY            1 - B_IMAGE/A_IMAGE                                       
         1 -10.5722     13.7711     19.4882   8.0020873136e+01   7.2136695920e+01    0.3539942    0.2359043  -0.52  0.002180693    1.362    0.266
         2  -9.3490     93.4381      8.5526   4.1616235290e+01   5.9026524525e+01    0.1281982    0.1106354  54.55 0.0001007325    1.028    0.027
         3  -9.1829     24.7080      4.2968   6.5077355901e+01   7.2911814104e+01    0.1261638   0.09412948   9.58 0.0002430635    1.085    0.079
         4 -10.1284      5.7137      3.1664   7.6741662547e+01   7.5447185644e+01    0.2239414    0.1381626  13.82  0.001033684    1.414    0.293
         5  -8.7423     56.4820      2.4942   4.9481748031e+01   6.7530254731e+01    0.1250352    0.1015929  33.38 0.0003282471    1.006    0.006
         6 -11.4467    156.2835    247.2440   8.6426862683e+01   1.6958908103e+00    0.3515967     0.236461   1.70  0.002011958    1.576    0.366
         7 -10.3948    162.9296    249.9084   8.5424204795e+01   3.9009697551e-01    0.1940026    0.1838482   7.29 0.0007170415    1.301    0.231
         8 -10.0128     95.4706    249.5893   9.9796124282e+01   9.4692750298e+00    0.2356195    0.1331329  29.82 0.0006787389    1.531    0.347
         9 -11.5045    102.1682    227.1786   9.5722054992e+01   1.2896427136e+01     0.478374    0.2765409  64.51  0.002118834    2.589    0.614
        10 -11.2922    108.0052    222.8239   9.3797226968e+01   1.2951169060e+01    0.4560442    0.2482599 -54.73  0.002203205    2.024    0.506
        11 -12.0420     95.4693    232.2123   9.7878554858e+01   1.2811314512e+01    0.5838122    0.3793372  56.45  0.001649326    1.677    0.404
        12 -11.2786     93.4616    224.9791   9.7488650139e+01   1.4559690958e+01    0.3093683    0.2703161 -84.04 0.0009097513    1.288    0.224
        13 -10.3473     82.7405    250.6503   1.0266585333e+02   1.0914661426e+01    0.2879429    0.0959596  32.98  0.001223991    2.422    0.587
        14 -12.1448     90.5742    237.7980   9.9622927549e+01   1.2363310170e+01    0.5469963      0.37889  36.04  0.003167717    1.232    0.188
        15 -11.4488     90.1799    246.0972   1.0059111575e+02   1.0813889455e+01    0.3787088    0.3438643 -81.84  0.001672639    1.272    0.214
        16 -10.6122     86.9641    241.9552   1.0087444341e+02   1.2027753334e+01    0.2189657    0.1608549  70.17 0.0004132177    1.557    0.358
        17 -11.0382    105.0241    236.5398   9.6212247239e+01   1.0650394120e+01    0.2724565    0.1997247  35.49  0.000664849    1.172    0.147
        18 -10.7429    103.5864    233.4742   9.6169544369e+01   1.1445109428e+01    0.2184342    0.2051028  11.18 9.128716e-05    1.121    0.108
        19 -13.1085     46.6525    194.4462   1.0560298019e+02   2.7485598386e+01     1.341501     1.102416  81.58  0.005027769    1.159    0.138
        20 -12.1929     29.9911    186.1741   1.0912584760e+02   3.1284530511e+01     0.670741    0.4240591  53.62 0.0006493192    1.508    0.337
        21 -12.4641     55.7840    208.1580   1.0470349653e+02   2.3183281015e+01     1.274911     0.596287  55.51   0.00344269    2.321    0.569
        22 -12.4707     52.8836    230.1912   1.0743418879e+02   1.8673344047e+01    0.3899789    0.3346768 -56.76   0.00208387    1.363    0.267
        23 -14.1252      7.6690    208.7191   1.1621036598e+02   2.8034848476e+01    0.8219211    0.6070942 -23.94  0.004966693    1.990    0.498
        24 -13.4225     16.2108    196.8002   1.1345602971e+02   3.0033584401e+01     1.372853    0.5040967 -71.74  0.006032818    2.444    0.591
        25 -13.5986      4.6467    195.6642   1.1616623900e+02   3.1283677358e+01     1.154876    0.3829021 -66.72  0.005032069    2.666    0.625
        26 -13.4361     26.5749    233.1146   1.1346757790e+02   2.0941976275e+01    0.5579582    0.3343786 -72.38  0.003296742    1.711    0.415
        27 -15.7281     39.9300    230.5029   1.1036768045e+02   2.0078833090e+01     3.054953     2.174257  60.11   0.01892766    1.235    0.190
        28 -13.0258     30.8231    248.5367   1.1350317302e+02   1.7380898650e+01    0.4490232    0.2735147  26.53  0.001571518    1.675    0.403
        29 -13.3747     15.3193    227.2107   1.1554470620e+02   2.3290683768e+01     0.549499    0.3855918  44.87  0.002306284    1.239    0.193
        30 -14.8549      6.1188    226.6783   1.1747694413e+02   2.4243566341e+01    0.6181082    0.5021905 -48.32  0.004257218    1.620    0.383
        31 -13.3138      7.5004    219.5603   1.1682842949e+02   2.5648893985e+01    0.5680335    0.1943423  40.69  0.001864813    2.287    0.563
        32 -15.4445     15.3422    244.9205   1.1645683250e+02   1.9648388510e+01    0.9039001    0.7614698  32.52  0.004961782    1.320    0.242
        33 -14.1504      3.0710    247.6981   1.1900438049e+02   2.0242063938e+01    0.7935741    0.2809281  88.92  0.003829463    2.927    0.658
        34 -14.6228      9.2153    236.8792   1.1731612330e+02   2.1843053605e+01    0.6309127    0.4808927 -47.60  0.003448621    1.783    0.439
        35 -11.0664    153.4781    243.1145   8.6436352893e+01   2.7525680926e+00    0.4213846    0.2746517 -11.78 0.0008173649    1.819    0.450
        36 -11.0557    100.4174    245.3760   9.8258728251e+01   9.5975179369e+00    0.3473714    0.2256496 -57.52  0.001678182    1.798    0.444
        37  -8.9310    182.6978    247.7041   8.1117816020e+01  -1.8270474224e+00    0.1240615    0.0794981  -1.70 0.0005765935    1.577    0.366
        38 -11.1327    120.0251    245.9415   9.4017751516e+01   6.8446079100e+00    0.4542725    0.3286023  69.91  0.002552313    1.977    0.494
        39 -10.2685    113.2139    247.0483   9.5639082644e+01   7.5702801639e+00    0.1966127    0.1624688  33.33 0.0003958526    1.038    0.037
        40 -10.6621    114.1698    243.6195   9.5020878409e+01   8.0641538387e+00    0.2784184    0.2070764   3.37 0.0005520649    1.530    0.347
        41  -9.4461     71.0332    242.2335   1.0443701482e+02   1.4009166702e+01    0.1790142    0.1474106 -16.39 0.0005803541    1.601    0.375
        42  99.0000     73.4931    234.3946   1.0314014094e+02   1.5273668092e+01    0.8197873    0.3577801  38.19  0.003068205    1.891    0.471
        43 -10.0431     81.2255    232.9998   1.0123422534e+02   1.4559118631e+01    0.2132735    0.1259269 -62.27 0.0007961019    1.887    0.470
        44 -10.8794     81.8231    229.2649   1.0069721304e+02   1.5246658404e+01    0.7514693    0.2376578  27.58  0.002691368    3.295    0.697
        45  -9.8026     82.0030    239.7603   1.0175737038e+02   1.3102943076e+01    0.2800145    0.1579244  24.96 0.0007730289    1.753    0.430
        46 -11.2319     78.5841    244.2275   1.0295844839e+02   1.2667709946e+01    0.6302288    0.1978205  49.36  0.002306601    3.569    0.720
        47 -11.2855     77.3779    240.1822   1.0283361892e+02   1.3614518432e+01    0.3672109    0.2838923  76.65  0.001522158    1.421    0.296
        48  -9.8425    220.4450    245.9655   7.3718342827e+01  -6.1163330258e+00    0.1629534   0.09788372 -31.09 0.0006115017    1.565    0.361
        49  -9.7748    233.0725    244.3112   7.1235987341e+01  -7.2892113994e+00    0.1542177    0.1124536   5.65  0.000313973    1.121    0.108
        50  -9.4674    173.3170    243.3264   8.2351441485e+01   5.6415235218e-02    0.1299361    0.0834871  -3.36 0.0007045061    1.675    0.403
        51  -9.8519    128.8244    243.3572   9.1770929719e+01   6.0985260142e+00    0.2048574    0.1347027  38.99 0.0008159353    1.374    0.272
        52 -10.3829    217.2491    238.7923   7.3166429417e+01  -4.7656405098e+00    0.1856724    0.1709626 -10.93 0.0008533457    1.506    0.336
        53 -10.1928    160.6475    238.9288   8.4321740062e+01   2.4693478258e+00    0.1712624    0.1525659  -6.04  0.001133597    1.147    0.129
        54  -9.3190    144.9134    239.7779   8.7795644295e+01   4.4973737953e+00    0.1779985   0.09197491  29.18 0.0008733048    1.678    0.404
        55 -10.4509    231.1630    237.8502   7.0541215137e+01  -6.2246232115e+00    0.1983785    0.1525839  -4.84  0.000829232    1.084    0.078
        56 -11.7971    227.4448    235.0947   7.0748007060e+01  -5.4310926991e+00    0.4713221    0.2023198 -34.57  0.001073105    2.111    0.526
        57 -11.3646    245.2512    235.7175   6.7806242836e+01  -7.4661624954e+00    0.3089965    0.1672195  -7.03  0.001460927    1.843    0.457
        58 -11.1891    248.4546    229.8400   6.6324582291e+01  -7.0341073730e+00    0.4368963    0.1556904 -24.58  0.001893789    3.274    0.695
        59 -10.1404    187.9477    235.0192   7.8138628237e+01  -5.6791419198e-01    0.3442229    0.2054697  48.66  0.001483885    2.629    0.620
        60  -9.7177    170.3557    236.1988   8.1888065530e+01   1.5942462483e+00    0.1969597    0.1563062  51.01  0.001062157    1.736    0.424
        61 -10.3351    167.0245    235.2655   8.2438320960e+01   2.2029941116e+00    0.2020209    0.1512871   0.63  0.000473848    1.255    0.203
        62 -10.2676    124.7444    235.6224   9.1659291629e+01   8.0715848342e+00     0.275066    0.1981612  53.70 0.0009293655    1.602    0.376
        63 -10.3541    123.4649    231.9492   9.1455683694e+01   8.9417313334e+00    0.2391822    0.2033883 -71.68  0.001457535    1.477    0.323
        64 -10.9871    113.2781    235.5597   9.4226985009e+01   9.6936113788e+00    0.3590151    0.1881182  38.52  0.001772807    1.654    0.395
        65 -10.5862    177.4488    233.8265   8.0064693206e+01   1.0183841755e+00    0.4460755    0.1972323  19.02  0.001868378    2.747    0.636
        66  -8.9573    146.5668    234.4466   8.6679241180e+01   5.1975141902e+00    0.1307521    0.1100369  13.35 0.0001535367    1.031    0.030
        67 -10.5363    136.8343    232.6754   8.8563285679e+01   6.8981258952e+00    0.2657452    0.1745593 -30.21  0.000936847    1.752    0.429
        68 -11.5648    236.4682    231.3593   6.8575443193e+01  -5.9362809962e+00    0.3377988    0.1755379  29.93  0.001992045    1.933    0.483
        69 -10.2127    206.9318    231.7041   7.3934696411e+01  -2.4946336530e+00    0.2117381    0.1664884 -33.15  0.000633307    1.412    0.292
        70  -9.7178    168.2063    230.9922   8.1534924640e+01   2.7533832288e+00    0.2180755    0.1311964 -14.55  0.001077565    2.038    0.509
        71 -10.6761    191.8334    229.0228   7.6410590997e+01  -1.4022352352e-01    0.4678565    0.1969027 -42.20  0.001142786    2.447    0.591
        72  -9.9780    196.4233    227.2139   7.5214894183e+01  -4.6190989402e-01    0.3487282    0.2631223  87.78  0.001530469    4.434    0.774
        73  -9.8079    143.9868    229.8151   8.6569116238e+01   6.3939595847e+00     0.215665    0.1362516   4.94 0.0005812384    1.930    0.482
        74 -10.2870    118.0106    229.0760   9.2309907012e+01   1.0271843326e+01    0.3247424    0.2122959  86.90  0.001488865    2.766    0.639
        75 -10.2717     75.2279    228.8498   1.0218180304e+02   1.6195579933e+01    0.2704971    0.1901593  63.86  0.001517446    1.492    0.330
        76  -9.6480    150.2265    228.1380   8.4948564517e+01   5.7986464040e+00    0.1735727    0.1495996  45.14 0.0006137965    1.341    0.254
        77  -9.1443    133.4216    228.4733   8.8728138119e+01   8.1663864178e+00    0.1317818    0.1159324  27.26 5.603866e-05    1.066    0.062
        78 -15.1508     28.4857    212.9424   1.1168491742e+02   2.5130567060e+01     1.977014     1.463743 -58.60   0.01203941    1.504    0.335
        79 -10.1405    209.0020    226.8503   7.2749335420e+01  -2.0281062638e+00     0.204012    0.1513637 -21.58 0.0005639115    1.199    0.166
        80 -10.2672    186.6138    225.9640   7.6951947068e+01   1.0496332372e+00    0.3056091    0.1486789 -41.98  0.001505936    2.121    0.529
        81 -10.5949    170.9652    225.3469   8.0065846666e+01   3.3237500862e+00    0.2883738    0.2006702  36.36  0.001059331    1.449    0.310
        82  -8.8666     82.6524    225.6632   1.0010734800e+02   1.5886407815e+01    0.1323715   0.09990749 -16.11 0.0007047693    1.780    0.438
        83 -11.2399    243.3049    223.3885   6.6106305746e+01  -5.6078423854e+00    0.2216117    0.1679797  14.85  0.001212069    1.313    0.239
        84 -10.6102     76.2332    222.7774   1.0130193106e+02   1.7347597891e+01    0.4530427    0.2862914 -33.14  0.002221211    2.244    0.554
        85  -9.3428     73.9340    213.2149   1.0079021469e+02   1.9737232870e+01    0.3493975    0.1601117  47.95 0.0008734556    2.136    0.532
        86 -10.8768     71.0680    219.2880   1.0215398795e+02   1.8773693856e+01    0.3067018    0.2014643  82.11  0.000592835    1.825    0.452
        87 -10.0823     70.4920    214.5296   1.0177647019e+02   1.9895515812e+01    0.2590657    0.1584459 -38.41 0.0008820497    2.173    0.540
        88 -10.4959    230.5929    222.2593   6.8077686496e+01  -3.9933518734e+00    0.2224491    0.1003852 -39.56  0.001150768    2.132    0.531
        89 -10.3313    122.3353    222.9465   9.0472071070e+01   1.0845585477e+01    0.2434408    0.2088739  34.66  0.001112427    1.083    0.077
        90  -9.1977    115.5038    222.4193   9.1986546726e+01   1.1948337348e+01    0.1354614    0.1189788  24.34 8.927494e-05    1.033    0.032
        91  -9.9471     87.2077    220.9764   9.8490025529e+01   1.6260068762e+01    0.2599884    0.1814093  88.38  0.001359578    1.803    0.445
        92  -9.3103    250.7092    221.3132   6.4548282480e+01  -6.1371722037e+00   0.09641339   0.08440675 -29.08 0.0002666903    1.590    0.371
        93 -10.9807    197.7638    218.6776   7.3528233667e+01   7.1504508459e-01    0.4235982    0.2125738 -23.11  0.001965928    2.309    0.567
        94 -10.0093    102.5282    220.3147   9.4760526753e+01   1.4252735497e+01    0.2180854    0.1770598 -29.97 0.0004445635    1.423    0.297
        95  -9.8299     82.0832    221.0509   9.9719919228e+01   1.6939642073e+01    0.1887674    0.1681904  -1.11 0.0005746051    1.291    0.225
        96  -9.9337     86.8411    250.6651   1.0177969247e+02   1.0388454557e+01    0.1902898     0.104088  32.16 0.0005040209    1.540    0.351
        97 -10.6517    233.4641    209.0341   6.5312745538e+01  -2.4098783606e+00    0.2970418    0.1908894  -7.03  0.001778937    1.479    0.324
        98 -10.8721    233.6856    214.7463   6.6264919043e+01  -3.2763461352e+00    0.3944176    0.2391154  19.53  0.001581299    1.610    0.379
        99  -9.9537    222.2438    216.5831   6.8586705869e+01  -2.1476572802e+00    0.3755034    0.1787908  13.28  0.001676149    2.871    0.652
       100  -9.5903    139.6900    216.7196   8.5553341272e+01   9.4826191565e+00     0.211159    0.1521682  62.03  0.001057756    1.979    0.495
       101  -9.8852    117.5872    215.7683   9.0558907886e+01   1.2992406901e+01    0.3152329    0.2091436 -20.52  0.001508058    2.024    0.506
       102 -10.0825     88.6767    215.6568   9.7490878806e+01   1.7198874347e+01    0.2499531    0.2044839 -44.84  0.001440943    1.372    0.271
       103  -9.7519    185.5779    213.4086   7.5057013950e+01   3.2853439127e+00    0.3055958    0.1711513   1.53  0.001329939    2.561    0.609
       104  -9.6322    176.7471    214.0203   7.6984039940e+01   4.4547774930e+00    0.1823195     0.153635 -10.63 0.0003571455    1.077    0.072
       105 -10.0625    166.4962    213.3707   7.9050802360e+01   6.0817744159e+00    0.3422544    0.1291576 -46.19  0.001375847    2.778    0.640
       106 -10.0257    216.3074    212.6122   6.8975341308e+01  -7.8640491450e-01    0.1565436    0.1504827 -52.48 0.0007263126    1.637    0.389
       107 -10.0104    196.5234    212.9950   7.2796131794e+01   1.8117411207e+00    0.1922125    0.1148401 -34.99  0.001026419    1.588    0.370
       108  -9.3225    153.6349    221.1958   8.3129173036e+01   6.5609896300e+00    0.1696694    0.1186284 -32.77 0.0003706776    1.492    0.330
       109 -10.7005     95.0672    209.4344   9.5123930707e+01   1.7651473870e+01     0.376744     0.306518 -87.70  0.002106373    1.421    0.296
       110  -8.7112    207.6407    210.6700   7.0248011845e+01   6.6740892364e-01    0.1377748   0.08476624  -5.53 0.0007042077    1.794    0.443
       111 -14.3003     97.8592    164.2998   8.7259415298e+01   2.7808783866e+01      1.47015    0.6861476  24.97  0.005269315    2.605    0.616
       112 -14.0920    102.5002    154.5307   8.4069882132e+01   2.9432267425e+01     1.581869    0.6804509 -38.36  0.004819717    3.106    0.678
       113 -14.1948     86.2907    187.4077   9.4263180275e+01   2.3986095791e+01      1.30146     1.000458  34.52  0.005954474    1.248    0.199
       114 -14.3696    124.2090    187.4675   8.4433076559e+01   1.8018649104e+01     1.322748     1.106583  -3.98  0.006880244    1.293    0.227
       115 -14.1006     83.4742    177.8946   9.3578904189e+01   2.6703699361e+01     1.989908     1.102052  -8.15  0.005978264    4.801    0.792
       116 -14.3823     98.5855    174.9560   8.8956020549e+01   2.5096692736e+01     1.169417    0.8352376 -33.54  0.005540504    1.609    0.379
       117 -13.8175    111.2965    190.6998   8.8249601183e+01   1.9383576038e+01      0.94469    0.7554485   1.16  0.004894927    1.429    0.300
       118 -14.2211    105.9441    183.1757   8.8386425896e+01   2.1968865765e+01     1.349272    0.7152333 -50.53  0.005752832    1.923    0.480
       119 -10.9659    101.3622    207.8442   9.3352991192e+01   1.7082158142e+01     0.444647    0.2033112  32.25 0.0009704049    2.013    0.503
       120 -12.5152     75.0963    192.8089   9.7983674702e+01   2.4286997743e+01    0.8724974    0.5067023 -72.02  0.003999878    1.904    0.475
       121 -11.6744     81.5162    195.6186   9.6684531829e+01   2.2728766160e+01    0.3200489    0.2632797  23.81  0.001761351    1.243    0.196
       122 -10.1256     70.7907    207.3624   1.0089319106e+02   2.1470072486e+01     0.338224    0.2083118  73.93  0.001493355    2.034    0.508
       123 -11.9148     68.7579    199.1891   1.0043924997e+02   2.3629290068e+01    0.7210106    0.3901741 -75.75  0.002013558    2.120    0.528
       124 -10.1302    104.0029    213.4262   9.3483733336e+01   1.5489571793e+01    0.1869222    0.1834368  44.14 0.0003444815    1.082    0.076
       125 -10.8891    129.8187    206.3413   8.6217631801e+01   1.3072230516e+01    0.3810494    0.2884699   7.73  0.001059746    1.425    0.298
       126 -11.4524     78.0420    204.8909   9.8779096087e+01   2.1063356770e+01    0.4060889    0.3654987  20.98  0.002067951    1.163    0.140
       127 -10.6353    241.6500    203.9948   6.3054447995e+01  -2.6612970515e+00    0.2941935    0.1587515 -22.31  0.001122868    1.693    0.409
       128 -10.4622     62.1092    204.8867   1.0278438171e+02   2.3156180730e+01    0.2339959    0.2223289  41.37  0.001463735    1.101    0.092
       129 -10.9233    234.6138    202.9600   6.4047131948e+01  -1.6440299910e+00    0.3446445    0.2157452  -2.69   0.00111434    1.660    0.397
       130 -10.0020    190.8456    203.7103   7.2287905673e+01   4.1927599838e+00    0.2204628    0.1583247 -22.04 0.0003058009    1.299    0.230
       131  -9.6285    182.8680    203.8887   7.3946009545e+01   5.3414288251e+00    0.1641158    0.1536723 -34.16 0.0004417599    1.296    0.229
       132  -9.0438    139.6499    204.2706   8.3560095159e+01   1.1957109717e+01    0.1383771    0.1056316  56.65 0.0006995061    1.627    0.385
       133 -12.0500    122.3031    199.9408   8.7002601220e+01   1.5598933281e+01    0.7333125    0.3150046  48.16 0.0008920737    2.831    0.647
       134  -9.7528    161.6696    201.0037   7.7974847991e+01   9.1307504850e+00    0.2547246    0.1783104   5.69 0.0007747867    1.574    0.365
       135 -10.5907    189.6144    196.7229   7.1267514980e+01   5.6030856907e+00    0.4003804    0.1954385 -31.94  0.001749933    2.100    0.524
       136  -8.9738    156.7043    199.2473   7.8774819298e+01   1.0257015702e+01     0.127169    0.1073932  55.47 0.0001906839    1.483    0.326
       137  -9.6994    184.0336    198.0480   7.2650910278e+01   6.2121833343e+00    0.1960482    0.1694474  -4.93  0.001180808    1.009    0.009
       138 -11.3859    211.8703    194.4423   6.6533840152e+01   2.7348161413e+00    0.4670968    0.4543144 -37.55  0.002447883    1.436    0.303
       139  -9.5677    149.5608    197.1553   8.0035263356e+01   1.1817268758e+01    0.1977628    0.1373461 -46.40  0.000496847    1.508    0.337
       140 -10.1070     61.9148    196.7261   1.0190955874e+02   2.5095403605e+01    0.2414295    0.2164758 -44.19 0.0007322794    1.255    0.203
       141  -9.9357    230.6327    195.8788   6.3454362136e+01  -5.1332916649e-02    0.2050968    0.1494007   3.74 0.0005809742    1.301    0.231
       142 -10.8643    247.4134    190.7881   5.9770284478e+01  -1.4080493410e+00    0.3099661    0.1753534 -40.79  0.001775122    1.667    0.400
       143  -8.9648    163.6718    193.3302   7.6148206209e+01   1.0298452506e+01    0.1342136    0.1138328  72.51 0.0007051349    1.711    0.416
       144 -13.7517    138.8207    184.7514   8.0339819050e+01   1.6174739801e+01     1.178522     0.754516 -61.14   0.00533947    1.933    0.483
       145 -11.2336    143.0352    191.9545   8.0637251663e+01   1.3946801301e+01    0.3489917    0.2552604  -9.05  0.001250764    1.609    0.378
       146 -12.9393    146.1245    186.6187   7.8934901180e+01   1.4549765632e+01    0.6881657    0.4166519  32.26  0.003188687    1.601    0.376
       147 -10.3914    242.1998    190.3037   6.0515846836e+01  -6.8281029071e-01    0.2378311     0.150522 -16.51 0.0007951558    1.460    0.315
       148 -11.6001     66.9866    188.6276   9.9583573697e+01   2.6385227826e+01    0.3532321     0.265995  62.14  0.001234873    1.360    0.265
       149 -10.6831     70.6640    183.4290   9.7899759741e+01   2.7161454369e+01    0.2852513    0.2051626 -47.39  0.001440137    1.491    0.329
       150 -12.0207     69.8275    177.7915   9.7338834033e+01   2.8668229659e+01    0.5152171    0.3036447  36.45   0.00237508    1.628    0.386
       151 -11.5315     67.8323    173.6859   9.7305963980e+01   2.9965788462e+01    0.2972559    0.2500573 -67.75 0.0006449964    1.177    0.150
       152 -12.3861     62.8135    183.2178   1.0000799404e+02   2.8254647901e+01    0.5770972    0.4143827 -22.07  0.001982736    1.877    0.467
       153 -10.7531     62.6354    176.8430   9.9208672148e+01   2.9862905820e+01    0.3478477    0.2193394  89.20  0.000999133    1.912    0.477
       154 -11.0770     60.5322    173.5114   9.9343175908e+01   3.0972549588e+01    0.3052785     0.203785 -60.74  0.001498427    1.462    0.316
       155 -10.6818     88.3608    208.4530   9.6653123066e+01   1.8825821705e+01    0.5217417    0.3073504  16.30  0.002343028    2.096    0.523
       156  -9.2478    227.7384    186.6639   6.2255728573e+01   1.7934287513e+00    0.1295032   0.08279587 -13.94  0.000193918    1.581    0.367
       157  -9.4477      2.2260    186.5652   1.1621021551e+02   3.3621029747e+01    0.1541832    0.1158373 -13.16 0.0009109508    1.846    0.458
       158  -9.2397    181.6226    185.2884   7.0762271503e+01   8.9421518845e+00    0.1307474    0.1122245  70.89 0.0007018117    1.730    0.422
       159 -11.3250    157.9972    184.0665   7.5694611716e+01   1.3081541356e+01    0.3572815    0.2011816 -37.35  0.001591137    1.810    0.448
       160 -10.0755     40.8067    183.7710   1.0602689685e+02   3.0745739140e+01    0.2183312    0.1852709 -82.72 0.0005743547    1.114    0.102
       161 -11.2504     43.6904    179.3921   1.0476903716e+02   3.1515919201e+01    0.4404529    0.3033685  52.32  0.002307478    1.418    0.295
       162 -11.2171     40.6774    173.1370   1.0489268663e+02   3.3423102159e+01    0.4833904    0.2790425  45.11  0.001093859    1.695    0.410
       163  -9.8582    214.9898    182.2868   6.3677878309e+01   4.3246579051e+00    0.2261847     0.161658 -40.89 0.0008365391    1.386    0.278
       164 -10.1419    211.9293    178.6136   6.3528473445e+01   5.4069239978e+00    0.3320587    0.1776638 -29.33  0.001595708    1.794    0.443
       165 -10.3928    190.9290    182.9925   6.8411092276e+01   7.8802568054e+00    0.2168774    0.1843446  11.93 0.0003223378    1.129    0.114
       166  -9.4741      7.9069    182.4302   1.1452341841e+02   3.4175185473e+01    0.3234539    0.1246982 -74.25   0.00142806    2.260    0.558
       167 -10.2683     56.0356    181.3289   1.0161808934e+02   2.9579293653e+01    0.2857234    0.1767903  84.37    0.0013024    1.923    0.480
       168 -10.8326     36.2441    180.3414   1.0689713671e+02   3.2086047189e+01    0.4076515    0.2175102 -63.34  0.001938505    1.765    0.433
       169 -10.6976     30.6492    175.4183   1.0791880050e+02   3.3888195736e+01    0.5244969     0.202023  32.45   0.00214717    2.429    0.588
       170  -9.1440    181.3210    180.2464   6.9848339274e+01   9.9452343492e+00    0.1386386    0.1005811  -0.18 0.0002301371    1.527    0.345
       171 -12.4300    146.6012    177.8895   7.7170414143e+01   1.6315949363e+01    0.4081253    0.3466632  37.42  0.001184783    1.193    0.162
       172 -12.7608    114.1964    176.4958   8.5050478476e+01   2.2178417852e+01    0.5984801    0.3750997 -38.43 0.0008331577    1.756    0.431
       173 -13.4604    120.4320    174.3925   8.3034121224e+01   2.1612647662e+01      1.13642    0.4098224  48.27  0.003433043    3.736    0.732
       174 -11.5680     10.3367    177.0583   1.1351115990e+02   3.5294274429e+01    0.3723496    0.2014773  72.01 0.0005436054    1.849    0.459
       175 -10.6857      4.6181    165.6549   1.1418159580e+02   3.8555791544e+01    0.1996578    0.1794434  69.94 0.0002141202    1.101    0.092
       176 -11.4188     11.0905    166.8239   1.1250364659e+02   3.7780641063e+01    0.5151306    0.3373668  31.47  0.002643306    1.604    0.376
       177 -12.3670     18.1403    173.3694   1.1113568701e+02   3.5560779986e+01    0.8011224    0.5639127 -13.95  0.004303352    1.953    0.488
       178 -11.8566     22.7916    166.0693   1.0917376153e+02   3.6993422705e+01    0.8320935    0.4550881   1.44   0.00283807    2.735    0.634
       179 -11.0939     19.6544    160.0988   1.0947834310e+02   3.8790808811e+01     0.320327       0.1774  39.37  0.001575006    1.805    0.446
       180 -13.5504     24.9206    155.0385   1.0739794568e+02   3.9633902986e+01     1.918502    0.8480885 -59.62   0.00836399    2.000    0.500
       181  -9.2486    201.7957    179.0481   6.5510368682e+01   6.8836848594e+00    0.1752091   0.09779726 -39.81 0.0005698895    1.653    0.395
       182 -10.3463    206.7729    176.2940   6.4030243554e+01   6.5982882353e+00    0.2378205    0.1777813 -17.62 0.0002760724    1.247    0.198
       183 -11.9806    155.0984    174.1120   7.4426219793e+01   1.5635610654e+01    0.4066617    0.2110888 -48.00  0.001509028    1.960    0.490
       184  -9.8563     52.1679    175.8953   1.0200795579e+02   3.1410566976e+01    0.3054096    0.1314774  50.59  0.001166647    2.571    0.611
       185 -10.7472    236.4834    175.4005   5.8677713397e+01   2.3964852882e+00     0.209205    0.1658999   3.93 0.0005105911    1.252    0.202
       186 -10.9950    239.3980    172.7918   5.7715528015e+01   2.4111085232e+00    0.2836974    0.1874171 -33.67  0.001690096    1.251    0.201
       187  -9.5740    194.2827    175.5603   6.6286886442e+01   8.7076410050e+00    0.1856439    0.1259719  21.57  0.000946772    1.574    0.365
       188 -10.8503    165.9576    172.0564   7.1540204079e+01   1.4161354472e+01    0.2184425    0.2020232 -11.41 0.0003021157    1.024    0.024
       189 -11.2006    158.9761    171.3668   7.2980603417e+01   1.5527530878e+01    0.3222546    0.1921684 -62.79  0.001292673    2.511    0.602
       190 -11.3940     72.7942    170.8602   9.5477859667e+01   2.9992205807e+01    0.3377933    0.1969279 -72.36  0.001459135    1.893    0.472
       191 -10.9551    245.4944    170.0762   5.6249308602e+01   2.0096413383e+00    0.3491123     0.100494 -38.56  0.001393199    2.851    0.649
       192 -10.7726    134.4135    171.0113   7.8812370315e+01   1.9951841233e+01    0.2312147     0.144306 -48.24   0.00102604    1.618    0.382
       193  -9.8133      7.8412    171.0902   1.1372210720e+02   3.6964714249e+01    0.1687795     0.108883  47.06 0.0009266856    1.507    0.337
       194  -9.3046    211.9773    169.0664   6.1646888621e+01   7.0577345444e+00    0.1603128    0.1343358 -22.25 0.0003715382    1.020    0.019
       195 -10.9559    170.0134    169.3140   7.0086244776e+01   1.4006968977e+01     0.205896    0.1838074  15.09 0.0005980686    1.097    0.088
       196 -12.1122    145.1446    166.7010   7.5298626824e+01   1.8990091977e+01    0.5537047    0.2063777 -48.31  0.001925467    2.692    0.629
       197 -11.3241    128.1213    169.0796   8.0029591582e+01   2.1497809133e+01    0.3178122    0.2291218 -16.78  0.001442366    1.732    0.423
       198 -12.8858    135.2094    166.2315   7.7660171058e+01   2.0882019673e+01    0.6765412    0.3560197  34.95  0.002766614    1.898    0.473
       199 -12.9087     48.3861    159.5920   1.0094882824e+02   3.6029266398e+01    0.6901228    0.3522151  22.54  0.002928925    2.189    0.543
       200 -10.2843     42.4887    164.4841   1.0333560456e+02   3.5434837111e+01    0.2062665    0.1206056 -58.34 -3.864376e-06    1.619    0.382
       201 -10.7855     47.5101    168.9840   1.0245273979e+02   3.3713683951e+01    0.2605732    0.2024106  -7.63  0.001356086    1.636    0.389
       202 -11.2076     45.9796    166.2333   1.0254282076e+02   3.4593811299e+01    0.2809398    0.2223172  37.98   0.00137236    1.277    0.217
       203  -9.6853    241.3081    168.3345   5.6567694101e+01   2.8560869161e+00    0.1291291   0.08363129 -12.08 0.0007041802    1.673    0.402
       204 -12.1343    151.6261    166.2723   7.3656426646e+01   1.7913930133e+01    0.3912824    0.2944584 -38.52  0.001156578    1.305    0.233
       205 -10.8606    152.8473    161.1657   7.2305009760e+01   1.8786449528e+01    0.2121577    0.2064318 -58.77 0.0002448373    1.148    0.129
       206 -12.1919     38.4263    162.9508   1.0433180689e+02   3.6268385728e+01    0.6899245    0.3379819 -56.24  0.003039314    1.923    0.480
       207  -9.4970    201.8045    166.1630   6.2946569645e+01   9.2024693073e+00    0.1855754     0.145178  -3.83 0.0002367312    1.313    0.238
       208 -11.8030     69.4650    155.5138   9.3978557862e+01   3.4371248759e+01    0.3079573    0.2370683  66.51  0.001002137    1.449    0.310
       209 -12.6780     78.9811    162.0129   9.2260951466e+01   3.1333167609e+01    0.5607381    0.3027726 -74.02  0.002179322    2.338    0.572
       210 -12.3593     82.9144    160.3934   9.0832488600e+01   3.1150153188e+01    0.4658157    0.2387752  41.95  0.001440084    1.947    0.486
       211 -12.3705     73.4964    164.1540   9.4216273843e+01   3.1588775939e+01    0.4288278    0.3070821  68.49  0.001768113    1.640    0.390
       212 -10.1384    189.9173    162.6227   6.4532744501e+01   1.1855493803e+01     0.254571     0.187464 -41.69 0.0004620357    1.301    0.231
       213 -10.5128    226.4597    161.9569   5.7722382049e+01   6.0495907536e+00    0.2944099    0.1825523  31.02 0.0004717867    1.832    0.454
       214 -12.0474    123.4488    160.3808   7.9505432461e+01   2.4337342301e+01     0.541939    0.3231353 -20.20  0.001970161    2.765    0.638
       215 -13.2823     92.0816    200.7045   9.4673484290e+01   2.0036750061e+01     2.437931    0.7761926  30.61  0.008352404    3.051    0.672
       216  -9.9626      2.9663    158.6411   1.1410177207e+02   4.0429367180e+01    0.1944686    0.1633985  -2.43 0.0005905632    1.481    0.325
       217 -10.2259      7.7050    153.2650   1.1230175311e+02   4.1465932162e+01    0.3491062    0.2089778  82.73  0.001780103    1.629    0.386
       218 -11.4971     10.5416    159.6431   1.1204668005e+02   3.9636326339e+01    0.3983128    0.2515236 -81.61  0.002128264    1.404    0.288
       219  -9.3878      6.6528    158.2587   1.1303212263e+02   4.0271307831e+01    0.1732442    0.1150368  81.89 0.0001813743    1.405    0.288
       220 -11.3118    207.1729    158.2232   6.0327157946e+01   9.7554083301e+00    0.2885003    0.1904015 -36.19 0.0004970338    1.343    0.256
       221 -11.9881     60.6848    157.0174   9.6873316092e+01   3.5174628960e+01    0.3960249    0.2521037 -33.43  0.001752026    1.951    0.487
       222 -11.2670    247.0654    155.5002   5.3235800876e+01   4.0876644736e+00    0.3118032    0.2363724 -74.74 0.0009339807    2.373    0.579
       223 -11.2390    137.9293    156.5475   7.4966219570e+01   2.2563408001e+01    0.3013064    0.2055435 -32.43 0.0006793048    1.578    0.366
       224 -11.9326     94.0559    148.0438   8.5211932963e+01   3.2473312166e+01    0.3601236    0.2606537  24.16 0.0008526595    1.485    0.327
       225 -12.6690     92.7252    153.6138   8.6708760286e+01   3.1300855463e+01    0.4874492    0.4157339  68.25  0.002189907    1.302    0.232
       226 -13.2983     86.4853    152.2916   8.8293487572e+01   3.2641788244e+01    0.7659227    0.4225714 -57.02   0.00245732    1.787    0.440
       227 -11.2744    173.1495    154.6982   6.6335065364e+01   1.6394273784e+01    0.3150907      0.19549 -37.80 0.0005077274    1.540    0.351
       228 -10.7046    227.1913    153.8985   5.5995624020e+01   7.2959542983e+00    0.3389196    0.2270359   4.50  0.001085005    1.979    0.495
       229 -10.0043    226.8231    149.7889   5.5226618647e+01   8.0489349223e+00     0.198624    0.1669231 -36.48 0.0003070171    1.111    0.100
       230 -11.3762     79.1605    155.0627   9.0989732208e+01   3.3073042890e+01    0.2362084    0.2049396 -28.37 0.0006830303    1.253    0.202
       231 -13.1284     55.9016    151.7389   9.7501032180e+01   3.7159661275e+01     0.668061    0.5108517 -18.32  0.003332676    1.610    0.379
       232 -11.4677     53.0225    148.7498   9.7922768013e+01   3.8297825322e+01    0.3211127    0.2371269  58.78  0.001262513    1.467    0.318
       233  -9.3931    215.5187    165.5176   6.0306757479e+01   7.1234696497e+00    0.1345923    0.1135377 -21.26 8.577939e-05    1.001    0.001
       234 -11.8925     45.1774    151.1059   1.0072233156e+02   3.8607230836e+01    0.4456401    0.2159636  13.23  0.001544781    2.839    0.648
       235 -11.4835     40.4414    148.6017   1.0183741527e+02   3.9784596916e+01    0.3237509    0.1926889  62.15  0.001278354    1.994    0.499
       236 -10.5829     36.1896    151.9516   1.0361046390e+02   3.9354891927e+01    0.2525432    0.1784083  85.74 0.0003805498    1.477    0.323
       237  -9.5754    216.8552    152.8797   5.7516068553e+01   9.1145582808e+00     0.174125    0.1430664 -48.31  0.001023092    1.302    0.232
       238 -10.1068    156.6368    153.6688   6.9810345557e+01   1.9684683800e+01    0.1606157    0.1153955  -5.08  0.000703812    1.809    0.447
       239  -9.8946      2.5802    153.1374   1.1377428343e+02   4.1845235250e+01    0.2045037    0.1609059  50.35 0.0004579954    1.304    0.233
       240 -10.2319    134.3104    152.3086   7.4974818401e+01   2.4199574737e+01    0.1570411    0.1193193  -9.58 0.0004351299    1.620    0.383
       241 -11.4913      3.7141    136.4625   1.1195191963e+02   4.6032107348e+01    0.6005074    0.3023554 -58.97  0.002930055    1.713    0.416
       242 -12.1798     11.3704    139.1150   1.0981078284e+02   4.4846389259e+01    0.5632609    0.3928739  -8.14  0.002525857    1.801    0.445
       243  -9.8378     16.8352    151.3533   1.0941998890e+02   4.1271451175e+01    0.2454544    0.1908225  68.41  0.001402104    1.272    0.214
       244 -10.7891     13.1640    151.1504   1.1049647369e+02   4.1609039642e+01    0.2523099     0.192478  85.33 0.0007362661    1.216    0.178
       245 -11.6445      4.5167    148.0768   1.1278076340e+02   4.3006236608e+01    0.4565211    0.3398284  19.47  0.001495881    1.557    0.358
       246 -11.9921     11.2297    146.0357   1.1057150808e+02   4.3068786108e+01    0.6544639    0.3002799  37.40  0.002428027    2.217    0.549
       247 -12.3457    120.9245    148.3330   7.7641978784e+01   2.7627441722e+01    0.5780702    0.3409916 -64.55  0.002257248    2.198    0.545
       248 -10.1418    114.9763    206.9688   8.9888435105e+01   1.5228630729e+01    0.4170323    0.2575407   2.75  0.001757882    2.466    0.594
       249 -10.1337    234.4340    149.4514   5.3955678135e+01   6.9229515791e+00    0.1294101     0.105788 -29.20 3.214399e-05    1.006    0.006
       250  -9.1142    183.6973    148.7182   6.2830969747e+01   1.5642976562e+01    0.1429822    0.1082274  -4.63 0.0006969139    1.552    0.356
       251 -10.5175     44.9619    147.4968   1.0025945845e+02   3.9576018403e+01    0.1944814    0.1426136  27.22 -0.0001706384    1.451    0.311
       252 -11.2311     71.1118    145.8926   9.1773076176e+01   3.6619053779e+01    0.2408724    0.2031508  72.49 0.0008363776    1.300    0.231
       253  -9.5741    208.5161    144.4859   5.7216166758e+01   1.2003345761e+01    0.1382415    0.1204991 -28.21 -3.709945e-05    1.002    0.002
       254 -13.3638     90.3663    136.9378   8.3997010960e+01   3.5877329193e+01    0.8401407    0.4854499 -68.88  0.003262958    2.193    0.544
       255  -9.7660    142.9922    143.7515   7.0882063314e+01   2.4460039734e+01    0.1898875    0.1307803  38.78            0    1.474    0.322
       256 -10.9174    134.0058    143.0184   7.2990817864e+01   2.6372798970e+01    0.2446255    0.1959538  83.56 0.0008437912    1.692    0.409
       257 -11.3125     41.2433    140.1643   1.0033866680e+02   4.1911283553e+01    0.3079612    0.2096697  58.33  0.001490149    1.646    0.392
       258 -11.5858     20.7987    140.5247   1.0698125067e+02   4.3761140500e+01    0.6644207    0.2346221 -36.26  0.002004933    4.915    0.797
       259 -12.0309    117.7765    138.1057   7.6221120425e+01   3.0637386785e+01     0.457519    0.3032608 -15.51  0.001762721    2.267    0.559
       260 -11.6250     47.5297    137.5176   9.7859076631e+01   4.1899072511e+01    0.3008573    0.2391637  84.45 0.0008182067    1.360    0.264
       261 -11.0821     45.0228    135.0000   9.8268339311e+01   4.2848228208e+01    0.2687241    0.1911998   4.55  0.001303506    1.707    0.414
       262 -12.2055     80.4471    136.4251   8.6979431767e+01   3.7633672531e+01    0.4829724    0.2687367  29.27  0.001976773    1.900    0.474
       263 -11.9012    133.8997    133.8248   7.0881349123e+01   2.8477814755e+01    0.4084406    0.2963539 -13.20  0.001443115    1.816    0.449
       264 -11.0268     61.3622    132.2146   9.2321377560e+01   4.1536902362e+01    0.4210142    0.1461137 -61.23  0.001404646    2.779    0.640
       265 -11.0197     40.0856    134.9842   9.9908936634e+01   4.3396237504e+01    0.2203375    0.2018226 -80.61 0.0007541042    1.054    0.051
       266  -9.7629    233.3018    134.3266   5.1071912021e+01   9.6093929282e+00    0.1290859   0.09263282 -11.48 0.0006548199    1.641    0.391
       267 -10.1740    197.3235    134.6899   5.7107747689e+01   1.5802219442e+01    0.1377972      0.10991 -72.37 0.0003317721    1.652    0.395
       268 -11.7039    126.1106    130.4741   7.2139263660e+01   3.0793453425e+01    0.4755878    0.1915464 -37.60  0.001493565    3.048    0.672
       269 -11.4200    243.5807    130.3988   4.8802232729e+01   8.6176361418e+00    0.2817909    0.2153594  71.58  0.001703354    1.906    0.475
       270 -11.2004    156.2886    130.4934   6.4600957995e+01   2.4675955563e+01    0.4486401    0.2654372  23.09  0.001516786    2.478    0.596
       271 -11.4426      6.8086    127.4722   1.1001212994e+02   4.8157219690e+01    0.5009087    0.2212109 -46.75 0.0003254062    2.197    0.545
       272 -10.8153     11.5171    125.9848   1.0825711144e+02   4.8237537444e+01    0.4016839    0.2119253 -46.00  0.001906133    1.843    0.457
       273 -12.0268     66.5686    134.7661   9.1104391913e+01   4.0150613547e+01    0.5365484      0.24507  29.49  0.002050766    2.285    0.562
       274 -11.9567     98.5412    128.7889   7.9656676015e+01   3.6464355217e+01    0.5048075    0.3161002 -19.70  0.001888734    2.494    0.599
       275 -11.4818     71.8999    129.7550   8.8335583891e+01   4.0660387746e+01    0.3012512    0.2093097  51.10 0.0006363961    1.607    0.378
       276 -11.6665     24.7911    125.6151   1.0366016302e+02   4.7321670841e+01    0.3754749    0.2328797 -77.51  0.001826097    1.562    0.360
       277 -11.6789     20.6383    128.0146   1.0542475885e+02   4.7038501976e+01     0.459966     0.279505  19.83  0.001716606    1.847    0.458
       278  -9.8872     19.3428    124.6921   1.0541091604e+02   4.8005975332e+01    0.2195824    0.1594139  88.53 0.0005168818    1.413    0.292
       279 -11.4474     18.7036    120.5169   1.0504413253e+02   4.9139943845e+01    0.3904913    0.2320629 -57.23  0.001247803    1.454    0.312
       280 -10.7416    107.2723    127.0153   7.6618689886e+01   3.5274452229e+01    0.2285616    0.2049064 -42.05 0.0005783043    1.099    0.090
       281 -10.2332    234.9455    125.7386   4.9070662034e+01   1.0759599166e+01    0.1760849    0.1582224 -33.35 0.0007584624    1.086    0.079
       282 -11.1215     39.3642    124.9009   9.8475673022e+01   4.6114764585e+01    0.2897705    0.1904353  -9.72   0.00109287    1.976    0.494
       283 -12.8624     31.1342    127.3701   1.0173773840e+02   4.6293437711e+01    0.5236607    0.4008672 -53.57  0.002836595    1.202    0.168
       284 -11.1560    248.0883    122.8903   4.6697099191e+01   9.1081415131e+00     0.312069    0.2103697  39.05  0.001864908    1.869    0.465
       285 -10.8831     93.6111    122.2102   7.9613473269e+01   3.8959659956e+01     0.262137     0.235837 -84.19 0.0005243545    1.247    0.198
       286 -10.0654    221.9760    121.9950   5.0200633539e+01   1.3595506780e+01    0.2066361    0.1536685  -8.43  0.000632286    1.685    0.407
       287 -10.9661    207.9720    122.0434   5.2441066059e+01   1.6122262449e+01    0.2072536    0.1824287 -38.11 0.0002930395    1.008    0.008
       288  -9.6042    168.6699    121.9684   5.9814685910e+01   2.3885820833e+01    0.2550806      0.11877 -24.62 0.0007039977    4.534    0.779
       289  -9.9254    157.8077    121.1504   6.1989007793e+01   2.6308034499e+01     0.207254      0.17698  -9.46 0.0004276571    1.307    0.235
       290  -9.9491     79.6281    121.2923   8.3904296786e+01   4.1588705778e+01    0.1595176    0.1186757  66.98 0.0007024803    1.726    0.421
       291 -10.4382     61.8463    121.1773   8.9905625318e+01   4.4318446293e+01    0.2097029    0.1707528 -26.85 0.0004904755    1.312    0.238
       292 -10.7051    129.9666    120.0120   6.8518864450e+01   3.2374541731e+01    0.2299386    0.2261752 -22.28            0    1.010    0.010
       293 -11.6187     51.0123    143.2061   9.7667517937e+01   3.9993648933e+01     0.283055     0.229948 -46.54 0.0009431036    1.229    0.187
       294 -10.4642    236.7339    119.0306   4.7438903876e+01   1.1558500593e+01    0.1788897    0.1389817 -37.54 0.0002084163    1.067    0.063
       295 -10.4601    149.1557    117.4013   6.3051865039e+01   2.8907977862e+01    0.2678755    0.2004631 -33.36 0.0005599735    1.363    0.266
       296 -11.4693     54.4329    117.3702   9.1699181773e+01   4.6292360449e+01    0.4045937    0.2315842 -28.74  0.001354589    2.281    0.562
       297 -11.7326     38.9931    116.9664   9.7175045129e+01   4.8217336984e+01    0.3311691    0.2483946  49.64  0.001311427    1.495    0.331
       298 -12.1873     39.5161    113.0200   9.6228006162e+01   4.9179371489e+01    0.5874008    0.3093643  45.55  0.002497187    2.220    0.550
       299 -10.2591    194.9259    114.1669   5.2885738436e+01   2.0043855892e+01    0.2189864    0.1864902 -72.33  0.001122903    1.333    0.250
       300 -10.0038    112.5000    113.9957   7.1812355962e+01   3.7301333367e+01    0.2256337    0.1321099 -25.88 0.0008097391    2.469    0.595
       301 -12.2793     28.7305    112.8498   1.0018995759e+02   5.0290474068e+01    0.4376869    0.3252319  35.23 0.0004256331    1.472    0.321
       302 -10.3269     10.5262    117.8343   1.0756505157e+02   5.0408277900e+01    0.2596806    0.1554551  42.60  0.001304593    1.868    0.465
       303 -10.0135    210.6733    113.6685   5.0142458884e+01   1.7085864867e+01    0.1361753    0.1043496  -3.31  0.000412037    1.710    0.415
       304 -10.5277     49.1905    112.7987   9.2623646776e+01   4.8123313346e+01    0.2027657    0.1612311 -30.45 0.0003421366    1.296    0.228
       305  -9.7909     19.8917    112.8504   1.0345870816e+02   5.1031151556e+01    0.1825034    0.1556013  66.51 0.0005247075    1.299    0.230
       306 -11.6730     72.0731    111.9534   8.4239241148e+01   4.5125596874e+01    0.4606943    0.2346539  13.85  0.001396976    3.349    0.701
       307 -10.3399      7.5934    110.4172   1.0762925597e+02   5.2491502515e+01    0.3687319    0.1306342 -56.72 0.0009497316    2.193    0.544
       308 -11.3965     96.6957    107.8631   7.4983571773e+01   4.1812545525e+01    0.3721566    0.2330787 -27.92  0.001261872    2.018    0.504
       309  -9.8916     47.5287    108.4980   9.2312123923e+01   4.9419282491e+01    0.1453551    0.1353649 -48.62 0.0004484375    1.018    0.018
       310 -11.7416     71.7642    106.3169   8.2943943152e+01   4.6558279435e+01    0.3814625    0.2196661 -33.35  0.001534992    2.047    0.512
       311  -9.6227    187.7733    106.0074   5.2231137886e+01   2.2974374408e+01     0.194586    0.1103306 -40.11 0.0004667606    1.627    0.385
       312 -11.5617    111.9025    105.2963   6.9657539121e+01   3.9383167811e+01    0.3913993    0.3034396 -11.46 0.0009896936    1.599    0.374
       313  -9.9079    140.3152    105.3144   6.2040913412e+01   3.3322424671e+01    0.1555719    0.1224218   2.18 0.0007035275    1.643    0.391
       314 -10.0724    132.6474    104.1391   6.3648618357e+01   3.5235853253e+01    0.3145143    0.1374262 -51.06  0.001077161    2.569    0.611
       315 -10.1374     10.0609    104.3065   1.0582559894e+02   5.3897823329e+01    0.2594471    0.1819272  48.18  0.001374289    1.660    0.398
       316 -11.4354    100.5051    103.9923   7.2736942922e+01   4.1966321942e+01    0.2903754    0.2289553  67.35  0.001101524    1.580    0.367
       317 -12.6332     91.7560     96.2751   7.3367130837e+01   4.5402165028e+01    0.5281738    0.2805725 -43.45 0.0002402534    1.872    0.466
       318 -10.8623     80.0461    102.9520   7.9169948461e+01   4.5991829976e+01     0.256977    0.1844427 -17.00  0.001140792    1.738    0.425
       319 -10.2250    233.0679    100.8593   4.4142842184e+01   1.5110551806e+01     0.221012    0.1546377 -41.34 0.0005861687    1.192    0.161
       320 -10.7566    120.2751    100.5273   6.5954655837e+01   3.8665356735e+01    0.2828532    0.2461984  66.07 0.0006081031    1.273    0.214
       321 -11.1094     64.7176    100.1523   8.3901780708e+01   4.9147693991e+01    0.2933792    0.1947872  -7.77  0.001066517    2.070    0.517
       322 -10.7458     52.3310     98.5445   8.8168117217e+01   5.1293430282e+01    0.2708141     0.128295 -56.34  0.001087347    1.983    0.496
       323  -9.5240    235.9741     95.0343   4.2552581500e+01   1.5509825225e+01    0.1556503    0.1290185 -46.63 0.0005847561    1.005    0.005
       324 -10.3464    111.4903     93.4619   6.6434552626e+01   4.2029621175e+01    0.2313087    0.1454159  34.71 5.314636e-05    1.699    0.411
       325  -9.7669    183.9784     90.5149   4.9121130340e+01   2.6527571674e+01    0.2087122    0.1784341 -44.29 1.001122e-05    1.095    0.087
       326 -10.2325    174.5560     91.5267   5.1061383425e+01   2.8402472351e+01      0.14431    0.1343596 -57.73 6.510444e-05    1.022    0.021
       327 -10.5240     18.5048    103.6850   1.0247135370e+02   5.3480833180e+01    0.3046504    0.2004997  69.16   0.00149432    1.940    0.485
       328 -10.1280    152.4367     88.8155   5.4772580606e+01   3.3848514406e+01    0.2027207    0.1433207 -27.39 0.0009351287    1.585    0.369
       329 -11.3550     57.2414     89.0142   8.3751063525e+01   5.2898839188e+01    0.3225959    0.2052886  18.06  0.001471772    1.763    0.433
       330 -11.5583    107.7558     87.1906   6.5676220200e+01   4.4123527119e+01    0.3737206    0.2120419  47.23 0.0008066685    1.774    0.436
       331 -10.8016     74.4230     87.2041   7.6712607724e+01   5.0588827767e+01    0.2105473    0.1437017 -60.09 0.0009503354    1.692    0.409
       332 -10.1625     48.5319     85.5391   8.6283596662e+01   5.4906022145e+01    0.1432051     0.131557 -28.76 3.601791e-05    1.015    0.015
       333  -9.5901     78.5248     84.5018   7.4415165862e+01   5.0461339027e+01    0.1504718    0.1403517  -8.97 0.0003199584    1.028    0.027
       334 -10.7421    120.0030     82.0015   6.0640170227e+01   4.2487837824e+01    0.2341533    0.2270424  -5.22 0.0005178175    1.046    0.044
       335  -9.9187     67.6834     82.3010   7.7746240413e+01   5.2813605243e+01    0.1420684    0.1184021  74.11 0.0003708751    1.617    0.382
       336 -10.8591     71.3574     80.8217   7.5903087916e+01   5.2519959874e+01     0.217607    0.1282953 -37.85 0.0004594382    1.722    0.419
       337 -11.5898     45.3090     80.1227   8.6110419141e+01   5.6574925154e+01    0.3412629    0.2214029 -27.05  0.001228256    1.652    0.395
       338  -9.7306    129.8283     78.3824   5.7013336007e+01   4.0945731998e+01    0.2162561     0.135153  41.15 0.0006718925    1.665    0.399
       339  -9.4482     11.5473     78.4205   1.0056550804e+02   6.0195715619e+01    0.1339919    0.1101173 -42.65 6.222494e-05    1.040    0.039
       340  -9.6605    155.5250     77.0120   5.0876735163e+01   3.5248904757e+01    0.2138076    0.1404978 -40.17   0.00038236    1.503    0.335
       341 -11.4120     56.4093     74.5835   7.9811245943e+01   5.6276750529e+01    0.3532898    0.2406034 -88.71 0.0006681003    3.036    0.671
       342 -10.0297     36.3085     75.3209   8.8647777076e+01   5.8747834958e+01    0.1480858    0.0940514 -27.04 0.0002614395    1.643    0.391
       343  -9.8600    128.6066     73.1820   5.5745791091e+01   4.2165193631e+01    0.2101859    0.1426718 -24.08 0.0008125814    1.751    0.429
       344 -10.3393    147.6693     71.5035   5.0929691550e+01   3.8014446722e+01    0.2585382    0.1341999 -37.44  0.001076584    1.945    0.486
       345 -10.7347    114.2503     71.3683   5.8906088914e+01   4.5763034038e+01    0.2663881    0.2331021 -61.46 0.0004607569    1.267    0.211
       346 -11.3494     68.1435     70.2416   7.3710398873e+01   5.5299290585e+01    0.2622838      0.19727 -76.19  0.001050107    2.060    0.515
       347 -10.0168     33.7079     70.9314   8.8559675995e+01   6.0027343556e+01    0.1892391    0.1670086 -36.47  0.000507249    1.061    0.057
       348 -10.4065     88.4285     69.7952   6.6236409549e+01   5.1584733653e+01    0.2102352    0.1373976 -27.59 0.0009266058    1.717    0.417
       349 -10.2605    179.0746     67.9321   4.4223912324e+01   3.1336265085e+01    0.2027818    0.1860108 -68.87 0.0003339875    1.007    0.007
       350 -10.8963     58.5066     67.9800   7.6798173971e+01   5.7352947313e+01     0.215672    0.1350809 -45.38 0.0006402525    1.566    0.361
       351 -10.1416     24.5223     67.5205   9.1863446121e+01   6.1715996894e+01    0.1351242    0.1162403 -31.80 0.0003510538    1.007    0.007
       352 -11.3007     63.2952     65.1215   7.3874409427e+01   5.7155068662e+01    0.2653471    0.2027053  38.44 0.0004887491    1.345    0.257
       353  -9.7566    124.6575     64.7314   5.4096650432e+01   4.4538336799e+01    0.1488264    0.1110387  25.53 0.0003922281    1.607    0.378
       354 -10.0290     93.2542     64.0033   6.2684089310e+01   5.1668650984e+01    0.2040719    0.1915912 -15.73 0.0004885155    1.074    0.069
       355 -11.5666     52.7961     62.2224   7.7233726012e+01   5.9406978508e+01    0.4413724     0.264672  62.07  0.001632916    3.741    0.733
       356 -10.1518     48.0410     63.7665   7.9838578188e+01   5.9784798268e+01    0.1785911    0.1118997  29.36 0.0004562323    1.601    0.376
       357  -9.4796     27.6831     63.6801   8.9232109136e+01   6.2262198348e+01    0.1445611   0.08803204 -26.72 0.0007041049    1.659    0.397
       358 -10.0674     70.2688     62.3472   7.0164391474e+01   5.6482330200e+01    0.2013804     0.128383  45.35 0.0009437064    1.649    0.394
       359 -10.8113    103.9440     59.6031   5.7923431442e+01   5.0122144474e+01    0.2620496    0.2147347 -36.48 0.0003510625    1.273    0.215
       360 -10.2640     92.6152     59.0185   6.1151170104e+01   5.2682241788e+01    0.2603183    0.2000675  61.75 0.0006278364    1.496    0.331
       361  -9.6034    118.8545     56.6247   5.2922795901e+01   4.7208298923e+01    0.2020841    0.1337635  65.71 0.0004813195    1.653    0.395
       362 -10.2056     30.4996     55.5221   8.5241305824e+01   6.3697501565e+01    0.1357307    0.1139326 -20.42 -5.286459e-05    1.027    0.026
       363 -10.3054    156.2454     52.7053   4.3899368414e+01   3.8923984111e+01    0.1850086    0.1621803  30.94  0.001045538    1.333    0.250
       364 -10.0158      2.1728     51.8495   9.8889984127e+01   6.6795795654e+01    0.1666854    0.1550259 -45.09 0.0005526404    1.200    0.167
       365 -10.2546    110.9910     49.0546   5.2370751210e+01   5.0194004176e+01    0.2106047    0.1995102  41.66 0.0003862352    1.018    0.018
       366 -10.4336    106.7910     49.0749   5.3484430877e+01   5.1156164279e+01    0.2018517    0.1896828 -84.07 0.0003164613    1.184    0.156
       367  -9.1003    165.2757     46.6938   4.0742862850e+01   3.7629466541e+01    0.1383726   0.09621222 -67.46 0.0002424785    1.547    0.354
       368 -10.9683    111.1138     43.9923   5.0585310279e+01   5.0898165890e+01    0.3197305    0.2087143 -32.82 0.0008501847    1.642    0.391
       369  -9.8004    100.8282     42.7931   5.2865146909e+01   5.3430229570e+01    0.1892043    0.1660983 -82.65 0.0004535283    1.369    0.270
       370 -10.7027     36.1195     42.8323   7.7731221344e+01   6.5485399968e+01    0.1854403    0.1775569 -12.15 0.0006433338    1.266    0.210
       371  -9.4718    206.3751     41.7933   3.4275542810e+01   2.9029420077e+01    0.1594622    0.1151727 -29.21 0.0003777091    1.547    0.354
       372  -9.7750      8.4925     43.5015   9.2908059323e+01   6.8163251316e+01    0.1260497    0.1030142 -28.45 0.0008105553    1.021    0.021
       373 -10.0222    187.9740     40.3174   3.5990036044e+01   3.3240966313e+01    0.1782108    0.1513996 -88.67 0.0003693649    1.082    0.076
       374  -9.2214    106.4171     38.2014   4.9720405274e+01   5.2780235293e+01    0.1803764    0.1285288 -45.02 0.0003868957    1.573    0.364
       375  -8.9963     59.6788     36.6627   6.4352546765e+01   6.2813254637e+01    0.1419862    0.0961481   7.57 0.0007050245    1.711    0.416
       376  -9.4953    187.9982     35.4935   3.4795962907e+01   3.3841491656e+01     0.179934    0.1174582  73.20 0.0009904782    1.466    0.318
       377  -9.9705    192.1663     34.1927   3.4010709323e+01   3.3070529646e+01    0.1777332    0.1656676  80.44 0.0004197293    1.184    0.155
       378 -10.2880    120.9861     33.3464   4.4647668235e+01   4.9962980244e+01    0.3051929    0.1962769 -73.25  0.001397945    2.206    0.547
       379  -8.9414     82.6592     30.6609   5.3532142983e+01   5.9080201865e+01    0.1462372   0.09469582  23.36 -0.000215702    1.767    0.434
       380 -11.2200    199.2741     28.8904   3.2015062032e+01   3.2144209763e+01    0.2106368    0.1767611 -83.17 0.0002188844    1.064    0.060
       381  -9.1847     67.4761     24.5127   5.6018140978e+01   6.3007104986e+01    0.1314794    0.1155907  28.16 8.570849e-05    1.044    0.043
       382  -9.4320     45.5214     24.4756   6.5029727059e+01   6.7052347623e+01    0.1307515    0.1076022  10.85 0.0006459645    1.027    0.026
       383  -9.6429     28.3347     21.0132   7.2091754586e+01   7.0152630007e+01    0.3230241    0.1253298 -27.76  0.001283675    3.317    0.699
       384  -9.5007    114.6418     20.8317   4.1644370056e+01   5.2891538694e+01    0.1686345    0.1194099 -40.89 0.0003162581    1.568    0.362
       385  -9.2011     36.1223     21.3765   6.8110677525e+01   6.8982494982e+01     0.171823    0.1082559  43.10 0.0009400843    1.758    0.431
       386 -10.5448    169.5351    248.3256   8.3850020489e+01  -2.2757091823e-01    0.2984911     0.183139   7.25  0.001378216    1.695    0.410
       387  -9.3494     50.2716     20.3299   6.0893754460e+01   6.6790408082e+01    0.1303953   0.08721586  10.45 0.0002471063    1.587    0.370
       388  -9.8795     66.1466     18.9212   5.3969592708e+01   6.3940295717e+01    0.1792234    0.1669194  37.14  0.000365211    1.172    0.147
       389  -9.4283     42.5300     19.4481   6.3982663590e+01   6.8233425484e+01    0.1274257    0.1052569  13.17 8.397915e-05    1.012    0.012
       390  -9.1857     15.4374     14.4690   7.6426568730e+01   7.2743076616e+01    0.1217836   0.09408143  -5.70 0.0001850263    1.020    0.020
       391  -9.2220      8.5346     13.7716   8.0605557841e+01   7.3578360882e+01    0.1439578    0.1077114 -45.90  0.000935665    1.601    0.375
       392  -9.8403    140.6676    246.2164   8.9586954225e+01   3.9776624782e+00    0.4052887    0.2516443 -77.06  0.001825779    3.581    0.721
       393 -10.0289    105.8375    248.7290   9.7443006143e+01   8.2562981392e+00    0.3059167    0.1645093  25.26  0.001553273    1.745    0.427
       394  -9.0865    177.6451    248.2931   8.2209801603e+01  -1.2713687099e+00    0.1139427   0.08950955  44.87 0.0007030573    1.686    0.407
