#   1 NUMBER                 Running object number                                     
#   2 MAG_AUTO               Kron-like elliptical aperture magnitude                    [mag]
#   3 X_IMAGE                Object position along x                                    [pixel]
#   4 Y_IMAGE                Object position along y                                    [pixel]
#   5 X_WORLD                Barycenter position along world x axis                     [deg]
#   6 Y_WORLD                Barycenter position along world y axis                     [deg]
#   7 A_WORLD                Profile RMS along major axis (world units)                 [deg]
#   8 B_WORLD                Profile RMS along minor axis (world units)                 [deg]
#   9 THETA_WORLD            Position angle (CCW/world-x)                               [deg]
#  10 FWHM_WORLD             FWHM assuming a gaussian core                              [deg]
#  11 ELONGATION             A_IMAGE/B_IMAGE                                           
#  12 ELLIPTICITY            1 - B_IMAGE/A_IMAGE                                       
         1 -10.8812     23.8479     32.5487   1.2972840221e+02   6.9755240599e+01     1.543979     0.451029 -47.22  0.005332803    2.752    0.637
         2 -10.1745      5.0149     42.5250   1.4346394410e+02   6.8321960410e+01     1.183302    0.3852596 -86.26  0.004387222    3.512    0.715
         3 -10.4116      7.1620     28.4287   1.3940853919e+02   7.1614631917e+01    0.5624719    0.3398314  60.42  0.001087862    2.192    0.544
         4  -9.9399     60.6378     31.6954   1.0810814696e+02   6.5430786601e+01     1.022489    0.4060122 -38.58  0.003845281    2.562    0.610
         5  -9.6734     63.2164     21.4420   1.0167055082e+02   6.6879149078e+01    0.4595203    0.3351932 -62.06  0.001575832    2.036    0.509
         6 -10.0899     64.5122     13.4628   9.6565104252e+01   6.7938920022e+01    0.4195822    0.3178805  13.01 0.0007711115    1.345    0.256
         7 -10.1922    248.0034     48.9069   7.0726147028e+01   1.7670854714e+01    0.3810882    0.2673596 -13.43 0.0007873639    1.441    0.306
         8 -11.2944     36.2970     38.9277   1.2440548821e+02   6.7183939130e+01    0.6771877    0.4612766 -73.15  0.003494868    1.715    0.417
         9 -10.3857     90.0172     37.8951   9.8063053487e+01   5.8498744938e+01     1.296586    0.5100786  33.22  0.003544679    4.107    0.756
        10  -8.7882    104.4012     15.2640   8.2642040048e+01   5.8450034448e+01    0.5230859    0.2778021  -1.14  0.001909587    2.833    0.647
        11  -8.7110    101.9143      7.9608   7.9713172548e+01   5.9930736096e+01    0.4440127    0.2359229 -34.46   0.00124217    1.993    0.498
        12  -8.3884    104.1800      2.1279   7.6171878221e+01   5.9918435153e+01    0.3505839    0.2197257  36.11  0.001062781    1.578    0.366
        13  -9.4890    100.9602     31.3658   9.1268401040e+01   5.7059031557e+01    0.8415756     0.270623 -31.30  0.002459942    3.316    0.698
        14  -9.1988    103.0392     21.4128   8.5994312321e+01   5.8005641422e+01    0.5714913    0.2332797 -37.66  0.001560301    2.555    0.609
        15  -8.5623     45.3866     15.7462   1.0840590873e+02   7.0903181710e+01    0.3157018    0.2219411  -7.31  0.001190592    1.557    0.358
        16 -10.0900     46.2667     29.7612   1.1497767734e+02   6.8015716314e+01    0.5381564    0.3048389 -57.90 0.0009917027    2.001    0.500
        17  -9.2183     47.4399     19.0460   1.0898698822e+02   6.9979935016e+01    0.7065514    0.3156053 -26.95  0.002523111    3.363    0.703
        18 -10.0008     53.0267     13.1470   1.0238352119e+02   7.0125836253e+01     1.040853    0.5887374   2.30  0.003977467    3.200    0.687
        19  -9.2357     96.0773     15.1597   8.5081898164e+01   6.0574593169e+01     0.669613    0.3201696 -12.81  0.001947494    2.856    0.650
        20  -9.0903    119.4878     17.4769   7.9745644148e+01   5.4196727376e+01    0.5737057    0.3068799  11.26  0.002007387    3.031    0.670
        21  -8.8134     72.0587      8.2961   9.0079822865e+01   6.7100338651e+01    0.2477392    0.1980022  12.65 0.0003406314    1.212    0.175
        22  -9.8867     73.3809     18.5759   9.5373017179e+01   6.5334546178e+01    0.8578216    0.2616056 -42.06  0.002735235    3.744    0.733
        23  -8.2495     74.6292     11.1728   9.0692338371e+01   6.6149272845e+01    0.3964551    0.2483517 -17.21  0.001300708    1.710    0.415
        24  -8.4639     76.5458      6.4808   8.7176895491e+01   6.6327356142e+01     0.304585    0.2235025 -28.15  0.001069258    1.411    0.291
        25  -8.8514     78.8100      3.1218   8.4325305600e+01   6.6196082736e+01    0.3094507    0.2608835 -42.71 0.0008610786    1.395    0.283
        26  -9.6343     10.8778     18.2891   1.3391325461e+02   7.3800710330e+01     0.813604    0.2107143 -33.34   0.00268472    4.634    0.784
        27  -9.9049     19.6539      9.5692   1.2335127605e+02   7.5129659378e+01    0.7000815    0.3481113  34.40  0.002833948    2.346    0.574
        28  -9.7504     18.0525      3.8878   1.2161918345e+02   7.6415904043e+01     0.523201     0.290718  38.26  0.002361337    2.285    0.562
        29  -9.4029      2.1491     14.4801   1.3947693586e+02   7.4973189793e+01    0.5801291    0.2226512 -82.61  0.002423416    3.110    0.678
        30  -9.9154      6.0628      5.4546   1.3308500875e+02   7.6844743554e+01    0.4883832    0.2165669 -22.55 0.0008475375    2.344    0.573
        31  -9.3947      3.4876      2.6164   1.3427913421e+02   7.7554933519e+01    0.3654697    0.2094004 -25.44  0.001642684    1.613    0.380
        32  -8.7911     27.6857     17.0066   1.2092667487e+02   7.2860121986e+01     0.294102    0.1768494 -47.67  0.001518914    1.448    0.309
        33 -10.6390     37.3444     10.0404   1.1029874223e+02   7.3099770553e+01     0.924805    0.3338152 -50.61  0.002582402    3.211    0.689
        34  -9.2331     31.2264     11.9949   1.1576429895e+02   7.3497536744e+01    0.2720895     0.178809  30.30   0.00093556    1.628    0.386
        35  -9.5371    113.8499     10.1301   7.7739545228e+01   5.6539759522e+01    0.3807487     0.260325  46.08 0.0002827554    1.352    0.260
        36  -8.4184     85.3205      6.0975   8.3761119523e+01   6.4307859787e+01    0.4427269    0.2702946  24.47  0.001995596    1.828    0.453
        37  -8.9716     89.0243      2.7479   8.0675848534e+01   6.3760876200e+01    0.3875809    0.3795371 -50.77  0.001398484    1.186    0.157
        38  -9.5146     85.2173     13.1408   8.7694123561e+01   6.3468928376e+01     0.497784    0.3121002 -55.53  0.001550924    2.358    0.576
        39  -7.9709     80.5975     12.8229   8.9242247291e+01   6.4584443595e+01    0.3207407    0.1603164 -41.34    0.0008386    2.281    0.562
        40  -8.5223    125.0482     13.0566   7.6548013618e+01   5.3181022521e+01    0.2798302     0.226797 -10.04 0.0006156844    1.335    0.251
        41  -8.7298    121.0183      6.0329   7.4275165360e+01   5.5000098262e+01    0.4168076    0.2568067 -61.52  0.001769224    2.105    0.525
        42  -9.0274    126.2774      9.0126   7.4534713534e+01   5.3260326786e+01    0.3270366    0.2699323   1.47 0.0009954046    1.322    0.244
        43  -9.0048    125.6456      5.1451   7.2966709800e+01   5.3805600183e+01    0.4285697    0.2600892   1.32  0.001856645    2.015    0.504
        44  -8.8133    139.7842     11.2111   7.2942607828e+01   4.9280863039e+01      0.63446    0.2853464 -71.50  0.001726608    4.989    0.800
        45  -9.0245    133.2094     10.8467   7.3978661366e+01   5.1152799878e+01    0.4726758    0.2033457 -42.51  0.001721507    2.574    0.612
        46  -8.7202    112.2646     15.4962   8.0633026020e+01   5.6363118474e+01    0.2986331    0.2193895 -35.95 0.0005853673    1.456    0.313
        47  -8.6591     97.6539      5.7094   7.9733012892e+01   6.1270038985e+01    0.3111857    0.2095955  30.46 0.0009609938    1.506    0.336
        48  -8.6016     95.7397      2.9794   7.8825515206e+01   6.2039076511e+01    0.3176763    0.2466978   8.23 0.0009552167    1.345    0.257
        49  -9.1084    111.0083      4.5030   7.5729432111e+01   5.7870850182e+01    0.3221129    0.2047715   6.63  0.001440731    1.871    0.466
        50  -9.2071    134.7240      2.0860   7.0063506857e+01   5.1544117494e+01    0.4421034    0.3089494  38.69  0.002142198    1.456    0.313
        51  -7.6978    143.0103      5.0279   6.9951509391e+01   4.8961847860e+01     0.236127    0.1613035 -56.44 0.0004420225    1.621    0.383
        52  -9.0151    115.2245      4.0457   7.4575372092e+01   5.6772018237e+01    0.3929589    0.2197342 -37.17  0.001133705    1.933    0.483
        53  -9.7713     63.7580      2.9375   9.0417684141e+01   6.9573679892e+01    0.3961658    0.2771697 -54.52  0.001592311    2.111    0.526
        54  -8.6787    236.5483      1.8230   6.0020228078e+01   2.4944926292e+01    0.2486007    0.1747279  86.66 0.0008744141    1.449    0.310
        55 -10.0769     92.0314    113.0910   1.2104152998e+02   4.1608717373e+01    0.6499094    0.4212207  68.71  0.001758357    2.113    0.527
        56  -7.8982    249.1553    250.1638   1.1019416091e+02  -4.7984049741e+00    0.1333909   0.09145973  22.88  0.001073465    1.333    0.250
        57  -8.8067     91.8828    104.2014   1.1910604122e+02   4.3725174827e+01    0.4977101    0.3472985  -6.75   0.00164388    2.226    0.551
        58  -9.2457    135.2018    122.4993   1.1056916419e+02   3.1335015682e+01    0.3923457    0.3023496 -35.50  0.001384309    1.402    0.287
        59  -7.2182    167.2900    114.2936   1.0068640782e+02   2.6083126125e+01    0.1517231    0.1133591  10.75 0.0002194369    1.550    0.355
        60  -9.0680     68.7072    102.9511   1.2675586765e+02   4.7688771703e+01    0.2687195     0.244603 -18.06  0.001220013    1.241    0.194
        61 -10.1233     65.7180    110.4570   1.2922039879e+02   4.6255967984e+01    0.7627542    0.4441123  86.98  0.001935239    2.398    0.583
        62  -9.3381     59.8732    109.7255   1.3109673168e+02   4.7194399194e+01    0.6116365    0.3491147  68.77  0.002601688    2.306    0.566
        63 -10.8533     20.2526    100.1097   1.4385535701e+02   5.3374543246e+01     1.185357    0.4620475  71.94   0.00447077    3.348    0.701
        64  -8.4013     14.0564    104.9959   1.4647616099e+02   5.2559319222e+01    0.2461312    0.1482678 -47.81 0.0009545928    1.796    0.443
        65  -9.8737     19.9995     84.3288   1.4220404566e+02   5.7320034976e+01    0.7954198    0.2353978 -70.46  0.002856233    2.710    0.631
        66 -10.2143     37.3634     80.7950   1.3451536977e+02   5.6886058528e+01     1.131847    0.5052053 -20.02  0.003497674    5.224    0.809
        67 -10.5104     25.7947     78.0681   1.3894031064e+02   5.8506660031e+01    0.8955371    0.4326692  83.17  0.003740534    2.620    0.618
        68 -10.2914     32.6183     63.9150   1.3326906727e+02   6.1520211588e+01     1.179657      0.47633 -39.30  0.003624675    2.857    0.650
        69  -8.5529    158.8359    111.4729   1.0193816821e+02   2.8458173552e+01     0.373361    0.2025785 -37.04 0.0009695668    1.931    0.482
        70  -9.2581     35.8301    111.0635   1.3958555597e+02   4.9448060341e+01    0.3759197    0.1848084  66.25  0.001623629    2.401    0.583
        71  -9.5428     13.8961    111.0522   1.4699299772e+02   5.1096650489e+01     0.441623    0.1910308  73.21  0.001613005    2.400    0.583
        72  -9.6153    242.2586    106.0043   8.5015066638e+01   1.1826095322e+01    0.4058593    0.1646936 -37.45  0.001374507    2.355    0.575
        73  -9.9994    139.3162    103.6672   1.0481004264e+02   3.4298418424e+01    0.7519534    0.3530221 -51.31   0.00225742    2.590    0.614
        74  -8.5586     40.0283    107.0410   1.3761413524e+02   5.0055351518e+01     0.261232    0.1494196  73.38 0.0005237089    2.007    0.502
        75 -10.9082     44.2492    102.3551   1.3543137138e+02   5.0806256478e+01    0.9257954     0.420293  57.12  0.003445336    2.769    0.639
        76  -9.4787      6.0293    104.3213   1.4917235977e+02   5.3154499427e+01    0.4738807    0.2949449  44.09  0.002439264    1.589    0.371
        77  -7.5828    189.0691    105.4748   9.3838278643e+01   2.2791542448e+01    0.2098463     0.139657  43.99 0.0003851884    1.467    0.318
        78  -9.7863    149.3733    102.6024   1.0193533813e+02   3.2258454376e+01    0.6923825    0.2951163 -42.63  0.001998102    2.455    0.593
        79  -8.6622     36.0345    105.2820   1.3879434983e+02   5.0863143069e+01     0.181805    0.1700376  69.67 0.0005071094    1.071    0.066
        80  -8.0544    165.8470    104.0640   9.8393711759e+01   2.8246833908e+01    0.2217017     0.207336 -65.29 0.0004600812    1.251    0.201
        81  -7.9190     73.6072    102.3969   1.2492000045e+02   4.7115781905e+01    0.2782087     0.141249 -65.84  0.001016174    2.121    0.529
        82  -8.8318    159.1231    101.1842   9.9184508971e+01   3.0306228050e+01     0.415267    0.2583194 -54.25  0.001019738    2.060    0.515
        83  -9.4985     81.5370     99.4362   1.2150139350e+02   4.6602120494e+01    0.6759796    0.3135239 -58.92  0.001200458    2.216    0.549
        84  -9.3921     94.2358     97.2876   1.1664948185e+02   4.4927327512e+01     0.325647    0.2663113 -77.20 0.0006827329    1.398    0.285
        85  -8.5370     95.9713     90.8931   1.1439713327e+02   4.6090053937e+01    0.4861044    0.3167594  -7.42  0.001811791    2.796    0.642
        86 -10.3052     62.9156     95.8984   1.2741068733e+02   5.0223215042e+01    0.5992662    0.3602906  83.31  0.001568628    2.432    0.589
        87  -8.7524     65.1638     85.7570   1.2430773621e+02   5.2418436040e+01     0.665344    0.3708354  -0.22  0.002253724    3.821    0.738
        88  -8.8965    241.4042     95.4335   8.2684881579e+01   1.3338681749e+01    0.3811945     0.204883  16.14  0.001560998    2.978    0.664
        89  -7.5469    171.2560     95.6511   9.4935709360e+01   2.8490855671e+01    0.1492324    0.1199739 -64.80 0.0002479365    1.597    0.374
        90  -8.2133    164.7180     94.3088   9.6014948329e+01   3.0257530738e+01    0.3394643    0.1897776 -49.43 0.0008679271    2.142    0.533
        91  -9.2488    138.5692     92.5574   1.0195537175e+02   3.6693478441e+01    0.4084321    0.3620723 -39.77  0.001195664    1.173    0.148
        92  -8.1513    139.2940     87.7023   1.0035708957e+02   3.7484090602e+01    0.3199233    0.1991182  24.75  0.001173564    2.140    0.533
        93  -9.2470    140.4353     82.2702   9.8432706212e+01   3.8267948263e+01    0.5726989    0.3195005 -34.48  0.001299757    1.899    0.473
        94  -8.8979    139.9234     75.4703   9.6458732416e+01   3.9681931922e+01    0.5933638     0.304549 -37.91  0.001447257    1.997    0.499
        95 -10.2363      4.4237     90.0071   1.4879614039e+02   5.6706033736e+01    0.7076246    0.2845485  72.33  0.002183979    2.612    0.617
        96  -9.3728      5.8440     78.9026   1.4736960901e+02   5.9376748286e+01     0.745513    0.2271526 -38.23  0.002717228    4.176    0.761
        97  -9.7150     15.7776     71.1734   1.4229561568e+02   6.0846850221e+01    0.5889369    0.2395446 -55.93  0.001089755    2.071    0.517
        98  -9.0611    218.4994    249.6516   1.1504669471e+02  -1.1368240430e+00    0.1923631   0.07131632  33.46   0.00108849    1.937    0.484
        99  -9.7244     16.9581     60.5986   1.4016968131e+02   6.3413943546e+01    0.8408371    0.2606885 -69.84  0.003336451    2.596    0.615
       100 -10.8087     21.8990     53.6848   1.3639751531e+02   6.4833695221e+01    0.9216137    0.4323501  79.06  0.002924941    3.617    0.724
       101  -9.8462     14.8331     44.3939   1.3826402091e+02   6.7494053385e+01    0.5083159    0.2516357 -43.03  0.001075243    1.834    0.455
       102  -8.6517      9.9586     47.3569   1.4152885146e+02   6.6986995004e+01    0.2808212    0.1861319 -74.52  0.000823074    1.316    0.240
       103  -8.8495    207.0081    249.7608   1.1699598723e+02   2.8400726636e-01    0.1491478   0.06451891  32.62 0.0008885318    1.635    0.388
       104  -9.2582    199.3512    248.4660   1.1814851951e+02   1.3852375440e+00    0.1748447    0.1325009 -20.07  0.001372951    1.617    0.381
       105  -8.8532    157.6886     91.3216   9.6800374428e+01   3.2455680280e+01    0.3738247    0.1996806 -42.30  0.001249104    1.954    0.488
       106  -9.2172    109.5829     90.4626   1.0981349925e+02   4.3498029112e+01    0.4650252    0.2765491  23.48  0.001766404    2.307    0.567
       107  -8.6877    150.4985     88.9736   9.7861246441e+01   3.4596399233e+01    0.3703917    0.2206524 -41.84  0.001113728    1.742    0.426
       108 -10.5616     55.1458     71.0154   1.2473389026e+02   5.7379841040e+01    0.6494447    0.4504912  59.33  0.001241827    1.765    0.433
       109  -9.1559     55.1726     62.8640   1.2245959665e+02   5.9348101278e+01    0.4417708    0.2976257   8.80  0.001407839    1.832    0.454
       110 -10.0530     62.9104     60.7604   1.1833192123e+02   5.8758199480e+01    0.7696705    0.3187089  28.45  0.002836696    2.755    0.637
       111 -10.2505     47.7143     84.4100   1.3094745028e+02   5.4939073655e+01    0.6645877    0.4162813 -85.92  0.001609084    1.846    0.458
       112  -9.1493     48.7200     77.2824   1.2901393260e+02   5.6606947821e+01    0.6076452    0.3428248 -21.14  0.002463139    2.752    0.637
       113 -10.2149     85.2207     86.5683   1.1698900679e+02   4.9051997005e+01    0.5343679    0.3969695  70.72  0.001064639    1.723    0.420
       114  -9.4311     87.6819     78.5930   1.1384303349e+02   5.0470121471e+01    0.5965139    0.3715923  17.34  0.001662257    2.263    0.558
       115  -9.8360     81.5893     72.4483   1.1427787625e+02   5.2986285690e+01     0.476868     0.342135 -86.03 0.0008977898    2.068    0.516
       116  -9.1834     83.4552     64.6028   1.1102253206e+02   5.4422164468e+01    0.6006785    0.3866911 -14.73  0.002367511    2.449    0.592
       117  -8.4779    163.6554     86.9799   9.4186325176e+01   3.1810447167e+01    0.2836838    0.1878311 -37.30 0.0005653001    1.535    0.349
       118 -10.3229    103.9314     82.7059   1.0939814650e+02   4.6375307158e+01    0.5695687    0.3579232 -61.28 0.0007662358    1.971    0.493
       119  -7.2057    209.6715     84.2627   8.4633470291e+01   2.1445686886e+01    0.1365482    0.1110279 -67.45 0.0002262357    1.568    0.362
       120  -8.6451    157.8131     83.5084   9.4510468840e+01   3.3840049238e+01    0.3356372    0.2189241 -39.40  0.001015551    1.570    0.363
       121  -7.7551    170.4579     83.0437   9.1565675537e+01   3.0845286973e+01    0.2347069    0.1502741 -33.88 0.0007795959    1.570    0.363
       122  -7.6847     63.3905     82.1835   1.2414198897e+02   5.3543773512e+01     0.206898    0.1355592 -74.17 0.0009051817    1.728    0.421
       123  -8.5759    149.8481     80.2195   9.5424588538e+01   3.6376745762e+01    0.4379225    0.2116469 -39.37  0.001612231    2.109    0.526
       124  -8.7544    119.0048     80.4822   1.0393390085e+02   4.3610293543e+01    0.3609191    0.2481466 -55.91 0.0005753299    1.681    0.405
       125  -8.0267    119.7935     76.1864   1.0234534327e+02   4.4316741546e+01    0.2761833    0.2476922   7.35 0.0006580242    1.186    0.157
       126  -9.0783     74.1724     79.3178   1.1915312417e+02   5.2625417266e+01    0.6364227    0.2524281 -56.26  0.001800482    2.518    0.603
       127  -7.9743     68.8168     79.6046   1.2133165672e+02   5.3387442659e+01    0.3092757    0.1639356 -44.45  0.001288716    1.937    0.484
       128  -8.2251    184.3071     78.2325   8.7409991648e+01   2.8266906245e+01    0.2685413    0.2235748  10.83 0.0006943385    1.289    0.224
       129  -8.4988    166.2681     78.7660   9.1209787894e+01   3.2595741949e+01     0.300327    0.2117695 -23.37 0.0005907348    1.513    0.339
       130  -8.2873    157.0491     76.5245   9.2589484760e+01   3.5264601193e+01     0.291779    0.2076826 -48.89 0.0005650416    1.550    0.355
       131  -9.9951     34.5472     90.8815   1.3733308410e+02   5.4598760987e+01    0.6187003    0.2895659  87.48  0.001700122    2.779    0.640
       132  -8.2610    130.3686     64.2663   9.5330732109e+01   4.4116766510e+01    0.4423221    0.1593134 -35.68  0.001044235    2.912    0.657
       133  -9.4084    127.2621     75.2216   9.9840706685e+01   4.2774171396e+01    0.4031888    0.2938293 -57.33 0.0006546195    1.625    0.384
       134  -8.7135    128.9855     69.1994   9.7382597231e+01   4.3530167221e+01    0.5165377    0.2836507  25.16  0.001691339    3.043    0.671
       135  -8.8347    169.2788     71.6690   8.8443875151e+01   3.3027205150e+01    0.5677716    0.2150217 -26.02  0.001746995    3.319    0.699
       136  -8.9677    115.1433     72.5025   1.0257938047e+02   4.6128575746e+01    0.5425031    0.2764922 -43.61  0.001675768    2.014    0.504
       137  -9.0780    110.8461     57.9580   9.8888791048e+01   5.0011782343e+01    0.3890262    0.3200646  15.96  0.001161187    1.346    0.257
       138  -9.5191    105.3185     71.2960   1.0535524913e+02   4.8554526629e+01    0.7559997    0.5320657 -24.68  0.002715729    1.687    0.407
       139  -9.4837    109.7124     64.1362   1.0147047366e+02   4.9058021211e+01    0.5655801    0.2875426 -49.37  0.002115337    2.209    0.547
       140  -7.9524    240.0000     72.9693   7.7480150385e+01   1.6454910438e+01    0.2292209   0.06776294 -27.76 0.0001649167    2.993    0.666
       141  -8.2310    162.4594     72.7801   9.0229506255e+01   3.4556356893e+01    0.3009921    0.1983892 -52.96 0.0008476098    1.804    0.446
       142  -9.2985    146.8554     69.2171   9.2706945357e+01   3.9101573742e+01    0.4008441    0.2938788 -57.87 0.0009193291    1.644    0.392
       143  -8.2556    156.6207     69.5333   9.0514849078e+01   3.6578975390e+01    0.2737875    0.1506965 -33.58    0.0010826    1.849    0.459
       144  -8.3202     95.0820     53.9566   1.0277730814e+02   5.4339129677e+01    0.3723857    0.2214315 -48.31  0.001561601    1.799    0.444
       145  -9.7768     94.7420     68.3140   1.0803536953e+02   5.1407981196e+01    0.5052538    0.3030069 -57.22  0.001070712    1.969    0.492
       146  -9.2791     96.7709     59.2012   1.0412277784e+02   5.2913369577e+01    0.7474045    0.4450917  -7.72  0.002357078    3.807    0.737
       147  -8.7862    138.0170     66.3874   9.4002588973e+01   4.1826834596e+01    0.3452762    0.2407098 -47.90 0.0004816628    1.562    0.360
       148  -7.9342    138.3453     62.3121   9.2542272329e+01   4.2471884625e+01    0.2485942    0.2015639  -3.19  0.001159834    1.420    0.296
       149  -9.0321    121.2267     66.1918   9.8606941495e+01   4.5971967310e+01    0.3861493    0.2716967 -57.86 0.0006141748    1.735    0.424
       150  -8.2028    122.0481     61.4547   9.6715751891e+01   4.6678159049e+01    0.3637549    0.2410383  22.24  0.001077598    1.995    0.499
       151  -7.8030    249.3218     65.3473   7.4553435498e+01   1.5502825695e+01    0.1328813   0.09276763  13.59 0.0005963653    1.739    0.425
       152  -8.3382    157.4057     63.0360   8.8261877778e+01   3.7462773002e+01    0.3233748    0.2132253 -49.80 0.0007978372    1.706    0.414
       153  -8.5145    192.6287     62.6419   8.1447965766e+01   2.8564589471e+01    0.2445495    0.2125168  46.49 0.0004571104    1.164    0.141
       154  -8.7281     49.3482     61.9440   1.2487699966e+02   6.0301963168e+01    0.2780166    0.1320934 -68.69  0.001088668    2.447    0.591
       155 -10.0111     74.4811     55.4720   1.1148048312e+02   5.8069705304e+01     1.548764    0.6163511 -34.98  0.004808114    3.639    0.725
       156 -10.1798     85.1451     48.2059   1.0430474767e+02   5.7570420216e+01    0.4494677    0.3538989  89.86 0.0009876771    1.890    0.471
       157  -8.7210     87.5029     58.1310   1.0717943430e+02   5.5047454458e+01    0.3406491    0.2652785 -67.02 0.0008472622    1.594    0.373
       158  -8.4032     89.1875     52.9193   1.0458108601e+02   5.5789944230e+01    0.5116767     0.309101  18.91  0.001946909    2.491    0.599
       159  -9.1418    163.0268     54.4886   8.4294031833e+01   3.7346345413e+01    0.4620753    0.2269352 -50.81  0.001631446    2.594    0.614
       160  -7.7274    152.3179     59.8151   8.8335644979e+01   3.9306787047e+01    0.3303086    0.1245524 -40.26  0.001082208    2.694    0.629
       161  -8.7320    146.6545     59.1245   8.9411123247e+01   4.0889306639e+01    0.3589759    0.2462886 -57.46 0.0009566939    1.799    0.444
       162  -8.6861    147.3805     53.9995   8.7485850426e+01   4.1539561336e+01    0.4615011    0.2520016 -29.27  0.001475905    1.924    0.480
       163  -8.8565    130.0023     57.1656   9.2945261968e+01   4.5490214606e+01    0.5101694    0.2440278 -41.45  0.001127647    2.169    0.539
       164  -9.0174    132.8382     36.0878   8.4306180153e+01   4.8146850647e+01    0.5254505    0.2016425 -35.62  0.001570306    2.585    0.613
       165  -9.7365    133.9904     31.0750   8.2063328057e+01   4.8538726351e+01    0.2846269    0.2519566  40.11            0    1.098    0.089
       166  -8.5936    133.2547     51.9293   9.0193184203e+01   4.5560827339e+01    0.2534488    0.2501854  29.73 0.0003228329    1.034    0.033
       167  -9.6889    130.0912     47.5316   8.9388759121e+01   4.7107029263e+01     0.822338    0.3520562 -24.40    0.0019531    3.018    0.669
       168  -9.4812      6.4535     32.7031   1.4081144343e+02   7.0629885135e+01    0.2778611    0.1772738 -53.75 0.0008868788    1.273    0.214
       169  -9.1232    138.9890     57.1082   9.0581673763e+01   4.3208529131e+01    0.3383863    0.2488003 -44.05 0.0005354477    1.435    0.303
       170  -9.4817    118.2421     54.9453   9.5486006133e+01   4.8809970549e+01    0.5506352    0.3464617 -46.74  0.001277885    1.731    0.422
       171  -9.5384    121.1121     46.5499   9.1461405553e+01   4.9571055790e+01    0.8324628    0.3722807 -23.17 0.0006602069    3.114    0.679
       172 -10.0372    190.8711    248.1703   1.1959426264e+02   2.5118644882e+00    0.2762622    0.1494109  26.26  0.001807646    1.328    0.247
       173  -8.9518     53.3800     38.8659   1.1499603892e+02   6.5085548123e+01    0.7053922    0.1985333 -40.76  0.002095698    4.151    0.759
       174  -9.9825     49.8566     53.6957   1.2216311886e+02   6.2206685423e+01     0.673911    0.3413974 -68.25  0.002185349    2.450    0.592
       175  -9.4205     55.8504     43.2768   1.1549283422e+02   6.3766305308e+01    0.8144315    0.4268174 -18.25  0.002668062    4.037    0.752
       176 -10.3056    171.7131    247.4817   1.2294508226e+02   5.1109894519e+00    0.2632384    0.2424804  39.74  0.002179722    1.536    0.349
       177  -9.2600     61.4068    248.3424   1.4382846966e+02   1.8942397550e+01    0.1849839    0.1365202  39.92   0.00145835    1.150    0.131
       178  -7.2163    157.2982     55.6395   8.5855050617e+01   3.8674601553e+01    0.1638719    0.1195328 -64.50  0.000474552    1.712    0.416
       179  -8.8850    105.3327     52.1079   9.8489658158e+01   5.2409481984e+01     0.568481    0.2713714 -34.15  0.001461836    2.246    0.555
       180  -9.4471     43.7956     52.7274   1.2487575794e+02   6.3154964268e+01    0.3868905    0.3604688  88.84   0.00134712    1.200    0.167
       181  -8.3644    180.3282    244.3481   1.2100934216e+02   4.3122816806e+00    0.1156481   0.06781495  12.45 0.0007049409    1.758    0.431
       182  -9.0906    141.9295     47.7359   8.6534660330e+01   4.3969475464e+01    0.5421007    0.2327503 -29.49  0.001496959    2.464    0.594
       183  -8.5698    149.8466     48.1392   8.4891566275e+01   4.1803377984e+01     0.238478    0.2106447 -70.14 0.0004811107    1.255    0.203
       184  -8.5538    111.9489     46.9092   9.4324332159e+01   5.1786390834e+01    0.3302004    0.2175567 -38.61 0.0004020888    1.560    0.359
       185  -8.1844    112.6824     42.6843   9.2404715603e+01   5.2334333740e+01    0.3175002    0.1778372  20.20   0.00103149    3.227    0.690
       186  -7.7289    162.1929     46.4182   8.1773566568e+01   3.8758386871e+01     0.209954    0.1487875  77.84 0.0004361958    1.603    0.376
       187  -9.0443    188.0408    234.1504   1.1831888961e+02   4.4077888360e+00     0.188181    0.1726651 -24.16 0.0008643712    1.605    0.377
       188 -10.1329     69.3669     40.6914   1.0792427177e+02   6.2109959676e+01    0.8831604    0.3870502 -43.29   0.00252803    2.221    0.550
       189 -10.1150     76.1397     31.7355   1.0085651008e+02   6.2544322944e+01    0.4692778    0.4060609  84.17  0.001254174    1.578    0.366
       190  -9.2959     71.7806     25.4612   9.9705263178e+01   6.4529837491e+01    0.5134658    0.2852045  32.03  0.001712735    1.955    0.488
       191  -9.9785     79.5157     24.0521   9.5650339542e+01   6.3157302616e+01    0.6340526    0.3211724  31.58  0.001778488    2.388    0.581
       192  -9.3092     84.7096     21.9328   9.2508608741e+01   6.2339648280e+01    0.3740276    0.2836009  30.80 0.0007256822    1.289    0.224
       193  -9.0445    110.2050     33.2090   8.9179986942e+01   5.4483904965e+01    0.3890935    0.2483258 -44.90 0.0008452457    1.742    0.426
       194  -8.9971    109.8807     26.9935   8.6538764795e+01   5.5488040058e+01    0.4066458    0.1982809 -30.00  0.001325076    2.116    0.527
       195  -9.1117    104.8939     41.2104   9.4255067406e+01   5.4484516920e+01    0.3870977    0.2794707 -56.26 0.0006528882    1.712    0.416
       196  -8.5232    106.1859     36.5453   9.1860118339e+01   5.4954061721e+01    0.3733285    0.2361585  30.37  0.001257266    1.812    0.448
       197  -8.7576    148.0816     41.7026   8.2980531959e+01   4.3231313212e+01    0.3169041    0.2785393 -52.12  0.001605887    1.209    0.173
       198  -6.9986    128.6868    235.2824   1.2977645821e+02   1.2486823278e+01    0.1140331   0.06970663  49.66 0.0002136522    1.573    0.364
       199  -7.7619    134.0000    231.3286   1.2831012446e+02   1.2306823985e+01    0.2005145   0.06888143 -52.83 0.0009403158    3.980    0.749
       200  -7.5683     53.5369    232.4672   1.4451153961e+02   2.2273451365e+01    0.1101985   0.07817829  48.17 0.0001697486    1.004    0.004
       201  -8.3836     39.3371    226.6476   1.4702975959e+02   2.4721346668e+01     0.173165    0.1438554  50.78 0.0004727869    1.187    0.157
       202  -7.1059    110.3587    224.6904   1.3241416086e+02   1.6540052396e+01    0.1244676   0.07015987  52.85 0.0004066026    1.736    0.424
       203  -7.7083      2.6503    217.2955   1.5388989597e+02   2.9634371854e+01    0.1142294   0.04560593  52.77 0.0007033122    1.680    0.405
       204  -9.1700    153.1791     40.6108   8.1536049793e+01   4.2009113923e+01    0.4058807    0.2576426 -15.00  0.001237101    1.848    0.459
       205  -8.3139    153.0014     34.9811   7.9557953033e+01   4.2827408884e+01     0.358346    0.2190956 -56.34  0.001460673    2.001    0.500
       206  -8.7083    139.3640     39.8367   8.4217252486e+01   4.5850349603e+01    0.4157971    0.2577633 -36.04   0.00159562    1.651    0.394
       207  -7.8016    160.4356     39.5212   7.9752647476e+01   4.0194048677e+01    0.2716482    0.1258886 -39.90 0.0007987916    2.183    0.542
       208  -8.7145    157.5587     49.6946   8.3801029518e+01   3.9514931142e+01    0.4269131    0.2127067 -56.24  0.001327303    3.068    0.674
       209  -8.2683    189.1576     36.2653   7.4075238831e+01   3.2950914715e+01     0.262971    0.1984331 -36.57 0.0005873019    1.291    0.225
       210  -9.1338    144.2586     36.5312   8.1898207526e+01   4.5000113018e+01    0.3021235    0.2405836 -57.17 0.0005307613    1.401    0.286
       211  -8.8288    118.9189     34.2266   8.7115822163e+01   5.2098007608e+01    0.3675997    0.2294971 -28.94 0.0008713541    1.670    0.401
       212  -7.8730     49.8177     35.1331   1.1534006677e+02   6.6392445538e+01    0.1981136    0.1475977 -26.96 0.0003721983    1.325    0.246
       213  -7.4669     36.5912    213.8217   1.4701133520e+02   2.7210571739e+01    0.1413502   0.08337189  71.83 0.0004844119    1.560    0.359
       214  -8.4453     15.6207    205.8118   1.5103395425e+02   3.0601349966e+01    0.1908236    0.1199197  68.43   0.00086637    1.301    0.232
       215  -8.5822     42.0049     28.0380   1.1670161179e+02   6.8935765607e+01    0.2050249    0.1768016 -20.39            0    1.054    0.051
       216  -9.3289      7.4706    208.4872   1.5276180862e+02   3.0797155233e+01    0.1827423    0.1290622  64.87 0.0008429445    1.114    0.103
       217  -9.8302     11.3832    207.1009   1.5193767819e+02   3.0725447857e+01    0.2912517    0.2235054  37.49  0.001486445    1.287    0.223
       218  -7.3705    149.6116     93.2901   9.9315516406e+01   3.3989918893e+01    0.1596763    0.1259046  86.82 0.0002219645    1.763    0.433
       219  -7.9973    231.7612     31.2347   6.7837767401e+01   2.3130465698e+01     0.205365   0.08800863  56.19 0.0008866685    2.447    0.591
       220  -9.2260    153.2283     27.4575   7.6784222295e+01   4.3725320170e+01    0.4187462     0.263916  38.29  0.001808055    1.730    0.422
       221 -10.1439    142.8412     27.7751   7.8879487878e+01   4.6551415943e+01    0.3672222    0.2922745  32.14 0.0003670594    1.323    0.244
       222  -8.5077    124.0252    206.0322   1.2749461183e+02   1.7562620169e+01    0.1783299     0.140342  37.81  0.001157455    1.024    0.023
       223  -9.2413     91.3198     26.2968   9.2219549842e+01   6.0147394127e+01    0.4375971    0.2520486 -47.14  0.001169784    2.082    0.520
       224  -8.2367     92.5390     20.6576   8.9020106095e+01   6.0698778433e+01    0.3409235    0.1963981  23.25   0.00129817    2.317    0.568
       225  -8.4039    136.0979     26.5273   7.9791991272e+01   4.8562178456e+01    0.3296578    0.1949457 -32.18 0.0009417853    1.735    0.424
       226  -8.6111    132.4192     17.1704   7.6761839989e+01   5.0697232074e+01    0.2972895    0.2588508  55.27 0.0007444099    1.067    0.063
       227  -8.4677    128.3868     25.8293   8.1228260180e+01   5.0753987281e+01    0.3003095    0.2286361 -64.41  0.000683387    1.581    0.367
       228  -8.2296    129.7436     21.2804   7.9034501380e+01   5.0953872571e+01    0.3553729    0.2186334  26.51   0.00135179    1.991    0.498
       229  -8.4996    154.0269     23.4328   7.5170650076e+01   4.3983974322e+01    0.2442662     0.144489  68.55  0.001036639    1.640    0.390
       230  -8.3777    139.8647     22.8061   7.7542046806e+01   4.7984136500e+01    0.4477935    0.2534218 -56.52   0.00169464    2.279    0.561
       231  -8.4548    139.6317     18.1790   7.5755311934e+01   4.8584413203e+01    0.3257981    0.2332557  -8.44 0.0009699162    1.587    0.370
       232  -9.4606    118.7368     21.4623   8.1690635359e+01   5.3910960866e+01    0.3343468    0.2928773   8.37 0.0006635945    1.194    0.163
       233  -7.5897     58.2586    203.4771   1.4178648810e+02   2.6771203046e+01    0.1646502   0.08174223  43.68 0.0004840059    1.523    0.343
       234  -8.9196    192.1161    194.7163   1.1175020929e+02   8.6445680088e+00    0.6625081    0.3799268 -60.38  0.002246593    7.179    0.861
       235 -10.0770    182.9320    196.3273   1.1380499331e+02   9.8742462489e+00    0.2072551    0.1689576  17.68 0.0002233358    1.068    0.064
       236  -7.9955    229.9897    168.0052   1.0005857152e+02   6.0583214250e+00    0.3179773    0.1672816 -51.84   0.00104164    6.810    0.853
       237  -7.2284     58.0225    162.7415   1.3850648370e+02   3.4996158596e+01    0.1566516   0.09851456  35.48 0.0003680123    1.437    0.304
       238  -7.9524     10.9693    153.6929   1.5023216364e+02   4.1436591560e+01    0.1592023    0.1294641  57.36 0.0005065555    1.083    0.077
       239  -8.7094     40.8260     20.4894   1.1380733174e+02   7.0635599723e+01    0.2290397    0.1691688 -42.48 0.0002502713    1.262    0.208
       240  -8.6360    133.5926    147.0153   1.1616498007e+02   2.6698375942e+01    0.5295444     0.147594 -51.04  0.001628897    4.283    0.767
       241  -7.9793    234.4907    146.5159   9.5048968523e+01   8.0067919889e+00    0.1304228    0.1044517   3.69 0.0008103756    1.012    0.012
       242  -9.6671     66.8943    144.3142   1.3399599714e+02   3.8025754274e+01    0.5181409    0.2551809  54.40  0.002284802    2.123    0.529
       243  -8.2398    112.2254    133.9768   1.1930258852e+02   3.3325515207e+01    0.2803647    0.1877569  60.05  0.001140397    1.749    0.428
       244  -8.4647    192.9990    132.9332   9.9632206077e+01   1.7555428494e+01    0.2104707    0.1796383  12.21 0.0003088568    1.051    0.049
       245  -8.4664    135.8831    131.5634   1.1241925453e+02   2.9352486048e+01    0.4852325     0.143297 -45.91  0.001518528    3.656    0.726
       246  -7.1026    151.2450     20.6215   7.4606949199e+01   4.5078231904e+01    0.1576997     0.106953 -54.16 0.0006941253    1.639    0.390
       247  -9.6426     98.5772    128.9139   1.2223704335e+02   3.6838949962e+01    0.5860062    0.3353193  65.30  0.002254132    2.638    0.621
       248  -8.9575    130.0758     97.0533   1.0554165948e+02   3.7694027935e+01    0.4901032    0.2390495  29.95  0.001616499    2.883    0.653
       249 -10.2653    123.8962     90.1717   1.0537083463e+02   4.0495478836e+01     1.039945    0.5484762 -29.65  0.002546471    2.543    0.607
       250 -10.3973    133.4437    109.5999   1.0792295624e+02   3.4360986182e+01    0.8654529    0.4356416 -50.13   0.00268388    2.225    0.551
       251 -10.0102    117.5345    123.9016   1.1572259211e+02   3.4533721801e+01    0.8854834    0.5333601 -49.99  0.003009281    1.773    0.436
       252 -10.8127    121.4822    108.2928   1.1094545644e+02   3.7141582082e+01     1.688019    0.6121475 -47.26  0.005636488    2.894    0.655
       253  -9.2838    127.7820    102.6312   1.0769152695e+02   3.7027364091e+01    0.3674833    0.3379822 -64.18 0.0009824495    1.200    0.166
       254 -10.2242    108.8618    112.9826   1.1579993230e+02   3.8601128429e+01     1.116473    0.5079924 -54.07  0.002608774    2.385    0.581
       255 -10.3803    108.5532     99.7062   1.1263853210e+02   4.1647288605e+01      1.00236    0.5857888  63.69  0.003408134    2.637    0.621
       256 -10.1135     70.3732    126.0768   1.3034035544e+02   4.1839959127e+01    0.5735582    0.4893286 -64.79  0.001867704    1.195    0.163
       257 -10.0217     58.3060    124.7208   1.3395213893e+02   4.3723115269e+01    0.6731654     0.337547  68.58  0.002471286    2.784    0.641
       258  -8.4313    125.2533    127.8539   1.1443983905e+02   3.2201786402e+01     0.251537    0.2105861  23.20 0.0004937121    1.215    0.177
       259 -10.4835    238.8486    124.5921   8.9690474839e+01   1.0058569786e+01     0.272469    0.2233764   9.13 0.0005052338    1.088    0.081
       260  -9.7440     27.2381    122.8035   1.4363206593e+02   4.7314185719e+01    0.5874577    0.2342445  61.84  0.002382974    2.822    0.646
       261  -9.6506    130.2186    118.6130   1.1099972899e+02   3.3156642808e+01    0.3950721    0.3166291  75.94 0.0009031996    1.601    0.375
       262  -9.3228     41.0070    121.4200   1.3908432188e+02   4.6421103364e+01    0.5227996    0.2407072  87.78  0.001788059    2.642    0.621
       263  -7.6271    157.9991    122.4980   1.0484321675e+02   2.6578691511e+01    0.2308619    0.1408677  43.35  0.000683951    1.541    0.351
       264  -9.8215    140.7192    118.8790   1.0827257288e+02   3.0928602996e+01    0.4789103    0.3753467 -67.15  0.001410382    1.641    0.391
       265  -8.6385    152.8633    115.3207   1.0434274756e+02   2.9036810522e+01    0.2506239     0.207891 -47.42  0.000553729    1.329    0.247
       266 -10.1783     78.0628    113.0202   1.2555826202e+02   4.3870534547e+01     0.542663     0.333471 -89.45   0.00165913    2.322    0.569
       267  -8.0025     77.6706    105.6704   1.2420385219e+02   4.5706259683e+01    0.2802967    0.1784569 -27.46   0.00101576    2.264    0.558
       268  -7.9050      1.3755    115.3337   1.5127051367e+02   5.0752351985e+01    0.2341695   0.09261008 -78.03  0.001112417    2.132    0.531
