#   1 NUMBER                 Running object number                                     
#   2 MAG_AUTO               Kron-like elliptical aperture magnitude                    [mag]
#   3 X_IMAGE                Object position along x                                    [pixel]
#   4 Y_IMAGE                Object position along y                                    [pixel]
#   5 X_WORLD                Barycenter position along world x axis                     [deg]
#   6 Y_WORLD                Barycenter position along world y axis                     [deg]
#   7 A_WORLD                Profile RMS along major axis (world units)                 [deg]
#   8 B_WORLD                Profile RMS along minor axis (world units)                 [deg]
#   9 THETA_WORLD            Position angle (CCW/world-x)                               [deg]
#  10 FWHM_WORLD             FWHM assuming a gaussian core                              [deg]
#  11 ELONGATION             A_IMAGE/B_IMAGE                                           
#  12 ELLIPTICITY            1 - B_IMAGE/A_IMAGE                                       
         1 -12.9319    248.4399     50.5001   3.9621198974e+01   1.8511150303e+01    0.8292211    0.3643518 -43.84  0.004050812    1.866    0.464
         2  -9.2418     40.8703     13.8453   7.2126566781e+01   6.8360489551e+01    0.1769306    0.1290621   5.65  0.001138699    1.161    0.139
         3  -9.7963     19.7901    250.2717   1.2332855470e+02   1.9243381041e+01    0.2241665   0.08854789  49.07   0.00126997    1.903    0.474
         4 -10.5364    250.3488    241.5813   7.7976543338e+01  -1.1099114507e+01    0.3166522    0.1424367 -30.19  0.001747859    2.064    0.515
         5  -9.9586      4.7742    248.1744   1.2581376945e+02   2.1145102256e+01    0.2023395   0.06035178  61.25 0.0009608623    2.882    0.653
         6 -10.1917    173.5193    243.5511   9.2592894797e+01  -7.3908155086e-01    0.2290961    0.1239438 -44.31  0.001202571    2.140    0.533
         7  -8.9921    160.0146    244.0156   9.5360551121e+01   1.2441217944e+00    0.1822097    0.1475181  65.19  0.001113133    1.632    0.387
         8 -10.3109    167.5914    242.5873   9.3633301149e+01   3.1374916026e-01    0.2373635     0.172755  27.54 0.0007368216    1.172    0.147
         9 -10.8672    237.1119    240.6095   8.0115242616e+01  -9.3228394777e+00    0.3785771    0.2173968  29.41  0.001915271    1.571    0.363
        10 -10.5879    166.1909    248.5784   9.4774917058e+01  -4.1369523784e-01    0.2839952    0.2072676  22.18  0.001753978    1.224    0.183
        11  -8.6865    108.1885    236.7839   1.0506348763e+02   1.0463802686e+01    0.2253139    0.1172735  64.86 0.0009591304    2.861    0.650
        12  -9.4261    170.0981    232.2214   9.1562763470e+01   1.6081802435e+00    0.2939789    0.1834858  22.04  0.001254186    1.610    0.379
        13 -10.0843    237.3165    231.7713   7.8591386238e+01  -8.1840046084e+00    0.2289058    0.1849708  -4.87  0.001185512    1.111    0.100
        14 -10.2161    246.3227    229.1789   7.6567488480e+01  -9.0101237504e+00    0.2392485   0.08970311 -29.10   0.00109831    2.645    0.622
        15  -9.0442     72.6807    228.5918   1.1157316355e+02   1.7166706482e+01    0.2120348     0.133473  78.79 0.0008681859    1.724    0.420
        16  -9.4663    171.0591    225.6787   9.0331869738e+01   2.5555542653e+00    0.1837096    0.1791008 -24.97 0.0003629376    1.224    0.183
        17 -11.2419    164.6069    226.2314   9.1756319362e+01   3.4980013567e+00    0.5038385    0.3560891  21.79  0.002807491    1.371    0.271
        18 -10.0042    160.5261    227.4552   9.2797505154e+01   3.9423234863e+00    0.2459939    0.2010704   0.03  0.001470488    1.304    0.233
        19 -11.7210    125.4379    221.2972   9.9376498843e+01   1.0759164300e+01    0.4433571    0.3850886  -7.18   0.00157833    1.376    0.273
        20  -9.8380    116.9225    227.0370   1.0200127508e+02   1.0990363516e+01    0.2531396    0.1904804 -66.81 0.0007477795    1.518    0.341
        21  -9.7912    114.7387    221.6018   1.0175186544e+02   1.2400142687e+01    0.3099235    0.1722052 -50.80 0.0008944239    2.008    0.502
        22  -9.9581    185.1438    225.6776   8.7459882412e+01   3.1691383269e-01    0.3909367    0.2130679 -37.58  0.001767789    1.963    0.491
        23 -11.0756    127.8965    226.5379   9.9578796948e+01   9.3565097263e+00    0.3397275      0.24492 -20.32  0.001794772    1.957    0.489
        24 -10.6038     99.0909    226.1269   1.0571491770e+02   1.3897019977e+01    0.4106397    0.2343754  35.99  0.001537303    1.617    0.382
        25  -9.8127     88.5300    224.5276   1.0779245179e+02   1.5775017671e+01    0.4439727    0.1174318 -60.66  0.001607938    3.903    0.744
        26  -9.1782      1.5084    226.4908   1.2540011773e+02   2.5659070992e+01    0.1131017   0.08134852  72.84 0.0008104591    1.023    0.022
        27  -9.9035    108.4717    223.0919   1.0331231353e+02   1.3079097436e+01     0.245564    0.2065161   4.26  0.001451143    1.506    0.336
        28 -10.4601     19.6622    223.2020   1.2181804627e+02   2.4586288846e+01    0.2401841     0.205933  -6.42  0.001681773    1.893    0.472
        29  -9.6295    148.7055    221.2108   9.4329829294e+01   6.9870353349e+00    0.3773835    0.1598973 -57.31  0.001483686    3.233    0.691
        30  -9.4985    157.5301    221.5815   9.2506950991e+01   5.4707709657e+00    0.2325477    0.2075638  23.26 0.0006581719    1.016    0.016
        31 -11.5414    131.4558    214.7763   9.7103181283e+01   1.1063370542e+01    0.7836358    0.3702854 -62.75  0.003195847    2.891    0.654
        32  -9.4876     83.6874    220.1638   1.0834126440e+02   1.7373194484e+01     0.207679    0.1476672  77.72 0.0009234727    1.478    0.323
        33  -9.4876     74.6293    219.5069   1.1022680495e+02   1.8782672519e+01    0.2945118    0.1595884  60.53  0.001444005    1.917    0.478
        34  -9.9513     99.3786    217.4555   1.0458163393e+02   1.5621662976e+01    0.3236939    0.2452814 -81.95  0.001397751    1.451    0.311
        35  -9.9915     85.0296    227.5218   1.0887062785e+02   1.5668811809e+01    0.2629585   0.09054299  43.62 0.0009426277    2.437    0.590
        36 -10.1067    143.7901    216.6931   9.4690376712e+01   8.6482155293e+00    0.2927433    0.2163455 -53.27  0.001252556    1.524    0.344
        37 -10.0190    192.0647    217.1432   8.4618267013e+01   6.2550040633e-01    0.2102719     0.160072   6.95  0.000703567    1.274    0.215
        38  -9.9272    118.6922    216.4391   1.0017143905e+02   1.2807936263e+01    0.2556689    0.1671416 -55.55  0.001333413    1.677    0.404
        39  -8.6872     62.2914    217.6200   1.1268181389e+02   2.0835012319e+01    0.1375108   0.08103479  68.68   0.00070188    1.744    0.427
        40 -10.3680     77.7052    212.3493   1.0876321524e+02   1.9883284487e+01     0.344514    0.3023886 -53.54   0.00216377    1.334    0.250
        41 -10.0601    202.6981    209.9634   8.1225480756e+01   1.1825202288e-01    0.2387203    0.1653206  44.64  0.001293171    1.637    0.389
        42 -10.6809    135.4754    208.6317   9.5259085203e+01   1.1621090056e+01    0.2969937    0.1943065  40.39 0.0009283053    1.398    0.285
        43  -9.8613    116.9420    210.9939   9.9783272440e+01   1.4204224099e+01    0.2295402    0.1560715  66.02  0.001138337    1.761    0.432
        44 -10.7488    124.2123    206.1792   9.7418081856e+01   1.4010662456e+01    0.3128783    0.2137775  64.85            0    1.789    0.441
        45 -10.2168     99.5479    206.2101   1.0306117270e+02   1.7981173277e+01    0.3791357    0.2266724  74.80  0.001630836    2.397    0.583
        46  -9.6952     12.4136    207.3785   1.2225636672e+02   2.8644151876e+01    0.1856917    0.1118947   6.03 0.0009558341    3.192    0.687
        47 -12.0574    165.1512    204.7465   8.8060123420e+01   7.3029735034e+00    0.9130364    0.2420654  41.96  0.002931095    3.595    0.722
        48  -9.5099    109.6245    205.3030   1.0062211684e+02   1.6584468457e+01     0.223298    0.1547334  69.66 0.0009762663    1.719    0.418
        49  -9.0967     56.6610    205.3734   1.1268214274e+02   2.4231647306e+01    0.2091299    0.1251333  65.90 0.0007472529    1.672    0.402
        50 -12.2668    175.8777    184.4829   8.1956176017e+01   9.3073949544e+00    0.4875814    0.3652532  57.61  0.002434632    1.666    0.400
        51 -12.7206    163.7768    195.8791   8.6768184611e+01   9.2506450537e+00    0.7776768    0.4396871  50.59  0.003410951    2.039    0.510
        52 -13.3473    174.5067    196.0613   8.4469274824e+01   7.3202157825e+00    0.8586645    0.8042358  78.10  0.002987644    1.341    0.254
        53 -11.8300    180.5358    192.8876   8.2584192704e+01   6.8582214397e+00    0.5859565    0.3650447 -62.06  0.002463474    2.507    0.601
        54 -13.6352    127.5736    199.2257   9.5546564286e+01   1.4905132304e+01     1.428564    0.8269879 -55.07  0.006648216    1.857    0.461
        55 -13.0292    125.2612    140.4247   8.4720056206e+01   2.8715819913e+01     1.787322     0.579034 -51.78   0.00543203    3.184    0.686
        56 -12.9273    143.6693    129.5266   7.7370754946e+01   2.7462121206e+01     1.483174    0.6528431 -33.49  0.004668743    3.118    0.679
        57 -12.4881    119.6264    154.1105   8.9191665597e+01   2.6554429102e+01    0.9041558    0.4328188 -54.24  0.003090336    2.121    0.528
        58 -14.0472    150.5295    139.9993   7.8201849929e+01   2.3685550126e+01     2.654083    0.8898346 -43.44  0.008305182    2.971    0.663
        59 -12.7217    132.2167    129.3549   8.0264091928e+01   2.9892706679e+01     1.466054    0.5532088 -51.89  0.004676135    2.862    0.651
        60 -13.3484    156.4065    185.0392   8.6390831508e+01   1.2763154333e+01     1.837745     0.433267 -44.65  0.005240557    4.414    0.773
        61 -13.5699    133.4084    151.4245   8.5064454657e+01   2.4552069776e+01     1.567158    0.7642123 -42.43  0.005926015    2.133    0.531
        62 -13.8392    139.4031    188.4475   9.0947415590e+01   1.5132705716e+01     1.529219     0.852479 -50.70  0.006765545    1.879    0.468
        63 -13.8826    139.7638    163.8872   8.6123127292e+01   2.0472964941e+01     1.663629    0.8517611 -44.46  0.006645061    1.988    0.497
        64 -12.9770    120.2708    181.9625   9.4362007652e+01   1.9954330858e+01     1.479683      0.48424 -59.44  0.004499147    3.962    0.748
        65 -14.1559    122.0091    167.6131   9.1286441545e+01   2.2940680145e+01     2.171885      1.33749 -80.08  0.008267934    2.694    0.629
        66 -13.8987    148.2501    180.9259   8.7482941592e+01   1.5129854139e+01     2.408854    0.6706755 -49.98  0.007322759    3.798    0.737
        67 -14.9674    152.3604    163.5507   8.3018286835e+01   1.8108172401e+01     3.056931     2.112843 -79.67   0.01256051    2.365    0.577
        68 -10.6487     89.0294    199.1189   1.0453346442e+02   2.1154909938e+01    0.4208505    0.2789708  86.54   0.00129711    1.813    0.448
        69 -11.5134    112.8134    198.0250   9.8794008486e+01   1.7641339648e+01    0.4718285    0.3013546  71.31  0.001498527    2.167    0.539
        70  -9.7128     66.5522    194.3508   1.0920078258e+02   2.5447568147e+01    0.3926356     0.203745  72.29  0.001630974    2.628    0.619
        71 -11.9650    186.6456    193.3451   8.1386044645e+01   5.7013044992e+00    0.4757009    0.4007338 -69.11  0.002238157    1.643    0.391
        72 -12.0586    184.3575    185.9899   8.0438856817e+01   7.4828168672e+00    0.4566324     0.384383 -42.45  0.002542058    1.257    0.204
        73 -10.3624    102.9038    193.6398   1.0046818670e+02   2.0228718436e+01    0.2769369    0.1861358 -85.80 0.0009335146    1.881    0.468
        74  -9.9261     77.8812    192.6570   1.0630672251e+02   2.4266620931e+01    0.2790782    0.1730835 -89.90  0.001317455    1.917    0.478
        75  -9.2711     43.2039    192.8362   1.1445387905e+02   2.8707021445e+01    0.2557486    0.1316057  89.05  0.001192053    2.117    0.528
        76 -12.1959     95.4179    187.0704   1.0127905942e+02   2.2920933543e+01    0.7840376    0.3853844  55.06  0.002639971    2.405    0.584
        77 -11.8137     94.1807    181.6155   1.0074244734e+02   2.4389058017e+01    0.4723795    0.3382514 -36.77  0.002331233    1.716    0.417
        78 -11.0551     86.9854    188.3296   1.0351958125e+02   2.3930048818e+01    0.3920406    0.2053537 -63.10    0.0015395    1.922    0.480
        79 -11.2531    210.7268    183.7962   7.4658106822e+01   3.2632561495e+00    0.5523262    0.2988943  19.89   0.00230967    2.513    0.602
        80 -11.6244    204.6391    176.0789   7.4286286603e+01   5.7037187612e+00    0.4378455    0.3092034 -32.34  0.001296512    1.340    0.253
        81 -11.4434    203.5591    187.2410   7.6750167562e+01   3.8785976077e+00     0.410281     0.356509 -35.66  0.002087854    1.216    0.177
        82 -12.5439    196.7848    182.7987   7.7227483367e+01   5.8636925128e+00    0.7805992    0.5706061 -79.07  0.003480671    2.684    0.627
        83  -9.7640     55.2059    186.9964   1.1102163098e+02   2.8633989017e+01    0.4067161    0.1986977  78.11  0.001594874    2.983    0.665
        84  -9.2176     80.1015    201.2531   1.0688956193e+02   2.1989012286e+01    0.2659341    0.1590398  77.03  0.001130794    2.106    0.525
        85 -12.2378    109.0000    184.3551   9.7525372704e+01   2.1338403805e+01    0.6591573    0.4371606 -73.71  0.002483648    1.784    0.440
        86  -8.8785     34.3987    187.2391   1.1593279838e+02   3.0982483014e+01    0.1853639    0.1042485 -89.32 0.0009428454    1.713    0.416
        87  -8.5242     48.6957    202.3102   1.1414674615e+02   2.5899635100e+01    0.1349396   0.08175135  66.92 0.0003988625    1.611    0.379
        88 -11.5539     15.6809    183.9288   1.1990434171e+02   3.3592482713e+01    0.4832807    0.3058821 -36.57  0.002163598    2.380    0.580
        89 -10.1855     74.2283    183.6884   1.0598931657e+02   2.6887267381e+01    0.3513192    0.2063607 -84.58  0.001185049    2.016    0.504
        90  -9.8793     65.9437    184.6285   1.0814291637e+02   2.7805020246e+01    0.2788823    0.1676252  88.48  0.001052006    1.928    0.481
        91 -10.2279     83.1171    181.7381   1.0351339660e+02   2.6059342427e+01     0.319074    0.1957246 -82.71  0.001110156    1.947    0.486
        92  -9.0815     44.3681    182.2423   1.1308069309e+02   3.1057003054e+01    0.1915281    0.1100572 -85.29 0.0008142227    1.720    0.419
        93 -11.4037    182.4242    180.2299   7.9702127606e+01   8.9392615547e+00    0.3364174    0.2726944 -50.85   0.00178904    1.375    0.273
        94 -11.3863    183.1999    176.1295   7.8703844667e+01   9.5947341946e+00    0.3303088     0.276987  81.51  0.001415555    1.701    0.412
        95 -10.5141      8.9970    179.6414   1.2107547154e+02   3.5163571809e+01    0.2166536    0.1401329 -58.64 0.0008250625    1.594    0.372
        96 -12.6523    104.3944    175.5596   9.7188381404e+01   2.4154364113e+01    0.7480733    0.6065934  20.20  0.003890781    1.417    0.294
        97 -11.0546     88.6474    176.8531   1.0138345241e+02   2.6383241805e+01    0.3124091    0.2636849  80.07    0.0011947    1.191    0.161
        98 -10.4931     13.2471    177.2066   1.1992117707e+02   3.5368870111e+01    0.3222198    0.1530649  63.84   0.00158591    2.150    0.535
        99 -11.8390     77.7072    175.1471   1.0389933159e+02   2.8434420177e+01    0.5721667    0.4508984 -74.11   0.00287282    1.223    0.182
       100 -10.4225    193.4040    172.5450   7.5823833940e+01   8.3980469053e+00    0.2380157    0.1934163  -3.56 0.0006217035    1.272    0.214
       101 -13.2569    168.4479    155.2686   7.7494441883e+01   1.6698962379e+01     1.133797    0.4887016 -41.64  0.004157056    2.307    0.566
       102 -12.9785    176.4374    168.1771   7.8510758463e+01   1.2455583255e+01     1.001791    0.5070808 -57.30  0.003651714    2.860    0.650
       103 -12.7045    178.2437    160.1915   7.6403484439e+01   1.3729826685e+01    0.7082123    0.4342336 -50.02  0.003123544    1.733    0.423
       104 -11.5745    208.6387    169.1039   7.2053482096e+01   6.2646490142e+00    0.5217619    0.3337227  -6.02  0.002310328    2.153    0.536
       105 -12.3254    168.4668    168.3138   8.0306132369e+01   1.3962176007e+01    0.6725112    0.3756959 -51.87  0.002811425    1.974    0.494
       106 -11.6994    112.2241    166.7079   9.3604270238e+01   2.4903702224e+01    0.6457154     0.387921 -71.89  0.002624358    2.166    0.538
       107  -9.6485     55.0075    168.4532   1.0877308226e+02   3.3124685513e+01    0.5663366    0.2169684 -75.19  0.002027936    3.092    0.677
       108 -10.6285     88.6375    168.2080   9.9985448225e+01   2.8469319408e+01    0.3564978    0.2431872 -77.61  0.001175216    1.619    0.382
       109  -8.8707     68.2935    169.6389   1.0550460229e+02   3.1103613151e+01    0.1490577   0.09959522  74.08  0.000703014    1.702    0.413
       110 -10.6830    218.8295    166.0178   6.9467477652e+01   5.0096292663e+00    0.4035176      0.28444  54.19  0.002055591    1.838    0.456
       111 -11.4050    191.5111    167.7002   7.5197353208e+01   9.6822701686e+00    0.4393632    0.2511683  28.83  0.001161485    2.000    0.500
       112  -9.4677     59.6784    176.6838   1.0866720186e+02   3.0530663549e+01    0.2868071    0.1655817  69.18  0.001303467    2.051    0.513
       113 -11.8402     99.3352    165.5446   9.6729943440e+01   2.7389005220e+01    0.4922186    0.4124208 -76.41  0.001829876    1.219    0.180
       114 -11.2974     79.2950    162.1910   1.0145026958e+02   3.1368353371e+01    0.7429938    0.3538268 -74.77  0.002707667    2.818    0.645
       115  -9.1858     37.3844    163.2873   1.1266475497e+02   3.6409909519e+01    0.3999614    0.1182203 -71.44  0.001413153    3.180    0.685
       116  -9.7172     69.7997    161.8902   1.0393908058e+02   3.2806258313e+01    0.4293788    0.1822577 -68.71  0.001626005    2.503    0.601
       117 -11.4992     93.1488    158.9327   9.7171131536e+01   3.0016291000e+01    0.6498669    0.3766856 -56.23  0.002007928    1.664    0.399
       118  -9.1180      9.3240    161.6673   1.1954865439e+02   3.9363190957e+01    0.1324955   0.07668302  68.47 0.0007050648    1.707    0.414
       119  -9.3194     61.7858    159.2759   1.0568709501e+02   3.4534368335e+01    0.3630127    0.1611015 -70.77  0.001431158    2.343    0.573
       120 -12.3492    105.9489    156.1442   9.3216540871e+01   2.8536402822e+01    0.7662714    0.4633525 -53.72   0.00223242    1.618    0.382
       121 -10.3501    197.8391    158.1479   7.1845817010e+01   1.0327738188e+01    0.2227332    0.2068805 -69.28  0.001241276    1.299    0.230
       122 -10.8941    188.4718    158.1215   7.3765148946e+01   1.2143250952e+01    0.2958299     0.202967  60.15  0.001331003    1.939    0.484
       123  -9.1870     30.6581    157.8554   1.1377162511e+02   3.8425104168e+01    0.2772017   0.08669563 -62.65  0.001094332    2.543    0.607
       124 -10.1618    219.1116    156.1873   6.7323465985e+01   6.7227902168e+00    0.2521578    0.2041677 -28.71 0.0003428769    1.110    0.099
       125 -10.9297    213.0277    155.1490   6.8229877747e+01   8.0280782768e+00    0.3938064    0.2761848  53.99  0.001709156    1.752    0.429
       126 -11.0516     82.0222    153.0752   9.9135939428e+01   3.3218653354e+01    0.6568059    0.3582999 -58.74  0.002854327    1.731    0.422
       127  -9.6916     49.3309    154.6688   1.0838276775e+02   3.7222054311e+01    0.3997797     0.216049  88.00  0.001473804    2.388    0.581
       128 -10.3709     67.5267    152.4126   1.0303296667e+02   3.5482556658e+01    0.4850306    0.2483493 -71.61  0.001921897    2.087    0.521
       129 -11.8234    189.9026    149.8425   7.1625151553e+01   1.3505992985e+01    0.5122004    0.3138416 -55.23  0.001882851    1.968    0.492
       130 -12.5228    162.1245    134.0262   7.4020162285e+01   2.2546047547e+01    0.9584863    0.3936992 -53.45  0.003023469    3.118    0.679
       131 -11.8685    162.4368    149.8200   7.7647492580e+01   1.9078381676e+01    0.5599986    0.3303543 -51.17  0.002211286    1.784    0.439
       132 -12.4410    165.6263    143.4413   7.5447536882e+01   1.9790115024e+01    0.6424187    0.3895711 -42.60  0.002665316    1.611    0.379
       133 -10.0977     91.1544    150.1178   9.6061606122e+01   3.2513177394e+01    0.5094566    0.2362615 -55.16  0.001997283    2.042    0.510
       134 -10.9314    182.2604    151.3886   7.3584345960e+01   1.4725663225e+01    0.2637953    0.1983856  52.00 0.0009769531    1.477    0.323
       135 -11.3594     98.8559    148.5572   9.3628873011e+01   3.1613609075e+01    0.6760739    0.2798144 -50.14  0.002467461    2.323    0.570
       136  -9.1240     27.8250    149.0039   1.1347596777e+02   4.0877233886e+01    0.2253056    0.1281563  78.11  0.001072803    1.996    0.499
       137 -11.6854    113.1032    131.6308   8.5979456762e+01   3.3152995266e+01    0.9136907    0.4394497 -36.11  0.003149788    2.673    0.626
       138 -11.1566    117.5751    124.9956   8.3139710593e+01   3.3858420588e+01    0.5400338    0.3800692  85.02    0.0020446    2.256    0.557
       139 -10.6873    118.2288    119.9029   8.1683728013e+01   3.4916909746e+01    0.6404337    0.3783706  22.55   0.00239205    2.442    0.591
       140 -11.7419    107.3778    145.0403   9.0560781785e+01   3.0978176704e+01    0.7198077    0.4548695  71.94  0.002580642    2.538    0.606
       141 -10.5200     55.5918    144.9486   1.0516614901e+02   3.8910542024e+01    0.6258584    0.3304124  72.58  0.002330747    3.135    0.681
       142 -10.0286     56.0184    137.9604   1.0387720464e+02   4.0618463077e+01     0.476675    0.2365714 -39.85  0.001919419    2.484    0.597
       143  -9.4928     39.1174    147.1758   1.1014151460e+02   4.0223004480e+01     0.340829    0.1753058  77.83  0.001215218    2.786    0.641
       144 -11.5539    175.6788    145.8888   7.3760063170e+01   1.7194453426e+01     0.411697    0.2645682 -52.52  0.001692175    1.687    0.407
       145  -9.8232     78.0859    145.7205   9.8890904800e+01   3.5649427048e+01    0.4193751    0.2143732 -59.15  0.001755974    1.832    0.454
       146 -11.7981    196.9915    142.7789   6.8577432823e+01   1.3478059595e+01    0.5862545    0.3449924 -31.52 0.0005796246    1.738    0.425
       147  -8.8363     13.3313    146.6649   1.1709655112e+02   4.2675754230e+01    0.1345359   0.08146949  69.16 0.0007052177    1.731    0.422
       148 -10.4709     87.8042    143.1243   9.5629844618e+01   3.4790246514e+01    0.5031261    0.3180561 -67.57  0.001678071    1.679    0.404
       149  -9.8081     88.3414    138.3321   9.4502224469e+01   3.5894140020e+01    0.4003026    0.2778825   2.21  0.001721816    2.170    0.539
       150 -11.7965    182.2062    141.0680   7.1230067169e+01   1.6839288780e+01    0.5333238    0.2734266 -39.49  0.002135412    1.889    0.471
       151 -11.4255    107.1937    138.2026   8.9126572253e+01   3.2671352006e+01    0.5039838     0.330367 -31.28   0.00213436    1.877    0.467
       152 -11.2938     68.9318    137.0377   9.9908689001e+01   3.9152414142e+01    0.8095366    0.3174503 -61.43  0.002991904    2.414    0.586
       153 -11.3657    172.6537    138.6908   7.2748114513e+01   1.9325190719e+01    0.4219103     0.309236 -82.47  0.001794585    2.126    0.530
       154  -9.7624     81.1629    137.9299   9.6499301342e+01   3.7131305710e+01    0.4754866    0.1937606 -55.83   0.00176462    2.259    0.557
       155 -10.5373     83.1697    131.2400   9.4524499796e+01   3.8484391919e+01    0.5933439     0.341453 -66.50  0.001780778    1.908    0.476
       156 -10.1852     83.7364    123.2521   9.2596223733e+01   4.0367664931e+01    0.5655165    0.3686768 -21.93  0.002364155    2.196    0.545
       157  -9.7325     23.1983    138.0571   1.1339744953e+02   4.3997778584e+01    0.4142227    0.1893977  73.38  0.001563141    3.445    0.710
       158  -9.9744     38.8924    135.8129   1.0855939525e+02   4.3092430500e+01    0.3393244    0.1745631 -88.55  0.001384026    2.550    0.608
       159 -10.9913    179.7134    133.4821   6.9968881074e+01   1.8911774072e+01    0.4489633    0.2334926 -52.17  0.001496321    2.176    0.540
       160  -9.3929     96.1061    134.6268   9.1475729863e+01   3.5510319292e+01    0.3170458    0.2131487 -46.85  0.001192086    1.448    0.309
       161 -11.4395    168.6187    129.8287   7.1516200247e+01   2.2044658479e+01    0.4253602    0.3027282 -72.45  0.001797442    2.011    0.503
       162  -9.8935    193.3261    129.9111   6.6303672870e+01   1.6752144255e+01    0.3175458    0.1251885 -46.55  0.001095969    2.570    0.611
       163 -10.9034     98.8277    127.4486   8.9066241023e+01   3.6788462140e+01     0.639774     0.391336 -73.60   0.00203332    2.335    0.572
       164 -10.6584     98.8865    120.3147   8.7349660969e+01   3.8499974396e+01    0.7717743    0.4604985  13.43  0.002802203    2.864    0.651
       165 -10.3660     72.6142    128.8138   9.7183157114e+01   4.0689629621e+01    0.3510979    0.2190388 -74.90  0.001529135    1.889    0.471
       166  -9.8389     12.9215    129.5728   1.1528083076e+02   4.6889552503e+01    0.3401734    0.1454409  60.67  0.001357394    3.379    0.704
       167 -10.4468     59.0823    123.5479   1.0028146528e+02   4.3853881528e+01    0.5865021      0.31512  90.00  0.001980521    3.734    0.732
       168 -10.2465    180.7051    120.6914   6.6636635244e+01   2.1292561784e+01    0.2547904    0.2144007  -8.88 0.0006351384    1.345    0.257
       169 -10.2824     43.4843    122.2322   1.0492118474e+02   4.6013314767e+01    0.6456724    0.3425039  84.74  0.002393132    3.317    0.699
       170  -9.8987     28.9792    123.0274   1.0957178675e+02   4.7229920221e+01    0.5821345    0.2606366  75.55  0.001683682    5.912    0.831
       171  -9.2037    195.3122    122.6518   6.4171944262e+01   1.7747350595e+01    0.1541615    0.1167513 -71.20 0.0007046101    1.716    0.417
       172 -10.7305    172.5456    121.0168   6.8461125757e+01   2.3019230130e+01     0.391247    0.2481201 -56.06  0.001485479    1.807    0.447
       173 -11.5903    158.6812    120.4540   7.1451056178e+01   2.6194781044e+01    0.5906141    0.3214593 -43.87   0.00235202    1.790    0.441
       174 -11.3032    141.7720    119.2767   7.5262442403e+01   3.0145642975e+01    0.7078149    0.3503052 -54.77   0.00217954    2.391    0.582
       175 -10.0482    141.9962    112.4908   7.3428311134e+01   3.1579248935e+01     0.404628    0.2826394   4.25  0.001605506    2.246    0.555
       176 -11.8318     10.3132    117.7913   1.1456110310e+02   4.9945807754e+01    0.5927542    0.2085987 -54.63  0.002621725    2.234    0.552
       177 -10.5906      4.4940    118.9889   1.1647702773e+02   5.0015436971e+01    0.3751716    0.1739845  55.40  0.001729877    2.779    0.640
       178 -11.3149    130.7844    116.8050   7.7468587385e+01   3.3042810007e+01    0.7495223    0.3960773 -43.76  0.002923905    1.857    0.462
       179  -9.6691    133.6609    108.1835   7.4414093139e+01   3.4332450367e+01    0.6263456    0.2778494 -41.49  0.002229112    2.247    0.555
       180  -9.7529     71.0415    117.7891   9.5302678040e+01   4.3652167359e+01    0.5986224    0.2185177 -53.33  0.002161802    2.419    0.587
       181  -9.7890    192.9747    115.9735   6.2997499970e+01   1.9540015627e+01    0.2422234     0.184964 -74.53    0.0011329    1.698    0.411
       182 -10.0476    185.9823    116.2038   6.4436251892e+01   2.1024713509e+01    0.2301091    0.1628605 -58.36 0.0008546793    1.598    0.374
       183 -10.7295    179.2881    124.4434   6.7863260230e+01   2.0844860535e+01    0.3241048    0.2648605 -65.23  0.001586039    1.403    0.287
       184 -10.2391    108.9231    113.6005   8.2709654215e+01   3.8210732078e+01    0.4690536    0.3067644 -68.73  0.001731688    2.050    0.512
       185 -10.0911    109.1013    107.8674   8.1140875174e+01   3.9494795846e+01    0.5059717    0.3559938  -5.85  0.002102414    2.104    0.525
       186 -10.1806     78.6144    111.9127   9.1530271256e+01   4.3942950962e+01    0.6335222    0.3326579 -71.27  0.002228399    3.005    0.667
       187 -10.8560    122.7782    109.9807   7.7826781761e+01   3.6250512682e+01    0.7745256    0.3948187 -31.51  0.002701968    2.591    0.614
       188 -10.0940     92.3996    112.1783   8.7283194046e+01   4.1592645507e+01    0.4746808    0.3061635 -69.57  0.001721083    2.004    0.501
       189 -10.3141     93.0894    104.6957   8.5122779395e+01   4.3225510529e+01    0.5686592     0.415633  -5.24  0.002565149    1.835    0.455
       190 -12.3844     14.3696    107.7370   1.1183913660e+02   5.2118386375e+01       1.0819    0.6945324  74.59   0.00517579    1.910    0.477
       191 -11.6436      3.1320     98.3603   1.1415280794e+02   5.5032438961e+01     0.630272    0.2900506 -72.51  0.003128901    1.821    0.451
       192  -9.9143    174.5668    110.9035   6.5453534051e+01   2.4615645174e+01    0.4048575    0.1420854 -43.18  0.001312852    2.737    0.635
       193 -10.6119    159.2184    110.9635   6.8866100503e+01   2.8065526913e+01    0.5580594    0.1777477 -41.40  0.001696242    3.072    0.674
       194  -9.5782     66.0110    110.0035   9.5147078330e+01   4.6271015985e+01    0.3196329    0.2032591 -69.51  0.001449186    1.768    0.434
       195  -9.4776     66.4053    105.7765   9.4016620145e+01   4.7236805853e+01    0.3057235    0.1916712 -26.34  0.001340383    2.017    0.504
       196  -9.3725    182.5058    108.9999   6.3321763078e+01   2.3204816323e+01     0.230698    0.1227944 -58.68  0.000810591    2.655    0.623
       197  -9.4602    189.5041    108.0187   6.1689174530e+01   2.1828588061e+01    0.2259076    0.1200377 -58.14 0.0008104673    2.589    0.614
       198  -9.5806     60.2284    106.8595   9.6330519896e+01   4.7815885182e+01    0.3248087    0.2361558 -12.26  0.001609208    1.717    0.418
       199 -10.6865     23.1074    103.0005   1.0813481312e+02   5.2628250381e+01    0.6206775    0.3343727  67.77  0.002631576    3.071    0.674
       200 -10.3931    149.9059    102.4459   6.8766810341e+01   3.1930558466e+01    0.6461833     0.205598 -49.01  0.001813963    3.745    0.733
       201  -9.5630    139.4137    104.2481   7.1852563653e+01   3.3913543901e+01    0.3951415    0.2576668 -57.04  0.001210889    1.762    0.432
       202  -9.6655    140.3139    100.3333   7.0539246772e+01   3.4533494260e+01    0.3657705     0.263576  -1.24  0.001522806    2.033    0.508
       203  -8.9535    166.4391    104.2484   6.5464128176e+01   2.7788236885e+01     0.224123    0.1426959 -50.47 0.0009493614    1.626    0.385
       204  -9.9125     44.7042    101.5819   1.0041968451e+02   5.0956419430e+01    0.4741853    0.2662777  72.66  0.001707932    3.881    0.742
       205 -10.1600    129.1583     99.2720   7.3135495938e+01   3.7224235718e+01    0.6472023    0.3780447 -23.34  0.002375416    2.491    0.599
       206  -9.1254     81.5179     99.4818   8.7416687049e+01   4.6416334390e+01    0.3491506    0.1454134 -59.59  0.001150932    3.088    0.676
       207  -9.1511     82.3522     94.8112   8.5863588776e+01   4.7346646191e+01    0.3687893    0.2125055 -21.51  0.001369651    2.756    0.637
       208  -9.9973    108.2932     98.3728   7.8753059513e+01   4.1781412713e+01    0.3645062    0.2831545 -70.85 0.0009778613    1.615    0.381
       209  -9.9029    108.6875     92.1489   7.6837973654e+01   4.3050680268e+01    0.5941123    0.3490374  19.28  0.002166432    2.739    0.635
       210  -8.9694     94.6264     96.7900   8.2470338079e+01   4.4748471260e+01    0.3061931    0.1841966 -54.15  0.001007997    1.734    0.423
       211  -9.5698     96.9233     90.5069   7.9937564035e+01   4.5704487292e+01    0.5749806    0.3433876 -13.78  0.002022362    3.109    0.678
       212  -9.5003     63.1934     95.3801   9.2507846650e+01   5.0145124406e+01    0.3533023    0.2242845 -81.56  0.001448653    2.627    0.619
       213 -11.5874     11.9249     92.8151   1.1021456567e+02   5.5841539842e+01    0.7260633    0.3654167   1.01  0.003538978    2.686    0.628
       214 -10.0396     43.1392     91.6733   9.8705699696e+01   5.3478939819e+01     0.305712    0.3008731  31.82  0.001218329    1.182    0.154
       215  -9.7603    138.7438     89.7237   6.7909136303e+01   3.7043458171e+01    0.5687593    0.2044803 -36.73  0.001797524    3.006    0.667
       216  -9.4270    124.2329     90.2802   7.1865861188e+01   4.0171146647e+01    0.3973878    0.2233171 -53.37  0.001233967    2.055    0.513
       217  -9.7374    125.9811     84.6272   6.9706129075e+01   4.0923952585e+01    0.5663039    0.3459633   8.55  0.001863041    3.539    0.717
       218  -9.3754     34.8405     89.9651   1.0133462086e+02   5.4720137741e+01    0.3163519    0.1742097 -85.33  0.001240402    3.232    0.691
       219  -9.0536     86.0043     86.3467   8.2215012222e+01   4.8594555251e+01    0.2613023     0.209227 -77.07 0.0009443648    1.675    0.403
       220  -8.6372     64.3440     87.3450   8.9942943472e+01   5.1824275821e+01    0.1543104    0.1021704 -21.82 0.0002776246    1.793    0.442
       221 -11.9010     10.2125     73.1620   1.0702811936e+02   6.0460253994e+01    0.4829857    0.3920122 -42.60   0.00322878    1.068    0.064
       222 -11.1342      7.9658     83.4048   1.0995246422e+02   5.8266306897e+01    0.3947434    0.2894094 -18.33  0.001764086    1.497    0.332
       223 -11.6106      3.7775     79.5834   1.1081981931e+02   5.9362788888e+01    0.6766489    0.2432201 -60.68  0.003174322    2.002    0.500
       224  -9.0430    158.4648     81.9963   6.1070996537e+01   3.3911549947e+01    0.3547246    0.1532897 -31.18  0.001210241    2.734    0.634
       225  -9.4306    140.8347     81.1111   6.4857828510e+01   3.8224027158e+01     0.463643    0.2085419 -32.41  0.001638282    2.536    0.606
       226  -9.2806    104.1348     82.2941   7.5228874891e+01   4.6023959639e+01    0.3663239    0.2427138 -64.79  0.001534147    2.164    0.538
       227  -9.3828    105.3122     77.0421   7.3225058943e+01   4.6835279380e+01    0.4436796    0.2909871   6.98  0.001788152    2.382    0.580
       228 -10.5835     18.5623     82.8809   1.0585576429e+02   5.7714642144e+01    0.3202958    0.1979731 -30.23  0.001759936    1.645    0.392
       229 -10.6161     34.8516     80.7974   9.9137408401e+01   5.6829399149e+01    0.5156079    0.3350196 -12.68  0.002691394    1.823    0.451
       230 -10.7321    243.9886     81.2790   4.6768295773e+01   1.4861554456e+01    0.1828824        0.165 -65.75 0.0007565576    1.097    0.088
       231  -8.8551     24.4149     81.1264   1.0323216807e+02   5.7674755200e+01    0.1819591    0.1139579 -74.32 0.0009334034    1.788    0.441
       232  -9.3417    150.2403     78.5265   6.1888274621e+01   3.6493445677e+01    0.3299428    0.1301053 -26.64 0.0008958054    4.475    0.777
       233  -9.3564    184.3077     77.4833   5.4725661865e+01   2.8565690384e+01    0.2668858    0.1295379 -37.59 0.0007844428    1.993    0.498
       234  -9.0100    119.8435     77.0993   6.9059651690e+01   4.3738687541e+01    0.3075677    0.2066856  -4.78  0.001248118    2.262    0.558
       235  -9.8067     88.1302     80.1618   7.9627884809e+01   4.9525774976e+01    0.6276104    0.2620382  27.02  0.001914585    4.043    0.753
       236 -11.0242    239.1709     73.1565   4.5558122523e+01   1.7086093683e+01    0.2453872    0.1526913 -37.38   0.00128647    1.452    0.311
       237  -9.1401    167.3041     76.3545   5.7630982920e+01   3.2808165547e+01    0.1530237    0.1188607  12.80 0.0004744781    1.712    0.416
       238  -9.6879    128.9290     70.2375   6.4488654671e+01   4.2963441515e+01    0.4649938    0.2929202   1.91  0.001709361    2.930    0.659
       239  -8.5715     81.9993     72.4874   7.9241455804e+01   5.2184426670e+01    0.1856574    0.1269793  63.91 0.0006273594    2.305    0.566
       240 -10.6871     23.6983     69.8710   1.0078329587e+02   6.0248303917e+01    0.5322419    0.2353869 -32.37  0.002356375    2.451    0.592
       241  -9.6176    219.0000     70.9747   4.7646680565e+01   2.1692486727e+01    0.2338384   0.07260131 -35.87 0.0008082701    2.983    0.665
       242  -8.5124    214.6641     70.3378   4.8092532377e+01   2.2749601589e+01    0.1502999   0.09729961 -66.42 0.0007051594    1.751    0.429
       243  -8.8658    163.3819     69.8077   5.6553850293e+01   3.4868906834e+01    0.2146809    0.1432394 -22.41 0.0009509136    1.789    0.441
       244 -11.1715      2.1178     67.9642   1.0919444753e+02   6.2043750558e+01    0.3509625    0.2440944 -56.98  0.002245246    1.135    0.119
       245  -9.4658    147.3054     65.5403   5.8665274214e+01   3.9453059848e+01    0.5231153    0.2718272 -18.97   0.00183182    3.091    0.676
       246  -8.5290    106.3268     67.3349   6.9765108090e+01   4.8462605885e+01    0.1549522    0.1132723   6.37 0.0005243887    1.719    0.418
       247 -10.0490     13.4619     66.3413   1.0413541387e+02   6.1762296515e+01    0.3375845    0.1746706 -29.55  0.001744437    1.944    0.486
       248 -11.8665    238.2792     62.3468   4.3258412198e+01   1.8892091110e+01    0.4260114    0.2304901 -20.28  0.001808082    2.899    0.655
       249 -11.4227    244.4245     66.1992   4.3413240631e+01   1.7071463864e+01    0.2707493    0.1828392 -87.66  0.001139606    1.710    0.415
       250  -8.9872    203.3011     66.6444   4.8815939662e+01   2.5899066212e+01    0.1515171   0.09920665 -64.80  0.000507062    1.707    0.414
       251  -8.5893     43.5094     66.4990   9.1736877722e+01   5.9035492616e+01    0.1351977    0.1139861 -29.44  0.000177886    1.010    0.010
       252  -9.0952     83.4290     64.8588   7.6207625054e+01   5.3411705057e+01    0.2780077    0.1785787   1.95  0.001182116    2.284    0.562
       253  -9.0298    140.5718     73.0209   6.2484060858e+01   3.9764461528e+01    0.3191273    0.2039373 -15.39  0.001298473    2.196    0.545
       254  -8.7997    122.9621     61.5048   6.3214536774e+01   4.5835547622e+01    0.2209429    0.1155031  31.66 0.0008096665    2.579    0.612
       255  -9.2851     30.7297     60.2950   9.5155242653e+01   6.1668824143e+01    0.2578006    0.1387238  -9.00  0.001178875    2.520    0.603
       256  -8.9182    111.4589     59.0143   6.5485492211e+01   4.8819254866e+01    0.3129147     0.167933  21.23  0.001035562    3.567    0.720
       257 -11.3683     13.6538     57.8290   1.0186953190e+02   6.3566647284e+01    0.7188086     0.358653  -9.34  0.003530444    2.520    0.603
       258 -11.2772      2.8040     54.4783   1.0582058960e+02   6.4902818768e+01    0.6082223    0.1868247 -54.35  0.002819285    2.209    0.547
       259 -11.1555    245.8481    247.8692   7.9782151992e+01  -1.1323241047e+01    0.4979231    0.2341774  31.05  0.002851376    1.914    0.478
       260  -8.8973    130.4697     46.0454   5.6263823795e+01   4.6487455207e+01     0.184889    0.1226379   7.70 0.0003885999    2.186    0.543
       261 -10.0639     22.0148     45.8824   9.4450128942e+01   6.5334752403e+01    0.4131054    0.2114546  10.95  0.002129223    2.228    0.551
       262  -8.1721     45.3545     49.2593   8.5197195054e+01   6.2211176738e+01    0.1333393   0.08871656  -9.57  0.000272266    1.614    0.381
       263  -8.7777    150.0000     43.9927   5.1498564033e+01   4.2071676154e+01    0.2221464   0.08153454 -31.20 0.0004514675    2.883    0.653
       264 -10.4488      9.7044     44.0148   9.9687544566e+01   6.6628007406e+01    0.1980379    0.1774517  -4.80  0.001109832    1.267    0.211
       265  -9.2746    100.7727     54.6278   6.7062566822e+01   5.1829910263e+01    0.2259154    0.1861146 -12.02 0.0005851859    1.245    0.197
       266  -9.2557    113.8592     41.7905   5.8843718101e+01   5.0932480142e+01    0.2164758    0.1757135  25.91 0.0005327743    1.239    0.193
       267  -8.6427    123.6608     40.6697   5.6034881069e+01   4.8834774749e+01    0.1510539    0.1022287  25.72 0.0007051798    1.739    0.425
       268  -8.8363     84.2049     39.8115   6.6764265305e+01   5.7478407485e+01    0.1849242    0.1420333  13.96 0.0003527948    1.300    0.231
       269  -9.7603     25.3417     53.5283   9.5417723019e+01   6.3541269055e+01     0.343537    0.2141089 -11.04  0.001658414    1.734    0.423
       270  -8.7522    228.5588     37.2552   3.8702544714e+01   2.4431472750e+01    0.1637975    0.1202736 -26.63 0.0009426298    1.588    0.370
       271  -8.7899    106.2811     37.0121   5.9114677715e+01   5.3276395724e+01    0.1846994    0.1686737  11.89 0.0002674405    1.065    0.061
       272 -10.7869    233.1268     34.2396   3.7592080974e+01   2.3839545159e+01     0.403128    0.1014772 -45.35  0.001517598    3.203    0.688
       273  -9.5509    217.4946     34.4731   3.9204943452e+01   2.7221962914e+01    0.1303908    0.1112816 -71.56 0.0008100512    1.003    0.003
       274 -10.9713    245.8641     32.8955   3.6162193635e+01   2.1359882594e+01    0.1738527    0.1598384 -57.15 0.0006329003    1.230    0.187
       275 -11.5511    232.0783     51.0588   4.1428473648e+01   2.1813584315e+01    0.3284358    0.1753183 -34.81  0.001600281    1.798    0.444
       276  -9.4114    222.3945     33.1704   3.8399762842e+01   2.6299659494e+01    0.1812171   0.09925235 -47.50 0.0005717457    1.624    0.384
       277  -8.4948    220.3114     29.3380   3.7734362030e+01   2.7237609453e+01    0.1190628   0.09788128  34.08 0.0007045309    1.689    0.408
       278  -8.4168    118.4740     24.5671   5.1599204760e+01   5.2029808749e+01    0.1360329    0.1203202  45.02 7.980071e-05    1.014    0.014
       279  -8.3463    110.4696     24.5094   5.3431975397e+01   5.3874634641e+01    0.1354714    0.1202919  38.96 8.809397e-05    1.006    0.006
       280  -9.6765    188.4958     20.9988   3.9127221854e+01   3.5545167326e+01    0.1845093    0.1270515 -32.77 0.0007978806    1.553    0.356
       281  -8.6887     41.1548     20.8757   7.5344251634e+01   6.7385266702e+01    0.1694947    0.1176774  -3.66 0.0004651478    1.318    0.241
       282  -9.2159     13.0908     21.1715   8.9563116528e+01   7.0498174440e+01    0.1817982    0.1211208 -16.79 0.0006000306    1.248    0.199
       283  -8.6982     28.2892     17.7160   8.0019419901e+01   6.9485548977e+01   0.09736542   0.09273773  -6.03   0.00019031    1.531    0.347
