#   1 NUMBER                 Running object number                                     
#   2 MAG_AUTO               Kron-like elliptical aperture magnitude                    [mag]
#   3 X_IMAGE                Object position along x                                    [pixel]
#   4 Y_IMAGE                Object position along y                                    [pixel]
#   5 X_WORLD                Barycenter position along world x axis                     [deg]
#   6 Y_WORLD                Barycenter position along world y axis                     [deg]
#   7 A_WORLD                Profile RMS along major axis (world units)                 [deg]
#   8 B_WORLD                Profile RMS along minor axis (world units)                 [deg]
#   9 THETA_WORLD            Position angle (CCW/world-x)                               [deg]
#  10 FWHM_WORLD             FWHM assuming a gaussian core                              [deg]
#  11 ELONGATION             A_IMAGE/B_IMAGE                                           
#  12 ELLIPTICITY            1 - B_IMAGE/A_IMAGE                                       
         1 -12.9196    242.3698    116.1627   8.3780015436e+01   8.1001522404e+00     5.882971     1.112381 -39.12    0.0158538    4.614    0.783
         2 -11.5698    220.0695     31.3966   6.6903220226e+01   2.6770363095e+01    0.9768727    0.6027245 -49.12  0.003134018    1.551    0.355
         3 -11.0944    213.0491     47.1800   7.1629036432e+01   2.6318751989e+01     1.273751    0.8501081 -28.40  0.006339723    1.712    0.416
         4 -11.8130    232.6148     61.1584   7.2367246682e+01   1.9554152696e+01     1.919643     0.698625 -44.57  0.007343261    2.507    0.601
         5 -11.2301    119.6123     10.4174   7.6800251266e+01   5.3265723274e+01    0.7032624    0.5145193  60.19  0.003630644    1.292    0.226
         6 -11.4626    139.1262     33.6975   8.0424558726e+01   4.6313421436e+01    0.7278272    0.4801343  24.38 0.0004695047    1.842    0.457
         7 -12.5372    129.9404     24.4538   7.9358791969e+01   4.9526524200e+01     1.336301    0.8997871  66.90  0.007008687    1.557    0.358
         8 -10.2001    181.5897     14.4012   6.7471012547e+01   3.8185552190e+01    0.9492127     0.488501  86.23  0.004107404    2.314    0.568
         9 -11.4860    193.0246      9.7579   6.4811889048e+01   3.5865946646e+01     1.664365    0.7564655  79.51   0.00719615    2.260    0.558
        10 -10.8381    249.3355      2.5051   5.7793959991e+01   2.3501739729e+01    0.5699722    0.2227605 -41.83  0.002562647    2.245    0.554
        11 -12.2903    245.0930     19.4553   6.1631002154e+01   2.2461704905e+01    0.8290977    0.6362461 -67.11  0.003015017    1.103    0.093
        12 -10.7894    243.0295      3.6181   5.8511341661e+01   2.4769206305e+01    0.5340426    0.4037429  75.00  0.001902662    1.269    0.212
        13 -10.8702    144.0254     17.8881   7.4425653891e+01   4.6955262234e+01    0.5967219    0.3812319 -61.82  0.002255464    2.127    0.530
        14  -9.0922    223.5100     16.5225   6.3070191859e+01   2.7782021095e+01    0.3826869     0.261434 -65.70  0.001399975    1.367    0.269
        15  -9.3204    143.3249      8.3177   7.1551264597e+01   4.8045672217e+01    0.3980775    0.2313585  14.35  0.001877387    2.451    0.592
        16 -12.5175    221.0609      2.9380   6.0251429817e+01   2.9859565568e+01     3.725981    0.4244493  69.54   0.01020494    6.090    0.836
        17  -8.7894     69.5144    145.5352   1.2919949193e+02   3.7370440058e+01    0.2738149    0.2156983  73.58  0.001355535    1.321    0.243
        18  -7.3367     51.9696    251.0000   1.4491117262e+02   1.7114972901e+01    0.1647741   0.05284256  42.01 0.0003469726    2.789    0.641
        19  -8.6632     66.4856    144.5025   1.2978577510e+02   3.8026946591e+01    0.3335167    0.2266066 -71.64  0.001419909    1.352    0.260
        20  -9.1975    186.4553    139.6180   9.9729386126e+01   1.6029708361e+01    0.2928571    0.2621357   3.34 0.0001145997    1.261    0.207
        21  -8.1096     77.4697    249.0291   1.4046520594e+02   1.3974938276e+01    0.1381754   0.09382138 -46.08 0.0005255258    2.420    0.587
        22 -11.3543    225.0616     37.9055   6.7846982423e+01   2.4714865897e+01    0.6154615    0.4969147  39.67  0.001492983    1.591    0.371
        23  -9.1587    156.9907    248.4970   1.2601161380e+02   1.2463281580e+00    0.2046213    0.1037737  43.48  0.001042274    1.618    0.382
        24 -10.3727    232.5957    132.5517   8.9170184912e+01   7.2195550444e+00    0.2906527     0.266457 -89.84   0.00162691    1.233    0.189
        25  -9.1830    198.0104    133.2893   9.5840970220e+01   1.4692238808e+01    0.2213729    0.2129545  62.55  0.001183881    1.063    0.060
        26  -8.6120    118.9653    132.9858   1.1399368585e+02   3.2083737942e+01    0.2166274    0.2059604 -69.35  0.001176293    1.010    0.010
        27  -8.8457    192.1693    125.6160   9.5174445223e+01   1.7567392559e+01    0.2266869    0.1435047  39.91 0.0004867158    1.717    0.418
        28  -7.7216    161.5824    123.5056   1.0129871105e+02   2.5089437763e+01    0.1566969    0.1512452 -70.44 0.0001474289    1.024    0.024
        29  -7.1644    223.3472    121.6390   8.8259384812e+01   1.1232266183e+01    0.1594155    0.1140337 -72.25 0.0007028427    1.851    0.460
        30  -8.0010    179.1912    117.1892   9.5793295728e+01   2.2309659144e+01    0.2117092    0.1800648 -74.38  0.001022998    1.299    0.230
        31  -7.7898    215.4893    116.4946   8.8441743645e+01   1.3963568858e+01    0.1499247    0.1442306 -39.33 0.0008103015    1.037    0.035
        32  -8.8520    168.2099    113.9264   9.7359799036e+01   2.5563997836e+01    0.3129959     0.255628  83.55  0.001329739    1.433    0.302
        33  -9.2182    183.4473    112.4649   9.3691206835e+01   2.2255531197e+01    0.2663846    0.1527824 -40.33 0.0001184263    1.730    0.422
        34  -8.6222    204.3990    110.3931   8.9001925332e+01   1.7692502585e+01    0.3054009    0.1225194  40.51 0.0009529185    3.326    0.699
        35 -10.5543    187.2508    102.6464   9.0380335120e+01   2.3275306899e+01    0.4898421    0.2847359 -37.64  0.002021495    1.734    0.423
        36  -9.1140    250.1100    113.9494   8.2069114825e+01   6.8707519097e+00     0.264259    0.1827468 -41.28  0.000429899    1.297    0.229
        37  -8.4174    148.4640     97.3996   9.7514655283e+01   3.3551971198e+01    0.3233169    0.2430476  -1.12 0.0008717591    1.882    0.469
        38  -8.1207    119.7792    241.0035   1.3200039872e+02   8.8344300301e+00    0.1456362     0.100914 -64.58 0.0005109306    1.623    0.384
        39  -8.5038    125.0730    235.4564   1.3031440471e+02   8.9436188934e+00    0.1963371    0.1090734  44.32 0.0008969912    1.556    0.357
        40 -10.0585    188.3951     89.3136   8.6654470150e+01   2.5511518449e+01    0.5560375    0.4240876  54.03  0.002509066    1.312    0.238
        41  -7.9923    134.8948     94.9052   1.0016286875e+02   3.7116113463e+01    0.2468748    0.1911697 -86.30  0.001124593    1.729    0.422
        42  -7.5640    204.2532     91.6880   8.4314860965e+01   2.1212648490e+01    0.1521251    0.1124078 -67.01 0.0001422265    1.521    0.343
        43  -8.3286    157.3752     90.2877   9.3453702083e+01   3.2866436145e+01    0.2971937    0.2289881  16.71  0.001262601    1.687    0.407
        44  -8.5620    160.3924     87.8114   9.2079891771e+01   3.2618772980e+01    0.3059693    0.2699324  23.39  0.001192937    1.262    0.207
        45  -9.1505    164.7257     85.5897   9.0502784012e+01   3.1991202110e+01    0.6044192     0.353039 -76.08  0.001889078    3.822    0.738
        46  -8.8918    142.1439     86.4269   9.5948481542e+01   3.7166620077e+01    0.2888786    0.2417862 -45.82 0.0007431765    1.203    0.168
        47 -11.1957    174.8063     76.6419   8.5896155940e+01   3.1139228435e+01     1.285756    0.8737478  66.06  0.003967261    1.554    0.357
        48  -9.6211    182.0018     71.0331   8.2944152913e+01   3.0317338621e+01    0.3771058    0.2988716  40.72 0.0004392115    1.367    0.268
        49 -11.6096    173.9916     60.4698   8.1515028894e+01   3.4037069491e+01    0.6242637    0.5596756 -15.90  0.002497704    1.258    0.205
        50 -11.3136    163.2651     52.8562   8.1390702528e+01   3.7866701661e+01     1.841222     0.988152 -86.29  0.005126534    5.428    0.816
        51 -10.6971    159.3548     47.1515   8.0470569940e+01   3.9660112259e+01     1.274945    0.4753166  61.13  0.004507454    2.697    0.629
        52 -10.3807    156.9705     78.2991   9.0141663065e+01   3.5200618798e+01    0.3574184    0.2807555 -25.51 0.0006108492    1.396    0.284
        53  -7.7043    213.4708     67.9804   7.6763171813e+01   2.3041370531e+01    0.2186172    0.1352056 -42.55 0.0007640194    1.555    0.357
        54  -9.5351    206.9785     65.7916   7.7223615076e+01   2.4980092156e+01    0.7588344    0.3856156 -72.97  0.002329411    4.202    0.762
        55  -9.0060    209.4100     63.0504   7.6145246049e+01   2.4819553024e+01    0.4661391    0.2495224 -59.60  0.001556234    2.270    0.559
        56  -8.6810    187.9824     69.9709   8.1548260078e+01   2.9005760326e+01    0.2129768    0.2061855  84.95            0    1.040    0.039
        57 -10.9285    226.9111     47.5108   6.9884761451e+01   2.2932739568e+01    0.7558211    0.5288966 -53.92  0.003716278    1.339    0.253
        58  -8.6547    242.6476     67.5365   7.2535199966e+01   1.6257918793e+01    0.2834229    0.2061689 -70.47  0.000713811    1.386    0.279
        59  -9.5098    191.6826     63.2885   7.9094802350e+01   2.9172228966e+01    0.3428012    0.2418031  37.42 0.0006687045    1.696    0.410
        60 -10.1607    197.3872     59.3423   7.7090827278e+01   2.8371240457e+01    0.4054254    0.3469016  49.27  0.001647584    1.240    0.194
        61  -9.7843    243.4507     57.8553   7.0230526201e+01   1.7568568695e+01    0.3302339    0.2142743 -46.70  0.000451676    1.393    0.282
        62  -9.4478    203.5355     56.4826   7.5370695242e+01   2.7284583653e+01    0.5785163    0.2875693 -66.89  0.001966454    3.402    0.706
        63  -8.7589    128.5376     56.7760   9.0294141430e+01   4.5474231090e+01    0.3380876    0.2438458  79.19 0.0004217381    1.957    0.489
        64  -7.7604    247.7858     53.3799   6.8714759689e+01   1.7262036820e+01    0.1766081    0.1177247  57.25 0.0005354435    1.635    0.388
        65  -9.7201    225.0036     28.2200   6.5594687882e+01   2.6001715489e+01    0.3735396    0.2520236 -30.26 0.0006633266    1.689    0.408
        66  -7.4783    197.4441     43.9749   7.3046719642e+01   3.0622365357e+01    0.1938165    0.1036942 -57.67  0.000408075    2.190    0.543
        67  -9.8676    235.4717     38.2135   6.6713567189e+01   2.2226754578e+01    0.4047746    0.3004773 -34.78 0.0004821664    1.458    0.314
        68  -8.0151    185.0302     43.4836   7.4842961332e+01   3.3790200040e+01    0.2096402    0.1312576  61.46 4.339062e-05    1.482    0.325
        69  -8.6157     30.2989    229.4343   1.4693749365e+02   2.3838643004e+01    0.1804814    0.1332714  85.69 0.0003345979    1.104    0.094
        70 -11.9446    137.2206     39.7341   8.2775093591e+01   4.5980160960e+01     1.182459     0.560784  70.03  0.004265198    3.172    0.685
        71 -12.1640      7.8333    207.8150   1.4928133207e+02   3.0512873382e+01    0.8036671    0.5481036  86.48  0.003896111    1.055    0.052
        72  -7.4002     50.2658    207.3127   1.4151051197e+02   2.5917589608e+01    0.1073327   0.08699904 -58.65 0.0001964758    1.543    0.352
        73 -10.8600    123.0934     20.9673   7.9676531722e+01   5.1447895365e+01    0.4208859    0.3010088  38.78  0.001585239    1.282    0.220
        74  -7.2775    204.6473     38.9260   7.0714660703e+01   2.9530273235e+01    0.2361951   0.07476034 -51.40 0.0007010848    4.253    0.765
        75  -8.2690    125.2809     41.3642   8.6060743493e+01   4.8476016705e+01    0.1443232    0.1018229  16.94  0.000701461    1.680    0.405
        76  -9.7185    102.7886     40.4395   9.1580943689e+01   5.3338904752e+01    0.2746156    0.2308506  59.07  0.001147174    1.389    0.280
        77  -9.9485    150.2992     29.0729   7.6734614158e+01   4.4219651843e+01    0.3740067     0.257702  10.33  0.001657772    1.936    0.483
        78  -9.4829    111.8185     29.7648   8.5409937336e+01   5.2887475631e+01    0.2434561    0.1481294  47.55 0.0009526475    1.497    0.332
        79 -10.0515    175.1078    202.9383   1.1531093431e+02   5.8031214642e+00    0.2320135    0.2164423 -61.48 0.0003349769    1.188    0.158
        80 -12.2192     39.9178    183.2800   1.4113706121e+02   3.2375458971e+01    0.6630363    0.5774933 -85.30  0.001547763    1.190    0.160
        81 -11.8660     50.6958    174.3282   1.3782987965e+02   3.3112477639e+01    0.9332587    0.7095232 -82.30  0.003582594    1.093    0.085
        82 -10.6350    248.2402     25.0211   6.2516155630e+01   2.1062673497e+01    0.3405856    0.2016505 -63.24 0.0001924752    1.562    0.360
        83  -7.3043    175.7381    188.2647   1.1245352485e+02   8.4700320086e+00    0.1343407    0.1113616  79.47 0.0001733964    1.453    0.312
        84  -8.0962    187.8253     26.0087   6.9706486528e+01   3.5342073691e+01    0.2412496    0.1411321 -41.11 0.0009812366    1.766    0.434
        85  -9.2155    231.6140     24.7174   6.4086675668e+01   2.4890403044e+01    0.4645265    0.2587031 -81.84  0.001944126    1.963    0.491
        86  -9.9032     20.5010    187.4998   1.4542445817e+02   3.3524080178e+01    0.1991284     0.150651  86.97  0.001397059    1.022    0.021
        87  -8.3105    158.6756     22.2961   7.3178461274e+01   4.2963862356e+01    0.1370126    0.1002731 -75.00 0.0002820163    1.624    0.384
        88  -8.0988      3.9832    155.0296   1.4586149156e+02   4.2061350933e+01       0.1377    0.1025275 -83.23 0.0003608135    1.010    0.010
        89  -7.7065      5.6869    149.2762   1.4493400138e+02   4.3200331645e+01    0.1139319   0.07121623  74.72 0.0001913074    1.562    0.360
        90  -9.1051    167.5067     14.3730   6.9465134604e+01   4.1646624001e+01    0.2732387    0.1528302  68.93  0.001044337    1.610    0.379
        91  -7.2134    219.3139     11.6348   6.2381550738e+01   2.9331281377e+01    0.1421117   0.08163053 -66.13 0.0007039408    1.765    0.433
        92  -8.9460    121.0742    148.0505   1.1676564446e+02   2.8195995099e+01    0.2165616    0.2024118 -88.22   0.00117664    1.022    0.022
